Data from 1971.PennyLincolnUp.Lamp.En5.5.200Scan.071719.P1._HRD10591_15-19-34-841.txt Node
Date: Thu Jul 18 15:19:34 EDT 2019
User: cochatt
Spectrometer: HR+D1059
Trigger mode: 1
Integration Time (sec): 1.000000E-1
Scans to average: 1
Electric dark correction enabled: true
Nonlinearity correction enabled: false
Boxcar width: 0
XAxis mode: Wavelengths
Number of Pixels in Spectrum: 2048
>>>>>Begin Spectral Data<<<<<
223.165	0.56
223.4	0.56
223.635	0.56
223.869	-22.44
224.104	-18.44
224.338	-10.44
224.573	-11.44
224.808	-10.44
225.042	-15.44
225.277	-15.44
225.511	-4.44
225.746	-3.44
225.98	10.56
226.215	19.56
226.449	9.56
226.683	14.56
226.918	21.56
227.152	35.56
227.387	36.56
227.621	28.56
227.856	52.56
228.09	49.56
228.324	41.56
228.559	60.56
228.793	63.56
229.027	89.56
229.262	95.56
229.496	106.56
229.73	124.56
229.964	135.56
230.199	133.56
230.433	115.56
230.667	106.56
230.901	95.56
231.136	106.56
231.37	111.56
231.604	92.56
231.838	107.56
232.072	102.56
232.306	102.56
232.541	115.56
232.775	113.56
233.009	113.56
233.243	124.56
233.477	115.56
233.711	99.56
233.945	113.56
234.179	107.56
234.413	107.56
234.647	104.56
234.881	124.56
235.115	105.56
235.349	111.56
235.583	120.56
235.817	107.56
236.051	123.56
236.285	115.56
236.519	127.56
236.753	121.56
236.987	131.56
237.221	173.56
237.455	203.56
237.689	179.56
237.922	135.56
238.156	134.56
238.39	123.56
238.624	127.56
238.858	121.56
239.091	121.56
239.325	128.56
239.559	115.56
239.793	106.56
240.027	121.56
240.26	117.56
240.494	145.56
240.728	151.56
240.961	145.56
241.195	137.56
241.429	125.56
241.662	139.56
241.896	139.56
242.13	137.56
242.363	132.56
242.597	122.56
242.83	139.56
243.064	147.56
243.298	139.56
243.531	136.56
243.765	143.56
243.998	149.56
244.232	145.56
244.465	138.56
244.699	149.56
244.932	132.56
245.166	145.56
245.399	152.56
245.633	131.56
245.866	155.56
246.099	141.56
246.333	140.56
246.566	141.56
246.8	159.56
247.033	152.56
247.266	154.56
247.5	177.56
247.733	165.56
247.966	169.56
248.2	174.56
248.433	167.56
248.666	172.56
248.899	187.56
249.133	189.56
249.366	209.56
249.599	200.56
249.832	199.56
250.066	169.56
250.299	180.56
250.532	191.56
250.765	211.56
250.998	211.56
251.231	227.56
251.465	210.56
251.698	205.56
251.931	205.56
252.164	186.56
252.397	193.56
252.63	209.56
252.863	211.56
253.096	234.56
253.329	226.56
253.562	235.56
253.795	223.56
254.028	214.56
254.261	219.56
254.494	228.56
254.727	259.56
254.96	278.56
255.193	271.56
255.426	262.56
255.659	243.56
255.892	218.56
256.124	245.56
256.357	244.56
256.59	220.56
256.823	232.56
257.056	218.56
257.289	219.56
257.521	202.56
257.754	210.56
257.987	213.56
258.22	215.56
258.452	215.56
258.685	214.56
258.918	201.56
259.151	211.56
259.383	239.56
259.616	239.56
259.849	222.56
260.081	255.56
260.314	233.56
260.547	265.56
260.779	243.56
261.012	249.56
261.244	242.56
261.477	240.56
261.71	232.56
261.942	244.56
262.175	246.56
262.407	234.56
262.64	225.56
262.872	216.56
263.105	214.56
263.337	219.56
263.57	203.56
263.802	212.56
264.035	225.56
264.267	221.56
264.499	216.56
264.732	199.56
264.964	201.56
265.197	206.56
265.429	219.56
265.661	229.56
265.894	229.56
266.126	220.56
266.358	233.56
266.591	225.56
266.823	219.56
267.055	234.56
267.287	240.56
267.52	244.56
267.752	240.56
267.984	234.56
268.216	247.56
268.448	243.56
268.681	256.56
268.913	255.56
269.145	284.56
269.377	275.56
269.609	274.56
269.841	282.56
270.073	289.56
270.306	313.56
270.538	322.56
270.77	332.56
271.002	310.56
271.234	306.56
271.466	316.56
271.698	312.56
271.93	316.56
272.162	314.56
272.394	326.56
272.626	314.56
272.858	314.56
273.09	293.56
273.322	283.56
273.553	275.56
273.785	275.56
274.017	283.56
274.249	279.56
274.481	274.56
274.713	277.56
274.945	283.56
275.176	275.56
275.408	254.56
275.64	262.56
275.872	283.56
276.104	287.56
276.335	271.56
276.567	261.56
276.799	286.56
277.031	307.56
277.262	316.56
277.494	334.56
277.726	301.56
277.957	279.56
278.189	286.56
278.421	267.56
278.652	282.56
278.884	285.56
279.115	282.56
279.347	279.56
279.579	285.56
279.81	280.56
280.042	270.56
280.273	272.56
280.505	277.56
280.736	285.56
280.968	280.56
281.199	293.56
281.431	273.56
281.662	278.56
281.894	269.56
282.125	275.56
282.356	270.56
282.588	296.56
282.819	311.56
283.051	284.56
283.282	275.56
283.513	288.56
283.745	284.56
283.976	284.56
284.207	290.56
284.439	281.56
284.67	297.56
284.901	278.56
285.132	284.56
285.364	292.56
285.595	282.56
285.826	293.56
286.057	289.56
286.288	306.56
286.52	295.56
286.751	291.56
286.982	295.56
287.213	296.56
287.444	288.56
287.675	290.56
287.906	306.56
288.138	310.56
288.369	315.56
288.6	306.56
288.831	315.56
289.062	299.56
289.293	310.56
289.524	308.56
289.755	283.56
289.986	293.56
290.217	296.56
290.448	291.56
290.679	290.56
290.91	290.56
291.141	305.56
291.371	315.56
291.602	310.56
291.833	279.56
292.064	320.56
292.295	287.56
292.526	307.56
292.757	307.56
292.987	297.56
293.218	301.56
293.449	312.56
293.68	275.56
293.91	289.56
294.141	295.56
294.372	309.56
294.603	318.56
294.833	321.56
295.064	311.56
295.295	307.56
295.525	315.56
295.756	304.56
295.987	319.56
296.217	323.56
296.448	332.56
296.679	307.56
296.909	307.56
297.14	291.56
297.37	315.56
297.601	320.56
297.831	319.56
298.062	303.56
298.292	296.56
298.523	325.56
298.753	303.56
298.984	316.56
299.214	309.56
299.445	316.56
299.675	297.56
299.905	304.56
300.136	322.56
300.366	312.56
300.597	336.56
300.827	331.56
301.057	321.56
301.288	337.56
301.518	360.56
301.748	327.56
301.979	320.56
302.209	328.56
302.439	342.56
302.669	324.56
302.9	343.56
303.13	333.56
303.36	323.56
303.59	331.56
303.82	339.56
304.051	343.56
304.281	327.56
304.511	323.56
304.741	352.56
304.971	337.56
305.201	346.56
305.431	325.56
305.661	318.56
305.891	341.56
306.121	340.56
306.352	359.56
306.582	341.56
306.812	336.56
307.042	340.56
307.272	348.56
307.502	345.56
307.731	337.56
307.961	339.56
308.191	341.56
308.421	336.56
308.651	338.56
308.881	321.56
309.111	356.56
309.341	362.56
309.571	367.56
309.8	359.56
310.03	371.56
310.26	383.56
310.49	378.56
310.72	384.56
310.949	405.56
311.179	408.56
311.409	387.56
311.639	377.56
311.868	378.56
312.098	376.56
312.328	386.56
312.557	403.56
312.787	420.56
313.017	393.56
313.246	382.56
313.476	380.56
313.706	371.56
313.935	385.56
314.165	380.56
314.394	407.56
314.624	404.56
314.853	399.56
315.083	386.56
315.312	390.56
315.542	380.56
315.771	363.56
316.001	385.56
316.23	385.56
316.46	394.56
316.689	385.56
316.919	393.56
317.148	383.56
317.377	391.56
317.607	390.56
317.836	380.56
318.065	404.56
318.295	383.56
318.524	372.56
318.753	374.56
318.983	395.56
319.212	380.56
319.441	386.56
319.67	396.56
319.9	386.56
320.129	372.56
320.358	388.56
320.587	393.56
320.816	400.56
321.046	392.56
321.275	390.56
321.504	394.56
321.733	437.56
321.962	405.56
322.191	421.56
322.42	444.56
322.649	443.56
322.878	450.56
323.108	468.56
323.337	476.56
323.566	499.56
323.795	525.56
324.024	589.56
324.253	693.56
324.482	972.56
324.71	1443.56
324.939	1984.56
325.168	1682.56
325.397	883.56
325.626	614.56
325.855	537.56
326.084	513.56
326.313	487.56
326.542	516.56
326.77	539.56
326.999	667.56
327.228	860.56
327.457	1248.56
327.686	1429.56
327.914	988.56
328.143	661.56
328.372	579.56
328.6	557.56
328.829	548.56
329.058	564.56
329.287	568.56
329.515	553.56
329.744	513.56
329.972	524.56
330.201	502.56
330.43	528.56
330.658	575.56
330.887	580.56
331.115	577.56
331.344	497.56
331.572	490.56
331.801	468.56
332.03	486.56
332.258	468.56
332.486	460.56
332.715	463.56
332.943	435.56
333.172	445.56
333.4	446.56
333.629	462.56
333.857	468.56
334.085	477.56
334.314	489.56
334.542	514.56
334.771	503.56
334.999	475.56
335.227	483.56
335.455	465.56
335.684	421.56
335.912	469.56
336.14	411.56
336.369	440.56
336.597	433.56
336.825	441.56
337.053	434.56
337.281	431.56
337.51	422.56
337.738	419.56
337.966	422.56
338.194	424.56
338.422	430.56
338.65	442.56
338.878	431.56
339.106	427.56
339.334	422.56
339.562	416.56
339.79	402.56
340.018	423.56
340.246	420.56
340.474	434.56
340.702	435.56
340.93	417.56
341.158	408.56
341.386	424.56
341.614	411.56
341.842	420.56
342.07	417.56
342.298	426.56
342.526	409.56
342.754	401.56
342.981	405.56
343.209	406.56
343.437	425.56
343.665	410.56
343.893	409.56
344.12	419.56
344.348	441.56
344.576	433.56
344.804	419.56
345.031	413.56
345.259	441.56
345.487	432.56
345.714	388.56
345.942	411.56
346.17	425.56
346.397	416.56
346.625	388.56
346.853	411.56
347.08	403.56
347.308	405.56
347.535	410.56
347.763	409.56
347.99	401.56
348.218	400.56
348.445	422.56
348.673	414.56
348.9	419.56
349.128	389.56
349.355	392.56
349.583	386.56
349.81	372.56
350.037	397.56
350.265	389.56
350.492	400.56
350.72	368.56
350.947	396.56
351.174	394.56
351.402	398.56
351.629	401.56
351.856	389.56
352.083	404.56
352.311	412.56
352.538	396.56
352.765	408.56
352.992	406.56
353.22	390.56
353.447	391.56
353.674	382.56
353.901	406.56
354.128	380.56
354.355	379.56
354.583	393.56
354.81	367.56
355.037	377.56
355.264	351.56
355.491	368.56
355.718	367.56
355.945	352.56
356.172	367.56
356.399	375.56
356.626	380.56
356.853	362.56
357.08	377.56
357.307	363.56
357.534	365.56
357.761	380.56
357.988	372.56
358.215	374.56
358.441	381.56
358.668	360.56
358.895	383.56
359.122	364.56
359.349	369.56
359.576	402.56
359.802	414.56
360.029	418.56
360.256	432.56
360.483	426.56
360.709	377.56
360.936	383.56
361.163	387.56
361.39	394.56
361.616	371.56
361.843	379.56
362.07	383.56
362.296	378.56
362.523	366.56
362.749	370.56
362.976	388.56
363.203	385.56
363.429	390.56
363.656	383.56
363.882	357.56
364.109	371.56
364.335	363.56
364.562	387.56
364.788	372.56
365.015	356.56
365.241	351.56
365.468	369.56
365.694	391.56
365.92	383.56
366.147	392.56
366.373	362.56
366.599	373.56
366.826	352.56
367.052	357.56
367.278	371.56
367.505	350.56
367.731	373.56
367.957	375.56
368.184	368.56
368.41	368.56
368.636	391.56
368.862	370.56
369.089	363.56
369.315	361.56
369.541	373.56
369.767	359.56
369.993	360.56
370.219	375.56
370.445	343.56
370.672	359.56
370.898	362.56
371.124	364.56
371.35	356.56
371.576	377.56
371.802	372.56
372.028	373.56
372.254	364.56
372.48	367.56
372.706	373.56
372.932	363.56
373.158	354.56
373.384	363.56
373.61	380.56
373.835	371.56
374.061	359.56
374.287	364.56
374.513	375.56
374.739	368.56
374.965	373.56
375.191	356.56
375.416	371.56
375.642	353.56
375.868	367.56
376.094	361.56
376.319	346.56
376.545	357.56
376.771	354.56
376.997	342.56
377.222	359.56
377.448	355.56
377.674	339.56
377.899	338.56
378.125	341.56
378.35	362.56
378.576	363.56
378.802	368.56
379.027	329.56
379.253	353.56
379.478	334.56
379.704	357.56
379.929	362.56
380.155	352.56
380.38	353.56
380.606	363.56
380.831	372.56
381.057	361.56
381.282	351.56
381.507	346.56
381.733	368.56
381.958	355.56
382.184	337.56
382.409	367.56
382.634	371.56
382.86	370.56
383.085	365.56
383.31	362.56
383.535	339.56
383.761	361.56
383.986	362.56
384.211	361.56
384.436	370.56
384.662	359.56
384.887	362.56
385.112	359.56
385.337	385.56
385.562	373.56
385.787	362.56
386.013	375.56
386.238	393.56
386.463	368.56
386.688	375.56
386.913	385.56
387.138	359.56
387.363	373.56
387.588	373.56
387.813	384.56
388.038	371.56
388.263	378.56
388.488	363.56
388.713	374.56
388.938	363.56
389.163	383.56
389.387	379.56
389.612	371.56
389.837	383.56
390.062	375.56
390.287	371.56
390.512	352.56
390.736	383.56
390.961	370.56
391.186	358.56
391.411	385.56
391.636	371.56
391.86	359.56
392.085	385.56
392.31	377.56
392.534	379.56
392.759	399.56
392.984	388.56
393.208	380.56
393.433	372.56
393.658	339.56
393.882	368.56
394.107	380.56
394.331	387.56
394.556	384.56
394.78	380.56
395.005	383.56
395.229	389.56
395.454	371.56
395.678	389.56
395.903	401.56
396.127	415.56
396.352	406.56
396.576	386.56
396.801	402.56
397.025	377.56
397.249	388.56
397.474	373.56
397.698	393.56
397.922	397.56
398.147	426.56
398.371	429.56
398.595	408.56
398.82	401.56
399.044	399.56
399.268	443.56
399.492	442.56
399.717	460.56
399.941	480.56
400.165	504.56
400.389	520.56
400.613	466.56
400.837	448.56
401.062	426.56
401.286	414.56
401.51	428.56
401.734	406.56
401.958	392.56
402.182	412.56
402.406	418.56
402.63	393.56
402.854	431.56
403.078	409.56
403.302	420.56
403.526	433.56
403.75	453.56
403.974	424.56
404.198	400.56
404.422	439.56
404.645	419.56
404.869	450.56
405.093	444.56
405.317	500.56
405.541	528.56
405.765	479.56
405.988	451.56
406.212	459.56
406.436	483.56
406.66	499.56
406.883	467.56
407.107	476.56
407.331	518.56
407.555	572.56
407.778	547.56
408.002	511.56
408.226	476.56
408.449	448.56
408.673	461.56
408.896	502.56
409.12	502.56
409.344	486.56
409.567	428.56
409.791	420.56
410.014	426.56
410.238	438.56
410.461	405.56
410.685	414.56
410.908	458.56
411.132	462.56
411.355	496.56
411.578	455.56
411.802	445.56
412.025	444.56
412.249	450.56
412.472	459.56
412.695	470.56
412.919	484.56
413.142	437.56
413.365	419.56
413.589	418.56
413.812	441.56
414.035	401.56
414.258	408.56
414.482	396.56
414.705	389.56
414.928	377.56
415.151	396.56
415.374	400.56
415.597	395.56
415.821	407.56
416.044	403.56
416.267	396.56
416.49	403.56
416.713	381.56
416.936	407.56
417.159	408.56
417.382	418.56
417.605	399.56
417.828	410.56
418.051	420.56
418.274	408.56
418.497	397.56
418.72	399.56
418.943	400.56
419.166	412.56
419.389	414.56
419.611	439.56
419.834	435.56
420.057	431.56
420.28	429.56
420.503	425.56
420.726	429.56
420.948	450.56
421.171	453.56
421.394	471.56
421.617	448.56
421.839	434.56
422.062	430.56
422.285	436.56
422.507	487.56
422.73	539.56
422.953	530.56
423.175	466.56
423.398	440.56
423.621	445.56
423.843	450.56
424.066	472.56
424.288	464.56
424.511	474.56
424.733	491.56
424.956	581.56
425.178	566.56
425.401	536.56
425.623	558.56
425.846	499.56
426.068	465.56
426.291	454.56
426.513	459.56
426.735	437.56
426.958	487.56
427.18	571.56
427.402	681.56
427.625	765.56
427.847	616.56
428.069	548.56
428.292	499.56
428.514	454.56
428.736	416.56
428.958	429.56
429.181	423.56
429.403	419.56
429.625	447.56
429.847	443.56
430.069	524.56
430.292	499.56
430.514	435.56
430.736	427.56
430.958	405.56
431.18	390.56
431.402	397.56
431.624	390.56
431.846	385.56
432.068	379.56
432.29	391.56
432.512	405.56
432.734	411.56
432.956	388.56
433.178	424.56
433.4	411.56
433.622	389.56
433.844	380.56
434.066	383.56
434.287	406.56
434.509	407.56
434.731	390.56
434.953	411.56
435.175	423.56
435.397	461.56
435.618	466.56
435.84	505.56
436.062	551.56
436.284	620.56
436.505	519.56
436.727	459.56
436.949	449.56
437.17	421.56
437.392	419.56
437.614	434.56
437.835	461.56
438.057	523.56
438.278	596.56
438.5	630.56
438.721	663.56
438.943	646.56
439.165	512.56
439.386	475.56
439.608	467.56
439.829	467.56
440.05	494.56
440.272	535.56
440.493	498.56
440.715	451.56
440.936	435.56
441.158	411.56
441.379	420.56
441.6	438.56
441.822	449.56
442.043	500.56
442.264	541.56
442.486	556.56
442.707	487.56
442.928	471.56
443.149	461.56
443.371	485.56
443.592	518.56
443.813	609.56
444.034	651.56
444.255	535.56
444.476	463.56
444.698	473.56
444.919	455.56
445.14	581.56
445.361	517.56
445.582	476.56
445.803	565.56
446.024	626.56
446.245	632.56
446.466	580.56
446.687	483.56
446.908	456.56
447.129	441.56
447.35	443.56
447.571	422.56
447.792	415.56
448.013	417.56
448.234	459.56
448.455	482.56
448.675	549.56
448.896	667.56
449.117	558.56
449.338	541.56
449.559	623.56
449.779	674.56
450	559.56
450.221	459.56
450.442	409.56
450.662	412.56
450.883	431.56
451.104	413.56
451.324	407.56
451.545	384.56
451.766	391.56
451.986	343.56
452.207	368.56
452.428	360.56
452.648	375.56
452.869	369.56
453.089	376.56
453.31	391.56
453.53	368.56
453.751	379.56
453.971	385.56
454.192	385.56
454.412	357.56
454.633	353.56
454.853	372.56
455.073	359.56
455.294	401.56
455.514	464.56
455.734	441.56
455.955	376.56
456.175	367.56
456.395	338.56
456.616	354.56
456.836	363.56
457.056	341.56
457.276	337.56
457.497	346.56
457.717	351.56
457.937	344.56
458.157	359.56
458.377	391.56
458.598	380.56
458.818	424.56
459.038	465.56
459.258	475.56
459.478	422.56
459.698	389.56
459.918	387.56
460.138	380.56
460.358	399.56
460.578	389.56
460.798	387.56
461.018	402.56
461.238	397.56
461.458	367.56
461.678	391.56
461.898	371.56
462.118	381.56
462.338	395.56
462.558	400.56
462.777	389.56
462.997	396.56
463.217	413.56
463.437	419.56
463.657	387.56
463.876	409.56
464.096	407.56
464.316	408.56
464.536	423.56
464.755	443.56
464.975	415.56
465.195	452.56
465.414	469.56
465.634	435.56
465.854	412.56
466.073	390.56
466.293	421.56
466.512	358.56
466.732	379.56
466.951	373.56
467.171	383.56
467.391	376.56
467.61	395.56
467.829	389.56
468.049	373.56
468.268	374.56
468.488	360.56
468.707	387.56
468.927	367.56
469.146	375.56
469.365	363.56
469.585	361.56
469.804	379.56
470.023	377.56
470.243	370.56
470.462	386.56
470.681	393.56
470.901	390.56
471.12	377.56
471.339	380.56
471.558	392.56
471.777	387.56
471.997	361.56
472.216	403.56
472.435	400.56
472.654	375.56
472.873	373.56
473.092	373.56
473.311	389.56
473.53	379.56
473.749	368.56
473.968	437.56
474.187	520.56
474.406	517.56
474.625	451.56
474.844	395.56
475.063	373.56
475.282	389.56
475.501	390.56
475.72	390.56
475.939	394.56
476.158	383.56
476.377	355.56
476.596	373.56
476.814	379.56
477.033	399.56
477.252	407.56
477.471	409.56
477.69	408.56
477.908	413.56
478.127	406.56
478.346	411.56
478.564	429.56
478.783	425.56
479.002	417.56
479.22	445.56
479.439	442.56
479.658	440.56
479.876	461.56
480.095	463.56
480.313	455.56
480.532	442.56
480.751	466.56
480.969	482.56
481.188	475.56
481.406	520.56
481.624	468.56
481.843	451.56
482.061	463.56
482.28	459.56
482.498	428.56
482.717	441.56
482.935	430.56
483.153	433.56
483.372	442.56
483.59	467.56
483.808	453.56
484.027	436.56
484.245	433.56
484.463	431.56
484.681	443.56
484.9	453.56
485.118	468.56
485.336	427.56
485.554	439.56
485.772	464.56
485.99	450.56
486.209	460.56
486.427	449.56
486.645	473.56
486.863	470.56
487.081	475.56
487.299	468.56
487.517	467.56
487.735	480.56
487.953	480.56
488.171	478.56
488.389	464.56
488.607	467.56
488.825	470.56
489.043	479.56
489.261	483.56
489.479	503.56
489.696	480.56
489.914	489.56
490.132	495.56
490.35	501.56
490.568	504.56
490.786	520.56
491.003	520.56
491.221	547.56
491.439	527.56
491.657	540.56
491.874	539.56
492.092	547.56
492.31	595.56
492.527	548.56
492.745	543.56
492.963	573.56
493.18	557.56
493.398	547.56
493.615	586.56
493.833	579.56
494.05	557.56
494.268	560.56
494.485	568.56
494.703	569.56
494.92	585.56
495.138	561.56
495.355	564.56
495.573	577.56
495.79	594.56
496.008	563.56
496.225	563.56
496.442	544.56
496.66	555.56
496.877	572.56
497.094	565.56
497.312	588.56
497.529	579.56
497.746	568.56
497.963	588.56
498.181	600.56
498.398	592.56
498.615	618.56
498.832	637.56
499.049	612.56
499.267	633.56
499.484	644.56
499.701	647.56
499.918	697.56
500.135	708.56
500.352	746.56
500.569	740.56
500.786	745.56
501.003	759.56
501.22	736.56
501.437	709.56
501.654	691.56
501.871	692.56
502.088	651.56
