Data from 1971.PennyLincolnUp.Lamp.En5.5.200Scan.071719.P1._HRD10591_15-20-43-841.txt Node
Date: Thu Jul 18 15:20:43 EDT 2019
User: cochatt
Spectrometer: HR+D1059
Trigger mode: 1
Integration Time (sec): 1.000000E-1
Scans to average: 1
Electric dark correction enabled: true
Nonlinearity correction enabled: false
Boxcar width: 0
XAxis mode: Wavelengths
Number of Pixels in Spectrum: 2048
>>>>>Begin Spectral Data<<<<<
223.165	-13.88
223.4	-13.88
223.635	-13.88
223.869	-11.88
224.104	-25.88
224.338	-18.88
224.573	-5.88
224.808	-2.88
225.042	-4.88
225.277	-2.88
225.511	-19.88
225.746	-0.88
225.98	10.12
226.215	12.12
226.449	3.12
226.683	34.12
226.918	13.12
227.152	35.12
227.387	25.12
227.621	40.12
227.856	49.12
228.09	32.12
228.324	35.12
228.559	49.12
228.793	61.12
229.027	86.12
229.262	97.12
229.496	112.12
229.73	114.12
229.964	136.12
230.199	111.12
230.433	119.12
230.667	113.12
230.901	95.12
231.136	99.12
231.37	102.12
231.604	104.12
231.838	111.12
232.072	90.12
232.306	95.12
232.541	106.12
232.775	111.12
233.009	110.12
233.243	107.12
233.477	101.12
233.711	111.12
233.945	95.12
234.179	113.12
234.413	104.12
234.647	96.12
234.881	117.12
235.115	102.12
235.349	120.12
235.583	113.12
235.817	116.12
236.051	120.12
236.285	119.12
236.519	123.12
236.753	123.12
236.987	135.12
237.221	177.12
237.455	227.12
237.689	179.12
237.922	137.12
238.156	135.12
238.39	123.12
238.624	118.12
238.858	116.12
239.091	125.12
239.325	144.12
239.559	117.12
239.793	123.12
240.027	134.12
240.26	139.12
240.494	140.12
240.728	143.12
240.961	152.12
241.195	126.12
241.429	147.12
241.662	136.12
241.896	128.12
242.13	126.12
242.363	126.12
242.597	143.12
242.83	127.12
243.064	112.12
243.298	136.12
243.531	128.12
243.765	136.12
243.998	147.12
244.232	127.12
244.465	137.12
244.699	136.12
244.932	125.12
245.166	144.12
245.399	138.12
245.633	158.12
245.866	148.12
246.099	152.12
246.333	148.12
246.566	152.12
246.8	161.12
247.033	133.12
247.266	148.12
247.5	163.12
247.733	167.12
247.966	180.12
248.2	171.12
248.433	174.12
248.666	169.12
248.899	183.12
249.133	183.12
249.366	191.12
249.599	199.12
249.832	179.12
250.066	178.12
250.299	182.12
250.532	209.12
250.765	211.12
250.998	221.12
251.231	238.12
251.465	215.12
251.698	216.12
251.931	198.12
252.164	212.12
252.397	197.12
252.63	211.12
252.863	202.12
253.096	208.12
253.329	227.12
253.562	239.12
253.795	233.12
254.028	234.12
254.261	214.12
254.494	237.12
254.727	251.12
254.96	286.12
255.193	280.12
255.426	263.12
255.659	228.12
255.892	238.12
256.124	242.12
256.357	236.12
256.59	230.12
256.823	219.12
257.056	227.12
257.289	203.12
257.521	210.12
257.754	196.12
257.987	193.12
258.22	217.12
258.452	206.12
258.685	208.12
258.918	215.12
259.151	206.12
259.383	221.12
259.616	220.12
259.849	241.12
260.081	245.12
260.314	260.12
260.547	269.12
260.779	280.12
261.012	228.12
261.244	235.12
261.477	238.12
261.71	230.12
261.942	225.12
262.175	242.12
262.407	224.12
262.64	220.12
262.872	229.12
263.105	207.12
263.337	222.12
263.57	217.12
263.802	205.12
264.035	232.12
264.267	222.12
264.499	216.12
264.732	228.12
264.964	218.12
265.197	209.12
265.429	206.12
265.661	193.12
265.894	217.12
266.126	210.12
266.358	214.12
266.591	220.12
266.823	223.12
267.055	221.12
267.287	232.12
267.52	239.12
267.752	239.12
267.984	238.12
268.216	239.12
268.448	247.12
268.681	252.12
268.913	267.12
269.145	278.12
269.377	288.12
269.609	280.12
269.841	273.12
270.073	274.12
270.306	293.12
270.538	312.12
270.77	331.12
271.002	303.12
271.234	307.12
271.466	319.12
271.698	337.12
271.93	319.12
272.162	335.12
272.394	325.12
272.626	310.12
272.858	309.12
273.09	306.12
273.322	273.12
273.553	278.12
273.785	281.12
274.017	273.12
274.249	260.12
274.481	277.12
274.713	280.12
274.945	259.12
275.176	259.12
275.408	279.12
275.64	264.12
275.872	294.12
276.104	269.12
276.335	271.12
276.567	290.12
276.799	280.12
277.031	294.12
277.262	328.12
277.494	339.12
277.726	314.12
277.957	293.12
278.189	306.12
278.421	279.12
278.652	272.12
278.884	277.12
279.115	276.12
279.347	273.12
279.579	266.12
279.81	273.12
280.042	270.12
280.273	283.12
280.505	285.12
280.736	270.12
280.968	283.12
281.199	260.12
281.431	281.12
281.662	288.12
281.894	272.12
282.125	270.12
282.356	295.12
282.588	308.12
282.819	314.12
283.051	301.12
283.282	264.12
283.513	282.12
283.745	291.12
283.976	308.12
284.207	320.12
284.439	291.12
284.67	296.12
284.901	295.12
285.132	279.12
285.364	285.12
285.595	285.12
285.826	295.12
286.057	283.12
286.288	290.12
286.52	303.12
286.751	299.12
286.982	293.12
287.213	294.12
287.444	295.12
287.675	307.12
287.906	308.12
288.138	311.12
288.369	313.12
288.6	297.12
288.831	285.12
289.062	292.12
289.293	294.12
289.524	307.12
289.755	283.12
289.986	316.12
290.217	271.12
290.448	283.12
290.679	278.12
290.91	295.12
291.141	276.12
291.371	300.12
291.602	300.12
291.833	295.12
292.064	291.12
292.295	304.12
292.526	278.12
292.757	298.12
292.987	292.12
293.218	284.12
293.449	295.12
293.68	309.12
293.91	315.12
294.141	299.12
294.372	313.12
294.603	296.12
294.833	279.12
295.064	306.12
295.295	300.12
295.525	307.12
295.756	301.12
295.987	308.12
296.217	322.12
296.448	299.12
296.679	325.12
296.909	297.12
297.14	304.12
297.37	307.12
297.601	300.12
297.831	315.12
298.062	315.12
298.292	309.12
298.523	318.12
298.753	303.12
298.984	308.12
299.214	295.12
299.445	319.12
299.675	318.12
299.905	308.12
300.136	313.12
300.366	320.12
300.597	315.12
300.827	320.12
301.057	332.12
301.288	318.12
301.518	317.12
301.748	324.12
301.979	332.12
302.209	326.12
302.439	333.12
302.669	333.12
302.9	339.12
303.13	330.12
303.36	336.12
303.59	305.12
303.82	350.12
304.051	352.12
304.281	335.12
304.511	336.12
304.741	319.12
304.971	333.12
305.201	336.12
305.431	333.12
305.661	348.12
305.891	351.12
306.121	337.12
306.352	342.12
306.582	361.12
306.812	339.12
307.042	356.12
307.272	353.12
307.502	321.12
307.731	352.12
307.961	338.12
308.191	331.12
308.421	309.12
308.651	341.12
308.881	350.12
309.111	360.12
309.341	360.12
309.571	340.12
309.8	367.12
310.03	359.12
310.26	394.12
310.49	388.12
310.72	379.12
310.949	375.12
311.179	385.12
311.409	382.12
311.639	392.12
311.868	393.12
312.098	374.12
312.328	389.12
312.557	404.12
312.787	430.12
313.017	398.12
313.246	370.12
313.476	358.12
313.706	379.12
313.935	386.12
314.165	411.12
314.394	421.12
314.624	390.12
314.853	385.12
315.083	398.12
315.312	401.12
315.542	372.12
315.771	370.12
316.001	385.12
316.23	384.12
316.46	399.12
316.689	384.12
316.919	403.12
317.148	397.12
317.377	419.12
317.607	389.12
317.836	389.12
318.065	392.12
318.295	388.12
318.524	379.12
318.753	382.12
318.983	387.12
319.212	396.12
319.441	371.12
319.67	398.12
319.9	393.12
320.129	400.12
320.358	387.12
320.587	393.12
320.816	406.12
321.046	407.12
321.275	414.12
321.504	403.12
321.733	408.12
321.962	413.12
322.191	437.12
322.42	436.12
322.649	429.12
322.878	459.12
323.108	463.12
323.337	463.12
323.566	511.12
323.795	538.12
324.024	596.12
324.253	712.12
324.482	996.12
324.71	1527.12
324.939	2063.12
325.168	1717.12
325.397	941.12
325.626	628.12
325.855	545.12
326.084	525.12
326.313	489.12
326.542	526.12
326.77	584.12
326.999	657.12
327.228	900.12
327.457	1339.12
327.686	1519.12
327.914	1019.12
328.143	681.12
328.372	612.12
328.6	582.12
328.829	564.12
329.058	563.12
329.287	587.12
329.515	525.12
329.744	518.12
329.972	521.12
330.201	532.12
330.43	568.12
330.658	580.12
330.887	604.12
331.115	574.12
331.344	497.12
331.572	503.12
331.801	471.12
332.03	502.12
332.258	461.12
332.486	456.12
332.715	449.12
332.943	433.12
333.172	434.12
333.4	483.12
333.629	465.12
333.857	476.12
334.085	456.12
334.314	473.12
334.542	522.12
334.771	540.12
334.999	485.12
335.227	471.12
335.455	458.12
335.684	451.12
335.912	447.12
336.14	441.12
336.369	413.12
336.597	459.12
336.825	442.12
337.053	455.12
337.281	413.12
337.51	442.12
337.738	437.12
337.966	419.12
338.194	449.12
338.422	444.12
338.65	419.12
338.878	433.12
339.106	420.12
339.334	421.12
339.562	407.12
339.79	424.12
340.018	414.12
340.246	413.12
340.474	440.12
340.702	429.12
340.93	430.12
341.158	419.12
341.386	425.12
341.614	416.12
341.842	432.12
342.07	419.12
342.298	420.12
342.526	400.12
342.754	415.12
342.981	413.12
343.209	410.12
343.437	409.12
343.665	412.12
343.893	440.12
344.12	429.12
344.348	427.12
344.576	424.12
344.804	439.12
345.031	447.12
345.259	449.12
345.487	431.12
345.714	404.12
345.942	414.12
346.17	395.12
346.397	393.12
346.625	397.12
346.853	409.12
347.08	400.12
347.308	390.12
347.535	399.12
347.763	406.12
347.99	403.12
348.218	408.12
348.445	419.12
348.673	428.12
348.9	409.12
349.128	407.12
349.355	380.12
349.583	391.12
349.81	388.12
350.037	387.12
350.265	387.12
350.492	384.12
350.72	408.12
350.947	382.12
351.174	385.12
351.402	411.12
351.629	423.12
351.856	396.12
352.083	402.12
352.311	425.12
352.538	390.12
352.765	405.12
352.992	398.12
353.22	409.12
353.447	394.12
353.674	389.12
353.901	375.12
354.128	377.12
354.355	376.12
354.583	359.12
354.81	373.12
355.037	363.12
355.264	372.12
355.491	389.12
355.718	380.12
355.945	349.12
356.172	362.12
356.399	373.12
356.626	356.12
356.853	367.12
357.08	367.12
357.307	360.12
357.534	353.12
357.761	368.12
357.988	379.12
358.215	357.12
358.441	358.12
358.668	381.12
358.895	393.12
359.122	364.12
359.349	381.12
359.576	386.12
359.802	403.12
360.029	448.12
360.256	444.12
360.483	397.12
360.709	412.12
360.936	382.12
361.163	375.12
361.39	383.12
361.616	401.12
361.843	373.12
362.07	377.12
362.296	387.12
362.523	400.12
362.749	407.12
362.976	414.12
363.203	357.12
363.429	363.12
363.656	358.12
363.882	362.12
364.109	379.12
364.335	370.12
364.562	375.12
364.788	379.12
365.015	373.12
365.241	377.12
365.468	376.12
365.694	372.12
365.92	374.12
366.147	375.12
366.373	370.12
366.599	351.12
366.826	369.12
367.052	339.12
367.278	374.12
367.505	364.12
367.731	345.12
367.957	379.12
368.184	366.12
368.41	375.12
368.636	389.12
368.862	394.12
369.089	373.12
369.315	367.12
369.541	343.12
369.767	373.12
369.993	361.12
370.219	371.12
370.445	371.12
370.672	356.12
370.898	363.12
371.124	346.12
371.35	354.12
371.576	360.12
371.802	342.12
372.028	356.12
372.254	359.12
372.48	378.12
372.706	349.12
372.932	370.12
373.158	355.12
373.384	369.12
373.61	365.12
373.835	367.12
374.061	363.12
374.287	347.12
374.513	374.12
374.739	379.12
374.965	347.12
375.191	373.12
375.416	358.12
375.642	369.12
375.868	361.12
376.094	369.12
376.319	368.12
376.545	361.12
376.771	352.12
376.997	337.12
377.222	332.12
377.448	343.12
377.674	352.12
377.899	342.12
378.125	352.12
378.35	373.12
378.576	353.12
378.802	339.12
379.027	344.12
379.253	359.12
379.478	345.12
379.704	346.12
379.929	352.12
380.155	354.12
380.38	353.12
380.606	360.12
380.831	355.12
381.057	353.12
381.282	351.12
381.507	368.12
381.733	347.12
381.958	352.12
382.184	365.12
382.409	366.12
382.634	360.12
382.86	363.12
383.085	355.12
383.31	364.12
383.535	363.12
383.761	346.12
383.986	345.12
384.211	371.12
384.436	367.12
384.662	372.12
384.887	356.12
385.112	359.12
385.337	365.12
385.562	363.12
385.787	368.12
386.013	393.12
386.238	370.12
386.463	384.12
386.688	387.12
386.913	373.12
387.138	375.12
387.363	370.12
387.588	383.12
387.813	363.12
388.038	378.12
388.263	366.12
388.488	357.12
388.713	391.12
388.938	375.12
389.163	365.12
389.387	377.12
389.612	355.12
389.837	375.12
390.062	365.12
390.287	366.12
390.512	365.12
390.736	367.12
390.961	390.12
391.186	371.12
391.411	386.12
391.636	358.12
391.86	371.12
392.085	379.12
392.31	368.12
392.534	385.12
392.759	376.12
392.984	374.12
393.208	380.12
393.433	364.12
393.658	378.12
393.882	379.12
394.107	369.12
394.331	367.12
394.556	360.12
394.78	361.12
395.005	358.12
395.229	370.12
395.454	395.12
395.678	392.12
395.903	390.12
396.127	397.12
396.352	395.12
396.576	407.12
396.801	367.12
397.025	364.12
397.249	375.12
397.474	388.12
397.698	386.12
397.922	405.12
398.147	424.12
398.371	409.12
398.595	407.12
398.82	400.12
399.044	431.12
399.268	427.12
399.492	457.12
399.717	473.12
399.941	499.12
400.165	491.12
400.389	513.12
400.613	455.12
400.837	445.12
401.062	429.12
401.286	406.12
401.51	416.12
401.734	413.12
401.958	416.12
402.182	401.12
402.406	449.12
402.63	433.12
402.854	427.12
403.078	409.12
403.302	445.12
403.526	442.12
403.75	439.12
403.974	436.12
404.198	428.12
404.422	435.12
404.645	450.12
404.869	440.12
405.093	471.12
405.317	522.12
405.541	529.12
405.765	479.12
405.988	443.12
406.212	440.12
406.436	453.12
406.66	461.12
406.883	453.12
407.107	480.12
407.331	522.12
407.555	546.12
407.778	567.12
408.002	496.12
408.226	487.12
408.449	483.12
408.673	472.12
408.896	467.12
409.12	511.12
409.344	496.12
409.567	437.12
409.791	429.12
410.014	435.12
410.238	421.12
410.461	415.12
410.685	423.12
410.908	437.12
411.132	485.12
411.355	480.12
411.578	480.12
411.802	411.12
412.025	423.12
412.249	431.12
412.472	447.12
412.695	495.12
412.919	477.12
413.142	456.12
413.365	428.12
413.589	411.12
413.812	400.12
414.035	410.12
414.258	397.12
414.482	410.12
414.705	401.12
414.928	419.12
415.151	407.12
415.374	405.12
415.597	421.12
415.821	399.12
416.044	416.12
416.267	394.12
416.49	384.12
416.713	414.12
416.936	399.12
417.159	422.12
417.382	399.12
417.605	415.12
417.828	394.12
418.051	420.12
418.274	439.12
418.497	424.12
418.72	385.12
418.943	421.12
419.166	399.12
419.389	424.12
419.611	428.12
419.834	420.12
420.057	420.12
420.28	447.12
420.503	415.12
420.726	423.12
420.948	435.12
421.171	455.12
421.394	467.12
421.617	444.12
421.839	428.12
422.062	421.12
422.285	444.12
422.507	475.12
422.73	543.12
422.953	540.12
423.175	471.12
423.398	451.12
423.621	444.12
423.843	467.12
424.066	459.12
424.288	471.12
424.511	483.12
424.733	512.12
424.956	576.12
425.178	553.12
425.401	559.12
425.623	581.12
425.846	499.12
426.068	455.12
426.291	451.12
426.513	444.12
426.735	478.12
426.958	505.12
427.18	573.12
427.402	668.12
427.625	741.12
427.847	660.12
428.069	539.12
428.292	500.12
428.514	469.12
428.736	453.12
428.958	430.12
429.181	422.12
429.403	401.12
429.625	435.12
429.847	454.12
430.069	499.12
430.292	503.12
430.514	435.12
430.736	405.12
430.958	415.12
431.18	391.12
431.402	403.12
431.624	387.12
431.846	386.12
432.068	405.12
432.29	398.12
432.512	400.12
432.734	390.12
432.956	399.12
433.178	424.12
433.4	446.12
433.622	407.12
433.844	364.12
434.066	379.12
434.287	395.12
434.509	399.12
434.731	373.12
434.953	393.12
435.175	434.12
435.397	451.12
435.618	482.12
435.84	498.12
436.062	573.12
436.284	614.12
436.505	516.12
436.727	464.12
436.949	431.12
437.17	421.12
437.392	425.12
437.614	427.12
437.835	455.12
438.057	535.12
438.278	621.12
438.5	629.12
438.721	695.12
438.943	630.12
439.165	514.12
439.386	461.12
439.608	459.12
439.829	473.12
440.05	508.12
440.272	510.12
440.493	497.12
440.715	443.12
440.936	441.12
441.158	418.12
441.379	443.12
441.6	437.12
441.822	477.12
442.043	491.12
442.264	605.12
442.486	598.12
442.707	506.12
442.928	472.12
443.149	473.12
443.371	501.12
443.592	510.12
443.813	566.12
444.034	632.12
444.255	524.12
444.476	481.12
444.698	445.12
444.919	461.12
445.14	547.12
445.361	480.12
445.582	478.12
445.803	561.12
446.024	634.12
446.245	647.12
446.466	571.12
446.687	497.12
446.908	479.12
447.129	456.12
447.35	422.12
447.571	439.12
447.792	411.12
448.013	429.12
448.234	481.12
448.455	471.12
448.675	580.12
448.896	666.12
449.117	567.12
449.338	521.12
449.559	635.12
449.779	696.12
450	548.12
450.221	452.12
450.442	426.12
450.662	415.12
450.883	410.12
451.104	425.12
451.324	417.12
451.545	411.12
451.766	384.12
451.986	393.12
452.207	373.12
452.428	362.12
452.648	385.12
452.869	384.12
453.089	384.12
453.31	380.12
453.53	388.12
453.751	382.12
453.971	370.12
454.192	350.12
454.412	374.12
454.633	366.12
454.853	377.12
455.073	383.12
455.294	387.12
455.514	456.12
455.734	440.12
455.955	388.12
456.175	349.12
456.395	352.12
456.616	359.12
456.836	344.12
457.056	358.12
457.276	349.12
457.497	365.12
457.717	358.12
457.937	345.12
458.157	364.12
458.377	369.12
458.598	368.12
458.818	419.12
459.038	475.12
459.258	496.12
459.478	417.12
459.698	389.12
459.918	381.12
460.138	355.12
460.358	371.12
460.578	389.12
460.798	386.12
461.018	419.12
461.238	386.12
461.458	365.12
461.678	376.12
461.898	376.12
462.118	387.12
462.338	386.12
462.558	387.12
462.777	400.12
462.997	390.12
463.217	417.12
463.437	411.12
463.657	406.12
463.876	419.12
464.096	410.12
464.316	381.12
464.536	417.12
464.755	405.12
464.975	416.12
465.195	447.12
465.414	492.12
465.634	431.12
465.854	414.12
466.073	413.12
466.293	394.12
466.512	381.12
466.732	372.12
466.951	384.12
467.171	379.12
467.391	361.12
467.61	368.12
467.829	383.12
468.049	372.12
468.268	388.12
468.488	378.12
468.707	366.12
468.927	385.12
469.146	351.12
469.365	353.12
469.585	372.12
469.804	375.12
470.023	392.12
470.243	382.12
470.462	393.12
470.681	389.12
470.901	390.12
471.12	376.12
471.339	409.12
471.558	393.12
471.777	399.12
471.997	383.12
472.216	386.12
472.435	407.12
472.654	401.12
472.873	388.12
473.092	384.12
473.311	363.12
473.53	385.12
473.749	381.12
473.968	423.12
474.187	534.12
474.406	543.12
474.625	447.12
474.844	412.12
475.063	393.12
475.282	389.12
475.501	383.12
475.72	386.12
475.939	385.12
476.158	405.12
476.377	408.12
476.596	386.12
476.814	401.12
477.033	397.12
477.252	394.12
477.471	385.12
477.69	411.12
477.908	401.12
478.127	422.12
478.346	410.12
478.564	429.12
478.783	437.12
479.002	430.12
479.22	445.12
479.439	415.12
479.658	457.12
479.876	460.12
480.095	475.12
480.313	473.12
480.532	467.12
480.751	465.12
480.969	457.12
481.188	507.12
481.406	542.12
481.624	495.12
481.843	491.12
482.061	433.12
482.28	439.12
482.498	444.12
482.717	447.12
482.935	424.12
483.153	436.12
483.372	440.12
483.59	440.12
483.808	457.12
484.027	437.12
484.245	440.12
484.463	422.12
484.681	458.12
484.9	448.12
485.118	466.12
485.336	447.12
485.554	467.12
485.772	461.12
485.99	482.12
486.209	458.12
486.427	464.12
486.645	448.12
486.863	494.12
487.081	494.12
487.299	469.12
487.517	471.12
487.735	484.12
487.953	461.12
488.171	471.12
488.389	479.12
488.607	495.12
488.825	477.12
489.043	491.12
489.261	462.12
489.479	506.12
489.696	491.12
489.914	478.12
490.132	519.12
490.35	519.12
490.568	500.12
490.786	527.12
491.003	533.12
491.221	520.12
491.439	536.12
491.657	540.12
491.874	548.12
492.092	528.12
492.31	535.12
492.527	563.12
492.745	530.12
492.963	565.12
493.18	561.12
493.398	568.12
493.615	568.12
493.833	569.12
494.05	588.12
494.268	558.12
494.485	578.12
494.703	576.12
494.92	575.12
495.138	548.12
495.355	578.12
495.573	567.12
495.79	569.12
496.008	579.12
496.225	576.12
496.442	575.12
496.66	589.12
496.877	547.12
497.094	581.12
497.312	573.12
497.529	583.12
497.746	581.12
497.963	578.12
498.181	617.12
498.398	600.12
498.615	631.12
498.832	611.12
499.049	613.12
499.267	620.12
499.484	647.12
499.701	695.12
499.918	708.12
500.135	720.12
500.352	743.12
500.569	762.12
500.786	724.12
501.003	733.12
501.22	716.12
501.437	703.12
501.654	689.12
501.871	684.12
502.088	663.12
