Data from 1971.PennyLincolnUp.Lamp.En5.5.200Scan.071719.P1._HRD10591_15-18-25-841.txt Node
Date: Thu Jul 18 15:18:25 EDT 2019
User: cochatt
Spectrometer: HR+D1059
Trigger mode: 1
Integration Time (sec): 1.000000E-1
Scans to average: 1
Electric dark correction enabled: true
Nonlinearity correction enabled: false
Boxcar width: 0
XAxis mode: Wavelengths
Number of Pixels in Spectrum: 2048
>>>>>Begin Spectral Data<<<<<
223.165	-10.75
223.4	-10.75
223.635	-10.75
223.869	-7.75
224.104	-8.75
224.338	-15.75
224.573	-4.75
224.808	-10.75
225.042	-21.75
225.277	-2.75
225.511	-5.75
225.746	-7.75
225.98	16.25
226.215	4.25
226.449	13.25
226.683	12.25
226.918	20.25
227.152	30.25
227.387	22.25
227.621	34.25
227.856	49.25
228.09	58.25
228.324	37.25
228.559	58.25
228.793	68.25
229.027	98.25
229.262	102.25
229.496	106.25
229.73	121.25
229.964	134.25
230.199	113.25
230.433	105.25
230.667	115.25
230.901	103.25
231.136	110.25
231.37	94.25
231.604	95.25
231.838	118.25
232.072	106.25
232.306	109.25
232.541	126.25
232.775	106.25
233.009	86.25
233.243	115.25
233.477	120.25
233.711	125.25
233.945	105.25
234.179	118.25
234.413	117.25
234.647	118.25
234.881	121.25
235.115	126.25
235.349	108.25
235.583	112.25
235.817	113.25
236.051	127.25
236.285	128.25
236.519	105.25
236.753	128.25
236.987	146.25
237.221	159.25
237.455	201.25
237.689	176.25
237.922	148.25
238.156	133.25
238.39	130.25
238.624	134.25
238.858	127.25
239.091	134.25
239.325	117.25
239.559	110.25
239.793	126.25
240.027	132.25
240.26	129.25
240.494	155.25
240.728	152.25
240.961	151.25
241.195	133.25
241.429	133.25
241.662	129.25
241.896	133.25
242.13	132.25
242.363	135.25
242.597	122.25
242.83	127.25
243.064	135.25
243.298	144.25
243.531	136.25
243.765	137.25
243.998	138.25
244.232	143.25
244.465	145.25
244.699	151.25
244.932	137.25
245.166	141.25
245.399	150.25
245.633	136.25
245.866	143.25
246.099	146.25
246.333	149.25
246.566	154.25
246.8	151.25
247.033	154.25
247.266	146.25
247.5	172.25
247.733	165.25
247.966	173.25
248.2	166.25
248.433	170.25
248.666	184.25
248.899	176.25
249.133	187.25
249.366	193.25
249.599	179.25
249.832	174.25
250.066	188.25
250.299	193.25
250.532	190.25
250.765	200.25
250.998	198.25
251.231	209.25
251.465	209.25
251.698	202.25
251.931	187.25
252.164	206.25
252.397	186.25
252.63	189.25
252.863	204.25
253.096	201.25
253.329	208.25
253.562	227.25
253.795	206.25
254.028	217.25
254.261	213.25
254.494	234.25
254.727	240.25
254.96	251.25
255.193	260.25
255.426	246.25
255.659	237.25
255.892	216.25
256.124	221.25
256.357	236.25
256.59	233.25
256.823	210.25
257.056	209.25
257.289	228.25
257.521	218.25
257.754	210.25
257.987	213.25
258.22	216.25
258.452	215.25
258.685	214.25
258.918	189.25
259.151	201.25
259.383	209.25
259.616	215.25
259.849	229.25
260.081	226.25
260.314	249.25
260.547	232.25
260.779	245.25
261.012	230.25
261.244	231.25
261.477	223.25
261.71	230.25
261.942	216.25
262.175	233.25
262.407	220.25
262.64	210.25
262.872	205.25
263.105	202.25
263.337	208.25
263.57	212.25
263.802	203.25
264.035	208.25
264.267	216.25
264.499	222.25
264.732	201.25
264.964	207.25
265.197	220.25
265.429	212.25
265.661	201.25
265.894	211.25
266.126	208.25
266.358	208.25
266.591	201.25
266.823	229.25
267.055	230.25
267.287	234.25
267.52	207.25
267.752	216.25
267.984	234.25
268.216	232.25
268.448	233.25
268.681	231.25
268.913	245.25
269.145	261.25
269.377	269.25
269.609	250.25
269.841	250.25
270.073	267.25
270.306	299.25
270.538	316.25
270.77	310.25
271.002	300.25
271.234	277.25
271.466	286.25
271.698	294.25
271.93	301.25
272.162	293.25
272.394	312.25
272.626	285.25
272.858	280.25
273.09	263.25
273.322	271.25
273.553	278.25
273.785	273.25
274.017	260.25
274.249	279.25
274.481	257.25
274.713	253.25
274.945	256.25
275.176	273.25
275.408	268.25
275.64	252.25
275.872	238.25
276.104	258.25
276.335	262.25
276.567	253.25
276.799	284.25
277.031	291.25
277.262	297.25
277.494	312.25
277.726	299.25
277.957	295.25
278.189	257.25
278.421	269.25
278.652	265.25
278.884	264.25
279.115	264.25
279.347	272.25
279.579	272.25
279.81	264.25
280.042	270.25
280.273	292.25
280.505	258.25
280.736	263.25
280.968	263.25
281.199	262.25
281.431	254.25
281.662	260.25
281.894	273.25
282.125	271.25
282.356	301.25
282.588	282.25
282.819	284.25
283.051	292.25
283.282	283.25
283.513	277.25
283.745	278.25
283.976	268.25
284.207	270.25
284.439	274.25
284.67	275.25
284.901	265.25
285.132	281.25
285.364	281.25
285.595	274.25
285.826	268.25
286.057	284.25
286.288	272.25
286.52	285.25
286.751	263.25
286.982	278.25
287.213	278.25
287.444	283.25
287.675	284.25
287.906	289.25
288.138	291.25
288.369	305.25
288.6	281.25
288.831	293.25
289.062	290.25
289.293	298.25
289.524	284.25
289.755	274.25
289.986	287.25
290.217	294.25
290.448	257.25
290.679	280.25
290.91	278.25
291.141	292.25
291.371	304.25
291.602	290.25
291.833	280.25
292.064	264.25
292.295	285.25
292.526	277.25
292.757	297.25
292.987	284.25
293.218	260.25
293.449	292.25
293.68	270.25
293.91	276.25
294.141	279.25
294.372	283.25
294.603	273.25
294.833	281.25
295.064	274.25
295.295	288.25
295.525	281.25
295.756	290.25
295.987	311.25
296.217	333.25
296.448	313.25
296.679	298.25
296.909	280.25
297.14	285.25
297.37	300.25
297.601	293.25
297.831	301.25
298.062	283.25
298.292	280.25
298.523	309.25
298.753	312.25
298.984	291.25
299.214	308.25
299.445	291.25
299.675	294.25
299.905	311.25
300.136	307.25
300.366	290.25
300.597	314.25
300.827	316.25
301.057	304.25
301.288	312.25
301.518	302.25
301.748	312.25
301.979	320.25
302.209	336.25
302.439	318.25
302.669	299.25
302.9	294.25
303.13	302.25
303.36	327.25
303.59	318.25
303.82	311.25
304.051	332.25
304.281	337.25
304.511	316.25
304.741	316.25
304.971	313.25
305.201	314.25
305.431	314.25
305.661	317.25
305.891	336.25
306.121	341.25
306.352	330.25
306.582	318.25
306.812	323.25
307.042	321.25
307.272	314.25
307.502	321.25
307.731	313.25
307.961	326.25
308.191	308.25
308.421	334.25
308.651	321.25
308.881	320.25
309.111	352.25
309.341	334.25
309.571	332.25
309.8	336.25
310.03	362.25
310.26	360.25
310.49	354.25
310.72	380.25
310.949	375.25
311.179	364.25
311.409	344.25
311.639	369.25
311.868	359.25
312.098	343.25
312.328	375.25
312.557	393.25
312.787	358.25
313.017	376.25
313.246	379.25
313.476	355.25
313.706	347.25
313.935	356.25
314.165	358.25
314.394	365.25
314.624	367.25
314.853	382.25
315.083	336.25
315.312	360.25
315.542	354.25
315.771	375.25
316.001	372.25
316.23	377.25
316.46	350.25
316.689	368.25
316.919	359.25
317.148	357.25
317.377	372.25
317.607	345.25
317.836	360.25
318.065	373.25
318.295	364.25
318.524	374.25
318.753	376.25
318.983	373.25
319.212	356.25
319.441	354.25
319.67	390.25
319.9	380.25
320.129	380.25
320.358	369.25
320.587	365.25
320.816	374.25
321.046	383.25
321.275	384.25
321.504	385.25
321.733	379.25
321.962	384.25
322.191	386.25
322.42	407.25
322.649	413.25
322.878	434.25
323.108	424.25
323.337	455.25
323.566	458.25
323.795	460.25
324.024	520.25
324.253	656.25
324.482	861.25
324.71	1248.25
324.939	1719.25
325.168	1446.25
325.397	788.25
325.626	552.25
325.855	500.25
326.084	467.25
326.313	445.25
326.542	463.25
326.77	509.25
326.999	585.25
327.228	768.25
327.457	1080.25
327.686	1262.25
327.914	838.25
328.143	604.25
328.372	522.25
328.6	486.25
328.829	504.25
329.058	510.25
329.287	486.25
329.515	461.25
329.744	469.25
329.972	459.25
330.201	452.25
330.43	493.25
330.658	526.25
330.887	522.25
331.115	524.25
331.344	460.25
331.572	441.25
331.801	452.25
332.03	433.25
332.258	441.25
332.486	415.25
332.715	420.25
332.943	412.25
333.172	414.25
333.4	419.25
333.629	407.25
333.857	425.25
334.085	444.25
334.314	434.25
334.542	463.25
334.771	461.25
334.999	452.25
335.227	424.25
335.455	414.25
335.684	423.25
335.912	411.25
336.14	401.25
336.369	419.25
336.597	426.25
336.825	427.25
337.053	427.25
337.281	413.25
337.51	407.25
337.738	421.25
337.966	412.25
338.194	409.25
338.422	412.25
338.65	421.25
338.878	395.25
339.106	397.25
339.334	395.25
339.562	394.25
339.79	404.25
340.018	407.25
340.246	384.25
340.474	397.25
340.702	392.25
340.93	376.25
341.158	385.25
341.386	405.25
341.614	392.25
341.842	392.25
342.07	402.25
342.298	361.25
342.526	390.25
342.754	389.25
342.981	381.25
343.209	386.25
343.437	404.25
343.665	376.25
343.893	390.25
344.12	391.25
344.348	398.25
344.576	399.25
344.804	396.25
345.031	417.25
345.259	408.25
345.487	400.25
345.714	389.25
345.942	381.25
346.17	386.25
346.397	368.25
346.625	378.25
346.853	368.25
347.08	360.25
347.308	374.25
347.535	390.25
347.763	400.25
347.99	384.25
348.218	363.25
348.445	401.25
348.673	390.25
348.9	384.25
349.128	382.25
349.355	373.25
349.583	362.25
349.81	365.25
350.037	358.25
350.265	360.25
350.492	373.25
350.72	373.25
350.947	377.25
351.174	361.25
351.402	380.25
351.629	362.25
351.856	396.25
352.083	382.25
352.311	383.25
352.538	391.25
352.765	384.25
352.992	376.25
353.22	362.25
353.447	373.25
353.674	358.25
353.901	344.25
354.128	338.25
354.355	350.25
354.583	357.25
354.81	354.25
355.037	366.25
355.264	362.25
355.491	346.25
355.718	345.25
355.945	361.25
356.172	343.25
356.399	348.25
356.626	338.25
356.853	322.25
357.08	352.25
357.307	333.25
357.534	355.25
357.761	345.25
357.988	346.25
358.215	333.25
358.441	336.25
358.668	352.25
358.895	348.25
359.122	342.25
359.349	358.25
359.576	361.25
359.802	397.25
360.029	400.25
360.256	398.25
360.483	386.25
360.709	363.25
360.936	361.25
361.163	351.25
361.39	356.25
361.616	363.25
361.843	368.25
362.07	378.25
362.296	384.25
362.523	362.25
362.749	360.25
362.976	361.25
363.203	375.25
363.429	330.25
363.656	352.25
363.882	368.25
364.109	344.25
364.335	348.25
364.562	336.25
364.788	351.25
365.015	336.25
365.241	349.25
365.468	344.25
365.694	340.25
365.92	349.25
366.147	336.25
366.373	350.25
366.599	330.25
366.826	348.25
367.052	337.25
367.278	332.25
367.505	367.25
367.731	338.25
367.957	353.25
368.184	357.25
368.41	350.25
368.636	348.25
368.862	343.25
369.089	353.25
369.315	350.25
369.541	367.25
369.767	334.25
369.993	349.25
370.219	355.25
370.445	343.25
370.672	338.25
370.898	338.25
371.124	324.25
371.35	352.25
371.576	336.25
371.802	342.25
372.028	358.25
372.254	335.25
372.48	360.25
372.706	334.25
372.932	338.25
373.158	352.25
373.384	352.25
373.61	351.25
373.835	325.25
374.061	345.25
374.287	348.25
374.513	347.25
374.739	356.25
374.965	341.25
375.191	349.25
375.416	363.25
375.642	342.25
375.868	349.25
376.094	349.25
376.319	329.25
376.545	350.25
376.771	329.25
376.997	336.25
377.222	335.25
377.448	343.25
377.674	343.25
377.899	339.25
378.125	353.25
378.35	351.25
378.576	335.25
378.802	321.25
379.027	326.25
379.253	329.25
379.478	328.25
379.704	329.25
379.929	327.25
380.155	343.25
380.38	340.25
380.606	340.25
380.831	349.25
381.057	346.25
381.282	336.25
381.507	339.25
381.733	347.25
381.958	335.25
382.184	351.25
382.409	333.25
382.634	331.25
382.86	342.25
383.085	343.25
383.31	356.25
383.535	351.25
383.761	350.25
383.986	341.25
384.211	355.25
384.436	356.25
384.662	355.25
384.887	372.25
385.112	349.25
385.337	343.25
385.562	345.25
385.787	360.25
386.013	348.25
386.238	368.25
386.463	369.25
386.688	360.25
386.913	361.25
387.138	348.25
387.363	367.25
387.588	351.25
387.813	376.25
388.038	340.25
388.263	337.25
388.488	356.25
388.713	355.25
388.938	352.25
389.163	355.25
389.387	376.25
389.612	354.25
389.837	361.25
390.062	339.25
390.287	351.25
390.512	361.25
390.736	354.25
390.961	380.25
391.186	362.25
391.411	357.25
391.636	342.25
391.86	354.25
392.085	376.25
392.31	369.25
392.534	380.25
392.759	359.25
392.984	346.25
393.208	374.25
393.433	376.25
393.658	359.25
393.882	356.25
394.107	359.25
394.331	361.25
394.556	361.25
394.78	362.25
395.005	369.25
395.229	364.25
395.454	382.25
395.678	367.25
395.903	394.25
396.127	375.25
396.352	388.25
396.576	378.25
396.801	382.25
397.025	369.25
397.249	374.25
397.474	376.25
397.698	367.25
397.922	390.25
398.147	384.25
398.371	395.25
398.595	376.25
398.82	383.25
399.044	394.25
399.268	398.25
399.492	428.25
399.717	456.25
399.941	448.25
400.165	463.25
400.389	486.25
400.613	444.25
400.837	422.25
401.062	399.25
401.286	418.25
401.51	398.25
401.734	391.25
401.958	410.25
402.182	406.25
402.406	423.25
402.63	409.25
402.854	412.25
403.078	396.25
403.302	392.25
403.526	392.25
403.75	412.25
403.974	400.25
404.198	405.25
404.422	442.25
404.645	406.25
404.869	432.25
405.093	429.25
405.317	444.25
405.541	455.25
405.765	444.25
405.988	440.25
406.212	433.25
406.436	448.25
406.66	452.25
406.883	454.25
407.107	455.25
407.331	485.25
407.555	524.25
407.778	534.25
408.002	481.25
408.226	466.25
408.449	442.25
408.673	436.25
408.896	454.25
409.12	481.25
409.344	474.25
409.567	421.25
409.791	442.25
410.014	426.25
410.238	426.25
410.461	406.25
410.685	401.25
410.908	431.25
411.132	450.25
411.355	482.25
411.578	444.25
411.802	422.25
412.025	403.25
412.249	410.25
412.472	429.25
412.695	438.25
412.919	434.25
413.142	406.25
413.365	412.25
413.589	388.25
413.812	400.25
414.035	391.25
414.258	377.25
414.482	372.25
414.705	370.25
414.928	378.25
415.151	380.25
415.374	380.25
415.597	373.25
415.821	373.25
416.044	378.25
416.267	405.25
416.49	385.25
416.713	363.25
416.936	367.25
417.159	382.25
417.382	395.25
417.605	398.25
417.828	375.25
418.051	390.25
418.274	420.25
418.497	386.25
418.72	391.25
418.943	376.25
419.166	385.25
419.389	430.25
419.611	406.25
419.834	402.25
420.057	422.25
420.28	404.25
420.503	413.25
420.726	386.25
420.948	417.25
421.171	447.25
421.394	476.25
421.617	414.25
421.839	380.25
422.062	392.25
422.285	418.25
422.507	483.25
422.73	527.25
422.953	476.25
423.175	407.25
423.398	396.25
423.621	414.25
423.843	422.25
424.066	413.25
424.288	450.25
424.511	446.25
424.733	477.25
424.956	542.25
425.178	519.25
425.401	531.25
425.623	523.25
425.846	459.25
426.068	439.25
426.291	423.25
426.513	442.25
426.735	447.25
426.958	458.25
427.18	527.25
427.402	624.25
427.625	661.25
427.847	581.25
428.069	498.25
428.292	431.25
428.514	418.25
428.736	425.25
428.958	402.25
429.181	409.25
429.403	410.25
429.625	394.25
429.847	418.25
430.069	475.25
430.292	465.25
430.514	405.25
430.736	385.25
430.958	401.25
431.18	375.25
431.402	385.25
431.624	361.25
431.846	365.25
432.068	373.25
432.29	347.25
432.512	375.25
432.734	400.25
432.956	392.25
433.178	401.25
433.4	398.25
433.622	386.25
433.844	381.25
434.066	367.25
434.287	361.25
434.509	367.25
434.731	377.25
434.953	388.25
435.175	389.25
435.397	414.25
435.618	428.25
435.84	470.25
436.062	533.25
436.284	549.25
436.505	480.25
436.727	426.25
436.949	410.25
437.17	386.25
437.392	374.25
437.614	385.25
437.835	434.25
438.057	491.25
438.278	562.25
438.5	558.25
438.721	613.25
438.943	586.25
439.165	490.25
439.386	449.25
439.608	436.25
439.829	440.25
440.05	458.25
440.272	488.25
440.493	456.25
440.715	415.25
440.936	395.25
441.158	396.25
441.379	394.25
441.6	417.25
441.822	424.25
442.043	445.25
442.264	514.25
442.486	544.25
442.707	471.25
442.928	405.25
443.149	432.25
443.371	468.25
443.592	490.25
443.813	556.25
444.034	599.25
444.255	498.25
444.476	457.25
444.698	443.25
444.919	419.25
445.14	543.25
445.361	500.25
445.582	477.25
445.803	508.25
446.024	549.25
446.245	590.25
446.466	516.25
446.687	450.25
446.908	439.25
447.129	421.25
447.35	405.25
447.571	394.25
447.792	381.25
448.013	390.25
448.234	413.25
448.455	437.25
448.675	550.25
448.896	623.25
449.117	501.25
449.338	500.25
449.559	590.25
449.779	644.25
450	502.25
450.221	444.25
450.442	413.25
450.662	380.25
450.883	389.25
451.104	400.25
451.324	384.25
451.545	391.25
451.766	365.25
451.986	364.25
452.207	362.25
452.428	357.25
452.648	342.25
452.869	339.25
453.089	340.25
453.31	365.25
453.53	366.25
453.751	373.25
453.971	364.25
454.192	361.25
454.412	346.25
454.633	348.25
454.853	361.25
455.073	359.25
455.294	374.25
455.514	420.25
455.734	396.25
455.955	362.25
456.175	338.25
456.395	338.25
456.616	320.25
456.836	334.25
457.056	332.25
457.276	321.25
457.497	326.25
457.717	325.25
457.937	338.25
458.157	357.25
458.377	342.25
458.598	370.25
458.818	383.25
459.038	457.25
459.258	446.25
459.478	373.25
459.698	384.25
459.918	369.25
460.138	373.25
460.358	352.25
460.578	370.25
460.798	370.25
461.018	373.25
461.238	372.25
461.458	362.25
461.678	362.25
461.898	370.25
462.118	392.25
462.338	372.25
462.558	386.25
462.777	386.25
462.997	401.25
463.217	408.25
463.437	390.25
463.657	396.25
463.876	398.25
464.096	411.25
464.316	397.25
464.536	407.25
464.755	386.25
464.975	393.25
465.195	435.25
465.414	455.25
465.634	426.25
465.854	380.25
466.073	366.25
466.293	361.25
466.512	373.25
466.732	345.25
466.951	351.25
467.171	350.25
467.391	360.25
467.61	351.25
467.829	366.25
468.049	362.25
468.268	354.25
468.488	362.25
468.707	348.25
468.927	338.25
469.146	355.25
469.365	361.25
469.585	357.25
469.804	342.25
470.023	369.25
470.243	360.25
470.462	353.25
470.681	379.25
470.901	376.25
471.12	367.25
471.339	342.25
471.558	374.25
471.777	377.25
471.997	338.25
472.216	350.25
472.435	385.25
472.654	388.25
472.873	351.25
473.092	350.25
473.311	364.25
473.53	356.25
473.749	370.25
473.968	421.25
474.187	484.25
474.406	456.25
474.625	407.25
474.844	372.25
475.063	377.25
475.282	368.25
475.501	368.25
475.72	377.25
475.939	374.25
476.158	350.25
476.377	354.25
476.596	366.25
476.814	370.25
477.033	364.25
477.252	364.25
477.471	383.25
477.69	398.25
477.908	375.25
478.127	389.25
478.346	396.25
478.564	400.25
478.783	406.25
479.002	398.25
479.22	409.25
479.439	411.25
479.658	426.25
479.876	414.25
480.095	422.25
480.313	453.25
480.532	428.25
480.751	432.25
480.969	447.25
481.188	477.25
481.406	473.25
481.624	444.25
481.843	426.25
482.061	436.25
482.28	418.25
482.498	434.25
482.717	390.25
482.935	425.25
483.153	426.25
483.372	425.25
483.59	424.25
483.808	406.25
484.027	423.25
484.245	438.25
484.463	423.25
484.681	426.25
484.9	424.25
485.118	431.25
485.336	431.25
485.554	431.25
485.772	429.25
485.99	438.25
486.209	422.25
486.427	422.25
486.645	454.25
486.863	465.25
487.081	460.25
487.299	454.25
487.517	437.25
487.735	453.25
487.953	471.25
488.171	462.25
488.389	455.25
488.607	451.25
488.825	455.25
489.043	449.25
489.261	473.25
489.479	473.25
489.696	486.25
489.914	468.25
490.132	463.25
490.35	460.25
490.568	482.25
490.786	469.25
491.003	481.25
491.221	488.25
491.439	505.25
491.657	523.25
491.874	525.25
492.092	526.25
492.31	512.25
492.527	533.25
492.745	528.25
492.963	522.25
493.18	520.25
493.398	524.25
493.615	532.25
493.833	523.25
494.05	536.25
494.268	520.25
494.485	533.25
494.703	520.25
494.92	551.25
495.138	514.25
495.355	518.25
495.573	543.25
495.79	518.25
496.008	534.25
496.225	522.25
496.442	525.25
496.66	541.25
496.877	517.25
497.094	526.25
497.312	535.25
497.529	547.25
497.746	567.25
497.963	536.25
498.181	558.25
498.398	582.25
498.615	585.25
498.832	609.25
499.049	601.25
499.267	601.25
499.484	627.25
499.701	656.25
499.918	641.25
500.135	684.25
500.352	704.25
500.569	708.25
500.786	723.25
501.003	690.25
501.22	686.25
501.437	644.25
501.654	669.25
501.871	655.25
502.088	630.25
