Data from 1971.PennyLincolnUp.Lamp.En5.5.200Scan.071719.P1._HRD10591_15-19-42-841.txt Node
Date: Thu Jul 18 15:19:42 EDT 2019
User: cochatt
Spectrometer: HR+D1059
Trigger mode: 1
Integration Time (sec): 1.000000E-1
Scans to average: 1
Electric dark correction enabled: true
Nonlinearity correction enabled: false
Boxcar width: 0
XAxis mode: Wavelengths
Number of Pixels in Spectrum: 2048
>>>>>Begin Spectral Data<<<<<
223.165	-21.31
223.4	-21.31
223.635	-21.31
223.869	-29.31
224.104	-11.31
224.338	-9.31
224.573	-20.31
224.808	-20.31
225.042	-22.31
225.277	-9.31
225.511	2.69
225.746	0.69
225.98	1.69
226.215	34.69
226.449	15.69
226.683	25.69
226.918	40.69
227.152	21.69
227.387	32.69
227.621	42.69
227.856	36.69
228.09	47.69
228.324	47.69
228.559	54.69
228.793	63.69
229.027	88.69
229.262	102.69
229.496	114.69
229.73	123.69
229.964	144.69
230.199	133.69
230.433	119.69
230.667	107.69
230.901	112.69
231.136	110.69
231.37	108.69
231.604	128.69
231.838	114.69
232.072	96.69
232.306	113.69
232.541	103.69
232.775	111.69
233.009	101.69
233.243	115.69
233.477	120.69
233.711	114.69
233.945	104.69
234.179	113.69
234.413	122.69
234.647	108.69
234.881	108.69
235.115	133.69
235.349	122.69
235.583	134.69
235.817	121.69
236.051	128.69
236.285	129.69
236.519	127.69
236.753	130.69
236.987	151.69
237.221	180.69
237.455	216.69
237.689	181.69
237.922	142.69
238.156	131.69
238.39	134.69
238.624	135.69
238.858	122.69
239.091	125.69
239.325	127.69
239.559	124.69
239.793	125.69
240.027	123.69
240.26	136.69
240.494	164.69
240.728	156.69
240.961	155.69
241.195	156.69
241.429	137.69
241.662	144.69
241.896	134.69
242.13	126.69
242.363	128.69
242.597	140.69
242.83	137.69
243.064	145.69
243.298	138.69
243.531	142.69
243.765	142.69
243.998	155.69
244.232	141.69
244.465	140.69
244.699	138.69
244.932	158.69
245.166	142.69
245.399	154.69
245.633	164.69
245.866	138.69
246.099	144.69
246.333	146.69
246.566	165.69
246.8	158.69
247.033	145.69
247.266	172.69
247.5	171.69
247.733	153.69
247.966	177.69
248.2	173.69
248.433	187.69
248.666	167.69
248.899	200.69
249.133	192.69
249.366	199.69
249.599	196.69
249.832	186.69
250.066	203.69
250.299	190.69
250.532	210.69
250.765	225.69
250.998	214.69
251.231	217.69
251.465	228.69
251.698	212.69
251.931	193.69
252.164	193.69
252.397	198.69
252.63	220.69
252.863	236.69
253.096	230.69
253.329	221.69
253.562	225.69
253.795	229.69
254.028	220.69
254.261	222.69
254.494	234.69
254.727	250.69
254.96	270.69
255.193	268.69
255.426	264.69
255.659	260.69
255.892	237.69
256.124	231.69
256.357	241.69
256.59	231.69
256.823	221.69
257.056	217.69
257.289	219.69
257.521	209.69
257.754	240.69
257.987	208.69
258.22	222.69
258.452	206.69
258.685	228.69
258.918	217.69
259.151	218.69
259.383	229.69
259.616	221.69
259.849	253.69
260.081	247.69
260.314	274.69
260.547	273.69
260.779	252.69
261.012	256.69
261.244	242.69
261.477	212.69
261.71	236.69
261.942	220.69
262.175	234.69
262.407	249.69
262.64	232.69
262.872	214.69
263.105	232.69
263.337	216.69
263.57	235.69
263.802	210.69
264.035	208.69
264.267	217.69
264.499	216.69
264.732	214.69
264.964	204.69
265.197	224.69
265.429	217.69
265.661	229.69
265.894	220.69
266.126	238.69
266.358	232.69
266.591	210.69
266.823	229.69
267.055	238.69
267.287	228.69
267.52	229.69
267.752	222.69
267.984	221.69
268.216	251.69
268.448	260.69
268.681	244.69
268.913	262.69
269.145	278.69
269.377	289.69
269.609	279.69
269.841	288.69
270.073	266.69
270.306	303.69
270.538	325.69
270.77	326.69
271.002	311.69
271.234	296.69
271.466	308.69
271.698	329.69
271.93	326.69
272.162	353.69
272.394	333.69
272.626	316.69
272.858	303.69
273.09	294.69
273.322	287.69
273.553	265.69
273.785	287.69
274.017	282.69
274.249	268.69
274.481	261.69
274.713	283.69
274.945	268.69
275.176	271.69
275.408	280.69
275.64	268.69
275.872	268.69
276.104	264.69
276.335	269.69
276.567	273.69
276.799	293.69
277.031	308.69
277.262	332.69
277.494	323.69
277.726	300.69
277.957	313.69
278.189	304.69
278.421	280.69
278.652	282.69
278.884	293.69
279.115	290.69
279.347	295.69
279.579	292.69
279.81	264.69
280.042	263.69
280.273	280.69
280.505	270.69
280.736	277.69
280.968	300.69
281.199	304.69
281.431	283.69
281.662	288.69
281.894	289.69
282.125	293.69
282.356	296.69
282.588	312.69
282.819	305.69
283.051	292.69
283.282	286.69
283.513	300.69
283.745	287.69
283.976	293.69
284.207	280.69
284.439	301.69
284.67	283.69
284.901	292.69
285.132	309.69
285.364	273.69
285.595	281.69
285.826	293.69
286.057	302.69
286.288	310.69
286.52	287.69
286.751	299.69
286.982	288.69
287.213	287.69
287.444	306.69
287.675	306.69
287.906	334.69
288.138	296.69
288.369	308.69
288.6	316.69
288.831	300.69
289.062	316.69
289.293	308.69
289.524	302.69
289.755	309.69
289.986	296.69
290.217	305.69
290.448	302.69
290.679	301.69
290.91	301.69
291.141	304.69
291.371	317.69
291.602	312.69
291.833	296.69
292.064	276.69
292.295	302.69
292.526	311.69
292.757	312.69
292.987	294.69
293.218	301.69
293.449	304.69
293.68	301.69
293.91	294.69
294.141	313.69
294.372	311.69
294.603	321.69
294.833	284.69
295.064	304.69
295.295	308.69
295.525	303.69
295.756	311.69
295.987	321.69
296.217	323.69
296.448	328.69
296.679	301.69
296.909	298.69
297.14	298.69
297.37	299.69
297.601	310.69
297.831	316.69
298.062	329.69
298.292	333.69
298.523	303.69
298.753	324.69
298.984	311.69
299.214	306.69
299.445	327.69
299.675	329.69
299.905	321.69
300.136	309.69
300.366	329.69
300.597	332.69
300.827	327.69
301.057	325.69
301.288	322.69
301.518	339.69
301.748	336.69
301.979	350.69
302.209	342.69
302.439	348.69
302.669	353.69
302.9	355.69
303.13	338.69
303.36	357.69
303.59	361.69
303.82	349.69
304.051	350.69
304.281	327.69
304.511	334.69
304.741	343.69
304.971	341.69
305.201	345.69
305.431	336.69
305.661	351.69
305.891	338.69
306.121	342.69
306.352	346.69
306.582	355.69
306.812	355.69
307.042	362.69
307.272	346.69
307.502	349.69
307.731	366.69
307.961	348.69
308.191	336.69
308.421	347.69
308.651	365.69
308.881	356.69
309.111	360.69
309.341	345.69
309.571	374.69
309.8	372.69
310.03	377.69
310.26	380.69
310.49	384.69
310.72	389.69
310.949	394.69
311.179	396.69
311.409	396.69
311.639	393.69
311.868	396.69
312.098	419.69
312.328	384.69
312.557	398.69
312.787	416.69
313.017	392.69
313.246	399.69
313.476	363.69
313.706	378.69
313.935	378.69
314.165	407.69
314.394	404.69
314.624	413.69
314.853	415.69
315.083	383.69
315.312	381.69
315.542	381.69
315.771	374.69
316.001	389.69
316.23	381.69
316.46	383.69
316.689	413.69
316.919	384.69
317.148	394.69
317.377	409.69
317.607	399.69
317.836	396.69
318.065	376.69
318.295	382.69
318.524	397.69
318.753	400.69
318.983	403.69
319.212	382.69
319.441	394.69
319.67	390.69
319.9	403.69
320.129	384.69
320.358	382.69
320.587	380.69
320.816	413.69
321.046	401.69
321.275	392.69
321.504	408.69
321.733	421.69
321.962	439.69
322.191	418.69
322.42	440.69
322.649	458.69
322.878	448.69
323.108	467.69
323.337	503.69
323.566	503.69
323.795	505.69
324.024	578.69
324.253	687.69
324.482	952.69
324.71	1422.69
324.939	1952.69
325.168	1628.69
325.397	865.69
325.626	619.69
325.855	529.69
326.084	514.69
326.313	489.69
326.542	518.69
326.77	552.69
326.999	631.69
327.228	861.69
327.457	1277.69
327.686	1425.69
327.914	968.69
328.143	650.69
328.372	606.69
328.6	574.69
328.829	543.69
329.058	565.69
329.287	567.69
329.515	535.69
329.744	504.69
329.972	489.69
330.201	546.69
330.43	554.69
330.658	556.69
330.887	569.69
331.115	536.69
331.344	494.69
331.572	489.69
331.801	480.69
332.03	468.69
332.258	456.69
332.486	467.69
332.715	463.69
332.943	436.69
333.172	454.69
333.4	463.69
333.629	480.69
333.857	482.69
334.085	483.69
334.314	497.69
334.542	507.69
334.771	510.69
334.999	478.69
335.227	455.69
335.455	460.69
335.684	475.69
335.912	438.69
336.14	448.69
336.369	430.69
336.597	443.69
336.825	465.69
337.053	447.69
337.281	428.69
337.51	431.69
337.738	440.69
337.966	444.69
338.194	418.69
338.422	442.69
338.65	443.69
338.878	440.69
339.106	447.69
339.334	454.69
339.562	417.69
339.79	406.69
340.018	423.69
340.246	421.69
340.474	419.69
340.702	428.69
340.93	420.69
341.158	420.69
341.386	436.69
341.614	433.69
341.842	447.69
342.07	435.69
342.298	436.69
342.526	394.69
342.754	412.69
342.981	416.69
343.209	410.69
343.437	437.69
343.665	438.69
343.893	433.69
344.12	407.69
344.348	447.69
344.576	422.69
344.804	446.69
345.031	443.69
345.259	456.69
345.487	433.69
345.714	426.69
345.942	409.69
346.17	415.69
346.397	416.69
346.625	404.69
346.853	400.69
347.08	403.69
347.308	403.69
347.535	409.69
347.763	441.69
347.99	408.69
348.218	423.69
348.445	408.69
348.673	399.69
348.9	406.69
349.128	408.69
349.355	412.69
349.583	393.69
349.81	391.69
350.037	392.69
350.265	392.69
350.492	408.69
350.72	424.69
350.947	399.69
351.174	414.69
351.402	424.69
351.629	403.69
351.856	382.69
352.083	394.69
352.311	394.69
352.538	418.69
352.765	393.69
352.992	402.69
353.22	402.69
353.447	397.69
353.674	398.69
353.901	408.69
354.128	384.69
354.355	386.69
354.583	365.69
354.81	390.69
355.037	386.69
355.264	390.69
355.491	386.69
355.718	377.69
355.945	369.69
356.172	375.69
356.399	381.69
356.626	390.69
356.853	381.69
357.08	389.69
357.307	346.69
357.534	367.69
357.761	373.69
357.988	378.69
358.215	374.69
358.441	380.69
358.668	363.69
358.895	374.69
359.122	362.69
359.349	381.69
359.576	375.69
359.802	408.69
360.029	449.69
360.256	431.69
360.483	418.69
360.709	394.69
360.936	386.69
361.163	384.69
361.39	389.69
361.616	409.69
361.843	382.69
362.07	396.69
362.296	382.69
362.523	382.69
362.749	379.69
362.976	374.69
363.203	383.69
363.429	370.69
363.656	372.69
363.882	375.69
364.109	384.69
364.335	377.69
364.562	368.69
364.788	359.69
365.015	377.69
365.241	363.69
365.468	380.69
365.694	378.69
365.92	388.69
366.147	374.69
366.373	369.69
366.599	382.69
366.826	376.69
367.052	393.69
367.278	376.69
367.505	356.69
367.731	392.69
367.957	398.69
368.184	373.69
368.41	377.69
368.636	400.69
368.862	362.69
369.089	384.69
369.315	368.69
369.541	378.69
369.767	386.69
369.993	366.69
370.219	386.69
370.445	390.69
370.672	372.69
370.898	370.69
371.124	362.69
371.35	368.69
371.576	370.69
371.802	346.69
372.028	383.69
372.254	369.69
372.48	390.69
372.706	372.69
372.932	376.69
373.158	364.69
373.384	353.69
373.61	361.69
373.835	356.69
374.061	360.69
374.287	385.69
374.513	391.69
374.739	378.69
374.965	371.69
375.191	384.69
375.416	369.69
375.642	367.69
375.868	379.69
376.094	363.69
376.319	362.69
376.545	364.69
376.771	379.69
376.997	360.69
377.222	368.69
377.448	380.69
377.674	354.69
377.899	342.69
378.125	340.69
378.35	353.69
378.576	350.69
378.802	351.69
379.027	344.69
379.253	347.69
379.478	354.69
379.704	360.69
379.929	360.69
380.155	348.69
380.38	350.69
380.606	372.69
380.831	374.69
381.057	365.69
381.282	366.69
381.507	364.69
381.733	344.69
381.958	360.69
382.184	380.69
382.409	353.69
382.634	350.69
382.86	339.69
383.085	365.69
383.31	362.69
383.535	369.69
383.761	368.69
383.986	359.69
384.211	364.69
384.436	363.69
384.662	376.69
384.887	380.69
385.112	376.69
385.337	385.69
385.562	387.69
385.787	392.69
386.013	401.69
386.238	379.69
386.463	390.69
386.688	383.69
386.913	374.69
387.138	372.69
387.363	382.69
387.588	358.69
387.813	400.69
388.038	372.69
388.263	376.69
388.488	372.69
388.713	409.69
388.938	384.69
389.163	380.69
389.387	386.69
389.612	388.69
389.837	401.69
390.062	374.69
390.287	386.69
390.512	378.69
390.736	368.69
390.961	372.69
391.186	374.69
391.411	380.69
391.636	382.69
391.86	402.69
392.085	385.69
392.31	398.69
392.534	370.69
392.759	396.69
392.984	382.69
393.208	365.69
393.433	375.69
393.658	386.69
393.882	364.69
394.107	369.69
394.331	393.69
394.556	382.69
394.78	374.69
395.005	384.69
395.229	376.69
395.454	385.69
395.678	380.69
395.903	393.69
396.127	420.69
396.352	409.69
396.576	403.69
396.801	384.69
397.025	395.69
397.249	410.69
397.474	404.69
397.698	405.69
397.922	406.69
398.147	409.69
398.371	421.69
398.595	426.69
398.82	425.69
399.044	429.69
399.268	460.69
399.492	467.69
399.717	488.69
399.941	504.69
400.165	504.69
400.389	529.69
400.613	506.69
400.837	459.69
401.062	428.69
401.286	445.69
401.51	433.69
401.734	422.69
401.958	430.69
402.182	414.69
402.406	446.69
402.63	444.69
402.854	425.69
403.078	447.69
403.302	461.69
403.526	448.69
403.75	453.69
403.974	452.69
404.198	447.69
404.422	461.69
404.645	443.69
404.869	435.69
405.093	468.69
405.317	487.69
405.541	514.69
405.765	471.69
405.988	464.69
406.212	454.69
406.436	494.69
406.66	493.69
406.883	470.69
407.107	476.69
407.331	509.69
407.555	574.69
407.778	549.69
408.002	524.69
408.226	492.69
408.449	485.69
408.673	478.69
408.896	484.69
409.12	520.69
409.344	485.69
409.567	456.69
409.791	440.69
410.014	438.69
410.238	434.69
410.461	432.69
410.685	438.69
410.908	456.69
411.132	484.69
411.355	490.69
411.578	473.69
411.802	449.69
412.025	422.69
412.249	448.69
412.472	458.69
412.695	492.69
412.919	463.69
413.142	432.69
413.365	410.69
413.589	398.69
413.812	418.69
414.035	427.69
414.258	399.69
414.482	404.69
414.705	417.69
414.928	412.69
415.151	383.69
415.374	393.69
415.597	408.69
415.821	407.69
416.044	399.69
416.267	407.69
416.49	412.69
416.713	399.69
416.936	400.69
417.159	405.69
417.382	407.69
417.605	408.69
417.828	416.69
418.051	426.69
418.274	424.69
418.497	414.69
418.72	412.69
418.943	397.69
419.166	424.69
419.389	430.69
419.611	447.69
419.834	428.69
420.057	419.69
420.28	440.69
420.503	424.69
420.726	439.69
420.948	446.69
421.171	465.69
421.394	471.69
421.617	452.69
421.839	440.69
422.062	424.69
422.285	441.69
422.507	484.69
422.73	536.69
422.953	526.69
423.175	462.69
423.398	432.69
423.621	440.69
423.843	462.69
424.066	451.69
424.288	459.69
424.511	490.69
424.733	538.69
424.956	569.69
425.178	577.69
425.401	537.69
425.623	545.69
425.846	503.69
426.068	449.69
426.291	456.69
426.513	444.69
426.735	466.69
426.958	526.69
427.18	549.69
427.402	661.69
427.625	734.69
427.847	639.69
428.069	560.69
428.292	491.69
428.514	468.69
428.736	431.69
428.958	433.69
429.181	431.69
429.403	433.69
429.625	437.69
429.847	470.69
430.069	503.69
430.292	504.69
430.514	443.69
430.736	406.69
430.958	418.69
431.18	402.69
431.402	413.69
431.624	373.69
431.846	393.69
432.068	391.69
432.29	408.69
432.512	384.69
432.734	406.69
432.956	402.69
433.178	414.69
433.4	419.69
433.622	415.69
433.844	396.69
434.066	411.69
434.287	409.69
434.509	391.69
434.731	410.69
434.953	407.69
435.175	440.69
435.397	454.69
435.618	441.69
435.84	493.69
436.062	550.69
436.284	623.69
436.505	518.69
436.727	456.69
436.949	440.69
437.17	433.69
437.392	430.69
437.614	438.69
437.835	448.69
438.057	547.69
438.278	604.69
438.5	644.69
438.721	677.69
438.943	646.69
439.165	511.69
439.386	474.69
439.608	440.69
439.829	476.69
440.05	486.69
440.272	525.69
440.493	492.69
440.715	440.69
440.936	436.69
441.158	427.69
441.379	427.69
441.6	430.69
441.822	464.69
442.043	481.69
442.264	558.69
442.486	585.69
442.707	492.69
442.928	451.69
443.149	475.69
443.371	489.69
443.592	531.69
443.813	582.69
444.034	634.69
444.255	522.69
444.476	502.69
444.698	464.69
444.919	475.69
445.14	557.69
445.361	520.69
445.582	492.69
445.803	528.69
446.024	624.69
446.245	626.69
446.466	577.69
446.687	516.69
446.908	466.69
447.129	441.69
447.35	430.69
447.571	426.69
447.792	438.69
448.013	436.69
448.234	468.69
448.455	468.69
448.675	588.69
448.896	631.69
449.117	573.69
449.338	551.69
449.559	619.69
449.779	708.69
450	559.69
450.221	470.69
450.442	422.69
450.662	412.69
450.883	408.69
451.104	429.69
451.324	412.69
451.545	400.69
451.766	408.69
451.986	389.69
452.207	384.69
452.428	375.69
452.648	380.69
452.869	386.69
453.089	365.69
453.31	376.69
453.53	378.69
453.751	361.69
453.971	365.69
454.192	393.69
454.412	387.69
454.633	384.69
454.853	363.69
455.073	386.69
455.294	396.69
455.514	478.69
455.734	446.69
455.955	377.69
456.175	366.69
456.395	362.69
456.616	375.69
456.836	347.69
457.056	354.69
457.276	344.69
457.497	352.69
457.717	353.69
457.937	360.69
458.157	372.69
458.377	372.69
458.598	378.69
458.818	418.69
459.038	487.69
459.258	516.69
459.478	428.69
459.698	388.69
459.918	400.69
460.138	381.69
460.358	398.69
460.578	386.69
460.798	392.69
461.018	400.69
461.238	394.69
461.458	400.69
461.678	401.69
461.898	398.69
462.118	394.69
462.338	393.69
462.558	403.69
462.777	416.69
462.997	431.69
463.217	428.69
463.437	426.69
463.657	412.69
463.876	414.69
464.096	415.69
464.316	410.69
464.536	438.69
464.755	423.69
464.975	425.69
465.195	466.69
465.414	490.69
465.634	444.69
465.854	443.69
466.073	399.69
466.293	381.69
466.512	365.69
466.732	386.69
466.951	358.69
467.171	381.69
467.391	384.69
467.61	390.69
467.829	394.69
468.049	394.69
468.268	385.69
468.488	364.69
468.707	386.69
468.927	377.69
469.146	374.69
469.365	390.69
469.585	373.69
469.804	382.69
470.023	381.69
470.243	393.69
470.462	391.69
470.681	417.69
470.901	396.69
471.12	389.69
471.339	398.69
471.558	395.69
471.777	401.69
471.997	388.69
472.216	393.69
472.435	417.69
472.654	416.69
472.873	381.69
473.092	366.69
473.311	376.69
473.53	392.69
473.749	401.69
473.968	433.69
474.187	525.69
474.406	531.69
474.625	460.69
474.844	413.69
475.063	382.69
475.282	384.69
475.501	372.69
475.72	408.69
475.939	412.69
476.158	394.69
476.377	413.69
476.596	396.69
476.814	409.69
477.033	406.69
477.252	425.69
477.471	409.69
477.69	403.69
477.908	433.69
478.127	424.69
478.346	442.69
478.564	442.69
478.783	445.69
479.002	443.69
479.22	421.69
479.439	442.69
479.658	439.69
479.876	443.69
480.095	471.69
480.313	478.69
480.532	466.69
480.751	479.69
480.969	463.69
481.188	510.69
481.406	540.69
481.624	471.69
481.843	459.69
482.061	451.69
482.28	454.69
482.498	455.69
482.717	463.69
482.935	432.69
483.153	449.69
483.372	464.69
483.59	459.69
483.808	446.69
484.027	428.69
484.245	447.69
484.463	446.69
484.681	467.69
484.9	465.69
485.118	469.69
485.336	453.69
485.554	459.69
485.772	449.69
485.99	458.69
486.209	470.69
486.427	459.69
486.645	461.69
486.863	485.69
487.081	501.69
487.299	486.69
487.517	458.69
487.735	472.69
487.953	482.69
488.171	490.69
488.389	481.69
488.607	500.69
488.825	472.69
489.043	503.69
489.261	454.69
489.479	480.69
489.696	500.69
489.914	494.69
490.132	489.69
490.35	500.69
490.568	505.69
490.786	485.69
491.003	525.69
491.221	550.69
491.439	547.69
491.657	565.69
491.874	568.69
492.092	550.69
492.31	542.69
492.527	543.69
492.745	563.69
492.963	584.69
493.18	561.69
493.398	568.69
493.615	584.69
493.833	553.69
494.05	585.69
494.268	569.69
494.485	564.69
494.703	574.69
494.92	552.69
495.138	557.69
495.355	574.69
495.573	594.69
495.79	592.69
496.008	588.69
496.225	576.69
496.442	570.69
496.66	562.69
496.877	578.69
497.094	573.69
497.312	590.69
497.529	578.69
497.746	573.69
497.963	615.69
498.181	615.69
498.398	608.69
498.615	621.69
498.832	640.69
499.049	638.69
499.267	658.69
499.484	662.69
499.701	688.69
499.918	702.69
500.135	736.69
500.352	733.69
500.569	758.69
500.786	776.69
501.003	736.69
501.22	730.69
501.437	721.69
501.654	702.69
501.871	717.69
