Data from 1971.PennyLincolnUp.Lamp.En5.5.200Scan.071719.P1._HRD10591_15-19-47-841.txt Node
Date: Thu Jul 18 15:19:47 EDT 2019
User: cochatt
Spectrometer: HR+D1059
Trigger mode: 1
Integration Time (sec): 1.000000E-1
Scans to average: 1
Electric dark correction enabled: true
Nonlinearity correction enabled: false
Boxcar width: 0
XAxis mode: Wavelengths
Number of Pixels in Spectrum: 2048
>>>>>Begin Spectral Data<<<<<
223.165	-20.81
223.4	-20.81
223.635	-20.81
223.869	-6.81
224.104	-18.81
224.338	-12.81
224.573	-19.81
224.808	-7.81
225.042	1.19
225.277	-10.81
225.511	0.19
225.746	5.19
225.98	9.19
226.215	16.19
226.449	5.19
226.683	10.19
226.918	25.19
227.152	25.19
227.387	34.19
227.621	37.19
227.856	42.19
228.09	53.19
228.324	45.19
228.559	51.19
228.793	74.19
229.027	102.19
229.262	109.19
229.496	110.19
229.73	129.19
229.964	163.19
230.199	132.19
230.433	91.19
230.667	114.19
230.901	122.19
231.136	118.19
231.37	112.19
231.604	107.19
231.838	108.19
232.072	110.19
232.306	107.19
232.541	89.19
232.775	113.19
233.009	117.19
233.243	121.19
233.477	101.19
233.711	113.19
233.945	121.19
234.179	104.19
234.413	141.19
234.647	124.19
234.881	118.19
235.115	122.19
235.349	131.19
235.583	128.19
235.817	133.19
236.051	131.19
236.285	126.19
236.519	125.19
236.753	133.19
236.987	150.19
237.221	176.19
237.455	206.19
237.689	181.19
237.922	145.19
238.156	137.19
238.39	127.19
238.624	122.19
238.858	129.19
239.091	142.19
239.325	139.19
239.559	133.19
239.793	122.19
240.027	147.19
240.26	134.19
240.494	159.19
240.728	157.19
240.961	148.19
241.195	141.19
241.429	128.19
241.662	138.19
241.896	145.19
242.13	134.19
242.363	130.19
242.597	147.19
242.83	141.19
243.064	143.19
243.298	130.19
243.531	143.19
243.765	140.19
243.998	146.19
244.232	151.19
244.465	150.19
244.699	144.19
244.932	159.19
245.166	146.19
245.399	153.19
245.633	157.19
245.866	158.19
246.099	145.19
246.333	138.19
246.566	163.19
246.8	161.19
247.033	153.19
247.266	161.19
247.5	167.19
247.733	171.19
247.966	188.19
248.2	175.19
248.433	176.19
248.666	182.19
248.899	188.19
249.133	211.19
249.366	201.19
249.599	194.19
249.832	183.19
250.066	195.19
250.299	201.19
250.532	189.19
250.765	207.19
250.998	219.19
251.231	242.19
251.465	210.19
251.698	197.19
251.931	206.19
252.164	225.19
252.397	206.19
252.63	220.19
252.863	225.19
253.096	214.19
253.329	241.19
253.562	229.19
253.795	225.19
254.028	210.19
254.261	217.19
254.494	247.19
254.727	264.19
254.96	281.19
255.193	286.19
255.426	265.19
255.659	259.19
255.892	241.19
256.124	255.19
256.357	255.19
256.59	235.19
256.823	232.19
257.056	233.19
257.289	228.19
257.521	230.19
257.754	234.19
257.987	223.19
258.22	227.19
258.452	205.19
258.685	243.19
258.918	235.19
259.151	215.19
259.383	238.19
259.616	245.19
259.849	249.19
260.081	254.19
260.314	273.19
260.547	269.19
260.779	257.19
261.012	256.19
261.244	233.19
261.477	253.19
261.71	237.19
261.942	241.19
262.175	242.19
262.407	233.19
262.64	223.19
262.872	236.19
263.105	224.19
263.337	220.19
263.57	248.19
263.802	239.19
264.035	233.19
264.267	223.19
264.499	218.19
264.732	244.19
264.964	241.19
265.197	245.19
265.429	220.19
265.661	224.19
265.894	226.19
266.126	239.19
266.358	239.19
266.591	245.19
266.823	230.19
267.055	248.19
267.287	238.19
267.52	249.19
267.752	249.19
267.984	251.19
268.216	254.19
268.448	256.19
268.681	271.19
268.913	264.19
269.145	285.19
269.377	300.19
269.609	282.19
269.841	306.19
270.073	286.19
270.306	313.19
270.538	333.19
270.77	313.19
271.002	306.19
271.234	304.19
271.466	309.19
271.698	313.19
271.93	345.19
272.162	321.19
272.394	343.19
272.626	313.19
272.858	306.19
273.09	303.19
273.322	293.19
273.553	294.19
273.785	270.19
274.017	276.19
274.249	270.19
274.481	289.19
274.713	276.19
274.945	294.19
275.176	290.19
275.408	269.19
275.64	262.19
275.872	274.19
276.104	276.19
276.335	290.19
276.567	282.19
276.799	288.19
277.031	317.19
277.262	340.19
277.494	338.19
277.726	311.19
277.957	294.19
278.189	289.19
278.421	311.19
278.652	290.19
278.884	288.19
279.115	301.19
279.347	291.19
279.579	298.19
279.81	281.19
280.042	285.19
280.273	288.19
280.505	287.19
280.736	302.19
280.968	288.19
281.199	285.19
281.431	286.19
281.662	290.19
281.894	291.19
282.125	289.19
282.356	285.19
282.588	329.19
282.819	313.19
283.051	285.19
283.282	290.19
283.513	293.19
283.745	305.19
283.976	294.19
284.207	302.19
284.439	298.19
284.67	299.19
284.901	286.19
285.132	289.19
285.364	292.19
285.595	281.19
285.826	293.19
286.057	309.19
286.288	302.19
286.52	317.19
286.751	302.19
286.982	299.19
287.213	290.19
287.444	308.19
287.675	290.19
287.906	316.19
288.138	337.19
288.369	327.19
288.6	311.19
288.831	312.19
289.062	312.19
289.293	298.19
289.524	326.19
289.755	317.19
289.986	318.19
290.217	305.19
290.448	313.19
290.679	303.19
290.91	294.19
291.141	294.19
291.371	307.19
291.602	317.19
291.833	313.19
292.064	312.19
292.295	301.19
292.526	293.19
292.757	314.19
292.987	319.19
293.218	312.19
293.449	303.19
293.68	303.19
293.91	312.19
294.141	307.19
294.372	319.19
294.603	316.19
294.833	311.19
295.064	298.19
295.295	298.19
295.525	309.19
295.756	352.19
295.987	321.19
296.217	340.19
296.448	332.19
296.679	310.19
296.909	337.19
297.14	323.19
297.37	340.19
297.601	301.19
297.831	315.19
298.062	331.19
298.292	316.19
298.523	326.19
298.753	325.19
298.984	322.19
299.214	322.19
299.445	335.19
299.675	328.19
299.905	326.19
300.136	303.19
300.366	338.19
300.597	324.19
300.827	322.19
301.057	332.19
301.288	345.19
301.518	329.19
301.748	331.19
301.979	323.19
302.209	345.19
302.439	348.19
302.669	346.19
302.9	342.19
303.13	356.19
303.36	352.19
303.59	343.19
303.82	359.19
304.051	356.19
304.281	364.19
304.511	336.19
304.741	341.19
304.971	338.19
305.201	351.19
305.431	343.19
305.661	327.19
305.891	328.19
306.121	342.19
306.352	345.19
306.582	350.19
306.812	338.19
307.042	356.19
307.272	364.19
307.502	357.19
307.731	354.19
307.961	339.19
308.191	340.19
308.421	356.19
308.651	343.19
308.881	362.19
309.111	353.19
309.341	361.19
309.571	377.19
309.8	373.19
310.03	366.19
310.26	372.19
310.49	391.19
310.72	392.19
310.949	385.19
311.179	405.19
311.409	392.19
311.639	385.19
311.868	376.19
312.098	400.19
312.328	389.19
312.557	386.19
312.787	408.19
313.017	405.19
313.246	388.19
313.476	387.19
313.706	375.19
313.935	399.19
314.165	401.19
314.394	400.19
314.624	409.19
314.853	401.19
315.083	408.19
315.312	399.19
315.542	402.19
315.771	397.19
316.001	367.19
316.23	377.19
316.46	385.19
316.689	419.19
316.919	395.19
317.148	407.19
317.377	414.19
317.607	398.19
317.836	393.19
318.065	418.19
318.295	410.19
318.524	418.19
318.753	395.19
318.983	398.19
319.212	376.19
319.441	404.19
319.67	414.19
319.9	411.19
320.129	401.19
320.358	395.19
320.587	417.19
320.816	413.19
321.046	401.19
321.275	407.19
321.504	401.19
321.733	418.19
321.962	417.19
322.191	447.19
322.42	438.19
322.649	446.19
322.878	461.19
323.108	472.19
323.337	506.19
323.566	496.19
323.795	563.19
324.024	581.19
324.253	719.19
324.482	1005.19
324.71	1564.19
324.939	2059.19
325.168	1725.19
325.397	901.19
325.626	641.19
325.855	564.19
326.084	513.19
326.313	511.19
326.542	529.19
326.77	595.19
326.999	651.19
327.228	907.19
327.457	1328.19
327.686	1505.19
327.914	1011.19
328.143	695.19
328.372	625.19
328.6	575.19
328.829	542.19
329.058	558.19
329.287	562.19
329.515	504.19
329.744	506.19
329.972	494.19
330.201	530.19
330.43	565.19
330.658	585.19
330.887	582.19
331.115	593.19
331.344	529.19
331.572	494.19
331.801	492.19
332.03	487.19
332.258	467.19
332.486	467.19
332.715	462.19
332.943	451.19
333.172	467.19
333.4	474.19
333.629	482.19
333.857	491.19
334.085	491.19
334.314	501.19
334.542	533.19
334.771	535.19
334.999	474.19
335.227	487.19
335.455	467.19
335.684	464.19
335.912	458.19
336.14	441.19
336.369	439.19
336.597	462.19
336.825	433.19
337.053	434.19
337.281	452.19
337.51	439.19
337.738	416.19
337.966	457.19
338.194	468.19
338.422	443.19
338.65	439.19
338.878	441.19
339.106	423.19
339.334	430.19
339.562	430.19
339.79	432.19
340.018	446.19
340.246	423.19
340.474	436.19
340.702	442.19
340.93	427.19
341.158	429.19
341.386	428.19
341.614	439.19
341.842	413.19
342.07	422.19
342.298	423.19
342.526	419.19
342.754	429.19
342.981	422.19
343.209	404.19
343.437	442.19
343.665	416.19
343.893	418.19
344.12	417.19
344.348	441.19
344.576	450.19
344.804	442.19
345.031	443.19
345.259	431.19
345.487	433.19
345.714	433.19
345.942	424.19
346.17	421.19
346.397	403.19
346.625	402.19
346.853	418.19
347.08	430.19
347.308	433.19
347.535	448.19
347.763	429.19
347.99	427.19
348.218	424.19
348.445	416.19
348.673	426.19
348.9	426.19
349.128	427.19
349.355	409.19
349.583	413.19
349.81	394.19
350.037	393.19
350.265	403.19
350.492	398.19
350.72	406.19
350.947	411.19
351.174	421.19
351.402	404.19
351.629	390.19
351.856	409.19
352.083	402.19
352.311	428.19
352.538	407.19
352.765	416.19
352.992	413.19
353.22	408.19
353.447	404.19
353.674	393.19
353.901	395.19
354.128	387.19
354.355	382.19
354.583	389.19
354.81	398.19
355.037	401.19
355.264	385.19
355.491	379.19
355.718	381.19
355.945	382.19
356.172	371.19
356.399	365.19
356.626	382.19
356.853	377.19
357.08	378.19
357.307	376.19
357.534	379.19
357.761	368.19
357.988	381.19
358.215	365.19
358.441	365.19
358.668	367.19
358.895	375.19
359.122	387.19
359.349	377.19
359.576	400.19
359.802	410.19
360.029	429.19
360.256	426.19
360.483	415.19
360.709	417.19
360.936	416.19
361.163	392.19
361.39	414.19
361.616	394.19
361.843	389.19
362.07	408.19
362.296	389.19
362.523	400.19
362.749	380.19
362.976	400.19
363.203	404.19
363.429	388.19
363.656	385.19
363.882	389.19
364.109	379.19
364.335	386.19
364.562	373.19
364.788	364.19
365.015	389.19
365.241	385.19
365.468	390.19
365.694	378.19
365.92	374.19
366.147	370.19
366.373	362.19
366.599	374.19
366.826	385.19
367.052	382.19
367.278	382.19
367.505	360.19
367.731	359.19
367.957	362.19
368.184	379.19
368.41	389.19
368.636	389.19
368.862	368.19
369.089	381.19
369.315	354.19
369.541	365.19
369.767	382.19
369.993	369.19
370.219	367.19
370.445	381.19
370.672	381.19
370.898	389.19
371.124	363.19
371.35	365.19
371.576	384.19
371.802	369.19
372.028	377.19
372.254	364.19
372.48	358.19
372.706	368.19
372.932	344.19
373.158	359.19
373.384	380.19
373.61	356.19
373.835	349.19
374.061	364.19
374.287	371.19
374.513	387.19
374.739	378.19
374.965	365.19
375.191	367.19
375.416	362.19
375.642	374.19
375.868	374.19
376.094	369.19
376.319	341.19
376.545	353.19
376.771	344.19
376.997	372.19
377.222	372.19
377.448	366.19
377.674	373.19
377.899	365.19
378.125	358.19
378.35	359.19
378.576	381.19
378.802	344.19
379.027	366.19
379.253	362.19
379.478	360.19
379.704	382.19
379.929	387.19
380.155	378.19
380.38	357.19
380.606	355.19
380.831	376.19
381.057	381.19
381.282	370.19
381.507	358.19
381.733	363.19
381.958	374.19
382.184	356.19
382.409	355.19
382.634	386.19
382.86	368.19
383.085	369.19
383.31	379.19
383.535	378.19
383.761	382.19
383.986	389.19
384.211	375.19
384.436	372.19
384.662	380.19
384.887	386.19
385.112	380.19
385.337	373.19
385.562	377.19
385.787	383.19
386.013	389.19
386.238	395.19
386.463	392.19
386.688	384.19
386.913	391.19
387.138	377.19
387.363	383.19
387.588	383.19
387.813	364.19
388.038	403.19
388.263	401.19
388.488	381.19
388.713	374.19
388.938	375.19
389.163	377.19
389.387	378.19
389.612	379.19
389.837	380.19
390.062	377.19
390.287	377.19
390.512	381.19
390.736	389.19
390.961	354.19
391.186	364.19
391.411	396.19
391.636	385.19
391.86	385.19
392.085	374.19
392.31	385.19
392.534	381.19
392.759	388.19
392.984	401.19
393.208	381.19
393.433	387.19
393.658	389.19
393.882	371.19
394.107	377.19
394.331	383.19
394.556	363.19
394.78	391.19
395.005	373.19
395.229	381.19
395.454	391.19
395.678	401.19
395.903	399.19
396.127	400.19
396.352	425.19
396.576	389.19
396.801	399.19
397.025	381.19
397.249	390.19
397.474	416.19
397.698	417.19
397.922	396.19
398.147	424.19
398.371	418.19
398.595	423.19
398.82	430.19
399.044	441.19
399.268	444.19
399.492	447.19
399.717	497.19
399.941	486.19
400.165	518.19
400.389	518.19
400.613	480.19
400.837	458.19
401.062	443.19
401.286	439.19
401.51	421.19
401.734	413.19
401.958	441.19
402.182	427.19
402.406	435.19
402.63	425.19
402.854	430.19
403.078	412.19
403.302	413.19
403.526	433.19
403.75	445.19
403.974	439.19
404.198	445.19
404.422	431.19
404.645	446.19
404.869	451.19
405.093	456.19
405.317	519.19
405.541	539.19
405.765	485.19
405.988	459.19
406.212	466.19
406.436	467.19
406.66	460.19
406.883	477.19
407.107	481.19
407.331	515.19
407.555	577.19
407.778	575.19
408.002	530.19
408.226	482.19
408.449	490.19
408.673	487.19
408.896	489.19
409.12	529.19
409.344	475.19
409.567	472.19
409.791	469.19
410.014	440.19
410.238	438.19
410.461	425.19
410.685	437.19
410.908	451.19
411.132	495.19
411.355	511.19
411.578	496.19
411.802	453.19
412.025	439.19
412.249	433.19
412.472	461.19
412.695	494.19
412.919	480.19
413.142	443.19
413.365	433.19
413.589	439.19
413.812	414.19
414.035	421.19
414.258	427.19
414.482	419.19
414.705	412.19
414.928	386.19
415.151	397.19
415.374	400.19
415.597	399.19
415.821	385.19
416.044	405.19
416.267	416.19
416.49	407.19
416.713	394.19
416.936	416.19
417.159	406.19
417.382	438.19
417.605	413.19
417.828	421.19
418.051	412.19
418.274	427.19
418.497	408.19
418.72	394.19
418.943	409.19
419.166	419.19
419.389	454.19
419.611	461.19
419.834	431.19
420.057	441.19
420.28	432.19
420.503	437.19
420.726	437.19
420.948	472.19
421.171	469.19
421.394	519.19
421.617	453.19
421.839	445.19
422.062	415.19
422.285	449.19
422.507	490.19
422.73	522.19
422.953	544.19
423.175	479.19
423.398	479.19
423.621	423.19
423.843	455.19
424.066	456.19
424.288	466.19
424.511	482.19
424.733	542.19
424.956	591.19
425.178	578.19
425.401	565.19
425.623	557.19
425.846	496.19
426.068	473.19
426.291	459.19
426.513	440.19
426.735	486.19
426.958	505.19
427.18	577.19
427.402	666.19
427.625	737.19
427.847	647.19
428.069	561.19
428.292	501.19
428.514	463.19
428.736	448.19
428.958	453.19
429.181	450.19
429.403	442.19
429.625	441.19
429.847	459.19
430.069	505.19
430.292	527.19
430.514	443.19
430.736	412.19
430.958	424.19
431.18	410.19
431.402	414.19
431.624	403.19
431.846	389.19
432.068	392.19
432.29	414.19
432.512	415.19
432.734	418.19
432.956	398.19
433.178	411.19
433.4	430.19
433.622	400.19
433.844	390.19
434.066	391.19
434.287	413.19
434.509	396.19
434.731	391.19
434.953	405.19
435.175	424.19
435.397	441.19
435.618	454.19
435.84	484.19
436.062	583.19
436.284	614.19
436.505	517.19
436.727	472.19
436.949	439.19
437.17	418.19
437.392	434.19
437.614	438.19
437.835	468.19
438.057	561.19
438.278	618.19
438.5	613.19
438.721	687.19
438.943	657.19
439.165	545.19
439.386	483.19
439.608	490.19
439.829	462.19
440.05	472.19
440.272	531.19
440.493	514.19
440.715	464.19
440.936	440.19
441.158	426.19
441.379	433.19
441.6	443.19
441.822	459.19
442.043	489.19
442.264	588.19
442.486	591.19
442.707	525.19
442.928	465.19
443.149	474.19
443.371	515.19
443.592	547.19
443.813	610.19
444.034	635.19
444.255	518.19
444.476	488.19
444.698	458.19
444.919	449.19
445.14	575.19
445.361	550.19
445.582	506.19
445.803	556.19
446.024	625.19
446.245	639.19
446.466	586.19
446.687	485.19
446.908	461.19
447.129	467.19
447.35	446.19
447.571	444.19
447.792	426.19
448.013	443.19
448.234	463.19
448.455	486.19
448.675	585.19
448.896	646.19
449.117	561.19
449.338	551.19
449.559	638.19
449.779	709.19
450	573.19
450.221	443.19
450.442	425.19
450.662	407.19
450.883	427.19
451.104	452.19
451.324	417.19
451.545	386.19
451.766	415.19
451.986	383.19
452.207	383.19
452.428	387.19
452.648	367.19
452.869	399.19
453.089	390.19
453.31	400.19
453.53	362.19
453.751	390.19
453.971	392.19
454.192	390.19
454.412	382.19
454.633	386.19
454.853	391.19
455.073	366.19
455.294	411.19
455.514	453.19
455.734	431.19
455.955	385.19
456.175	356.19
456.395	371.19
456.616	349.19
456.836	361.19
457.056	353.19
457.276	350.19
457.497	360.19
457.717	377.19
457.937	358.19
458.157	358.19
458.377	355.19
458.598	370.19
458.818	450.19
459.038	499.19
459.258	525.19
459.478	438.19
459.698	387.19
459.918	386.19
460.138	390.19
460.358	407.19
460.578	390.19
460.798	406.19
461.018	410.19
461.238	393.19
461.458	414.19
461.678	381.19
461.898	389.19
462.118	381.19
462.338	397.19
462.558	419.19
462.777	414.19
462.997	416.19
463.217	429.19
463.437	416.19
463.657	430.19
463.876	418.19
464.096	412.19
464.316	403.19
464.536	449.19
464.755	426.19
464.975	403.19
465.195	456.19
465.414	492.19
465.634	446.19
465.854	415.19
466.073	401.19
466.293	385.19
466.512	381.19
466.732	378.19
466.951	393.19
467.171	392.19
467.391	380.19
467.61	409.19
467.829	387.19
468.049	394.19
468.268	379.19
468.488	382.19
468.707	384.19
468.927	374.19
469.146	391.19
469.365	387.19
469.585	374.19
469.804	378.19
470.023	388.19
470.243	393.19
470.462	396.19
470.681	408.19
470.901	415.19
471.12	399.19
471.339	381.19
471.558	399.19
471.777	397.19
471.997	393.19
472.216	385.19
472.435	423.19
472.654	405.19
472.873	385.19
473.092	396.19
473.311	403.19
473.53	400.19
473.749	422.19
473.968	439.19
474.187	538.19
474.406	544.19
474.625	445.19
474.844	401.19
475.063	398.19
475.282	387.19
475.501	402.19
475.72	389.19
475.939	415.19
476.158	419.19
476.377	381.19
476.596	397.19
476.814	413.19
477.033	425.19
477.252	409.19
477.471	400.19
477.69	429.19
477.908	427.19
478.127	447.19
478.346	437.19
478.564	428.19
478.783	447.19
479.002	430.19
479.22	470.19
479.439	476.19
479.658	444.19
479.876	462.19
480.095	469.19
480.313	491.19
480.532	478.19
480.751	473.19
480.969	463.19
481.188	505.19
481.406	521.19
481.624	475.19
481.843	463.19
482.061	449.19
482.28	453.19
482.498	439.19
482.717	454.19
482.935	447.19
483.153	439.19
483.372	452.19
483.59	451.19
483.808	433.19
484.027	441.19
484.245	447.19
484.463	449.19
484.681	471.19
484.9	453.19
485.118	467.19
485.336	464.19
485.554	467.19
485.772	468.19
485.99	460.19
486.209	442.19
486.427	465.19
486.645	474.19
486.863	504.19
487.081	486.19
487.299	482.19
487.517	467.19
487.735	479.19
487.953	495.19
488.171	502.19
488.389	493.19
488.607	480.19
488.825	478.19
489.043	487.19
489.261	491.19
489.479	500.19
489.696	479.19
489.914	480.19
490.132	498.19
490.35	501.19
490.568	525.19
490.786	527.19
491.003	519.19
491.221	540.19
491.439	543.19
491.657	540.19
491.874	559.19
492.092	566.19
492.31	542.19
492.527	566.19
492.745	553.19
492.963	566.19
493.18	547.19
493.398	561.19
493.615	579.19
493.833	567.19
494.05	576.19
494.268	569.19
494.485	570.19
494.703	585.19
494.92	578.19
495.138	577.19
495.355	607.19
495.573	582.19
495.79	593.19
496.008	593.19
496.225	591.19
496.442	578.19
496.66	596.19
496.877	590.19
497.094	566.19
497.312	592.19
497.529	562.19
497.746	585.19
497.963	607.19
498.181	624.19
498.398	615.19
498.615	624.19
498.832	611.19
499.049	610.19
499.267	637.19
499.484	661.19
499.701	671.19
499.918	715.19
500.135	731.19
500.352	748.19
500.569	746.19
500.786	744.19
501.003	734.19
501.22	727.19
501.437	714.19
501.654	702.19
501.871	701.19
