Data from 1971.PennyLincolnUp.Lamp.En5.5.200Scan.071719.P1.Scan 2. Changed Angle._HRD10591_15-25-18-843.txt Node
Date: Thu Jul 18 15:25:18 EDT 2019
User: cochatt
Spectrometer: HR+D1059
Trigger mode: 1
Integration Time (sec): 1.000000E-1
Scans to average: 1
Electric dark correction enabled: true
Nonlinearity correction enabled: false
Boxcar width: 0
XAxis mode: Wavelengths
Number of Pixels in Spectrum: 2048
>>>>>Begin Spectral Data<<<<<
223.165	-13.5
223.4	-13.5
223.635	-13.5
223.869	-1.5
224.104	-20.5
224.338	-7.5
224.573	-2.5
224.808	-20.5
225.042	-5.5
225.277	-11.5
225.511	-13.5
225.746	-4.5
225.98	3.5
226.215	12.5
226.449	6.5
226.683	15.5
226.918	30.5
227.152	32.5
227.387	35.5
227.621	38.5
227.856	57.5
228.09	45.5
228.324	52.5
228.559	43.5
228.793	83.5
229.027	110.5
229.262	123.5
229.496	139.5
229.73	154.5
229.964	187.5
230.199	157.5
230.433	118.5
230.667	126.5
230.901	128.5
231.136	119.5
231.37	127.5
231.604	111.5
231.838	118.5
232.072	132.5
232.306	124.5
232.541	130.5
232.775	122.5
233.009	117.5
233.243	109.5
233.477	137.5
233.711	125.5
233.945	122.5
234.179	133.5
234.413	130.5
234.647	136.5
234.881	132.5
235.115	118.5
235.349	132.5
235.583	135.5
235.817	133.5
236.051	158.5
236.285	138.5
236.519	130.5
236.753	127.5
236.987	159.5
237.221	236.5
237.455	282.5
237.689	217.5
237.922	164.5
238.156	155.5
238.39	127.5
238.624	137.5
238.858	131.5
239.091	138.5
239.325	116.5
239.559	142.5
239.793	143.5
240.027	149.5
240.26	156.5
240.494	171.5
240.728	166.5
240.961	176.5
241.195	156.5
241.429	158.5
241.662	163.5
241.896	152.5
242.13	149.5
242.363	143.5
242.597	135.5
242.83	147.5
243.064	146.5
243.298	158.5
243.531	157.5
243.765	152.5
243.998	151.5
244.232	151.5
244.465	163.5
244.699	160.5
244.932	170.5
245.166	174.5
245.399	162.5
245.633	151.5
245.866	148.5
246.099	156.5
246.333	165.5
246.566	171.5
246.8	157.5
247.033	161.5
247.266	184.5
247.5	166.5
247.733	186.5
247.966	187.5
248.2	182.5
248.433	169.5
248.666	177.5
248.899	193.5
249.133	227.5
249.366	229.5
249.599	227.5
249.832	196.5
250.066	194.5
250.299	173.5
250.532	228.5
250.765	240.5
250.998	238.5
251.231	266.5
251.465	236.5
251.698	239.5
251.931	227.5
252.164	235.5
252.397	215.5
252.63	220.5
252.863	228.5
253.096	269.5
253.329	260.5
253.562	248.5
253.795	254.5
254.028	230.5
254.261	242.5
254.494	260.5
254.727	293.5
254.96	327.5
255.193	333.5
255.426	288.5
255.659	262.5
255.892	269.5
256.124	253.5
256.357	267.5
256.59	259.5
256.823	245.5
257.056	240.5
257.289	252.5
257.521	225.5
257.754	230.5
257.987	249.5
258.22	230.5
258.452	210.5
258.685	223.5
258.918	231.5
259.151	252.5
259.383	239.5
259.616	232.5
259.849	260.5
260.081	254.5
260.314	278.5
260.547	286.5
260.779	281.5
261.012	283.5
261.244	249.5
261.477	251.5
261.71	248.5
261.942	262.5
262.175	266.5
262.407	256.5
262.64	247.5
262.872	249.5
263.105	215.5
263.337	244.5
263.57	254.5
263.802	228.5
264.035	226.5
264.267	224.5
264.499	222.5
264.732	212.5
264.964	226.5
265.197	212.5
265.429	224.5
265.661	220.5
265.894	209.5
266.126	241.5
266.358	230.5
266.591	223.5
266.823	232.5
267.055	239.5
267.287	264.5
267.52	244.5
267.752	227.5
267.984	215.5
268.216	238.5
268.448	250.5
268.681	254.5
268.913	249.5
269.145	290.5
269.377	291.5
269.609	297.5
269.841	280.5
270.073	304.5
270.306	332.5
270.538	340.5
270.77	351.5
271.002	354.5
271.234	328.5
271.466	337.5
271.698	373.5
271.93	363.5
272.162	364.5
272.394	346.5
272.626	334.5
272.858	311.5
273.09	307.5
273.322	314.5
273.553	299.5
273.785	288.5
274.017	311.5
274.249	286.5
274.481	292.5
274.713	283.5
274.945	286.5
275.176	279.5
275.408	296.5
275.64	272.5
275.872	282.5
276.104	278.5
276.335	290.5
276.567	291.5
276.799	315.5
277.031	351.5
277.262	355.5
277.494	351.5
277.726	325.5
277.957	329.5
278.189	299.5
278.421	296.5
278.652	279.5
278.884	297.5
279.115	270.5
279.347	278.5
279.579	267.5
279.81	268.5
280.042	284.5
280.273	279.5
280.505	268.5
280.736	264.5
280.968	275.5
281.199	302.5
281.431	278.5
281.662	287.5
281.894	281.5
282.125	286.5
282.356	306.5
282.588	351.5
282.819	350.5
283.051	297.5
283.282	273.5
283.513	286.5
283.745	289.5
283.976	299.5
284.207	294.5
284.439	294.5
284.67	293.5
284.901	300.5
285.132	290.5
285.364	281.5
285.595	290.5
285.826	296.5
286.057	281.5
286.288	276.5
286.52	303.5
286.751	294.5
286.982	276.5
287.213	286.5
287.444	278.5
287.675	310.5
287.906	301.5
288.138	304.5
288.369	321.5
288.6	319.5
288.831	301.5
289.062	295.5
289.293	283.5
289.524	286.5
289.755	281.5
289.986	271.5
290.217	299.5
290.448	292.5
290.679	286.5
290.91	319.5
291.141	298.5
291.371	302.5
291.602	293.5
291.833	282.5
292.064	274.5
292.295	288.5
292.526	291.5
292.757	293.5
292.987	295.5
293.218	267.5
293.449	285.5
293.68	276.5
293.91	298.5
294.141	289.5
294.372	285.5
294.603	286.5
294.833	296.5
295.064	298.5
295.295	286.5
295.525	324.5
295.756	303.5
295.987	308.5
296.217	344.5
296.448	352.5
296.679	323.5
296.909	292.5
297.14	293.5
297.37	298.5
297.601	304.5
297.831	297.5
298.062	296.5
298.292	315.5
298.523	306.5
298.753	303.5
298.984	301.5
299.214	294.5
299.445	301.5
299.675	326.5
299.905	338.5
300.136	311.5
300.366	317.5
300.597	310.5
300.827	318.5
301.057	327.5
301.288	341.5
301.518	330.5
301.748	318.5
301.979	328.5
302.209	336.5
302.439	340.5
302.669	334.5
302.9	330.5
303.13	321.5
303.36	330.5
303.59	341.5
303.82	346.5
304.051	340.5
304.281	344.5
304.511	335.5
304.741	324.5
304.971	326.5
305.201	337.5
305.431	341.5
305.661	335.5
305.891	314.5
306.121	328.5
306.352	360.5
306.582	344.5
306.812	330.5
307.042	319.5
307.272	341.5
307.502	339.5
307.731	341.5
307.961	358.5
308.191	358.5
308.421	353.5
308.651	346.5
308.881	354.5
309.111	367.5
309.341	366.5
309.571	358.5
309.8	376.5
310.03	390.5
310.26	401.5
310.49	394.5
310.72	408.5
310.949	450.5
311.179	440.5
311.409	412.5
311.639	378.5
311.868	436.5
312.098	414.5
312.328	418.5
312.557	431.5
312.787	450.5
313.017	437.5
313.246	436.5
313.476	426.5
313.706	392.5
313.935	404.5
314.165	416.5
314.394	435.5
314.624	442.5
314.853	420.5
315.083	404.5
315.312	420.5
315.542	399.5
315.771	400.5
316.001	371.5
316.23	391.5
316.46	363.5
316.689	393.5
316.919	416.5
317.148	418.5
317.377	428.5
317.607	444.5
317.836	387.5
318.065	423.5
318.295	380.5
318.524	400.5
318.753	398.5
318.983	397.5
319.212	387.5
319.441	414.5
319.67	429.5
319.9	399.5
320.129	426.5
320.358	412.5
320.587	410.5
320.816	435.5
321.046	439.5
321.275	434.5
321.504	432.5
321.733	424.5
321.962	465.5
322.191	463.5
322.42	481.5
322.649	504.5
322.878	506.5
323.108	520.5
323.337	572.5
323.566	594.5
323.795	627.5
324.024	685.5
324.253	862.5
324.482	1291.5
324.71	2034.5
324.939	2970.5
325.168	2563.5
325.397	1298.5
325.626	841.5
325.855	677.5
326.084	618.5
326.313	601.5
326.542	622.5
326.77	669.5
326.999	822.5
327.228	1152.5
327.457	1789.5
327.686	2201.5
327.914	1464.5
328.143	946.5
328.372	810.5
328.6	730.5
328.829	696.5
329.058	709.5
329.287	707.5
329.515	665.5
329.744	607.5
329.972	605.5
330.201	607.5
330.43	683.5
330.658	748.5
330.887	748.5
331.115	725.5
331.344	606.5
331.572	561.5
331.801	563.5
332.03	579.5
332.258	525.5
332.486	490.5
332.715	490.5
332.943	484.5
333.172	492.5
333.4	475.5
333.629	507.5
333.857	526.5
334.085	530.5
334.314	570.5
334.542	583.5
334.771	632.5
334.999	534.5
335.227	505.5
335.455	500.5
335.684	483.5
335.912	456.5
336.14	460.5
336.369	470.5
336.597	487.5
336.825	493.5
337.053	480.5
337.281	441.5
337.51	449.5
337.738	460.5
337.966	463.5
338.194	477.5
338.422	473.5
338.65	469.5
338.878	462.5
339.106	450.5
339.334	444.5
339.562	447.5
339.79	458.5
340.018	440.5
340.246	458.5
340.474	466.5
340.702	461.5
340.93	467.5
341.158	469.5
341.386	466.5
341.614	461.5
341.842	471.5
342.07	440.5
342.298	444.5
342.526	460.5
342.754	437.5
342.981	442.5
343.209	459.5
343.437	450.5
343.665	438.5
343.893	455.5
344.12	452.5
344.348	462.5
344.576	442.5
344.804	483.5
345.031	476.5
345.259	472.5
345.487	485.5
345.714	471.5
345.942	443.5
346.17	453.5
346.397	452.5
346.625	450.5
346.853	445.5
347.08	455.5
347.308	459.5
347.535	465.5
347.763	476.5
347.99	464.5
348.218	465.5
348.445	479.5
348.673	472.5
348.9	464.5
349.128	448.5
349.355	425.5
349.583	420.5
349.81	423.5
350.037	441.5
350.265	460.5
350.492	453.5
350.72	447.5
350.947	458.5
351.174	465.5
351.402	484.5
351.629	489.5
351.856	468.5
352.083	480.5
352.311	478.5
352.538	481.5
352.765	510.5
352.992	488.5
353.22	436.5
353.447	458.5
353.674	443.5
353.901	425.5
354.128	426.5
354.355	410.5
354.583	429.5
354.81	412.5
355.037	416.5
355.264	402.5
355.491	407.5
355.718	420.5
355.945	410.5
356.172	418.5
356.399	411.5
356.626	395.5
356.853	395.5
357.08	392.5
357.307	399.5
357.534	413.5
357.761	413.5
357.988	417.5
358.215	408.5
358.441	434.5
358.668	420.5
358.895	426.5
359.122	428.5
359.349	457.5
359.576	466.5
359.802	506.5
360.029	532.5
360.256	558.5
360.483	536.5
360.709	473.5
360.936	488.5
361.163	478.5
361.39	462.5
361.616	456.5
361.843	462.5
362.07	460.5
362.296	463.5
362.523	443.5
362.749	459.5
362.976	459.5
363.203	449.5
363.429	443.5
363.656	430.5
363.882	446.5
364.109	438.5
364.335	424.5
364.562	420.5
364.788	430.5
365.015	441.5
365.241	430.5
365.468	438.5
365.694	441.5
365.92	453.5
366.147	444.5
366.373	449.5
366.599	438.5
366.826	428.5
367.052	442.5
367.278	437.5
367.505	428.5
367.731	445.5
367.957	440.5
368.184	454.5
368.41	466.5
368.636	472.5
368.862	443.5
369.089	451.5
369.315	427.5
369.541	410.5
369.767	446.5
369.993	439.5
370.219	447.5
370.445	426.5
370.672	423.5
370.898	438.5
371.124	419.5
371.35	417.5
371.576	439.5
371.802	423.5
372.028	436.5
372.254	420.5
372.48	424.5
372.706	419.5
372.932	411.5
373.158	430.5
373.384	414.5
373.61	436.5
373.835	430.5
374.061	411.5
374.287	462.5
374.513	436.5
374.739	424.5
374.965	436.5
375.191	418.5
375.416	432.5
375.642	441.5
375.868	427.5
376.094	453.5
376.319	435.5
376.545	422.5
376.771	420.5
376.997	432.5
377.222	431.5
377.448	436.5
377.674	433.5
377.899	390.5
378.125	427.5
378.35	424.5
378.576	417.5
378.802	430.5
379.027	430.5
379.253	430.5
379.478	425.5
379.704	427.5
379.929	436.5
380.155	429.5
380.38	426.5
380.606	436.5
380.831	432.5
381.057	448.5
381.282	445.5
381.507	426.5
381.733	434.5
381.958	440.5
382.184	422.5
382.409	430.5
382.634	430.5
382.86	427.5
383.085	430.5
383.31	452.5
383.535	440.5
383.761	439.5
383.986	442.5
384.211	436.5
384.436	428.5
384.662	442.5
384.887	436.5
385.112	467.5
385.337	458.5
385.562	466.5
385.787	454.5
386.013	466.5
386.238	457.5
386.463	465.5
386.688	437.5
386.913	451.5
387.138	452.5
387.363	462.5
387.588	453.5
387.813	469.5
388.038	450.5
388.263	472.5
388.488	471.5
388.713	482.5
388.938	456.5
389.163	462.5
389.387	466.5
389.612	452.5
389.837	444.5
390.062	438.5
390.287	438.5
390.512	447.5
390.736	481.5
390.961	446.5
391.186	450.5
391.411	461.5
391.636	469.5
391.86	468.5
392.085	471.5
392.31	474.5
392.534	455.5
392.759	479.5
392.984	440.5
393.208	475.5
393.433	466.5
393.658	442.5
393.882	449.5
394.107	447.5
394.331	459.5
394.556	460.5
394.78	467.5
395.005	477.5
395.229	476.5
395.454	506.5
395.678	477.5
395.903	468.5
396.127	492.5
396.352	510.5
396.576	496.5
396.801	506.5
397.025	467.5
397.249	505.5
397.474	489.5
397.698	516.5
397.922	536.5
398.147	531.5
398.371	554.5
398.595	515.5
398.82	508.5
399.044	517.5
399.268	534.5
399.492	529.5
399.717	580.5
399.941	599.5
400.165	635.5
400.389	653.5
400.613	624.5
400.837	559.5
401.062	547.5
401.286	541.5
401.51	542.5
401.734	543.5
401.958	541.5
402.182	531.5
402.406	566.5
402.63	558.5
402.854	551.5
403.078	564.5
403.302	551.5
403.526	546.5
403.75	565.5
403.974	564.5
404.198	543.5
404.422	582.5
404.645	576.5
404.869	562.5
405.093	610.5
405.317	636.5
405.541	687.5
405.765	646.5
405.988	590.5
406.212	630.5
406.436	631.5
406.66	648.5
406.883	624.5
407.107	660.5
407.331	688.5
407.555	757.5
407.778	758.5
408.002	683.5
408.226	644.5
408.449	630.5
408.673	618.5
408.896	662.5
409.12	687.5
409.344	657.5
409.567	607.5
409.791	597.5
410.014	552.5
410.238	568.5
410.461	592.5
410.685	591.5
410.908	619.5
411.132	639.5
411.355	664.5
411.578	644.5
411.802	594.5
412.025	576.5
412.249	589.5
412.472	623.5
412.695	645.5
412.919	672.5
413.142	572.5
413.365	562.5
413.589	564.5
413.812	531.5
414.035	546.5
414.258	543.5
414.482	528.5
414.705	511.5
414.928	555.5
415.151	507.5
415.374	550.5
415.597	520.5
415.821	524.5
416.044	535.5
416.267	535.5
416.49	515.5
416.713	539.5
416.936	536.5
417.159	532.5
417.382	562.5
417.605	544.5
417.828	570.5
418.051	590.5
418.274	571.5
418.497	541.5
418.72	551.5
418.943	536.5
419.166	552.5
419.389	586.5
419.611	572.5
419.834	582.5
420.057	570.5
420.28	573.5
420.503	573.5
420.726	566.5
420.948	598.5
421.171	658.5
421.394	671.5
421.617	636.5
421.839	610.5
422.062	566.5
422.285	608.5
422.507	669.5
422.73	762.5
422.953	736.5
423.175	649.5
423.398	588.5
423.621	617.5
423.843	613.5
424.066	638.5
424.288	644.5
424.511	662.5
424.733	702.5
424.956	832.5
425.178	781.5
425.401	775.5
425.623	814.5
425.846	717.5
426.068	675.5
426.291	637.5
426.513	650.5
426.735	663.5
426.958	715.5
427.18	794.5
427.402	962.5
427.625	1083.5
427.847	962.5
428.069	837.5
428.292	723.5
428.514	654.5
428.736	610.5
428.958	603.5
429.181	610.5
429.403	614.5
429.625	608.5
429.847	631.5
430.069	724.5
430.292	737.5
430.514	627.5
430.736	594.5
430.958	591.5
431.18	568.5
431.402	574.5
431.624	557.5
431.846	532.5
432.068	542.5
432.29	560.5
432.512	583.5
432.734	555.5
432.956	552.5
433.178	578.5
433.4	575.5
433.622	556.5
433.844	564.5
434.066	544.5
434.287	548.5
434.509	572.5
434.731	572.5
434.953	556.5
435.175	598.5
435.397	634.5
435.618	647.5
435.84	704.5
436.062	814.5
436.284	900.5
436.505	736.5
436.727	688.5
436.949	624.5
437.17	612.5
437.392	607.5
437.614	636.5
437.835	685.5
438.057	790.5
438.278	894.5
438.5	896.5
438.721	968.5
438.943	948.5
439.165	747.5
439.386	700.5
439.608	673.5
439.829	681.5
440.05	718.5
440.272	781.5
440.493	708.5
440.715	660.5
440.936	621.5
441.158	628.5
441.379	602.5
441.6	642.5
441.822	646.5
442.043	700.5
442.264	804.5
442.486	869.5
442.707	744.5
442.928	700.5
443.149	668.5
443.371	707.5
443.592	757.5
443.813	875.5
444.034	928.5
444.255	755.5
444.476	683.5
444.698	653.5
444.919	654.5
445.14	728.5
445.361	694.5
445.582	711.5
445.803	805.5
446.024	927.5
446.245	959.5
446.466	860.5
446.687	718.5
446.908	665.5
447.129	586.5
447.35	590.5
447.571	619.5
447.792	598.5
448.013	615.5
448.234	634.5
448.455	675.5
448.675	846.5
448.896	943.5
449.117	844.5
449.338	791.5
449.559	893.5
449.779	956.5
450	819.5
450.221	727.5
450.442	615.5
450.662	616.5
450.883	618.5
451.104	640.5
451.324	598.5
451.545	564.5
451.766	591.5
451.986	554.5
452.207	555.5
452.428	551.5
452.648	532.5
452.869	544.5
453.089	568.5
453.31	574.5
453.53	568.5
453.751	548.5
453.971	534.5
454.192	590.5
454.412	574.5
454.633	550.5
454.853	553.5
455.073	547.5
455.294	568.5
455.514	662.5
455.734	628.5
455.955	553.5
456.175	525.5
456.395	499.5
456.616	511.5
456.836	496.5
457.056	477.5
457.276	495.5
457.497	499.5
457.717	491.5
457.937	521.5
458.157	519.5
458.377	496.5
458.598	550.5
458.818	652.5
459.038	757.5
459.258	741.5
459.478	614.5
459.698	573.5
459.918	559.5
460.138	538.5
460.358	547.5
460.578	531.5
460.798	533.5
461.018	552.5
461.238	559.5
461.458	554.5
461.678	536.5
461.898	531.5
462.118	529.5
462.338	553.5
462.558	547.5
462.777	553.5
462.997	570.5
463.217	558.5
463.437	579.5
463.657	567.5
463.876	567.5
464.096	559.5
464.316	575.5
464.536	579.5
464.755	591.5
464.975	613.5
465.195	660.5
465.414	784.5
465.634	710.5
465.854	614.5
466.073	576.5
466.293	556.5
466.512	565.5
466.732	539.5
466.951	546.5
467.171	544.5
467.391	580.5
467.61	575.5
467.829	585.5
468.049	583.5
468.268	574.5
468.488	531.5
468.707	553.5
468.927	518.5
469.146	537.5
469.365	536.5
469.585	543.5
469.804	557.5
470.023	568.5
470.243	561.5
470.462	560.5
470.681	588.5
470.901	587.5
471.12	571.5
471.339	553.5
471.558	564.5
471.777	573.5
471.997	564.5
472.216	560.5
472.435	618.5
472.654	601.5
472.873	583.5
473.092	580.5
473.311	558.5
473.53	566.5
473.749	579.5
473.968	620.5
474.187	746.5
474.406	775.5
474.625	640.5
474.844	596.5
475.063	583.5
475.282	580.5
475.501	591.5
475.72	567.5
475.939	580.5
476.158	571.5
476.377	595.5
476.596	556.5
476.814	594.5
477.033	596.5
477.252	583.5
477.471	580.5
477.69	581.5
477.908	604.5
478.127	612.5
478.346	618.5
478.564	620.5
478.783	626.5
479.002	599.5
479.22	637.5
479.439	642.5
479.658	648.5
479.876	668.5
480.095	679.5
480.313	704.5
480.532	699.5
480.751	674.5
480.969	681.5
481.188	763.5
481.406	850.5
481.624	737.5
481.843	711.5
482.061	659.5
482.28	657.5
482.498	654.5
482.717	654.5
482.935	658.5
483.153	659.5
483.372	655.5
483.59	657.5
483.808	664.5
484.027	659.5
484.245	670.5
484.463	671.5
484.681	671.5
484.9	675.5
485.118	682.5
485.336	671.5
485.554	669.5
485.772	671.5
485.99	675.5
486.209	668.5
486.427	708.5
486.645	702.5
486.863	754.5
487.081	735.5
487.299	724.5
487.517	721.5
487.735	728.5
487.953	717.5
488.171	735.5
488.389	700.5
488.607	739.5
488.825	725.5
489.043	722.5
489.261	735.5
489.479	754.5
489.696	751.5
489.914	738.5
490.132	735.5
490.35	751.5
490.568	777.5
490.786	787.5
491.003	779.5
491.221	837.5
491.439	848.5
491.657	842.5
491.874	854.5
492.092	852.5
492.31	847.5
492.527	853.5
492.745	849.5
492.963	872.5
493.18	875.5
493.398	883.5
493.615	847.5
493.833	882.5
494.05	878.5
494.268	897.5
494.485	894.5
494.703	843.5
494.92	875.5
495.138	846.5
495.355	879.5
495.573	867.5
495.79	852.5
496.008	883.5
496.225	869.5
496.442	859.5
496.66	854.5
496.877	875.5
497.094	879.5
497.312	879.5
497.529	875.5
497.746	918.5
497.963	882.5
498.181	909.5
498.398	892.5
498.615	951.5
498.832	946.5
499.049	938.5
499.267	911.5
499.484	979.5
499.701	989.5
499.918	1014.5
500.135	1017.5
500.352	1050.5
500.569	1078.5
500.786	1059.5
501.003	1056.5
501.22	1033.5
501.437	1026.5
501.654	1021.5
501.871	1034.5
502.088	1021.5
502.305	963.5
502.522	956.5
502.739	887.5
502.956	872.5
503.172	918.5
503.389	884.5
503.606	896.5
503.823	920.5
504.04	902.5
504.256	882.5
504.473	884.5
504.69	856.5
504.907	847.5
505.123	844.5
505.34	855.5
505.557	855.5
505.773	842.5
505.99	878.5
506.207	834.5
506.423	829.5
506.64	838.5
506.856	831.5
507.073	821.5
507.289	822.5
507.506	819.5
507.722	854.5
507.939	877.5
508.155	827.5
508.372	822.5
508.588	815.5
508.805	827.5
509.021	805.5
509.238	811.5
509.454	842.5
509.67	827.5
509.887	828.5
510.103	797.5
510.319	830.5
510.536	958.5
510.752	1660.5
510.968	1340.5
511.184	864.5
511.401	800.5
511.617	791.5
511.833	773.5
512.049	770.5
512.265	789.5
512.481	742.5
512.698	788.5
512.914	770.5
513.13	786.5
513.346	782.5
513.562	742.5
513.778	778.5
513.994	789.5
514.21	818.5
514.426	852.5
514.642	923.5
514.858	948.5
515.074	1027.5
515.29	1262.5
515.506	1911.5
515.721	1514.5
515.937	990.5
516.153	889.5
516.369	869.5
516.585	809.5
516.801	798.5
517.016	782.5
517.232	793.5
517.448	783.5
517.664	755.5
517.879	743.5
518.095	758.5
518.311	785.5
518.527	735.5
518.742	756.5
518.958	774.5
519.173	742.5
