Data from 1971.PennyLincolnUp.Lamp.En5.5.200Scan.071719.P1._HRD10591_15-18-23-841.txt Node
Date: Thu Jul 18 15:18:23 EDT 2019
User: cochatt
Spectrometer: HR+D1059
Trigger mode: 1
Integration Time (sec): 1.000000E-1
Scans to average: 1
Electric dark correction enabled: true
Nonlinearity correction enabled: false
Boxcar width: 0
XAxis mode: Wavelengths
Number of Pixels in Spectrum: 2048
>>>>>Begin Spectral Data<<<<<
223.165	-5.81
223.4	-5.81
223.635	-5.81
223.869	-20.81
224.104	-20.81
224.338	-8.81
224.573	-23.81
224.808	0.19
225.042	-9.81
225.277	-4.81
225.511	5.19
225.746	6.19
225.98	3.19
226.215	15.19
226.449	10.19
226.683	15.19
226.918	18.19
227.152	21.19
227.387	34.19
227.621	49.19
227.856	38.19
228.09	33.19
228.324	44.19
228.559	56.19
228.793	57.19
229.027	82.19
229.262	100.19
229.496	111.19
229.73	130.19
229.964	133.19
230.199	124.19
230.433	122.19
230.667	96.19
230.901	98.19
231.136	116.19
231.37	104.19
231.604	97.19
231.838	95.19
232.072	102.19
232.306	108.19
232.541	116.19
232.775	104.19
233.009	104.19
233.243	99.19
233.477	122.19
233.711	96.19
233.945	93.19
234.179	108.19
234.413	117.19
234.647	104.19
234.881	106.19
235.115	114.19
235.349	112.19
235.583	117.19
235.817	96.19
236.051	106.19
236.285	112.19
236.519	120.19
236.753	119.19
236.987	135.19
237.221	156.19
237.455	179.19
237.689	165.19
237.922	138.19
238.156	135.19
238.39	117.19
238.624	122.19
238.858	125.19
239.091	110.19
239.325	103.19
239.559	128.19
239.793	124.19
240.027	132.19
240.26	118.19
240.494	132.19
240.728	138.19
240.961	143.19
241.195	137.19
241.429	116.19
241.662	141.19
241.896	135.19
242.13	115.19
242.363	110.19
242.597	112.19
242.83	132.19
243.064	117.19
243.298	124.19
243.531	134.19
243.765	130.19
243.998	121.19
244.232	133.19
244.465	139.19
244.699	137.19
244.932	142.19
245.166	130.19
245.399	143.19
245.633	136.19
245.866	132.19
246.099	156.19
246.333	129.19
246.566	146.19
246.8	134.19
247.033	147.19
247.266	151.19
247.5	150.19
247.733	150.19
247.966	154.19
248.2	148.19
248.433	151.19
248.666	168.19
248.899	165.19
249.133	194.19
249.366	193.19
249.599	185.19
249.832	178.19
250.066	179.19
250.299	156.19
250.532	179.19
250.765	188.19
250.998	211.19
251.231	206.19
251.465	202.19
251.698	196.19
251.931	200.19
252.164	190.19
252.397	192.19
252.63	203.19
252.863	198.19
253.096	207.19
253.329	208.19
253.562	199.19
253.795	198.19
254.028	209.19
254.261	221.19
254.494	225.19
254.727	237.19
254.96	243.19
255.193	256.19
255.426	229.19
255.659	237.19
255.892	205.19
256.124	206.19
256.357	225.19
256.59	196.19
256.823	200.19
257.056	204.19
257.289	196.19
257.521	208.19
257.754	204.19
257.987	216.19
258.22	193.19
258.452	212.19
258.685	208.19
258.918	182.19
259.151	210.19
259.383	224.19
259.616	216.19
259.849	214.19
260.081	204.19
260.314	238.19
260.547	233.19
260.779	220.19
261.012	223.19
261.244	225.19
261.477	204.19
261.71	213.19
261.942	210.19
262.175	221.19
262.407	223.19
262.64	218.19
262.872	201.19
263.105	206.19
263.337	219.19
263.57	201.19
263.802	206.19
264.035	187.19
264.267	202.19
264.499	198.19
264.732	210.19
264.964	200.19
265.197	197.19
265.429	195.19
265.661	196.19
265.894	201.19
266.126	195.19
266.358	193.19
266.591	211.19
266.823	201.19
267.055	231.19
267.287	211.19
267.52	192.19
267.752	219.19
267.984	210.19
268.216	223.19
268.448	237.19
268.681	233.19
268.913	244.19
269.145	281.19
269.377	259.19
269.609	258.19
269.841	264.19
270.073	265.19
270.306	272.19
270.538	300.19
270.77	294.19
271.002	282.19
271.234	284.19
271.466	281.19
271.698	310.19
271.93	298.19
272.162	293.19
272.394	292.19
272.626	287.19
272.858	269.19
273.09	262.19
273.322	250.19
273.553	249.19
273.785	252.19
274.017	244.19
274.249	237.19
274.481	260.19
274.713	236.19
274.945	246.19
275.176	260.19
275.408	261.19
275.64	243.19
275.872	262.19
276.104	260.19
276.335	266.19
276.567	253.19
276.799	265.19
277.031	268.19
277.262	277.19
277.494	294.19
277.726	300.19
277.957	277.19
278.189	270.19
278.421	252.19
278.652	235.19
278.884	257.19
279.115	246.19
279.347	261.19
279.579	270.19
279.81	274.19
280.042	273.19
280.273	266.19
280.505	258.19
280.736	254.19
280.968	263.19
281.199	260.19
281.431	256.19
281.662	254.19
281.894	260.19
282.125	266.19
282.356	264.19
282.588	286.19
282.819	265.19
283.051	268.19
283.282	266.19
283.513	245.19
283.745	275.19
283.976	257.19
284.207	269.19
284.439	276.19
284.67	260.19
284.901	284.19
285.132	260.19
285.364	268.19
285.595	271.19
285.826	258.19
286.057	262.19
286.288	273.19
286.52	280.19
286.751	267.19
286.982	276.19
287.213	270.19
287.444	275.19
287.675	275.19
287.906	270.19
288.138	286.19
288.369	309.19
288.6	281.19
288.831	290.19
289.062	292.19
289.293	286.19
289.524	280.19
289.755	280.19
289.986	263.19
290.217	284.19
290.448	288.19
290.679	277.19
290.91	280.19
291.141	274.19
291.371	274.19
291.602	266.19
291.833	262.19
292.064	285.19
292.295	264.19
292.526	280.19
292.757	253.19
292.987	285.19
293.218	287.19
293.449	267.19
293.68	280.19
293.91	298.19
294.141	273.19
294.372	273.19
294.603	276.19
294.833	273.19
295.064	285.19
295.295	274.19
295.525	276.19
295.756	304.19
295.987	294.19
296.217	308.19
296.448	308.19
296.679	292.19
296.909	294.19
297.14	288.19
297.37	287.19
297.601	292.19
297.831	272.19
298.062	281.19
298.292	272.19
298.523	281.19
298.753	283.19
298.984	300.19
299.214	281.19
299.445	288.19
299.675	285.19
299.905	285.19
300.136	288.19
300.366	294.19
300.597	295.19
300.827	289.19
301.057	323.19
301.288	308.19
301.518	305.19
301.748	306.19
301.979	312.19
302.209	302.19
302.439	322.19
302.669	314.19
302.9	297.19
303.13	319.19
303.36	304.19
303.59	296.19
303.82	305.19
304.051	301.19
304.281	297.19
304.511	305.19
304.741	318.19
304.971	298.19
305.201	317.19
305.431	323.19
305.661	323.19
305.891	302.19
306.121	317.19
306.352	333.19
306.582	308.19
306.812	317.19
307.042	300.19
307.272	318.19
307.502	308.19
307.731	335.19
307.961	315.19
308.191	324.19
308.421	310.19
308.651	301.19
308.881	317.19
309.111	328.19
309.341	310.19
309.571	335.19
309.8	323.19
310.03	344.19
310.26	358.19
310.49	348.19
310.72	338.19
310.949	344.19
311.179	360.19
311.409	344.19
311.639	356.19
311.868	342.19
312.098	352.19
312.328	344.19
312.557	344.19
312.787	364.19
313.017	363.19
313.246	346.19
313.476	340.19
313.706	341.19
313.935	346.19
314.165	344.19
314.394	368.19
314.624	342.19
314.853	372.19
315.083	360.19
315.312	339.19
315.542	344.19
315.771	356.19
316.001	353.19
316.23	359.19
316.46	350.19
316.689	366.19
316.919	361.19
317.148	352.19
317.377	360.19
317.607	378.19
317.836	346.19
318.065	346.19
318.295	353.19
318.524	352.19
318.753	349.19
318.983	369.19
319.212	348.19
319.441	352.19
319.67	358.19
319.9	377.19
320.129	350.19
320.358	346.19
320.587	373.19
320.816	352.19
321.046	384.19
321.275	384.19
321.504	350.19
321.733	376.19
321.962	380.19
322.191	377.19
322.42	402.19
322.649	396.19
322.878	390.19
323.108	402.19
323.337	437.19
323.566	450.19
323.795	455.19
324.024	512.19
324.253	602.19
324.482	841.19
324.71	1235.19
324.939	1606.19
325.168	1389.19
325.397	756.19
325.626	540.19
325.855	478.19
326.084	441.19
326.313	431.19
326.542	426.19
326.77	473.19
326.999	563.19
327.228	761.19
327.457	1050.19
327.686	1222.19
327.914	834.19
328.143	592.19
328.372	529.19
328.6	518.19
328.829	463.19
329.058	497.19
329.287	502.19
329.515	483.19
329.744	468.19
329.972	453.19
330.201	438.19
330.43	471.19
330.658	487.19
330.887	498.19
331.115	497.19
331.344	452.19
331.572	418.19
331.801	429.19
332.03	427.19
332.258	408.19
332.486	404.19
332.715	404.19
332.943	408.19
333.172	405.19
333.4	409.19
333.629	404.19
333.857	438.19
334.085	424.19
334.314	433.19
334.542	457.19
334.771	437.19
334.999	444.19
335.227	415.19
335.455	411.19
335.684	425.19
335.912	436.19
336.14	405.19
336.369	409.19
336.597	398.19
336.825	402.19
337.053	398.19
337.281	389.19
337.51	406.19
337.738	366.19
337.966	388.19
338.194	404.19
338.422	386.19
338.65	384.19
338.878	405.19
339.106	386.19
339.334	392.19
339.562	402.19
339.79	392.19
340.018	405.19
340.246	372.19
340.474	398.19
340.702	382.19
340.93	388.19
341.158	396.19
341.386	398.19
341.614	385.19
341.842	374.19
342.07	359.19
342.298	388.19
342.526	375.19
342.754	369.19
342.981	364.19
343.209	364.19
343.437	388.19
343.665	396.19
343.893	387.19
344.12	399.19
344.348	389.19
344.576	392.19
344.804	380.19
345.031	394.19
345.259	399.19
345.487	386.19
345.714	390.19
345.942	374.19
346.17	362.19
346.397	370.19
346.625	374.19
346.853	357.19
347.08	380.19
347.308	374.19
347.535	345.19
347.763	390.19
347.99	376.19
348.218	377.19
348.445	369.19
348.673	370.19
348.9	363.19
349.128	363.19
349.355	369.19
349.583	357.19
349.81	360.19
350.037	357.19
350.265	365.19
350.492	361.19
350.72	346.19
350.947	355.19
351.174	353.19
351.402	377.19
351.629	366.19
351.856	367.19
352.083	370.19
352.311	374.19
352.538	366.19
352.765	366.19
352.992	362.19
353.22	368.19
353.447	368.19
353.674	339.19
353.901	359.19
354.128	347.19
354.355	333.19
354.583	345.19
354.81	331.19
355.037	346.19
355.264	359.19
355.491	348.19
355.718	338.19
355.945	340.19
356.172	334.19
356.399	332.19
356.626	351.19
356.853	330.19
357.08	322.19
357.307	342.19
357.534	342.19
357.761	321.19
357.988	351.19
358.215	354.19
358.441	325.19
358.668	352.19
358.895	369.19
359.122	347.19
359.349	361.19
359.576	356.19
359.802	374.19
360.029	374.19
360.256	405.19
360.483	376.19
360.709	362.19
360.936	378.19
361.163	366.19
361.39	358.19
361.616	350.19
361.843	351.19
362.07	354.19
362.296	344.19
362.523	355.19
362.749	379.19
362.976	344.19
363.203	365.19
363.429	338.19
363.656	348.19
363.882	356.19
364.109	351.19
364.335	339.19
364.562	338.19
364.788	335.19
365.015	346.19
365.241	336.19
365.468	327.19
365.694	333.19
365.92	344.19
366.147	334.19
366.373	340.19
366.599	331.19
366.826	345.19
367.052	323.19
367.278	330.19
367.505	325.19
367.731	337.19
367.957	329.19
368.184	325.19
368.41	343.19
368.636	349.19
368.862	362.19
369.089	348.19
369.315	330.19
369.541	331.19
369.767	330.19
369.993	349.19
370.219	347.19
370.445	324.19
370.672	360.19
370.898	344.19
371.124	333.19
371.35	338.19
371.576	342.19
371.802	334.19
372.028	327.19
372.254	335.19
372.48	320.19
372.706	344.19
372.932	339.19
373.158	332.19
373.384	346.19
373.61	348.19
373.835	328.19
374.061	356.19
374.287	338.19
374.513	348.19
374.739	369.19
374.965	353.19
375.191	331.19
375.416	329.19
375.642	342.19
375.868	345.19
376.094	338.19
376.319	321.19
376.545	340.19
376.771	317.19
376.997	329.19
377.222	347.19
377.448	335.19
377.674	337.19
377.899	336.19
378.125	348.19
378.35	314.19
378.576	329.19
378.802	309.19
379.027	320.19
379.253	346.19
379.478	334.19
379.704	340.19
379.929	319.19
380.155	345.19
380.38	331.19
380.606	340.19
380.831	314.19
381.057	317.19
381.282	329.19
381.507	324.19
381.733	314.19
381.958	323.19
382.184	355.19
382.409	325.19
382.634	352.19
382.86	342.19
383.085	337.19
383.31	337.19
383.535	330.19
383.761	354.19
383.986	344.19
384.211	354.19
384.436	348.19
384.662	340.19
384.887	344.19
385.112	342.19
385.337	334.19
385.562	354.19
385.787	347.19
386.013	355.19
386.238	359.19
386.463	357.19
386.688	357.19
386.913	336.19
387.138	332.19
387.363	346.19
387.588	336.19
387.813	366.19
388.038	353.19
388.263	342.19
388.488	362.19
388.713	366.19
388.938	365.19
389.163	342.19
389.387	342.19
389.612	352.19
389.837	352.19
390.062	339.19
390.287	333.19
390.512	348.19
390.736	353.19
390.961	356.19
391.186	344.19
391.411	338.19
391.636	348.19
391.86	363.19
392.085	357.19
392.31	356.19
392.534	341.19
392.759	345.19
392.984	351.19
393.208	362.19
393.433	367.19
393.658	378.19
393.882	349.19
394.107	359.19
394.331	348.19
394.556	353.19
394.78	347.19
395.005	350.19
395.229	362.19
395.454	365.19
395.678	370.19
395.903	346.19
396.127	390.19
396.352	391.19
396.576	372.19
396.801	359.19
397.025	354.19
397.249	354.19
397.474	373.19
397.698	374.19
397.922	376.19
398.147	370.19
398.371	397.19
398.595	404.19
398.82	378.19
399.044	388.19
399.268	403.19
399.492	420.19
399.717	447.19
399.941	444.19
400.165	454.19
400.389	468.19
400.613	444.19
400.837	392.19
401.062	401.19
401.286	381.19
401.51	380.19
401.734	389.19
401.958	390.19
402.182	389.19
402.406	387.19
402.63	403.19
402.854	389.19
403.078	406.19
403.302	398.19
403.526	365.19
403.75	401.19
403.974	390.19
404.198	397.19
404.422	390.19
404.645	422.19
404.869	403.19
405.093	415.19
405.317	455.19
405.541	470.19
405.765	430.19
405.988	415.19
406.212	420.19
406.436	445.19
406.66	445.19
406.883	425.19
407.107	432.19
407.331	457.19
407.555	505.19
407.778	542.19
408.002	469.19
408.226	429.19
408.449	434.19
408.673	434.19
408.896	451.19
409.12	475.19
409.344	453.19
409.567	433.19
409.791	407.19
410.014	397.19
410.238	390.19
410.461	402.19
410.685	404.19
410.908	423.19
411.132	425.19
411.355	466.19
411.578	443.19
411.802	384.19
412.025	384.19
412.249	391.19
412.472	419.19
412.695	449.19
412.919	422.19
413.142	402.19
413.365	392.19
413.589	381.19
413.812	379.19
414.035	379.19
414.258	380.19
414.482	381.19
414.705	378.19
414.928	361.19
415.151	365.19
415.374	368.19
415.597	370.19
415.821	370.19
416.044	354.19
416.267	364.19
416.49	366.19
416.713	380.19
416.936	370.19
417.159	373.19
417.382	376.19
417.605	369.19
417.828	379.19
418.051	394.19
418.274	393.19
418.497	364.19
418.72	388.19
418.943	379.19
419.166	404.19
419.389	405.19
419.611	381.19
419.834	397.19
420.057	380.19
420.28	379.19
420.503	385.19
420.726	412.19
420.948	387.19
421.171	429.19
421.394	449.19
421.617	390.19
421.839	406.19
422.062	397.19
422.285	418.19
422.507	436.19
422.73	485.19
422.953	472.19
423.175	434.19
423.398	414.19
423.621	408.19
423.843	393.19
424.066	429.19
424.288	422.19
424.511	416.19
424.733	483.19
424.956	530.19
425.178	521.19
425.401	491.19
425.623	509.19
425.846	446.19
426.068	422.19
426.291	399.19
426.513	424.19
426.735	411.19
426.958	456.19
427.18	510.19
427.402	627.19
427.625	648.19
427.847	560.19
428.069	476.19
428.292	439.19
428.514	402.19
428.736	387.19
428.958	385.19
429.181	389.19
429.403	381.19
429.625	401.19
429.847	422.19
430.069	453.19
430.292	457.19
430.514	406.19
430.736	374.19
430.958	376.19
431.18	365.19
431.402	361.19
431.624	353.19
431.846	356.19
432.068	360.19
432.29	358.19
432.512	355.19
432.734	373.19
432.956	374.19
433.178	382.19
433.4	357.19
433.622	366.19
433.844	370.19
434.066	370.19
434.287	357.19
434.509	354.19
434.731	376.19
434.953	383.19
435.175	403.19
435.397	419.19
435.618	424.19
435.84	453.19
436.062	521.19
436.284	550.19
436.505	458.19
436.727	419.19
436.949	389.19
437.17	360.19
437.392	384.19
437.614	382.19
437.835	405.19
438.057	475.19
438.278	552.19
438.5	567.19
438.721	601.19
438.943	578.19
439.165	475.19
439.386	436.19
439.608	423.19
439.829	411.19
440.05	445.19
440.272	466.19
440.493	456.19
440.715	404.19
440.936	403.19
441.158	404.19
441.379	381.19
441.6	406.19
441.822	402.19
442.043	477.19
442.264	504.19
442.486	530.19
442.707	464.19
442.928	412.19
443.149	430.19
443.371	449.19
443.592	484.19
443.813	557.19
444.034	583.19
444.255	491.19
444.476	431.19
444.698	421.19
444.919	415.19
445.14	550.19
445.361	498.19
445.582	448.19
445.803	485.19
446.024	564.19
446.245	586.19
446.466	514.19
446.687	456.19
446.908	415.19
447.129	420.19
447.35	392.19
447.571	393.19
447.792	378.19
448.013	386.19
448.234	408.19
448.455	428.19
448.675	516.19
448.896	586.19
449.117	519.19
449.338	490.19
449.559	560.19
449.779	618.19
450	510.19
450.221	423.19
450.442	382.19
450.662	394.19
450.883	387.19
451.104	382.19
451.324	349.19
451.545	368.19
451.766	370.19
451.986	353.19
452.207	349.19
452.428	333.19
452.648	341.19
452.869	340.19
453.089	357.19
453.31	350.19
453.53	347.19
453.751	354.19
453.971	335.19
454.192	358.19
454.412	324.19
454.633	338.19
454.853	339.19
455.073	353.19
455.294	369.19
455.514	426.19
455.734	405.19
455.955	343.19
456.175	342.19
456.395	297.19
456.616	314.19
456.836	320.19
457.056	321.19
457.276	322.19
457.497	321.19
457.717	312.19
457.937	328.19
458.157	329.19
458.377	337.19
458.598	338.19
458.818	377.19
459.038	448.19
459.258	453.19
459.478	395.19
459.698	362.19
459.918	377.19
460.138	352.19
460.358	358.19
460.578	351.19
460.798	365.19
461.018	359.19
461.238	359.19
461.458	364.19
461.678	368.19
461.898	353.19
462.118	356.19
462.338	381.19
462.558	384.19
462.777	372.19
462.997	383.19
463.217	401.19
463.437	404.19
463.657	402.19
463.876	393.19
464.096	376.19
464.316	364.19
464.536	388.19
464.755	394.19
464.975	382.19
465.195	424.19
465.414	445.19
465.634	396.19
465.854	380.19
466.073	385.19
466.293	357.19
466.512	352.19
466.732	345.19
466.951	350.19
467.171	345.19
467.391	349.19
467.61	370.19
467.829	346.19
468.049	353.19
468.268	352.19
468.488	343.19
468.707	372.19
468.927	323.19
469.146	332.19
469.365	332.19
469.585	336.19
469.804	341.19
470.023	355.19
470.243	365.19
470.462	345.19
470.681	355.19
470.901	371.19
471.12	359.19
471.339	360.19
471.558	358.19
471.777	366.19
471.997	364.19
472.216	339.19
472.435	360.19
472.654	349.19
472.873	364.19
473.092	372.19
473.311	352.19
473.53	362.19
473.749	382.19
473.968	394.19
474.187	461.19
474.406	489.19
474.625	403.19
474.844	368.19
475.063	346.19
475.282	364.19
475.501	352.19
475.72	361.19
475.939	355.19
476.158	379.19
476.377	373.19
476.596	378.19
476.814	387.19
477.033	368.19
477.252	365.19
477.471	388.19
477.69	356.19
477.908	392.19
478.127	400.19
478.346	389.19
478.564	390.19
478.783	392.19
479.002	388.19
479.22	411.19
479.439	403.19
479.658	403.19
479.876	409.19
480.095	430.19
480.313	426.19
480.532	420.19
480.751	425.19
480.969	416.19
481.188	443.19
481.406	470.19
481.624	432.19
481.843	394.19
482.061	408.19
482.28	413.19
482.498	405.19
482.717	404.19
482.935	392.19
483.153	404.19
483.372	425.19
483.59	398.19
483.808	415.19
484.027	423.19
484.245	417.19
484.463	426.19
484.681	430.19
484.9	416.19
485.118	422.19
485.336	398.19
485.554	414.19
485.772	405.19
485.99	402.19
486.209	416.19
486.427	422.19
486.645	410.19
486.863	444.19
487.081	425.19
487.299	442.19
487.517	418.19
487.735	440.19
487.953	445.19
488.171	439.19
488.389	454.19
488.607	439.19
488.825	454.19
489.043	416.19
489.261	452.19
489.479	450.19
489.696	444.19
489.914	440.19
490.132	458.19
490.35	456.19
490.568	446.19
490.786	457.19
491.003	481.19
491.221	476.19
491.439	484.19
491.657	485.19
491.874	527.19
492.092	498.19
492.31	518.19
492.527	522.19
492.745	500.19
492.963	493.19
493.18	520.19
493.398	500.19
493.615	502.19
493.833	531.19
494.05	499.19
494.268	515.19
494.485	520.19
494.703	515.19
494.92	505.19
495.138	504.19
495.355	524.19
495.573	537.19
495.79	509.19
496.008	513.19
496.225	500.19
496.442	538.19
496.66	530.19
496.877	514.19
497.094	520.19
497.312	556.19
497.529	529.19
497.746	536.19
497.963	553.19
498.181	545.19
498.398	560.19
498.615	562.19
498.832	601.19
499.049	576.19
499.267	580.19
499.484	615.19
499.701	633.19
499.918	633.19
500.135	668.19
500.352	679.19
500.569	693.19
500.786	707.19
501.003	693.19
501.22	657.19
501.437	651.19
501.654	637.19
501.871	642.19
502.088	603.19
