Data from 1971.PennyLincolnUp.Lamp.En5.5.200Scan.071719.P1._HRD10591_15-20-41-842.txt Node
Date: Thu Jul 18 15:20:41 EDT 2019
User: cochatt
Spectrometer: HR+D1059
Trigger mode: 1
Integration Time (sec): 1.000000E-1
Scans to average: 1
Electric dark correction enabled: true
Nonlinearity correction enabled: false
Boxcar width: 0
XAxis mode: Wavelengths
Number of Pixels in Spectrum: 2048
>>>>>Begin Spectral Data<<<<<
223.165	-11.75
223.4	-11.75
223.635	-11.75
223.869	-1.75
224.104	-8.75
224.338	-16.75
224.573	-2.75
224.808	-21.75
225.042	-11.75
225.277	-16.75
225.511	5.25
225.746	0.25
225.98	5.25
226.215	18.25
226.449	5.25
226.683	12.25
226.918	30.25
227.152	15.25
227.387	39.25
227.621	24.25
227.856	21.25
228.09	34.25
228.324	31.25
228.559	66.25
228.793	68.25
229.027	104.25
229.262	103.25
229.496	118.25
229.73	104.25
229.964	139.25
230.199	107.25
230.433	130.25
230.667	109.25
230.901	107.25
231.136	101.25
231.37	103.25
231.604	117.25
231.838	88.25
232.072	128.25
232.306	112.25
232.541	116.25
232.775	103.25
233.009	116.25
233.243	117.25
233.477	103.25
233.711	105.25
233.945	117.25
234.179	114.25
234.413	102.25
234.647	108.25
234.881	123.25
235.115	124.25
235.349	120.25
235.583	138.25
235.817	125.25
236.051	124.25
236.285	123.25
236.519	118.25
236.753	136.25
236.987	140.25
237.221	184.25
237.455	227.25
237.689	182.25
237.922	142.25
238.156	130.25
238.39	130.25
238.624	124.25
238.858	118.25
239.091	134.25
239.325	130.25
239.559	133.25
239.793	136.25
240.027	131.25
240.26	144.25
240.494	162.25
240.728	145.25
240.961	147.25
241.195	147.25
241.429	144.25
241.662	142.25
241.896	146.25
242.13	136.25
242.363	149.25
242.597	135.25
242.83	149.25
243.064	144.25
243.298	148.25
243.531	131.25
243.765	139.25
243.998	131.25
244.232	152.25
244.465	151.25
244.699	157.25
244.932	151.25
245.166	141.25
245.399	156.25
245.633	150.25
245.866	145.25
246.099	162.25
246.333	156.25
246.566	147.25
246.8	159.25
247.033	148.25
247.266	184.25
247.5	164.25
247.733	162.25
247.966	172.25
248.2	185.25
248.433	171.25
248.666	191.25
248.899	199.25
249.133	196.25
249.366	211.25
249.599	200.25
249.832	198.25
250.066	191.25
250.299	186.25
250.532	194.25
250.765	196.25
250.998	220.25
251.231	227.25
251.465	220.25
251.698	217.25
251.931	211.25
252.164	212.25
252.397	190.25
252.63	208.25
252.863	212.25
253.096	224.25
253.329	220.25
253.562	236.25
253.795	249.25
254.028	228.25
254.261	238.25
254.494	229.25
254.727	274.25
254.96	298.25
255.193	298.25
255.426	268.25
255.659	262.25
255.892	247.25
256.124	252.25
256.357	245.25
256.59	233.25
256.823	229.25
257.056	238.25
257.289	221.25
257.521	234.25
257.754	214.25
257.987	223.25
258.22	224.25
258.452	244.25
258.685	238.25
258.918	235.25
259.151	228.25
259.383	216.25
259.616	242.25
259.849	243.25
260.081	258.25
260.314	280.25
260.547	253.25
260.779	247.25
261.012	260.25
261.244	235.25
261.477	240.25
261.71	237.25
261.942	238.25
262.175	255.25
262.407	238.25
262.64	231.25
262.872	240.25
263.105	236.25
263.337	229.25
263.57	240.25
263.802	223.25
264.035	216.25
264.267	238.25
264.499	220.25
264.732	238.25
264.964	234.25
265.197	203.25
265.429	230.25
265.661	235.25
265.894	231.25
266.126	234.25
266.358	214.25
266.591	215.25
266.823	240.25
267.055	236.25
267.287	238.25
267.52	250.25
267.752	255.25
267.984	253.25
268.216	233.25
268.448	260.25
268.681	243.25
268.913	257.25
269.145	288.25
269.377	292.25
269.609	284.25
269.841	294.25
270.073	290.25
270.306	312.25
270.538	321.25
270.77	336.25
271.002	337.25
271.234	325.25
271.466	317.25
271.698	342.25
271.93	329.25
272.162	341.25
272.394	344.25
272.626	340.25
272.858	323.25
273.09	305.25
273.322	314.25
273.553	290.25
273.785	292.25
274.017	290.25
274.249	295.25
274.481	296.25
274.713	290.25
274.945	293.25
275.176	277.25
275.408	287.25
275.64	288.25
275.872	270.25
276.104	283.25
276.335	284.25
276.567	287.25
276.799	316.25
277.031	320.25
277.262	336.25
277.494	330.25
277.726	337.25
277.957	316.25
278.189	303.25
278.421	310.25
278.652	279.25
278.884	287.25
279.115	296.25
279.347	296.25
279.579	283.25
279.81	279.25
280.042	290.25
280.273	283.25
280.505	294.25
280.736	287.25
280.968	298.25
281.199	278.25
281.431	280.25
281.662	288.25
281.894	299.25
282.125	290.25
282.356	308.25
282.588	331.25
282.819	319.25
283.051	309.25
283.282	297.25
283.513	272.25
283.745	284.25
283.976	295.25
284.207	309.25
284.439	294.25
284.67	282.25
284.901	297.25
285.132	300.25
285.364	293.25
285.595	299.25
285.826	296.25
286.057	296.25
286.288	303.25
286.52	301.25
286.751	314.25
286.982	308.25
287.213	294.25
287.444	306.25
287.675	298.25
287.906	311.25
288.138	318.25
288.369	321.25
288.6	313.25
288.831	306.25
289.062	319.25
289.293	321.25
289.524	302.25
289.755	309.25
289.986	320.25
290.217	307.25
290.448	301.25
290.679	319.25
290.91	310.25
291.141	310.25
291.371	317.25
291.602	323.25
291.833	282.25
292.064	305.25
292.295	310.25
292.526	313.25
292.757	314.25
292.987	306.25
293.218	316.25
293.449	316.25
293.68	318.25
293.91	305.25
294.141	331.25
294.372	311.25
294.603	308.25
294.833	311.25
295.064	312.25
295.295	316.25
295.525	316.25
295.756	333.25
295.987	324.25
296.217	340.25
296.448	354.25
296.679	335.25
296.909	310.25
297.14	316.25
297.37	329.25
297.601	316.25
297.831	310.25
298.062	324.25
298.292	319.25
298.523	335.25
298.753	313.25
298.984	325.25
299.214	324.25
299.445	327.25
299.675	321.25
299.905	350.25
300.136	334.25
300.366	345.25
300.597	326.25
300.827	335.25
301.057	370.25
301.288	353.25
301.518	351.25
301.748	350.25
301.979	328.25
302.209	339.25
302.439	344.25
302.669	365.25
302.9	343.25
303.13	346.25
303.36	345.25
303.59	351.25
303.82	342.25
304.051	348.25
304.281	362.25
304.511	349.25
304.741	347.25
304.971	349.25
305.201	343.25
305.431	351.25
305.661	368.25
305.891	366.25
306.121	358.25
306.352	367.25
306.582	354.25
306.812	341.25
307.042	353.25
307.272	359.25
307.502	358.25
307.731	363.25
307.961	355.25
308.191	359.25
308.421	359.25
308.651	351.25
308.881	367.25
309.111	358.25
309.341	357.25
309.571	374.25
309.8	390.25
310.03	381.25
310.26	395.25
310.49	408.25
310.72	372.25
310.949	415.25
311.179	408.25
311.409	414.25
311.639	401.25
311.868	404.25
312.098	395.25
312.328	398.25
312.557	415.25
312.787	409.25
313.017	438.25
313.246	414.25
313.476	380.25
313.706	406.25
313.935	410.25
314.165	410.25
314.394	409.25
314.624	406.25
314.853	394.25
315.083	396.25
315.312	388.25
315.542	386.25
315.771	385.25
316.001	377.25
316.23	393.25
316.46	394.25
316.689	411.25
316.919	400.25
317.148	401.25
317.377	416.25
317.607	415.25
317.836	407.25
318.065	399.25
318.295	416.25
318.524	374.25
318.753	393.25
318.983	401.25
319.212	392.25
319.441	414.25
319.67	409.25
319.9	411.25
320.129	405.25
320.358	388.25
320.587	426.25
320.816	399.25
321.046	409.25
321.275	428.25
321.504	427.25
321.733	432.25
321.962	432.25
322.191	442.25
322.42	458.25
322.649	472.25
322.878	464.25
323.108	465.25
323.337	518.25
323.566	526.25
323.795	534.25
324.024	599.25
324.253	728.25
324.482	1054.25
324.71	1509.25
324.939	2062.25
325.168	1724.25
325.397	920.25
325.626	652.25
325.855	557.25
326.084	540.25
326.313	521.25
326.542	523.25
326.77	574.25
326.999	694.25
327.228	928.25
327.457	1315.25
327.686	1548.25
327.914	1018.25
328.143	702.25
328.372	615.25
328.6	586.25
328.829	547.25
329.058	567.25
329.287	566.25
329.515	549.25
329.744	520.25
329.972	525.25
330.201	555.25
330.43	587.25
330.658	601.25
330.887	623.25
331.115	593.25
331.344	524.25
331.572	503.25
331.801	517.25
332.03	505.25
332.258	490.25
332.486	481.25
332.715	456.25
332.943	455.25
333.172	462.25
333.4	479.25
333.629	486.25
333.857	518.25
334.085	514.25
334.314	503.25
334.542	521.25
334.771	524.25
334.999	490.25
335.227	483.25
335.455	464.25
335.684	477.25
335.912	444.25
336.14	469.25
336.369	443.25
336.597	451.25
336.825	470.25
337.053	466.25
337.281	469.25
337.51	447.25
337.738	454.25
337.966	432.25
338.194	453.25
338.422	455.25
338.65	441.25
338.878	452.25
339.106	452.25
339.334	442.25
339.562	442.25
339.79	435.25
340.018	424.25
340.246	446.25
340.474	436.25
340.702	445.25
340.93	428.25
341.158	420.25
341.386	443.25
341.614	442.25
341.842	420.25
342.07	416.25
342.298	429.25
342.526	418.25
342.754	415.25
342.981	428.25
343.209	443.25
343.437	413.25
343.665	442.25
343.893	422.25
344.12	444.25
344.348	440.25
344.576	439.25
344.804	453.25
345.031	460.25
345.259	478.25
345.487	456.25
345.714	447.25
345.942	418.25
346.17	431.25
346.397	417.25
346.625	421.25
346.853	421.25
347.08	408.25
347.308	406.25
347.535	428.25
347.763	455.25
347.99	438.25
348.218	435.25
348.445	434.25
348.673	435.25
348.9	423.25
349.128	424.25
349.355	421.25
349.583	422.25
349.81	407.25
350.037	390.25
350.265	415.25
350.492	411.25
350.72	397.25
350.947	414.25
351.174	420.25
351.402	406.25
351.629	411.25
351.856	414.25
352.083	437.25
352.311	422.25
352.538	425.25
352.765	447.25
352.992	412.25
353.22	410.25
353.447	412.25
353.674	404.25
353.901	389.25
354.128	379.25
354.355	378.25
354.583	399.25
354.81	396.25
355.037	392.25
355.264	388.25
355.491	398.25
355.718	382.25
355.945	377.25
356.172	378.25
356.399	373.25
356.626	366.25
356.853	392.25
357.08	362.25
357.307	373.25
357.534	390.25
357.761	383.25
357.988	383.25
358.215	384.25
358.441	366.25
358.668	384.25
358.895	389.25
359.122	401.25
359.349	394.25
359.576	407.25
359.802	431.25
360.029	438.25
360.256	463.25
360.483	421.25
360.709	422.25
360.936	391.25
361.163	405.25
361.39	403.25
361.616	424.25
361.843	408.25
362.07	398.25
362.296	409.25
362.523	412.25
362.749	392.25
362.976	418.25
363.203	386.25
363.429	372.25
363.656	396.25
363.882	377.25
364.109	382.25
364.335	401.25
364.562	375.25
364.788	384.25
365.015	380.25
365.241	390.25
365.468	374.25
365.694	399.25
365.92	390.25
366.147	383.25
366.373	378.25
366.599	381.25
366.826	384.25
367.052	371.25
367.278	371.25
367.505	368.25
367.731	372.25
367.957	370.25
368.184	368.25
368.41	388.25
368.636	401.25
368.862	396.25
369.089	382.25
369.315	395.25
369.541	373.25
369.767	390.25
369.993	375.25
370.219	381.25
370.445	380.25
370.672	374.25
370.898	396.25
371.124	392.25
371.35	359.25
371.576	366.25
371.802	379.25
372.028	367.25
372.254	375.25
372.48	368.25
372.706	373.25
372.932	380.25
373.158	380.25
373.384	378.25
373.61	365.25
373.835	384.25
374.061	376.25
374.287	362.25
374.513	386.25
374.739	376.25
374.965	375.25
375.191	390.25
375.416	383.25
375.642	376.25
375.868	373.25
376.094	378.25
376.319	384.25
376.545	385.25
376.771	364.25
376.997	389.25
377.222	371.25
377.448	365.25
377.674	367.25
377.899	371.25
378.125	354.25
378.35	378.25
378.576	359.25
378.802	376.25
379.027	359.25
379.253	372.25
379.478	362.25
379.704	370.25
379.929	365.25
380.155	372.25
380.38	356.25
380.606	371.25
380.831	361.25
381.057	376.25
381.282	365.25
381.507	353.25
381.733	384.25
381.958	370.25
382.184	362.25
382.409	354.25
382.634	366.25
382.86	357.25
383.085	366.25
383.31	361.25
383.535	389.25
383.761	392.25
383.986	381.25
384.211	378.25
384.436	363.25
384.662	394.25
384.887	382.25
385.112	378.25
385.337	375.25
385.562	387.25
385.787	370.25
386.013	384.25
386.238	384.25
386.463	389.25
386.688	396.25
386.913	399.25
387.138	391.25
387.363	378.25
387.588	396.25
387.813	397.25
388.038	373.25
388.263	378.25
388.488	378.25
388.713	378.25
388.938	392.25
389.163	396.25
389.387	384.25
389.612	382.25
389.837	388.25
390.062	396.25
390.287	419.25
390.512	395.25
390.736	394.25
390.961	387.25
391.186	370.25
391.411	380.25
391.636	384.25
391.86	408.25
392.085	399.25
392.31	410.25
392.534	403.25
392.759	382.25
392.984	390.25
393.208	381.25
393.433	383.25
393.658	380.25
393.882	406.25
394.107	393.25
394.331	387.25
394.556	413.25
394.78	386.25
395.005	395.25
395.229	389.25
395.454	384.25
395.678	399.25
395.903	389.25
396.127	432.25
396.352	415.25
396.576	401.25
396.801	408.25
397.025	387.25
397.249	395.25
397.474	412.25
397.698	417.25
397.922	420.25
398.147	427.25
398.371	441.25
398.595	419.25
398.82	422.25
399.044	442.25
399.268	454.25
399.492	478.25
399.717	460.25
399.941	514.25
400.165	546.25
400.389	512.25
400.613	476.25
400.837	463.25
401.062	472.25
401.286	434.25
401.51	434.25
401.734	437.25
401.958	414.25
402.182	430.25
402.406	449.25
402.63	428.25
402.854	454.25
403.078	436.25
403.302	451.25
403.526	443.25
403.75	442.25
403.974	436.25
404.198	444.25
404.422	435.25
404.645	453.25
404.869	455.25
405.093	474.25
405.317	514.25
405.541	539.25
405.765	505.25
405.988	469.25
406.212	471.25
406.436	502.25
406.66	488.25
406.883	480.25
407.107	503.25
407.331	544.25
407.555	590.25
407.778	583.25
408.002	524.25
408.226	503.25
408.449	469.25
408.673	495.25
408.896	502.25
409.12	544.25
409.344	517.25
409.567	484.25
409.791	444.25
410.014	439.25
410.238	429.25
410.461	436.25
410.685	456.25
410.908	488.25
411.132	495.25
411.355	526.25
411.578	496.25
411.802	461.25
412.025	459.25
412.249	457.25
412.472	464.25
412.695	492.25
412.919	474.25
413.142	439.25
413.365	426.25
413.589	435.25
413.812	414.25
414.035	424.25
414.258	404.25
414.482	407.25
414.705	428.25
414.928	431.25
415.151	399.25
415.374	421.25
415.597	396.25
415.821	408.25
416.044	424.25
416.267	429.25
416.49	404.25
416.713	400.25
416.936	415.25
417.159	414.25
417.382	418.25
417.605	429.25
417.828	417.25
418.051	432.25
418.274	425.25
418.497	425.25
418.72	430.25
418.943	411.25
419.166	417.25
419.389	444.25
419.611	436.25
419.834	444.25
420.057	451.25
420.28	463.25
420.503	458.25
420.726	439.25
420.948	446.25
421.171	481.25
421.394	513.25
421.617	482.25
421.839	430.25
422.062	440.25
422.285	458.25
422.507	504.25
422.73	565.25
422.953	540.25
423.175	466.25
423.398	457.25
423.621	445.25
423.843	468.25
424.066	460.25
424.288	471.25
424.511	485.25
424.733	530.25
424.956	589.25
425.178	574.25
425.401	589.25
425.623	579.25
425.846	526.25
426.068	475.25
426.291	463.25
426.513	456.25
426.735	478.25
426.958	498.25
427.18	602.25
427.402	696.25
427.625	761.25
427.847	666.25
428.069	583.25
428.292	512.25
428.514	468.25
428.736	447.25
428.958	463.25
429.181	427.25
429.403	426.25
429.625	431.25
429.847	474.25
430.069	506.25
430.292	516.25
430.514	458.25
430.736	422.25
430.958	453.25
431.18	441.25
431.402	437.25
431.624	416.25
431.846	427.25
432.068	402.25
432.29	418.25
432.512	392.25
432.734	424.25
432.956	411.25
433.178	426.25
433.4	431.25
433.622	431.25
433.844	408.25
434.066	413.25
434.287	393.25
434.509	403.25
434.731	415.25
434.953	432.25
435.175	445.25
435.397	448.25
435.618	481.25
435.84	518.25
436.062	564.25
436.284	637.25
436.505	534.25
436.727	484.25
436.949	440.25
437.17	439.25
437.392	435.25
437.614	451.25
437.835	470.25
438.057	553.25
438.278	631.25
438.5	640.25
438.721	700.25
438.943	658.25
439.165	561.25
439.386	498.25
439.608	483.25
439.829	473.25
440.05	482.25
440.272	524.25
440.493	498.25
440.715	463.25
440.936	454.25
441.158	451.25
441.379	452.25
441.6	463.25
441.822	467.25
442.043	532.25
442.264	577.25
442.486	605.25
442.707	515.25
442.928	467.25
443.149	486.25
443.371	536.25
443.592	555.25
443.813	610.25
444.034	663.25
444.255	564.25
444.476	495.25
444.698	463.25
444.919	462.25
445.14	549.25
445.361	520.25
445.582	506.25
445.803	556.25
446.024	641.25
446.245	644.25
446.466	579.25
446.687	521.25
446.908	475.25
447.129	463.25
447.35	450.25
447.571	455.25
447.792	414.25
448.013	441.25
448.234	450.25
448.455	503.25
448.675	586.25
448.896	702.25
449.117	595.25
449.338	545.25
449.559	635.25
449.779	732.25
450	573.25
450.221	478.25
450.442	448.25
450.662	421.25
450.883	434.25
451.104	426.25
451.324	423.25
451.545	396.25
451.766	418.25
451.986	413.25
452.207	381.25
452.428	393.25
452.648	371.25
452.869	379.25
453.089	384.25
453.31	407.25
453.53	397.25
453.751	385.25
453.971	382.25
454.192	408.25
454.412	384.25
454.633	362.25
454.853	374.25
455.073	377.25
455.294	413.25
455.514	470.25
455.734	459.25
455.955	390.25
456.175	369.25
456.395	354.25
456.616	368.25
456.836	372.25
457.056	352.25
457.276	327.25
457.497	345.25
457.717	342.25
457.937	353.25
458.157	370.25
458.377	372.25
458.598	379.25
458.818	429.25
459.038	496.25
459.258	527.25
459.478	431.25
459.698	412.25
459.918	410.25
460.138	396.25
460.358	400.25
460.578	403.25
460.798	409.25
461.018	399.25
461.238	381.25
461.458	400.25
461.678	394.25
461.898	418.25
462.118	421.25
462.338	428.25
462.558	406.25
462.777	428.25
462.997	414.25
463.217	444.25
463.437	423.25
463.657	422.25
463.876	442.25
464.096	431.25
464.316	441.25
464.536	440.25
464.755	460.25
464.975	439.25
465.195	477.25
465.414	506.25
465.634	442.25
465.854	417.25
466.073	408.25
466.293	394.25
466.512	388.25
466.732	383.25
466.951	385.25
467.171	388.25
467.391	405.25
467.61	413.25
467.829	399.25
468.049	392.25
468.268	406.25
468.488	400.25
468.707	380.25
468.927	386.25
469.146	376.25
469.365	389.25
469.585	388.25
469.804	395.25
470.023	422.25
470.243	400.25
470.462	411.25
470.681	418.25
470.901	419.25
471.12	425.25
471.339	401.25
471.558	393.25
471.777	399.25
471.997	408.25
472.216	410.25
472.435	420.25
472.654	414.25
472.873	411.25
473.092	387.25
473.311	398.25
473.53	406.25
473.749	416.25
473.968	458.25
474.187	526.25
474.406	563.25
474.625	437.25
474.844	401.25
475.063	396.25
475.282	423.25
475.501	407.25
475.72	416.25
475.939	398.25
476.158	387.25
476.377	399.25
476.596	407.25
476.814	406.25
477.033	397.25
477.252	434.25
477.471	416.25
477.69	423.25
477.908	427.25
478.127	426.25
478.346	425.25
478.564	442.25
478.783	443.25
479.002	437.25
479.22	468.25
479.439	450.25
479.658	475.25
479.876	474.25
480.095	456.25
480.313	482.25
480.532	485.25
480.751	485.25
480.969	504.25
481.188	542.25
481.406	533.25
481.624	491.25
481.843	459.25
482.061	467.25
482.28	464.25
482.498	470.25
482.717	472.25
482.935	463.25
483.153	459.25
483.372	476.25
483.59	470.25
483.808	453.25
484.027	476.25
484.245	457.25
484.463	474.25
484.681	462.25
484.9	456.25
485.118	469.25
485.336	490.25
485.554	471.25
485.772	476.25
485.99	458.25
486.209	473.25
486.427	461.25
486.645	490.25
486.863	514.25
487.081	491.25
487.299	486.25
487.517	490.25
487.735	502.25
487.953	503.25
488.171	494.25
488.389	475.25
488.607	494.25
488.825	482.25
489.043	467.25
489.261	478.25
489.479	493.25
489.696	516.25
489.914	518.25
490.132	510.25
490.35	518.25
490.568	515.25
490.786	520.25
491.003	554.25
491.221	541.25
491.439	548.25
491.657	548.25
491.874	552.25
492.092	586.25
492.31	581.25
492.527	565.25
492.745	577.25
492.963	598.25
493.18	569.25
493.398	584.25
493.615	601.25
493.833	585.25
494.05	577.25
494.268	591.25
494.485	571.25
494.703	576.25
494.92	592.25
495.138	575.25
495.355	586.25
495.573	599.25
495.79	590.25
496.008	596.25
496.225	587.25
496.442	602.25
496.66	610.25
496.877	595.25
497.094	588.25
497.312	602.25
497.529	587.25
497.746	626.25
497.963	611.25
498.181	626.25
498.398	623.25
498.615	642.25
498.832	650.25
499.049	655.25
499.267	640.25
499.484	671.25
499.701	707.25
499.918	720.25
500.135	748.25
500.352	785.25
500.569	771.25
500.786	788.25
501.003	768.25
501.22	784.25
501.437	750.25
501.654	704.25
501.871	706.25
