Data from 1971.PennyLincolnUp.Lamp.En5.5.200Scan.071719.P1.Scan 2. Changed Angle._HRD10591_15-22-25-842.txt Node
Date: Thu Jul 18 15:22:25 EDT 2019
User: cochatt
Spectrometer: HR+D1059
Trigger mode: 1
Integration Time (sec): 1.000000E-1
Scans to average: 1
Electric dark correction enabled: true
Nonlinearity correction enabled: false
Boxcar width: 0
XAxis mode: Wavelengths
Number of Pixels in Spectrum: 2048
>>>>>Begin Spectral Data<<<<<
223.165	-18.75
223.4	-18.75
223.635	-18.75
223.869	-10.75
224.104	-23.75
224.338	-17.75
224.573	-14.75
224.808	-7.75
225.042	-5.75
225.277	-24.75
225.511	-6.75
225.746	13.25
225.98	14.25
226.215	5.25
226.449	20.25
226.683	27.25
226.918	27.25
227.152	23.25
227.387	31.25
227.621	41.25
227.856	36.25
228.09	51.25
228.324	49.25
228.559	54.25
228.793	65.25
229.027	89.25
229.262	108.25
229.496	116.25
229.73	125.25
229.964	136.25
230.199	126.25
230.433	113.25
230.667	98.25
230.901	117.25
231.136	111.25
231.37	103.25
231.604	97.25
231.838	92.25
232.072	111.25
232.306	101.25
232.541	105.25
232.775	119.25
233.009	111.25
233.243	121.25
233.477	106.25
233.711	123.25
233.945	107.25
234.179	97.25
234.413	112.25
234.647	117.25
234.881	105.25
235.115	111.25
235.349	116.25
235.583	109.25
235.817	109.25
236.051	107.25
236.285	111.25
236.519	108.25
236.753	125.25
236.987	114.25
237.221	167.25
237.455	198.25
237.689	162.25
237.922	131.25
238.156	123.25
238.39	99.25
238.624	120.25
238.858	117.25
239.091	100.25
239.325	108.25
239.559	115.25
239.793	108.25
240.027	126.25
240.26	119.25
240.494	138.25
240.728	147.25
240.961	135.25
241.195	139.25
241.429	132.25
241.662	116.25
241.896	99.25
242.13	119.25
242.363	98.25
242.597	120.25
242.83	129.25
243.064	119.25
243.298	125.25
243.531	123.25
243.765	129.25
243.998	123.25
244.232	124.25
244.465	126.25
244.699	138.25
244.932	121.25
245.166	132.25
245.399	136.25
245.633	134.25
245.866	141.25
246.099	130.25
246.333	130.25
246.566	130.25
246.8	126.25
247.033	130.25
247.266	138.25
247.5	144.25
247.733	153.25
247.966	147.25
248.2	151.25
248.433	171.25
248.666	180.25
248.899	167.25
249.133	181.25
249.366	177.25
249.599	157.25
249.832	163.25
250.066	155.25
250.299	158.25
250.532	166.25
250.765	166.25
250.998	177.25
251.231	191.25
251.465	191.25
251.698	179.25
251.931	170.25
252.164	172.25
252.397	174.25
252.63	184.25
252.863	181.25
253.096	195.25
253.329	195.25
253.562	179.25
253.795	206.25
254.028	208.25
254.261	193.25
254.494	181.25
254.727	210.25
254.96	233.25
255.193	211.25
255.426	208.25
255.659	178.25
255.892	187.25
256.124	201.25
256.357	192.25
256.59	183.25
256.823	189.25
257.056	178.25
257.289	178.25
257.521	176.25
257.754	178.25
257.987	166.25
258.22	181.25
258.452	174.25
258.685	191.25
258.918	163.25
259.151	174.25
259.383	198.25
259.616	186.25
259.849	186.25
260.081	189.25
260.314	209.25
260.547	209.25
260.779	202.25
261.012	191.25
261.244	186.25
261.477	174.25
261.71	181.25
261.942	177.25
262.175	183.25
262.407	181.25
262.64	186.25
262.872	190.25
263.105	189.25
263.337	180.25
263.57	178.25
263.802	178.25
264.035	179.25
264.267	186.25
264.499	177.25
264.732	179.25
264.964	167.25
265.197	180.25
265.429	169.25
265.661	166.25
265.894	174.25
266.126	184.25
266.358	179.25
266.591	186.25
266.823	189.25
267.055	185.25
267.287	183.25
267.52	166.25
267.752	191.25
267.984	187.25
268.216	184.25
268.448	204.25
268.681	194.25
268.913	189.25
269.145	213.25
269.377	210.25
269.609	216.25
269.841	220.25
270.073	198.25
270.306	230.25
270.538	233.25
270.77	247.25
271.002	249.25
271.234	229.25
271.466	238.25
271.698	251.25
271.93	233.25
272.162	250.25
272.394	239.25
272.626	247.25
272.858	212.25
273.09	225.25
273.322	203.25
273.553	205.25
273.785	204.25
274.017	211.25
274.249	196.25
274.481	211.25
274.713	209.25
274.945	230.25
275.176	225.25
275.408	207.25
275.64	205.25
275.872	196.25
276.104	206.25
276.335	198.25
276.567	206.25
276.799	218.25
277.031	229.25
277.262	222.25
277.494	251.25
277.726	225.25
277.957	212.25
278.189	205.25
278.421	204.25
278.652	216.25
278.884	201.25
279.115	209.25
279.347	211.25
279.579	217.25
279.81	207.25
280.042	212.25
280.273	189.25
280.505	213.25
280.736	212.25
280.968	210.25
281.199	206.25
281.431	203.25
281.662	212.25
281.894	219.25
282.125	214.25
282.356	209.25
282.588	216.25
282.819	223.25
283.051	203.25
283.282	206.25
283.513	192.25
283.745	205.25
283.976	212.25
284.207	210.25
284.439	200.25
284.67	225.25
284.901	208.25
285.132	214.25
285.364	215.25
285.595	204.25
285.826	221.25
286.057	225.25
286.288	210.25
286.52	218.25
286.751	214.25
286.982	215.25
287.213	208.25
287.444	211.25
287.675	218.25
287.906	218.25
288.138	224.25
288.369	226.25
288.6	228.25
288.831	220.25
289.062	230.25
289.293	203.25
289.524	210.25
289.755	212.25
289.986	221.25
290.217	212.25
290.448	220.25
290.679	211.25
290.91	219.25
291.141	215.25
291.371	219.25
291.602	225.25
291.833	217.25
292.064	215.25
292.295	218.25
292.526	213.25
292.757	229.25
292.987	222.25
293.218	221.25
293.449	215.25
293.68	215.25
293.91	220.25
294.141	206.25
294.372	205.25
294.603	205.25
294.833	229.25
295.064	222.25
295.295	218.25
295.525	233.25
295.756	221.25
295.987	225.25
296.217	237.25
296.448	241.25
296.679	245.25
296.909	206.25
297.14	204.25
297.37	237.25
297.601	212.25
297.831	222.25
298.062	215.25
298.292	216.25
298.523	220.25
298.753	218.25
298.984	224.25
299.214	222.25
299.445	232.25
299.675	236.25
299.905	238.25
300.136	225.25
300.366	217.25
300.597	226.25
300.827	234.25
301.057	259.25
301.288	243.25
301.518	238.25
301.748	243.25
301.979	231.25
302.209	237.25
302.439	254.25
302.669	253.25
302.9	259.25
303.13	235.25
303.36	235.25
303.59	237.25
303.82	259.25
304.051	222.25
304.281	236.25
304.511	230.25
304.741	232.25
304.971	219.25
305.201	222.25
305.431	238.25
305.661	230.25
305.891	230.25
306.121	234.25
306.352	235.25
306.582	249.25
306.812	245.25
307.042	251.25
307.272	245.25
307.502	258.25
307.731	236.25
307.961	253.25
308.191	242.25
308.421	241.25
308.651	246.25
308.881	234.25
309.111	257.25
309.341	257.25
309.571	265.25
309.8	272.25
310.03	281.25
310.26	271.25
310.49	276.25
310.72	289.25
310.949	286.25
311.179	281.25
311.409	288.25
311.639	282.25
311.868	289.25
312.098	289.25
312.328	288.25
312.557	296.25
312.787	305.25
313.017	299.25
313.246	295.25
313.476	294.25
313.706	286.25
313.935	279.25
314.165	284.25
314.394	302.25
314.624	300.25
314.853	287.25
315.083	279.25
315.312	274.25
315.542	278.25
315.771	276.25
316.001	294.25
316.23	295.25
316.46	289.25
316.689	262.25
316.919	276.25
317.148	298.25
317.377	283.25
317.607	282.25
317.836	285.25
318.065	306.25
318.295	313.25
318.524	289.25
318.753	275.25
318.983	289.25
319.212	298.25
319.441	287.25
319.67	296.25
319.9	284.25
320.129	271.25
320.358	283.25
320.587	270.25
320.816	267.25
321.046	303.25
321.275	297.25
321.504	293.25
321.733	293.25
321.962	302.25
322.191	317.25
322.42	315.25
322.649	334.25
322.878	325.25
323.108	307.25
323.337	325.25
323.566	357.25
323.795	393.25
324.024	412.25
324.253	483.25
324.482	705.25
324.71	1086.25
324.939	1565.25
325.168	1351.25
325.397	717.25
325.626	487.25
325.855	403.25
326.084	391.25
326.313	358.25
326.542	372.25
326.77	410.25
326.999	465.25
327.228	625.25
327.457	955.25
327.686	1205.25
327.914	784.25
328.143	493.25
328.372	458.25
328.6	438.25
328.829	404.25
329.058	403.25
329.287	425.25
329.515	385.25
329.744	376.25
329.972	373.25
330.201	382.25
330.43	392.25
330.658	404.25
330.887	436.25
331.115	406.25
331.344	379.25
331.572	354.25
331.801	344.25
332.03	350.25
332.258	348.25
332.486	321.25
332.715	335.25
332.943	317.25
333.172	318.25
333.4	342.25
333.629	348.25
333.857	321.25
334.085	340.25
334.314	326.25
334.542	362.25
334.771	374.25
334.999	334.25
335.227	330.25
335.455	341.25
335.684	312.25
335.912	326.25
336.14	317.25
336.369	327.25
336.597	326.25
336.825	365.25
337.053	336.25
337.281	314.25
337.51	324.25
337.738	335.25
337.966	317.25
338.194	333.25
338.422	328.25
338.65	324.25
338.878	328.25
339.106	331.25
339.334	332.25
339.562	335.25
339.79	315.25
340.018	302.25
340.246	319.25
340.474	314.25
340.702	309.25
340.93	319.25
341.158	324.25
341.386	339.25
341.614	329.25
341.842	326.25
342.07	305.25
342.298	315.25
342.526	333.25
342.754	321.25
342.981	312.25
343.209	302.25
343.437	330.25
343.665	316.25
343.893	314.25
344.12	341.25
344.348	322.25
344.576	331.25
344.804	331.25
345.031	338.25
345.259	343.25
345.487	325.25
345.714	321.25
345.942	339.25
346.17	328.25
346.397	317.25
346.625	324.25
346.853	288.25
347.08	329.25
347.308	321.25
347.535	321.25
347.763	322.25
347.99	330.25
348.218	325.25
348.445	332.25
348.673	325.25
348.9	323.25
349.128	311.25
349.355	309.25
349.583	308.25
349.81	303.25
350.037	323.25
350.265	299.25
350.492	302.25
350.72	299.25
350.947	324.25
351.174	337.25
351.402	328.25
351.629	327.25
351.856	321.25
352.083	343.25
352.311	353.25
352.538	317.25
352.765	333.25
352.992	322.25
353.22	321.25
353.447	308.25
353.674	312.25
353.901	309.25
354.128	291.25
354.355	315.25
354.583	301.25
354.81	296.25
355.037	289.25
355.264	317.25
355.491	305.25
355.718	307.25
355.945	297.25
356.172	280.25
356.399	294.25
356.626	298.25
356.853	298.25
357.08	289.25
357.307	317.25
357.534	309.25
357.761	311.25
357.988	313.25
358.215	306.25
358.441	291.25
358.668	285.25
358.895	289.25
359.122	320.25
359.349	328.25
359.576	330.25
359.802	324.25
360.029	343.25
360.256	353.25
360.483	340.25
360.709	346.25
360.936	327.25
361.163	325.25
361.39	323.25
361.616	327.25
361.843	323.25
362.07	333.25
362.296	335.25
362.523	327.25
362.749	325.25
362.976	332.25
363.203	325.25
363.429	315.25
363.656	309.25
363.882	314.25
364.109	331.25
364.335	322.25
364.562	313.25
364.788	323.25
365.015	318.25
365.241	321.25
365.468	305.25
365.694	317.25
365.92	334.25
366.147	316.25
366.373	318.25
366.599	303.25
366.826	321.25
367.052	287.25
367.278	316.25
367.505	334.25
367.731	305.25
367.957	316.25
368.184	330.25
368.41	335.25
368.636	321.25
368.862	330.25
369.089	327.25
369.315	331.25
369.541	306.25
369.767	349.25
369.993	337.25
370.219	321.25
370.445	325.25
370.672	315.25
370.898	297.25
371.124	322.25
371.35	334.25
371.576	310.25
371.802	322.25
372.028	302.25
372.254	347.25
372.48	324.25
372.706	319.25
372.932	339.25
373.158	347.25
373.384	339.25
373.61	340.25
373.835	321.25
374.061	318.25
374.287	319.25
374.513	331.25
374.739	333.25
374.965	334.25
375.191	334.25
375.416	318.25
375.642	311.25
375.868	325.25
376.094	323.25
376.319	325.25
376.545	338.25
376.771	337.25
376.997	331.25
377.222	326.25
377.448	334.25
377.674	351.25
377.899	324.25
378.125	323.25
378.35	332.25
378.576	327.25
378.802	321.25
379.027	325.25
379.253	318.25
379.478	315.25
379.704	340.25
379.929	323.25
380.155	350.25
380.38	326.25
380.606	327.25
380.831	337.25
381.057	323.25
381.282	329.25
381.507	350.25
381.733	340.25
381.958	334.25
382.184	334.25
382.409	342.25
382.634	345.25
382.86	363.25
383.085	335.25
383.31	324.25
383.535	348.25
383.761	354.25
383.986	354.25
384.211	365.25
384.436	360.25
384.662	326.25
384.887	341.25
385.112	342.25
385.337	344.25
385.562	344.25
385.787	350.25
386.013	375.25
386.238	391.25
386.463	386.25
386.688	371.25
386.913	373.25
387.138	374.25
387.363	358.25
387.588	354.25
387.813	354.25
388.038	354.25
388.263	352.25
388.488	362.25
388.713	353.25
388.938	365.25
389.163	375.25
389.387	345.25
389.612	341.25
389.837	345.25
390.062	369.25
390.287	366.25
390.512	363.25
390.736	358.25
390.961	364.25
391.186	357.25
391.411	378.25
391.636	379.25
391.86	379.25
392.085	373.25
392.31	370.25
392.534	381.25
392.759	392.25
392.984	403.25
393.208	472.25
393.433	643.25
393.658	696.25
393.882	452.25
394.107	391.25
394.331	375.25
394.556	359.25
394.78	365.25
395.005	359.25
395.229	364.25
395.454	370.25
395.678	379.25
395.903	372.25
396.127	383.25
396.352	405.25
396.576	415.25
396.801	472.25
397.025	590.25
397.249	501.25
397.474	419.25
397.698	385.25
397.922	407.25
398.147	421.25
398.371	427.25
398.595	391.25
398.82	387.25
399.044	407.25
399.268	414.25
399.492	424.25
399.717	460.25
399.941	462.25
400.165	484.25
400.389	515.25
400.613	467.25
400.837	431.25
401.062	433.25
401.286	413.25
401.51	409.25
401.734	415.25
401.958	422.25
402.182	393.25
402.406	441.25
402.63	402.25
402.854	413.25
403.078	419.25
403.302	421.25
403.526	430.25
403.75	431.25
403.974	437.25
404.198	423.25
404.422	425.25
404.645	428.25
404.869	430.25
405.093	447.25
405.317	461.25
405.541	496.25
405.765	443.25
405.988	427.25
406.212	448.25
406.436	452.25
406.66	486.25
406.883	476.25
407.107	478.25
407.331	510.25
407.555	555.25
407.778	568.25
408.002	520.25
408.226	473.25
408.449	469.25
408.673	476.25
408.896	509.25
409.12	516.25
409.344	498.25
409.567	464.25
409.791	432.25
410.014	415.25
410.238	413.25
410.461	435.25
410.685	429.25
410.908	461.25
411.132	479.25
411.355	501.25
411.578	468.25
411.802	445.25
412.025	438.25
412.249	432.25
412.472	426.25
412.695	471.25
412.919	456.25
413.142	433.25
413.365	421.25
413.589	424.25
413.812	409.25
414.035	400.25
414.258	411.25
414.482	427.25
414.705	412.25
414.928	416.25
415.151	407.25
415.374	382.25
415.597	404.25
415.821	404.25
416.044	406.25
416.267	398.25
416.49	414.25
416.713	394.25
416.936	403.25
417.159	398.25
417.382	422.25
417.605	406.25
417.828	418.25
418.051	429.25
418.274	435.25
418.497	422.25
418.72	405.25
418.943	398.25
419.166	422.25
419.389	441.25
419.611	429.25
419.834	449.25
420.057	436.25
420.28	424.25
420.503	408.25
420.726	420.25
420.948	427.25
421.171	478.25
421.394	494.25
421.617	461.25
421.839	438.25
422.062	443.25
422.285	445.25
422.507	485.25
422.73	549.25
422.953	585.25
423.175	484.25
423.398	463.25
423.621	444.25
423.843	477.25
424.066	457.25
424.288	454.25
424.511	476.25
424.733	530.25
424.956	577.25
425.178	573.25
425.401	567.25
425.623	601.25
425.846	523.25
426.068	481.25
426.291	480.25
426.513	462.25
426.735	476.25
426.958	525.25
427.18	588.25
427.402	656.25
427.625	753.25
427.847	659.25
428.069	553.25
428.292	505.25
428.514	468.25
428.736	440.25
428.958	442.25
429.181	451.25
429.403	437.25
429.625	442.25
429.847	462.25
430.069	523.25
430.292	539.25
430.514	450.25
430.736	435.25
430.958	436.25
431.18	435.25
431.402	402.25
431.624	406.25
431.846	401.25
432.068	413.25
432.29	406.25
432.512	425.25
432.734	435.25
432.956	417.25
433.178	438.25
433.4	441.25
433.622	422.25
433.844	413.25
434.066	400.25
434.287	418.25
434.509	415.25
434.731	404.25
434.953	417.25
435.175	438.25
435.397	467.25
435.618	475.25
435.84	500.25
436.062	577.25
436.284	646.25
436.505	547.25
436.727	488.25
436.949	457.25
437.17	441.25
437.392	446.25
437.614	462.25
437.835	474.25
438.057	561.25
438.278	632.25
438.5	635.25
438.721	702.25
438.943	676.25
439.165	540.25
439.386	477.25
439.608	481.25
439.829	474.25
440.05	496.25
440.272	535.25
440.493	516.25
440.715	468.25
440.936	472.25
441.158	447.25
441.379	441.25
441.6	452.25
441.822	463.25
442.043	491.25
442.264	566.25
442.486	623.25
442.707	558.25
442.928	503.25
443.149	509.25
443.371	515.25
443.592	552.25
443.813	611.25
444.034	665.25
444.255	577.25
444.476	501.25
444.698	483.25
444.919	477.25
445.14	561.25
445.361	523.25
445.582	527.25
445.803	546.25
446.024	636.25
446.245	664.25
446.466	594.25
446.687	528.25
446.908	491.25
447.129	441.25
447.35	459.25
447.571	437.25
447.792	421.25
448.013	475.25
448.234	479.25
448.455	498.25
448.675	585.25
448.896	664.25
449.117	615.25
449.338	558.25
449.559	662.25
449.779	684.25
450	579.25
450.221	509.25
450.442	451.25
450.662	424.25
450.883	434.25
451.104	458.25
451.324	432.25
451.545	429.25
451.766	417.25
451.986	409.25
452.207	396.25
452.428	379.25
452.648	395.25
452.869	405.25
453.089	437.25
453.31	426.25
453.53	389.25
453.751	407.25
453.971	404.25
454.192	442.25
454.412	417.25
454.633	402.25
454.853	404.25
455.073	383.25
455.294	423.25
455.514	467.25
455.734	469.25
455.955	394.25
456.175	383.25
456.395	361.25
456.616	369.25
456.836	366.25
457.056	372.25
457.276	346.25
457.497	376.25
457.717	366.25
457.937	373.25
458.157	379.25
458.377	385.25
458.598	395.25
458.818	477.25
459.038	509.25
459.258	518.25
459.478	467.25
459.698	421.25
459.918	427.25
460.138	411.25
460.358	416.25
460.578	407.25
460.798	424.25
461.018	439.25
461.238	427.25
461.458	411.25
461.678	431.25
461.898	415.25
462.118	412.25
462.338	420.25
462.558	422.25
462.777	438.25
462.997	453.25
463.217	433.25
463.437	458.25
463.657	424.25
463.876	453.25
464.096	437.25
464.316	447.25
464.536	436.25
464.755	428.25
464.975	458.25
465.195	479.25
465.414	563.25
465.634	489.25
465.854	456.25
466.073	433.25
466.293	419.25
466.512	423.25
466.732	413.25
466.951	402.25
467.171	422.25
467.391	407.25
467.61	436.25
467.829	433.25
468.049	418.25
468.268	422.25
468.488	423.25
468.707	401.25
468.927	397.25
469.146	387.25
469.365	402.25
469.585	407.25
469.804	394.25
470.023	421.25
470.243	429.25
470.462	392.25
470.681	427.25
470.901	435.25
471.12	413.25
471.339	411.25
471.558	414.25
471.777	426.25
471.997	417.25
472.216	406.25
472.435	427.25
472.654	427.25
472.873	414.25
473.092	421.25
473.311	428.25
473.53	396.25
473.749	433.25
473.968	458.25
474.187	525.25
474.406	535.25
474.625	461.25
474.844	439.25
475.063	419.25
475.282	411.25
475.501	423.25
475.72	437.25
475.939	418.25
476.158	429.25
476.377	442.25
476.596	430.25
476.814	439.25
477.033	440.25
477.252	439.25
477.471	447.25
477.69	438.25
477.908	457.25
478.127	460.25
478.346	461.25
478.564	461.25
478.783	463.25
479.002	490.25
479.22	473.25
479.439	477.25
479.658	497.25
479.876	481.25
480.095	486.25
480.313	514.25
480.532	498.25
480.751	506.25
480.969	516.25
481.188	542.25
481.406	547.25
481.624	514.25
481.843	495.25
482.061	484.25
482.28	489.25
482.498	493.25
482.717	495.25
482.935	498.25
483.153	511.25
483.372	501.25
483.59	491.25
483.808	514.25
484.027	506.25
484.245	488.25
484.463	484.25
484.681	504.25
484.9	523.25
485.118	491.25
485.336	503.25
485.554	502.25
485.772	512.25
485.99	498.25
486.209	513.25
486.427	515.25
486.645	523.25
486.863	541.25
487.081	547.25
487.299	543.25
487.517	539.25
487.735	524.25
487.953	554.25
488.171	564.25
488.389	541.25
488.607	536.25
488.825	534.25
489.043	538.25
489.261	549.25
489.479	531.25
489.696	556.25
489.914	559.25
490.132	534.25
490.35	563.25
490.568	546.25
490.786	580.25
491.003	573.25
491.221	598.25
491.439	574.25
491.657	596.25
491.874	637.25
492.092	592.25
492.31	628.25
492.527	626.25
492.745	632.25
492.963	614.25
493.18	633.25
493.398	620.25
493.615	611.25
493.833	644.25
494.05	651.25
494.268	619.25
494.485	652.25
494.703	604.25
494.92	619.25
495.138	643.25
495.355	642.25
495.573	630.25
495.79	632.25
496.008	655.25
496.225	634.25
496.442	617.25
496.66	645.25
496.877	651.25
497.094	646.25
497.312	648.25
497.529	649.25
497.746	629.25
497.963	656.25
498.181	672.25
498.398	683.25
498.615	697.25
498.832	712.25
499.049	693.25
499.267	726.25
499.484	705.25
499.701	751.25
499.918	760.25
500.135	805.25
500.352	806.25
500.569	857.25
500.786	833.25
501.003	851.25
501.22	814.25
501.437	785.25
501.654	805.25
