Data from 1971.PennyLincolnUp.Lamp.En5.5.200Scan.071719.P1._HRD10591_15-19-19-840.txt Node
Date: Thu Jul 18 15:19:19 EDT 2019
User: cochatt
Spectrometer: HR+D1059
Trigger mode: 1
Integration Time (sec): 1.000000E-1
Scans to average: 1
Electric dark correction enabled: true
Nonlinearity correction enabled: false
Boxcar width: 0
XAxis mode: Wavelengths
Number of Pixels in Spectrum: 2048
>>>>>Begin Spectral Data<<<<<
223.165	-28.12
223.4	-28.12
223.635	-28.12
223.869	-13.12
224.104	-19.12
224.338	-7.12
224.573	-14.12
224.808	-15.12
225.042	-9.12
225.277	-9.12
225.511	-1.12
225.746	4.88
225.98	14.88
226.215	8.88
226.449	3.88
226.683	18.88
226.918	30.88
227.152	33.88
227.387	34.88
227.621	47.88
227.856	48.88
228.09	56.88
228.324	51.88
228.559	60.88
228.793	80.88
229.027	99.88
229.262	110.88
229.496	118.88
229.73	130.88
229.964	140.88
230.199	116.88
230.433	103.88
230.667	103.88
230.901	97.88
231.136	125.88
231.37	120.88
231.604	102.88
231.838	102.88
232.072	117.88
232.306	115.88
232.541	115.88
232.775	130.88
233.009	110.88
233.243	111.88
233.477	133.88
233.711	117.88
233.945	116.88
234.179	115.88
234.413	107.88
234.647	115.88
234.881	122.88
235.115	113.88
235.349	115.88
235.583	123.88
235.817	117.88
236.051	109.88
236.285	128.88
236.519	134.88
236.753	122.88
236.987	135.88
237.221	167.88
237.455	222.88
237.689	182.88
237.922	135.88
238.156	126.88
238.39	135.88
238.624	134.88
238.858	131.88
239.091	131.88
239.325	132.88
239.559	129.88
239.793	130.88
240.027	157.88
240.26	153.88
240.494	144.88
240.728	160.88
240.961	161.88
241.195	134.88
241.429	127.88
241.662	138.88
241.896	146.88
242.13	138.88
242.363	142.88
242.597	128.88
242.83	149.88
243.064	155.88
243.298	127.88
243.531	151.88
243.765	138.88
243.998	143.88
244.232	141.88
244.465	143.88
244.699	142.88
244.932	130.88
245.166	163.88
245.399	154.88
245.633	142.88
245.866	151.88
246.099	155.88
246.333	151.88
246.566	151.88
246.8	153.88
247.033	159.88
247.266	176.88
247.5	160.88
247.733	175.88
247.966	195.88
248.2	179.88
248.433	174.88
248.666	172.88
248.899	169.88
249.133	203.88
249.366	215.88
249.599	190.88
249.832	212.88
250.066	180.88
250.299	192.88
250.532	201.88
250.765	201.88
250.998	226.88
251.231	218.88
251.465	215.88
251.698	204.88
251.931	201.88
252.164	192.88
252.397	205.88
252.63	204.88
252.863	208.88
253.096	228.88
253.329	239.88
253.562	243.88
253.795	240.88
254.028	237.88
254.261	235.88
254.494	268.88
254.727	283.88
254.96	287.88
255.193	275.88
255.426	259.88
255.659	240.88
255.892	250.88
256.124	234.88
256.357	233.88
256.59	233.88
256.823	205.88
257.056	207.88
257.289	216.88
257.521	237.88
257.754	209.88
257.987	222.88
258.22	213.88
258.452	207.88
258.685	213.88
258.918	224.88
259.151	227.88
259.383	208.88
259.616	238.88
259.849	237.88
260.081	240.88
260.314	249.88
260.547	246.88
260.779	234.88
261.012	245.88
261.244	234.88
261.477	232.88
261.71	229.88
261.942	241.88
262.175	247.88
262.407	232.88
262.64	221.88
262.872	221.88
263.105	228.88
263.337	223.88
263.57	225.88
263.802	236.88
264.035	208.88
264.267	218.88
264.499	236.88
264.732	207.88
264.964	215.88
265.197	209.88
265.429	223.88
265.661	205.88
265.894	231.88
266.126	231.88
266.358	234.88
266.591	209.88
266.823	242.88
267.055	249.88
267.287	241.88
267.52	236.88
267.752	245.88
267.984	270.88
268.216	239.88
268.448	230.88
268.681	233.88
268.913	267.88
269.145	283.88
269.377	288.88
269.609	282.88
269.841	292.88
270.073	289.88
270.306	290.88
270.538	317.88
270.77	324.88
271.002	300.88
271.234	315.88
271.466	318.88
271.698	331.88
271.93	323.88
272.162	324.88
272.394	311.88
272.626	304.88
272.858	307.88
273.09	301.88
273.322	278.88
273.553	279.88
273.785	274.88
274.017	276.88
274.249	282.88
274.481	278.88
274.713	280.88
274.945	282.88
275.176	283.88
275.408	267.88
275.64	277.88
275.872	271.88
276.104	291.88
276.335	272.88
276.567	266.88
276.799	302.88
277.031	328.88
277.262	326.88
277.494	327.88
277.726	314.88
277.957	307.88
278.189	297.88
278.421	280.88
278.652	294.88
278.884	299.88
279.115	279.88
279.347	280.88
279.579	284.88
279.81	281.88
280.042	287.88
280.273	272.88
280.505	286.88
280.736	292.88
280.968	289.88
281.199	266.88
281.431	283.88
281.662	270.88
281.894	283.88
282.125	290.88
282.356	281.88
282.588	293.88
282.819	313.88
283.051	287.88
283.282	283.88
283.513	266.88
283.745	273.88
283.976	307.88
284.207	289.88
284.439	295.88
284.67	286.88
284.901	304.88
285.132	283.88
285.364	290.88
285.595	284.88
285.826	293.88
286.057	268.88
286.288	286.88
286.52	274.88
286.751	283.88
286.982	312.88
287.213	311.88
287.444	291.88
287.675	300.88
287.906	322.88
288.138	313.88
288.369	323.88
288.6	308.88
288.831	302.88
289.062	325.88
289.293	317.88
289.524	300.88
289.755	320.88
289.986	304.88
290.217	298.88
290.448	299.88
290.679	298.88
290.91	316.88
291.141	292.88
291.371	316.88
291.602	299.88
291.833	308.88
292.064	319.88
292.295	297.88
292.526	292.88
292.757	308.88
292.987	313.88
293.218	305.88
293.449	309.88
293.68	302.88
293.91	311.88
294.141	304.88
294.372	297.88
294.603	308.88
294.833	299.88
295.064	309.88
295.295	299.88
295.525	299.88
295.756	325.88
295.987	305.88
296.217	328.88
296.448	343.88
296.679	318.88
296.909	316.88
297.14	299.88
297.37	319.88
297.601	310.88
297.831	312.88
298.062	317.88
298.292	317.88
298.523	301.88
298.753	336.88
298.984	315.88
299.214	295.88
299.445	315.88
299.675	316.88
299.905	323.88
300.136	322.88
300.366	311.88
300.597	327.88
300.827	317.88
301.057	336.88
301.288	347.88
301.518	331.88
301.748	326.88
301.979	307.88
302.209	343.88
302.439	319.88
302.669	353.88
302.9	330.88
303.13	345.88
303.36	348.88
303.59	333.88
303.82	331.88
304.051	348.88
304.281	348.88
304.511	348.88
304.741	316.88
304.971	318.88
305.201	341.88
305.431	336.88
305.661	332.88
305.891	329.88
306.121	348.88
306.352	356.88
306.582	349.88
306.812	340.88
307.042	341.88
307.272	364.88
307.502	338.88
307.731	328.88
307.961	341.88
308.191	331.88
308.421	335.88
308.651	342.88
308.881	341.88
309.111	333.88
309.341	360.88
309.571	359.88
309.8	372.88
310.03	375.88
310.26	357.88
310.49	381.88
310.72	372.88
310.949	393.88
311.179	394.88
311.409	378.88
311.639	383.88
311.868	389.88
312.098	396.88
312.328	392.88
312.557	409.88
312.787	407.88
313.017	405.88
313.246	397.88
313.476	390.88
313.706	390.88
313.935	390.88
314.165	393.88
314.394	400.88
314.624	389.88
314.853	397.88
315.083	392.88
315.312	376.88
315.542	378.88
315.771	366.88
316.001	367.88
316.23	377.88
316.46	393.88
316.689	394.88
316.919	373.88
317.148	394.88
317.377	407.88
317.607	409.88
317.836	390.88
318.065	366.88
318.295	383.88
318.524	376.88
318.753	366.88
318.983	369.88
319.212	397.88
319.441	398.88
319.67	394.88
319.9	386.88
320.129	403.88
320.358	402.88
320.587	392.88
320.816	399.88
321.046	399.88
321.275	390.88
321.504	413.88
321.733	420.88
321.962	437.88
322.191	427.88
322.42	431.88
322.649	444.88
322.878	447.88
323.108	451.88
323.337	472.88
323.566	498.88
323.795	511.88
324.024	600.88
324.253	711.88
324.482	985.88
324.71	1478.88
324.939	1996.88
325.168	1690.88
325.397	915.88
325.626	633.88
325.855	553.88
326.084	509.88
326.313	508.88
326.542	497.88
326.77	543.88
326.999	653.88
327.228	879.88
327.457	1281.88
327.686	1466.88
327.914	977.88
328.143	688.88
328.372	600.88
328.6	574.88
328.829	574.88
329.058	564.88
329.287	567.88
329.515	537.88
329.744	483.88
329.972	493.88
330.201	526.88
330.43	557.88
330.658	575.88
330.887	553.88
331.115	554.88
331.344	519.88
331.572	490.88
331.801	473.88
332.03	472.88
332.258	443.88
332.486	462.88
332.715	424.88
332.943	455.88
333.172	437.88
333.4	436.88
333.629	449.88
333.857	463.88
334.085	477.88
334.314	492.88
334.542	524.88
334.771	513.88
334.999	499.88
335.227	483.88
335.455	451.88
335.684	459.88
335.912	434.88
336.14	415.88
336.369	419.88
336.597	447.88
336.825	437.88
337.053	470.88
337.281	431.88
337.51	428.88
337.738	430.88
337.966	452.88
338.194	437.88
338.422	449.88
338.65	433.88
338.878	422.88
339.106	418.88
339.334	422.88
339.562	444.88
339.79	433.88
340.018	445.88
340.246	420.88
340.474	417.88
340.702	430.88
340.93	444.88
341.158	428.88
341.386	439.88
341.614	416.88
341.842	409.88
342.07	419.88
342.298	397.88
342.526	414.88
342.754	400.88
342.981	391.88
343.209	393.88
343.437	413.88
343.665	424.88
343.893	421.88
344.12	443.88
344.348	427.88
344.576	421.88
344.804	436.88
345.031	424.88
345.259	432.88
345.487	410.88
345.714	422.88
345.942	426.88
346.17	407.88
346.397	419.88
346.625	390.88
346.853	384.88
347.08	397.88
347.308	427.88
347.535	416.88
347.763	409.88
347.99	400.88
348.218	395.88
348.445	398.88
348.673	403.88
348.9	407.88
349.128	408.88
349.355	401.88
349.583	409.88
349.81	411.88
350.037	380.88
350.265	381.88
350.492	391.88
350.72	387.88
350.947	405.88
351.174	407.88
351.402	418.88
351.629	402.88
351.856	424.88
352.083	411.88
352.311	412.88
352.538	395.88
352.765	416.88
352.992	407.88
353.22	399.88
353.447	416.88
353.674	396.88
353.901	373.88
354.128	376.88
354.355	373.88
354.583	380.88
354.81	366.88
355.037	365.88
355.264	367.88
355.491	368.88
355.718	372.88
355.945	376.88
356.172	380.88
356.399	372.88
356.626	357.88
356.853	358.88
357.08	359.88
357.307	357.88
357.534	368.88
357.761	359.88
357.988	375.88
358.215	367.88
358.441	354.88
358.668	381.88
358.895	371.88
359.122	387.88
359.349	386.88
359.576	395.88
359.802	398.88
360.029	412.88
360.256	437.88
360.483	395.88
360.709	376.88
360.936	379.88
361.163	384.88
361.39	381.88
361.616	397.88
361.843	371.88
362.07	389.88
362.296	394.88
362.523	379.88
362.749	382.88
362.976	385.88
363.203	390.88
363.429	375.88
363.656	351.88
363.882	375.88
364.109	373.88
364.335	352.88
364.562	379.88
364.788	367.88
365.015	369.88
365.241	381.88
365.468	374.88
365.694	378.88
365.92	381.88
366.147	393.88
366.373	371.88
366.599	362.88
366.826	380.88
367.052	356.88
367.278	373.88
367.505	377.88
367.731	364.88
367.957	381.88
368.184	361.88
368.41	389.88
368.636	391.88
368.862	378.88
369.089	378.88
369.315	383.88
369.541	364.88
369.767	353.88
369.993	386.88
370.219	391.88
370.445	358.88
370.672	374.88
370.898	369.88
371.124	365.88
371.35	362.88
371.576	365.88
371.802	355.88
372.028	376.88
372.254	360.88
372.48	359.88
372.706	337.88
372.932	363.88
373.158	373.88
373.384	345.88
373.61	373.88
373.835	376.88
374.061	366.88
374.287	377.88
374.513	351.88
374.739	373.88
374.965	368.88
375.191	343.88
375.416	378.88
375.642	355.88
375.868	371.88
376.094	353.88
376.319	350.88
376.545	367.88
376.771	355.88
376.997	377.88
377.222	353.88
377.448	350.88
377.674	349.88
377.899	362.88
378.125	348.88
378.35	351.88
378.576	357.88
378.802	337.88
379.027	363.88
379.253	373.88
379.478	360.88
379.704	362.88
379.929	342.88
380.155	347.88
380.38	374.88
380.606	373.88
380.831	371.88
381.057	389.88
381.282	349.88
381.507	332.88
381.733	349.88
381.958	336.88
382.184	367.88
382.409	372.88
382.634	360.88
382.86	368.88
383.085	367.88
383.31	359.88
383.535	362.88
383.761	361.88
383.986	350.88
384.211	358.88
384.436	379.88
384.662	375.88
384.887	377.88
385.112	375.88
385.337	379.88
385.562	367.88
385.787	387.88
386.013	399.88
386.238	390.88
386.463	387.88
386.688	385.88
386.913	373.88
387.138	397.88
387.363	368.88
387.588	391.88
387.813	367.88
388.038	377.88
388.263	383.88
388.488	384.88
388.713	373.88
388.938	376.88
389.163	391.88
389.387	359.88
389.612	381.88
389.837	391.88
390.062	374.88
390.287	373.88
390.512	381.88
390.736	372.88
390.961	399.88
391.186	378.88
391.411	384.88
391.636	377.88
391.86	398.88
392.085	396.88
392.31	383.88
392.534	393.88
392.759	385.88
392.984	393.88
393.208	383.88
393.433	394.88
393.658	387.88
393.882	388.88
394.107	377.88
394.331	358.88
394.556	383.88
394.78	373.88
395.005	369.88
395.229	383.88
395.454	376.88
395.678	400.88
395.903	407.88
396.127	393.88
396.352	405.88
396.576	406.88
396.801	413.88
397.025	387.88
397.249	384.88
397.474	399.88
397.698	387.88
397.922	418.88
398.147	435.88
398.371	421.88
398.595	398.88
398.82	401.88
399.044	426.88
399.268	441.88
399.492	465.88
399.717	460.88
399.941	494.88
400.165	497.88
400.389	497.88
400.613	474.88
400.837	445.88
401.062	421.88
401.286	443.88
401.51	411.88
401.734	418.88
401.958	429.88
402.182	432.88
402.406	410.88
402.63	417.88
402.854	400.88
403.078	398.88
403.302	433.88
403.526	446.88
403.75	435.88
403.974	446.88
404.198	438.88
404.422	441.88
404.645	441.88
404.869	454.88
405.093	469.88
405.317	502.88
405.541	519.88
405.765	487.88
405.988	448.88
406.212	470.88
406.436	456.88
406.66	436.88
406.883	481.88
407.107	485.88
407.331	536.88
407.555	547.88
407.778	529.88
408.002	515.88
408.226	489.88
408.449	483.88
408.673	447.88
408.896	473.88
409.12	535.88
409.344	510.88
409.567	432.88
409.791	453.88
410.014	427.88
410.238	435.88
410.461	436.88
410.685	453.88
410.908	445.88
411.132	496.88
411.355	524.88
411.578	501.88
411.802	444.88
412.025	416.88
412.249	424.88
412.472	437.88
412.695	476.88
412.919	466.88
413.142	421.88
413.365	427.88
413.589	420.88
413.812	428.88
414.035	417.88
414.258	407.88
414.482	406.88
414.705	400.88
414.928	397.88
415.151	400.88
415.374	399.88
415.597	388.88
415.821	409.88
416.044	409.88
416.267	422.88
416.49	412.88
416.713	389.88
416.936	404.88
417.159	407.88
417.382	413.88
417.605	395.88
417.828	416.88
418.051	421.88
418.274	429.88
418.497	410.88
418.72	399.88
418.943	403.88
419.166	414.88
419.389	422.88
419.611	430.88
419.834	439.88
420.057	420.88
420.28	407.88
420.503	419.88
420.726	410.88
420.948	428.88
421.171	465.88
421.394	487.88
421.617	453.88
421.839	416.88
422.062	431.88
422.285	449.88
422.507	502.88
422.73	514.88
422.953	515.88
423.175	462.88
423.398	421.88
423.621	449.88
423.843	454.88
424.066	476.88
424.288	480.88
424.511	502.88
424.733	528.88
424.956	587.88
425.178	567.88
425.401	559.88
425.623	581.88
425.846	488.88
426.068	446.88
426.291	455.88
426.513	460.88
426.735	478.88
426.958	499.88
427.18	568.88
427.402	654.88
427.625	714.88
427.847	651.88
428.069	525.88
428.292	506.88
428.514	459.88
428.736	453.88
428.958	431.88
429.181	431.88
429.403	410.88
429.625	447.88
429.847	465.88
430.069	513.88
430.292	495.88
430.514	445.88
430.736	421.88
430.958	420.88
431.18	401.88
431.402	399.88
431.624	402.88
431.846	389.88
432.068	377.88
432.29	390.88
432.512	378.88
432.734	385.88
432.956	414.88
433.178	414.88
433.4	415.88
433.622	397.88
433.844	388.88
434.066	394.88
434.287	386.88
434.509	406.88
434.731	400.88
434.953	423.88
435.175	430.88
435.397	440.88
435.618	453.88
435.84	493.88
436.062	573.88
436.284	641.88
436.505	501.88
436.727	449.88
436.949	455.88
437.17	440.88
437.392	436.88
437.614	455.88
437.835	467.88
438.057	529.88
438.278	622.88
438.5	608.88
438.721	667.88
438.943	657.88
439.165	519.88
439.386	486.88
439.608	488.88
439.829	476.88
440.05	477.88
440.272	534.88
440.493	490.88
440.715	449.88
440.936	429.88
441.158	407.88
441.379	414.88
441.6	418.88
441.822	444.88
442.043	488.88
442.264	542.88
442.486	584.88
442.707	478.88
442.928	493.88
443.149	476.88
443.371	487.88
443.592	519.88
443.813	617.88
444.034	650.88
444.255	535.88
444.476	476.88
444.698	453.88
444.919	466.88
445.14	557.88
445.361	513.88
445.582	485.88
445.803	515.88
446.024	635.88
446.245	628.88
446.466	584.88
446.687	494.88
446.908	481.88
447.129	437.88
447.35	455.88
447.571	424.88
447.792	409.88
448.013	414.88
448.234	444.88
448.455	483.88
448.675	567.88
448.896	655.88
449.117	560.88
449.338	540.88
449.559	614.88
449.779	673.88
450	561.88
450.221	452.88
450.442	417.88
450.662	386.88
450.883	419.88
451.104	438.88
451.324	409.88
451.545	391.88
451.766	381.88
451.986	387.88
452.207	381.88
452.428	373.88
452.648	381.88
452.869	378.88
453.089	374.88
453.31	373.88
453.53	393.88
453.751	363.88
453.971	391.88
454.192	387.88
454.412	372.88
454.633	379.88
454.853	358.88
455.073	367.88
455.294	396.88
455.514	471.88
455.734	449.88
455.955	392.88
456.175	351.88
456.395	353.88
456.616	333.88
456.836	346.88
457.056	356.88
457.276	349.88
457.497	351.88
457.717	341.88
457.937	353.88
458.157	343.88
458.377	377.88
458.598	374.88
458.818	427.88
459.038	487.88
459.258	512.88
459.478	448.88
459.698	394.88
459.918	375.88
460.138	395.88
460.358	401.88
460.578	380.88
460.798	387.88
461.018	397.88
461.238	384.88
461.458	393.88
461.678	375.88
461.898	374.88
462.118	384.88
462.338	416.88
462.558	393.88
462.777	401.88
462.997	402.88
463.217	417.88
463.437	417.88
463.657	410.88
463.876	410.88
464.096	413.88
464.316	399.88
464.536	413.88
464.755	431.88
464.975	401.88
465.195	463.88
465.414	504.88
465.634	446.88
465.854	407.88
466.073	410.88
466.293	379.88
466.512	374.88
466.732	369.88
466.951	398.88
467.171	375.88
467.391	372.88
467.61	385.88
467.829	382.88
468.049	381.88
468.268	377.88
468.488	384.88
468.707	350.88
468.927	376.88
469.146	374.88
469.365	375.88
469.585	368.88
469.804	381.88
470.023	413.88
470.243	388.88
470.462	395.88
470.681	411.88
470.901	400.88
471.12	379.88
471.339	373.88
471.558	374.88
471.777	404.88
471.997	382.88
472.216	382.88
472.435	398.88
472.654	383.88
472.873	389.88
473.092	390.88
473.311	362.88
473.53	381.88
473.749	403.88
473.968	454.88
474.187	506.88
474.406	524.88
474.625	442.88
474.844	399.88
475.063	401.88
475.282	391.88
475.501	375.88
475.72	415.88
475.939	396.88
476.158	391.88
476.377	384.88
476.596	405.88
476.814	408.88
477.033	397.88
477.252	412.88
477.471	397.88
477.69	407.88
477.908	416.88
478.127	418.88
478.346	415.88
478.564	424.88
478.783	415.88
479.002	432.88
479.22	435.88
479.439	436.88
479.658	442.88
479.876	465.88
480.095	450.88
480.313	477.88
480.532	459.88
480.751	468.88
480.969	472.88
481.188	511.88
481.406	507.88
481.624	459.88
481.843	472.88
482.061	447.88
482.28	448.88
482.498	442.88
482.717	435.88
482.935	428.88
483.153	441.88
483.372	455.88
483.59	447.88
483.808	451.88
484.027	432.88
484.245	439.88
484.463	417.88
484.681	452.88
484.9	472.88
485.118	459.88
485.336	459.88
485.554	465.88
485.772	438.88
485.99	460.88
486.209	456.88
486.427	484.88
486.645	501.88
486.863	482.88
487.081	499.88
487.299	485.88
487.517	485.88
487.735	479.88
487.953	501.88
488.171	468.88
488.389	486.88
488.607	476.88
488.825	457.88
489.043	470.88
489.261	473.88
489.479	494.88
489.696	482.88
489.914	491.88
490.132	490.88
490.35	507.88
490.568	508.88
490.786	497.88
491.003	525.88
491.221	522.88
491.439	524.88
491.657	529.88
491.874	545.88
492.092	559.88
492.31	560.88
492.527	567.88
492.745	578.88
492.963	560.88
493.18	555.88
493.398	560.88
493.615	572.88
493.833	569.88
494.05	569.88
494.268	550.88
494.485	563.88
494.703	553.88
494.92	565.88
495.138	567.88
495.355	586.88
495.573	565.88
495.79	570.88
496.008	567.88
496.225	559.88
496.442	569.88
496.66	569.88
496.877	592.88
497.094	569.88
497.312	564.88
497.529	558.88
497.746	566.88
497.963	579.88
498.181	594.88
498.398	603.88
498.615	607.88
498.832	636.88
499.049	655.88
499.267	660.88
499.484	657.88
499.701	689.88
499.918	680.88
500.135	712.88
500.352	731.88
500.569	733.88
500.786	743.88
501.003	728.88
501.22	732.88
501.437	709.88
501.654	687.88
501.871	688.88
