Data from 1971.PennyLincolnUp.Lamp.En5.5.200Scan.071719.P1.Scan 2. Changed Angle._HRD10591_15-24-33-842.txt Node
Date: Thu Jul 18 15:24:33 EDT 2019
User: cochatt
Spectrometer: HR+D1059
Trigger mode: 1
Integration Time (sec): 1.000000E-1
Scans to average: 1
Electric dark correction enabled: true
Nonlinearity correction enabled: false
Boxcar width: 0
XAxis mode: Wavelengths
Number of Pixels in Spectrum: 2048
>>>>>Begin Spectral Data<<<<<
223.165	-38.44
223.4	-38.44
223.635	-38.44
223.869	-27.44
224.104	-34.44
224.338	-19.44
224.573	-3.44
224.808	-10.44
225.042	-1.44
225.277	0.56
225.511	7.56
225.746	-5.44
225.98	13.56
226.215	10.56
226.449	32.56
226.683	19.56
226.918	25.56
227.152	30.56
227.387	34.56
227.621	35.56
227.856	36.56
228.09	50.56
228.324	53.56
228.559	64.56
228.793	67.56
229.027	97.56
229.262	120.56
229.496	144.56
229.73	148.56
229.964	192.56
230.199	156.56
230.433	139.56
230.667	137.56
230.901	117.56
231.136	111.56
231.37	119.56
231.604	104.56
231.838	115.56
232.072	123.56
232.306	120.56
232.541	127.56
232.775	130.56
233.009	135.56
233.243	125.56
233.477	115.56
233.711	116.56
233.945	126.56
234.179	117.56
234.413	125.56
234.647	118.56
234.881	118.56
235.115	114.56
235.349	124.56
235.583	125.56
235.817	127.56
236.051	143.56
236.285	140.56
236.519	134.56
236.753	127.56
236.987	150.56
237.221	209.56
237.455	267.56
237.689	215.56
237.922	170.56
238.156	159.56
238.39	161.56
238.624	133.56
238.858	149.56
239.091	134.56
239.325	129.56
239.559	133.56
239.793	140.56
240.027	137.56
240.26	149.56
240.494	168.56
240.728	174.56
240.961	157.56
241.195	156.56
241.429	142.56
241.662	151.56
241.896	159.56
242.13	157.56
242.363	156.56
242.597	141.56
242.83	154.56
243.064	145.56
243.298	137.56
243.531	169.56
243.765	141.56
243.998	157.56
244.232	145.56
244.465	138.56
244.699	151.56
244.932	149.56
245.166	158.56
245.399	153.56
245.633	153.56
245.866	161.56
246.099	157.56
246.333	155.56
246.566	178.56
246.8	158.56
247.033	166.56
247.266	168.56
247.5	172.56
247.733	181.56
247.966	195.56
248.2	209.56
248.433	180.56
248.666	202.56
248.899	199.56
249.133	218.56
249.366	230.56
249.599	214.56
249.832	211.56
250.066	185.56
250.299	198.56
250.532	204.56
250.765	235.56
250.998	246.56
251.231	280.56
251.465	236.56
251.698	222.56
251.931	216.56
252.164	209.56
252.397	229.56
252.63	226.56
252.863	219.56
253.096	242.56
253.329	277.56
253.562	247.56
253.795	237.56
254.028	259.56
254.261	229.56
254.494	255.56
254.727	289.56
254.96	321.56
255.193	322.56
255.426	290.56
255.659	259.56
255.892	277.56
256.124	264.56
256.357	272.56
256.59	263.56
256.823	230.56
257.056	239.56
257.289	239.56
257.521	224.56
257.754	228.56
257.987	219.56
258.22	220.56
258.452	225.56
258.685	234.56
258.918	215.56
259.151	232.56
259.383	230.56
259.616	238.56
259.849	222.56
260.081	260.56
260.314	277.56
260.547	286.56
260.779	264.56
261.012	255.56
261.244	250.56
261.477	246.56
261.71	243.56
261.942	259.56
262.175	260.56
262.407	269.56
262.64	225.56
262.872	222.56
263.105	241.56
263.337	240.56
263.57	212.56
263.802	223.56
264.035	218.56
264.267	225.56
264.499	223.56
264.732	238.56
264.964	225.56
265.197	203.56
265.429	226.56
265.661	216.56
265.894	202.56
266.126	222.56
266.358	237.56
266.591	224.56
266.823	225.56
267.055	255.56
267.287	238.56
267.52	227.56
267.752	226.56
267.984	224.56
268.216	239.56
268.448	225.56
268.681	252.56
268.913	253.56
269.145	271.56
269.377	291.56
269.609	301.56
269.841	294.56
270.073	296.56
270.306	323.56
270.538	346.56
270.77	340.56
271.002	330.56
271.234	301.56
271.466	316.56
271.698	343.56
271.93	347.56
272.162	371.56
272.394	331.56
272.626	328.56
272.858	317.56
273.09	289.56
273.322	307.56
273.553	284.56
273.785	299.56
274.017	283.56
274.249	279.56
274.481	265.56
274.713	269.56
274.945	289.56
275.176	279.56
275.408	284.56
275.64	286.56
275.872	268.56
276.104	270.56
276.335	262.56
276.567	286.56
276.799	300.56
277.031	325.56
277.262	335.56
277.494	346.56
277.726	314.56
277.957	300.56
278.189	299.56
278.421	273.56
278.652	275.56
278.884	285.56
279.115	276.56
279.347	267.56
279.579	273.56
279.81	259.56
280.042	260.56
280.273	256.56
280.505	276.56
280.736	262.56
280.968	285.56
281.199	261.56
281.431	253.56
281.662	271.56
281.894	273.56
282.125	285.56
282.356	294.56
282.588	311.56
282.819	315.56
283.051	288.56
283.282	264.56
283.513	257.56
283.745	283.56
283.976	271.56
284.207	296.56
284.439	279.56
284.67	285.56
284.901	285.56
285.132	282.56
285.364	270.56
285.595	295.56
285.826	269.56
286.057	286.56
286.288	271.56
286.52	268.56
286.751	265.56
286.982	285.56
287.213	299.56
287.444	298.56
287.675	289.56
287.906	293.56
288.138	286.56
288.369	309.56
288.6	305.56
288.831	306.56
289.062	296.56
289.293	282.56
289.524	285.56
289.755	289.56
289.986	287.56
290.217	302.56
290.448	279.56
290.679	286.56
290.91	275.56
291.141	281.56
291.371	274.56
291.602	280.56
291.833	281.56
292.064	290.56
292.295	291.56
292.526	285.56
292.757	293.56
292.987	280.56
293.218	282.56
293.449	276.56
293.68	283.56
293.91	291.56
294.141	296.56
294.372	278.56
294.603	294.56
294.833	291.56
295.064	265.56
295.295	293.56
295.525	286.56
295.756	283.56
295.987	325.56
296.217	326.56
296.448	331.56
296.679	311.56
296.909	291.56
297.14	274.56
297.37	298.56
297.601	292.56
297.831	311.56
298.062	308.56
298.292	290.56
298.523	311.56
298.753	310.56
298.984	294.56
299.214	291.56
299.445	310.56
299.675	293.56
299.905	307.56
300.136	315.56
300.366	301.56
300.597	290.56
300.827	294.56
301.057	311.56
301.288	315.56
301.518	314.56
301.748	316.56
301.979	316.56
302.209	316.56
302.439	335.56
302.669	309.56
302.9	315.56
303.13	315.56
303.36	313.56
303.59	324.56
303.82	347.56
304.051	338.56
304.281	326.56
304.511	324.56
304.741	305.56
304.971	310.56
305.201	321.56
305.431	320.56
305.661	323.56
305.891	325.56
306.121	323.56
306.352	337.56
306.582	328.56
306.812	317.56
307.042	331.56
307.272	326.56
307.502	330.56
307.731	331.56
307.961	333.56
308.191	326.56
308.421	322.56
308.651	332.56
308.881	322.56
309.111	341.56
309.341	326.56
309.571	375.56
309.8	366.56
310.03	371.56
310.26	405.56
310.49	375.56
310.72	411.56
310.949	407.56
311.179	437.56
311.409	410.56
311.639	397.56
311.868	388.56
312.098	390.56
312.328	390.56
312.557	406.56
312.787	437.56
313.017	428.56
313.246	409.56
313.476	393.56
313.706	395.56
313.935	402.56
314.165	405.56
314.394	406.56
314.624	435.56
314.853	398.56
315.083	396.56
315.312	389.56
315.542	372.56
315.771	374.56
316.001	382.56
316.23	359.56
316.46	387.56
316.689	393.56
316.919	399.56
317.148	390.56
317.377	396.56
317.607	399.56
317.836	386.56
318.065	402.56
318.295	386.56
318.524	390.56
318.753	357.56
318.983	375.56
319.212	401.56
319.441	396.56
319.67	401.56
319.9	382.56
320.129	370.56
320.358	379.56
320.587	394.56
320.816	429.56
321.046	424.56
321.275	413.56
321.504	421.56
321.733	424.56
321.962	423.56
322.191	451.56
322.42	464.56
322.649	475.56
322.878	485.56
323.108	503.56
323.337	530.56
323.566	563.56
323.795	618.56
324.024	660.56
324.253	838.56
324.482	1249.56
324.71	1942.56
324.939	2821.56
325.168	2403.56
325.397	1242.56
325.626	817.56
325.855	632.56
326.084	612.56
326.313	554.56
326.542	585.56
326.77	630.56
326.999	748.56
327.228	1090.56
327.457	1737.56
327.686	2055.56
327.914	1376.56
328.143	856.56
328.372	774.56
328.6	717.56
328.829	671.56
329.058	687.56
329.287	675.56
329.515	630.56
329.744	591.56
329.972	583.56
330.201	603.56
330.43	646.56
330.658	697.56
330.887	729.56
331.115	710.56
331.344	596.56
331.572	535.56
331.801	528.56
332.03	534.56
332.258	501.56
332.486	477.56
332.715	469.56
332.943	462.56
333.172	494.56
333.4	461.56
333.629	471.56
333.857	489.56
334.085	516.56
334.314	508.56
334.542	576.56
334.771	559.56
334.999	531.56
335.227	497.56
335.455	462.56
335.684	454.56
335.912	451.56
336.14	445.56
336.369	444.56
336.597	474.56
336.825	468.56
337.053	451.56
337.281	449.56
337.51	463.56
337.738	437.56
337.966	446.56
338.194	437.56
338.422	451.56
338.65	451.56
338.878	458.56
339.106	445.56
339.334	447.56
339.562	419.56
339.79	449.56
340.018	445.56
340.246	447.56
340.474	445.56
340.702	444.56
340.93	446.56
341.158	450.56
341.386	422.56
341.614	454.56
341.842	420.56
342.07	427.56
342.298	442.56
342.526	445.56
342.754	419.56
342.981	436.56
343.209	418.56
343.437	437.56
343.665	416.56
343.893	434.56
344.12	437.56
344.348	423.56
344.576	440.56
344.804	447.56
345.031	447.56
345.259	479.56
345.487	463.56
345.714	445.56
345.942	447.56
346.17	423.56
346.397	433.56
346.625	405.56
346.853	409.56
347.08	441.56
347.308	436.56
347.535	487.56
347.763	453.56
347.99	450.56
348.218	451.56
348.445	456.56
348.673	457.56
348.9	437.56
349.128	438.56
349.355	426.56
349.583	421.56
349.81	407.56
350.037	427.56
350.265	414.56
350.492	410.56
350.72	419.56
350.947	425.56
351.174	449.56
351.402	473.56
351.629	445.56
351.856	453.56
352.083	469.56
352.311	472.56
352.538	467.56
352.765	472.56
352.992	449.56
353.22	427.56
353.447	447.56
353.674	441.56
353.901	425.56
354.128	419.56
354.355	409.56
354.583	415.56
354.81	410.56
355.037	416.56
355.264	409.56
355.491	389.56
355.718	397.56
355.945	396.56
356.172	385.56
356.399	375.56
356.626	387.56
356.853	405.56
357.08	402.56
357.307	373.56
357.534	407.56
357.761	399.56
357.988	410.56
358.215	397.56
358.441	402.56
358.668	399.56
358.895	414.56
359.122	437.56
359.349	443.56
359.576	429.56
359.802	488.56
360.029	537.56
360.256	518.56
360.483	491.56
360.709	467.56
360.936	457.56
361.163	426.56
361.39	436.56
361.616	467.56
361.843	446.56
362.07	453.56
362.296	463.56
362.523	438.56
362.749	457.56
362.976	428.56
363.203	430.56
363.429	429.56
363.656	421.56
363.882	406.56
364.109	419.56
364.335	411.56
364.562	419.56
364.788	431.56
365.015	408.56
365.241	413.56
365.468	420.56
365.694	439.56
365.92	433.56
366.147	427.56
366.373	432.56
366.599	404.56
366.826	407.56
367.052	423.56
367.278	420.56
367.505	414.56
367.731	419.56
367.957	411.56
368.184	443.56
368.41	433.56
368.636	444.56
368.862	427.56
369.089	438.56
369.315	426.56
369.541	424.56
369.767	415.56
369.993	428.56
370.219	429.56
370.445	414.56
370.672	438.56
370.898	409.56
371.124	411.56
371.35	400.56
371.576	402.56
371.802	408.56
372.028	407.56
372.254	405.56
372.48	395.56
372.706	420.56
372.932	389.56
373.158	414.56
373.384	399.56
373.61	426.56
373.835	417.56
374.061	410.56
374.287	418.56
374.513	395.56
374.739	399.56
374.965	403.56
375.191	416.56
375.416	394.56
375.642	417.56
375.868	405.56
376.094	418.56
376.319	416.56
376.545	398.56
376.771	411.56
376.997	409.56
377.222	410.56
377.448	412.56
377.674	426.56
377.899	406.56
378.125	389.56
378.35	407.56
378.576	411.56
378.802	393.56
379.027	401.56
379.253	419.56
379.478	419.56
379.704	416.56
379.929	403.56
380.155	423.56
380.38	422.56
380.606	407.56
380.831	398.56
381.057	433.56
381.282	395.56
381.507	395.56
381.733	423.56
381.958	414.56
382.184	421.56
382.409	439.56
382.634	450.56
382.86	439.56
383.085	424.56
383.31	425.56
383.535	435.56
383.761	412.56
383.986	438.56
384.211	428.56
384.436	422.56
384.662	430.56
384.887	435.56
385.112	446.56
385.337	441.56
385.562	430.56
385.787	439.56
386.013	462.56
386.238	453.56
386.463	444.56
386.688	434.56
386.913	428.56
387.138	428.56
387.363	434.56
387.588	431.56
387.813	443.56
388.038	451.56
388.263	454.56
388.488	452.56
388.713	437.56
388.938	425.56
389.163	445.56
389.387	455.56
389.612	439.56
389.837	439.56
390.062	428.56
390.287	434.56
390.512	422.56
390.736	443.56
390.961	438.56
391.186	427.56
391.411	444.56
391.636	444.56
391.86	438.56
392.085	445.56
392.31	445.56
392.534	451.56
392.759	425.56
392.984	451.56
393.208	461.56
393.433	438.56
393.658	460.56
393.882	465.56
394.107	434.56
394.331	456.56
394.556	454.56
394.78	457.56
395.005	455.56
395.229	471.56
395.454	457.56
395.678	479.56
395.903	481.56
396.127	482.56
396.352	490.56
396.576	474.56
396.801	453.56
397.025	457.56
397.249	478.56
397.474	474.56
397.698	452.56
397.922	486.56
398.147	498.56
398.371	514.56
398.595	511.56
398.82	501.56
399.044	488.56
399.268	519.56
399.492	547.56
399.717	561.56
399.941	561.56
400.165	610.56
400.389	653.56
400.613	577.56
400.837	532.56
401.062	533.56
401.286	521.56
401.51	526.56
401.734	513.56
401.958	525.56
402.182	527.56
402.406	530.56
402.63	521.56
402.854	551.56
403.078	531.56
403.302	533.56
403.526	542.56
403.75	544.56
403.974	526.56
404.198	523.56
404.422	551.56
404.645	535.56
404.869	547.56
405.093	571.56
405.317	614.56
405.541	645.56
405.765	589.56
405.988	574.56
406.212	585.56
406.436	623.56
406.66	620.56
406.883	597.56
407.107	644.56
407.331	649.56
407.555	714.56
407.778	717.56
408.002	653.56
408.226	607.56
408.449	610.56
408.673	622.56
408.896	637.56
409.12	687.56
409.344	654.56
409.567	556.56
409.791	553.56
410.014	554.56
410.238	542.56
410.461	535.56
410.685	574.56
410.908	595.56
411.132	622.56
411.355	647.56
411.578	590.56
411.802	564.56
412.025	569.56
412.249	550.56
412.472	585.56
412.695	621.56
412.919	636.56
413.142	582.56
413.365	525.56
413.589	517.56
413.812	517.56
414.035	500.56
414.258	508.56
414.482	524.56
414.705	522.56
414.928	493.56
415.151	513.56
415.374	484.56
415.597	505.56
415.821	507.56
416.044	503.56
416.267	544.56
416.49	529.56
416.713	512.56
416.936	538.56
417.159	519.56
417.382	512.56
417.605	533.56
417.828	545.56
418.051	557.56
418.274	529.56
418.497	549.56
418.72	518.56
418.943	543.56
419.166	539.56
419.389	571.56
419.611	568.56
419.834	563.56
420.057	563.56
420.28	569.56
420.503	555.56
420.726	536.56
420.948	559.56
421.171	618.56
421.394	655.56
421.617	582.56
421.839	567.56
422.062	568.56
422.285	579.56
422.507	632.56
422.73	749.56
422.953	689.56
423.175	610.56
423.398	573.56
423.621	625.56
423.843	596.56
424.066	619.56
424.288	614.56
424.511	620.56
424.733	681.56
424.956	804.56
425.178	766.56
425.401	748.56
425.623	762.56
425.846	683.56
426.068	636.56
426.291	623.56
426.513	615.56
426.735	615.56
426.958	660.56
427.18	755.56
427.402	895.56
427.625	994.56
427.847	959.56
428.069	789.56
428.292	708.56
428.514	656.56
428.736	583.56
428.958	583.56
429.181	565.56
429.403	568.56
429.625	569.56
429.847	639.56
430.069	675.56
430.292	691.56
430.514	597.56
430.736	592.56
430.958	558.56
431.18	543.56
431.402	530.56
431.624	525.56
431.846	523.56
432.068	511.56
432.29	509.56
432.512	528.56
432.734	540.56
432.956	545.56
433.178	517.56
433.4	566.56
433.622	545.56
433.844	536.56
434.066	533.56
434.287	539.56
434.509	537.56
434.731	549.56
434.953	566.56
435.175	575.56
435.397	618.56
435.618	626.56
435.84	667.56
436.062	796.56
436.284	837.56
436.505	707.56
436.727	656.56
436.949	613.56
437.17	580.56
437.392	567.56
437.614	615.56
437.835	653.56
438.057	773.56
438.278	878.56
438.5	870.56
438.721	932.56
438.943	889.56
439.165	727.56
439.386	653.56
439.608	653.56
439.829	650.56
440.05	709.56
440.272	737.56
440.493	706.56
440.715	652.56
440.936	598.56
441.158	583.56
441.379	596.56
441.6	605.56
441.822	630.56
442.043	687.56
442.264	775.56
442.486	796.56
442.707	698.56
442.928	639.56
443.149	663.56
443.371	690.56
443.592	746.56
443.813	848.56
444.034	890.56
444.255	744.56
444.476	656.56
444.698	631.56
444.919	624.56
445.14	750.56
445.361	699.56
445.582	705.56
445.803	770.56
446.024	889.56
446.245	886.56
446.466	829.56
446.687	681.56
446.908	647.56
447.129	611.56
447.35	598.56
447.571	585.56
447.792	563.56
448.013	589.56
448.234	613.56
448.455	679.56
448.675	789.56
448.896	898.56
449.117	778.56
449.338	752.56
449.559	838.56
449.779	946.56
450	785.56
450.221	633.56
450.442	577.56
450.662	604.56
450.883	610.56
451.104	621.56
451.324	608.56
451.545	567.56
451.766	551.56
451.986	540.56
452.207	514.56
452.428	510.56
452.648	523.56
452.869	533.56
453.089	515.56
453.31	543.56
453.53	543.56
453.751	532.56
453.971	532.56
454.192	553.56
454.412	532.56
454.633	550.56
454.853	524.56
455.073	512.56
455.294	557.56
455.514	639.56
455.734	617.56
455.955	529.56
456.175	485.56
456.395	489.56
456.616	463.56
456.836	483.56
457.056	487.56
457.276	452.56
457.497	488.56
457.717	494.56
457.937	493.56
458.157	481.56
458.377	507.56
458.598	531.56
458.818	613.56
459.038	699.56
459.258	719.56
459.478	605.56
459.698	548.56
459.918	525.56
460.138	525.56
460.358	538.56
460.578	522.56
460.798	524.56
461.018	540.56
461.238	538.56
461.458	515.56
461.678	499.56
461.898	497.56
462.118	506.56
462.338	520.56
462.558	526.56
462.777	519.56
462.997	555.56
463.217	550.56
463.437	523.56
463.657	550.56
463.876	539.56
464.096	531.56
464.316	549.56
464.536	573.56
464.755	549.56
464.975	574.56
465.195	651.56
465.414	783.56
465.634	653.56
465.854	598.56
466.073	567.56
466.293	561.56
466.512	533.56
466.732	535.56
466.951	512.56
467.171	522.56
467.391	532.56
467.61	543.56
467.829	547.56
468.049	550.56
468.268	544.56
468.488	530.56
468.707	511.56
468.927	512.56
469.146	490.56
469.365	496.56
469.585	520.56
469.804	501.56
470.023	551.56
470.243	551.56
470.462	553.56
470.681	579.56
470.901	579.56
471.12	531.56
471.339	531.56
471.558	528.56
471.777	518.56
471.997	539.56
472.216	559.56
472.435	596.56
472.654	565.56
472.873	534.56
473.092	542.56
473.311	530.56
473.53	538.56
473.749	551.56
473.968	607.56
474.187	717.56
474.406	763.56
474.625	604.56
474.844	557.56
475.063	540.56
475.282	531.56
475.501	574.56
475.72	561.56
475.939	553.56
476.158	575.56
476.377	576.56
476.596	541.56
476.814	556.56
477.033	574.56
477.252	575.56
477.471	564.56
477.69	569.56
477.908	569.56
478.127	580.56
478.346	584.56
478.564	596.56
478.783	594.56
479.002	599.56
479.22	606.56
479.439	633.56
479.658	649.56
479.876	634.56
480.095	644.56
480.313	683.56
480.532	681.56
480.751	682.56
480.969	692.56
481.188	743.56
481.406	822.56
481.624	689.56
481.843	668.56
482.061	683.56
482.28	630.56
482.498	634.56
482.717	638.56
482.935	614.56
483.153	633.56
483.372	639.56
483.59	627.56
483.808	650.56
484.027	611.56
484.245	641.56
484.463	650.56
484.681	651.56
484.9	650.56
485.118	658.56
485.336	654.56
485.554	637.56
485.772	680.56
485.99	655.56
486.209	666.56
486.427	684.56
486.645	684.56
486.863	694.56
487.081	701.56
487.299	703.56
487.517	697.56
487.735	713.56
487.953	687.56
488.171	709.56
488.389	699.56
488.607	670.56
488.825	707.56
489.043	705.56
489.261	718.56
489.479	705.56
489.696	715.56
489.914	718.56
490.132	726.56
490.35	742.56
490.568	765.56
490.786	731.56
491.003	773.56
491.221	798.56
491.439	786.56
491.657	813.56
491.874	815.56
492.092	819.56
492.31	825.56
492.527	832.56
492.745	829.56
492.963	815.56
493.18	858.56
493.398	837.56
493.615	855.56
493.833	851.56
494.05	854.56
494.268	844.56
494.485	841.56
494.703	844.56
494.92	845.56
495.138	826.56
495.355	852.56
495.573	863.56
495.79	857.56
496.008	838.56
496.225	825.56
496.442	862.56
496.66	861.56
496.877	835.56
497.094	842.56
497.312	842.56
497.529	853.56
497.746	883.56
497.963	878.56
498.181	921.56
498.398	887.56
498.615	867.56
498.832	915.56
499.049	905.56
499.267	922.56
499.484	913.56
499.701	967.56
499.918	945.56
500.135	980.56
500.352	1017.56
500.569	974.56
500.786	1019.56
501.003	1050.56
501.22	1012.56
501.437	987.56
