Data from 1971.PennyLincolnUp.Lamp.En5.5.200Scan.071719.P1._HRD10591_15-17-58-842.txt Node
Date: Thu Jul 18 15:17:58 EDT 2019
User: cochatt
Spectrometer: HR+D1059
Trigger mode: 1
Integration Time (sec): 1.000000E-1
Scans to average: 1
Electric dark correction enabled: true
Nonlinearity correction enabled: false
Boxcar width: 0
XAxis mode: Wavelengths
Number of Pixels in Spectrum: 2048
>>>>>Begin Spectral Data<<<<<
223.165	-12
223.4	-12
223.635	-12
223.869	-6
224.104	-22
224.338	-7
224.573	-5
224.808	-19
225.042	-21
225.277	-3
225.511	5
225.746	4
225.98	3
226.215	4
226.449	2
226.683	27
226.918	16
227.152	34
227.387	42
227.621	46
227.856	44
228.09	46
228.324	36
228.559	59
228.793	64
229.027	81
229.262	101
229.496	101
229.73	102
229.964	133
230.199	110
230.433	100
230.667	102
230.901	96
231.136	93
231.37	95
231.604	96
231.838	89
232.072	102
232.306	98
232.541	92
232.775	95
233.009	100
233.243	109
233.477	119
233.711	118
233.945	109
234.179	125
234.413	106
234.647	106
234.881	106
235.115	102
235.349	97
235.583	111
235.817	105
236.051	112
236.285	119
236.519	103
236.753	126
236.987	128
237.221	128
237.455	171
237.689	159
237.922	114
238.156	114
238.39	111
238.624	108
238.858	124
239.091	127
239.325	117
239.559	126
239.793	123
240.027	115
240.26	103
240.494	139
240.728	126
240.961	132
241.195	135
241.429	105
241.662	122
241.896	113
242.13	122
242.363	121
242.597	115
242.83	127
243.064	138
243.298	126
243.531	118
243.765	131
243.998	141
244.232	140
244.465	127
244.699	139
244.932	134
245.166	133
245.399	127
245.633	130
245.866	151
246.099	143
246.333	152
246.566	139
246.8	136
247.033	153
247.266	148
247.5	134
247.733	156
247.966	158
248.2	153
248.433	150
248.666	157
248.899	164
249.133	162
249.366	183
249.599	168
249.832	152
250.066	162
250.299	171
250.532	170
250.765	188
250.998	199
251.231	196
251.465	185
251.698	165
251.931	198
252.164	180
252.397	173
252.63	184
252.863	194
253.096	174
253.329	192
253.562	192
253.795	195
254.028	196
254.261	182
254.494	194
254.727	235
254.96	232
255.193	225
255.426	214
255.659	194
255.892	201
256.124	202
256.357	202
256.59	205
256.823	194
257.056	204
257.289	169
257.521	188
257.754	194
257.987	187
258.22	197
258.452	181
258.685	191
258.918	197
259.151	207
259.383	192
259.616	196
259.849	208
260.081	212
260.314	221
260.547	212
260.779	214
261.012	218
261.244	208
261.477	232
261.71	197
261.942	185
262.175	202
262.407	190
262.64	201
262.872	207
263.105	207
263.337	191
263.57	187
263.802	195
264.035	199
264.267	195
264.499	198
264.732	216
264.964	214
265.197	188
265.429	194
265.661	188
265.894	185
266.126	198
266.358	208
266.591	208
266.823	206
267.055	223
267.287	209
267.52	212
267.752	190
267.984	206
268.216	211
268.448	225
268.681	213
268.913	223
269.145	245
269.377	240
269.609	244
269.841	247
270.073	235
270.306	251
270.538	276
270.77	267
271.002	259
271.234	270
271.466	270
271.698	269
271.93	288
272.162	279
272.394	279
272.626	272
272.858	272
273.09	238
273.322	249
273.553	229
273.785	244
274.017	216
274.249	236
274.481	223
274.713	218
274.945	226
275.176	241
275.408	228
275.64	229
275.872	222
276.104	238
276.335	251
276.567	247
276.799	247
277.031	265
277.262	273
277.494	285
277.726	261
277.957	262
278.189	247
278.421	253
278.652	242
278.884	250
279.115	262
279.347	269
279.579	254
279.81	253
280.042	240
280.273	242
280.505	226
280.736	238
280.968	235
281.199	230
281.431	228
281.662	233
281.894	247
282.125	246
282.356	261
282.588	268
282.819	258
283.051	264
283.282	237
283.513	271
283.745	255
283.976	247
284.207	253
284.439	253
284.67	247
284.901	238
285.132	263
285.364	238
285.595	255
285.826	263
286.057	250
286.288	242
286.52	250
286.751	239
286.982	265
287.213	238
287.444	274
287.675	261
287.906	272
288.138	272
288.369	281
288.6	273
288.831	267
289.062	275
289.293	259
289.524	270
289.755	254
289.986	245
290.217	267
290.448	253
290.679	263
290.91	274
291.141	264
291.371	260
291.602	277
291.833	285
292.064	268
292.295	270
292.526	272
292.757	245
292.987	272
293.218	268
293.449	267
293.68	279
293.91	268
294.141	248
294.372	275
294.603	249
294.833	278
295.064	280
295.295	282
295.525	268
295.756	262
295.987	268
296.217	283
296.448	276
296.679	279
296.909	274
297.14	273
297.37	277
297.601	259
297.831	266
298.062	278
298.292	262
298.523	298
298.753	281
298.984	281
299.214	262
299.445	266
299.675	284
299.905	285
300.136	283
300.366	292
300.597	290
300.827	288
301.057	301
301.288	303
301.518	311
301.748	290
301.979	285
302.209	299
302.439	291
302.669	291
302.9	305
303.13	292
303.36	283
303.59	287
303.82	291
304.051	310
304.281	307
304.511	275
304.741	294
304.971	296
305.201	301
305.431	303
305.661	324
305.891	284
306.121	293
306.352	314
306.582	322
306.812	295
307.042	299
307.272	296
307.502	310
307.731	304
307.961	301
308.191	293
308.421	309
308.651	316
308.881	290
309.111	293
309.341	295
309.571	309
309.8	334
310.03	317
310.26	326
310.49	334
310.72	333
310.949	327
311.179	332
311.409	349
311.639	331
311.868	343
312.098	331
312.328	320
312.557	334
312.787	342
313.017	335
313.246	317
313.476	341
313.706	328
313.935	328
314.165	330
314.394	335
314.624	332
314.853	324
315.083	342
315.312	310
315.542	309
315.771	333
316.001	332
316.23	340
316.46	318
316.689	316
316.919	334
317.148	339
317.377	354
317.607	342
317.836	334
318.065	309
318.295	307
318.524	324
318.753	318
318.983	342
319.212	353
319.441	334
319.67	316
319.9	347
320.129	342
320.358	338
320.587	347
320.816	330
321.046	337
321.275	339
321.504	340
321.733	335
321.962	342
322.191	345
322.42	367
322.649	368
322.878	371
323.108	384
323.337	399
323.566	399
323.795	418
324.024	448
324.253	519
324.482	701
324.71	1042
324.939	1442
325.168	1202
325.397	639
325.626	491
325.855	426
326.084	420
326.313	392
326.542	412
326.77	453
326.999	518
327.228	666
327.457	946
327.686	1064
327.914	746
328.143	518
328.372	456
328.6	453
328.829	423
329.058	424
329.287	435
329.515	427
329.744	404
329.972	406
330.201	408
330.43	440
330.658	436
330.887	435
331.115	444
331.344	390
331.572	398
331.801	394
332.03	399
332.258	384
332.486	382
332.715	387
332.943	377
333.172	377
333.4	370
333.629	384
333.857	393
334.085	393
334.314	390
334.542	403
334.771	396
334.999	392
335.227	414
335.455	385
335.684	393
335.912	372
336.14	370
336.369	408
336.597	393
336.825	372
337.053	398
337.281	376
337.51	352
337.738	380
337.966	379
338.194	382
338.422	381
338.65	373
338.878	376
339.106	388
339.334	362
339.562	365
339.79	379
340.018	358
340.246	364
340.474	375
340.702	365
340.93	359
341.158	348
341.386	359
341.614	359
341.842	360
342.07	357
342.298	366
342.526	362
342.754	346
342.981	354
343.209	337
343.437	351
343.665	369
343.893	356
344.12	376
344.348	386
344.576	366
344.804	368
345.031	375
345.259	356
345.487	348
345.714	363
345.942	353
346.17	330
346.397	336
346.625	336
346.853	351
347.08	356
347.308	342
347.535	355
347.763	356
347.99	337
348.218	355
348.445	363
348.673	352
348.9	354
349.128	338
349.355	336
349.583	352
349.81	346
350.037	344
350.265	335
350.492	341
350.72	322
350.947	344
351.174	327
351.402	355
351.629	338
351.856	345
352.083	349
352.311	334
352.538	352
352.765	358
352.992	341
353.22	359
353.447	337
353.674	325
353.901	314
354.128	344
354.355	315
354.583	326
354.81	313
355.037	335
355.264	330
355.491	340
355.718	344
355.945	334
356.172	324
356.399	320
356.626	331
356.853	322
357.08	310
357.307	311
357.534	335
357.761	334
357.988	342
358.215	330
358.441	347
358.668	324
358.895	327
359.122	324
359.349	342
359.576	341
359.802	352
360.029	356
360.256	366
360.483	342
360.709	322
360.936	355
361.163	342
361.39	339
361.616	348
361.843	331
362.07	327
362.296	348
362.523	334
362.749	326
362.976	346
363.203	331
363.429	325
363.656	323
363.882	338
364.109	324
364.335	328
364.562	319
364.788	323
365.015	327
365.241	330
365.468	325
365.694	324
365.92	324
366.147	324
366.373	311
366.599	332
366.826	324
367.052	309
367.278	324
367.505	317
367.731	325
367.957	314
368.184	336
368.41	323
368.636	324
368.862	368
369.089	331
369.315	320
369.541	340
369.767	343
369.993	313
370.219	301
370.445	306
370.672	332
370.898	324
371.124	328
371.35	310
371.576	339
371.802	320
372.028	329
372.254	322
372.48	319
372.706	330
372.932	326
373.158	309
373.384	334
373.61	337
373.835	332
374.061	328
374.287	326
374.513	333
374.739	332
374.965	328
375.191	333
375.416	318
375.642	312
375.868	332
376.094	325
376.319	299
376.545	334
376.771	324
376.997	321
377.222	326
377.448	313
377.674	291
377.899	315
378.125	329
378.35	318
378.576	317
378.802	327
379.027	321
379.253	326
379.478	327
379.704	337
379.929	310
380.155	313
380.38	301
380.606	325
380.831	314
381.057	332
381.282	340
381.507	301
381.733	342
381.958	327
382.184	316
382.409	317
382.634	308
382.86	310
383.085	330
383.31	327
383.535	318
383.761	353
383.986	324
384.211	339
384.436	342
384.662	335
384.887	349
385.112	332
385.337	336
385.562	311
385.787	340
386.013	335
386.238	344
386.463	347
386.688	331
386.913	319
387.138	341
387.363	331
387.588	338
387.813	345
388.038	334
388.263	335
388.488	328
388.713	340
388.938	324
389.163	327
389.387	334
389.612	334
389.837	345
390.062	311
390.287	342
390.512	344
390.736	335
390.961	343
391.186	335
391.411	347
391.636	355
391.86	362
392.085	359
392.31	328
392.534	340
392.759	360
392.984	348
393.208	359
393.433	350
393.658	362
393.882	348
394.107	349
394.331	332
394.556	330
394.78	334
395.005	348
395.229	355
395.454	338
395.678	343
395.903	355
396.127	365
396.352	378
396.576	342
396.801	362
397.025	368
397.249	360
397.474	356
397.698	377
397.922	379
398.147	380
398.371	403
398.595	356
398.82	378
399.044	378
399.268	381
399.492	408
399.717	420
399.941	441
400.165	443
400.389	453
400.613	418
400.837	382
401.062	361
401.286	395
401.51	384
401.734	378
401.958	366
402.182	354
402.406	391
402.63	376
402.854	383
403.078	377
403.302	360
403.526	389
403.75	362
403.974	386
404.198	382
404.422	387
404.645	390
404.869	370
405.093	411
405.317	426
405.541	448
405.765	420
405.988	399
406.212	400
406.436	415
406.66	432
406.883	407
407.107	418
407.331	440
407.555	488
407.778	477
408.002	431
408.226	403
408.449	410
408.673	421
408.896	431
409.12	456
409.344	434
409.567	410
409.791	396
410.014	383
410.238	362
410.461	404
410.685	365
410.908	404
411.132	441
411.355	438
411.578	405
411.802	403
412.025	389
412.249	379
412.472	424
412.695	408
412.919	409
413.142	406
413.365	382
413.589	379
413.812	351
414.035	359
414.258	359
414.482	371
414.705	362
414.928	370
415.151	365
415.374	382
415.597	371
415.821	382
416.044	366
416.267	376
416.49	356
416.713	373
416.936	367
417.159	359
417.382	372
417.605	343
417.828	358
418.051	379
418.274	394
418.497	354
418.72	336
418.943	336
419.166	362
419.389	394
419.611	361
419.834	359
420.057	379
420.28	384
420.503	378
420.726	363
420.948	394
421.171	421
421.394	425
421.617	386
421.839	377
422.062	374
422.285	404
422.507	418
422.73	452
422.953	437
423.175	398
423.398	377
423.621	394
423.843	404
424.066	406
424.288	400
424.511	408
424.733	456
424.956	499
425.178	477
425.401	461
425.623	484
425.846	410
426.068	400
426.291	382
426.513	406
426.735	404
426.958	437
427.18	478
427.402	570
427.625	613
427.847	540
428.069	451
428.292	419
428.514	385
428.736	399
428.958	394
429.181	383
429.403	362
429.625	362
429.847	391
430.069	452
430.292	434
430.514	372
430.736	382
430.958	359
431.18	347
431.402	356
431.624	349
431.846	347
432.068	338
432.29	327
432.512	334
432.734	359
432.956	349
433.178	360
433.4	361
433.622	362
433.844	357
434.066	354
434.287	343
434.509	356
434.731	371
434.953	351
435.175	362
435.397	382
435.618	364
435.84	425
436.062	492
436.284	533
436.505	451
436.727	410
436.949	376
437.17	383
437.392	378
437.614	387
437.835	393
438.057	447
438.278	542
438.5	502
438.721	564
438.943	562
439.165	448
439.386	415
439.608	414
439.829	380
440.05	405
440.272	440
440.493	398
440.715	384
440.936	393
441.158	384
441.379	392
441.6	382
441.822	396
442.043	430
442.264	462
442.486	510
442.707	438
442.928	414
443.149	398
443.371	426
443.592	458
443.813	500
444.034	556
444.255	458
444.476	410
444.698	411
444.919	396
445.14	528
445.361	454
445.582	430
445.803	464
446.024	528
446.245	532
446.466	478
446.687	423
446.908	403
447.129	365
447.35	363
447.571	385
447.792	360
448.013	376
448.234	386
448.455	432
448.675	496
448.896	572
449.117	499
449.338	469
449.559	534
449.779	600
450	479
450.221	392
450.442	365
450.662	372
450.883	375
451.104	351
451.324	374
451.545	367
451.766	361
451.986	359
452.207	350
452.428	342
452.648	339
452.869	330
453.089	336
453.31	340
453.53	324
453.751	328
453.971	325
454.192	325
454.412	339
454.633	318
454.853	332
455.073	324
455.294	341
455.514	394
455.734	384
455.955	333
456.175	302
456.395	298
456.616	324
456.836	311
457.056	312
457.276	299
457.497	306
457.717	291
457.937	317
458.157	336
458.377	324
458.598	340
458.818	382
459.038	406
459.258	403
459.478	370
459.698	349
459.918	330
460.138	344
460.358	346
460.578	348
460.798	370
461.018	338
461.238	352
461.458	360
461.678	354
461.898	346
462.118	346
462.338	352
462.558	357
462.777	356
462.997	392
463.217	386
463.437	371
463.657	358
463.876	380
464.096	378
464.316	386
464.536	382
464.755	374
464.975	346
465.195	389
465.414	429
465.634	396
465.854	367
466.073	355
466.293	325
466.512	332
466.732	325
466.951	347
467.171	352
467.391	336
467.61	340
467.829	355
468.049	360
468.268	345
468.488	335
468.707	333
468.927	323
469.146	328
469.365	319
469.585	322
469.804	336
470.023	337
470.243	336
470.462	337
470.681	351
470.901	336
471.12	351
471.339	346
471.558	336
471.777	341
471.997	351
472.216	356
472.435	340
472.654	348
472.873	341
473.092	335
473.311	331
473.53	352
473.749	355
473.968	381
474.187	420
474.406	448
474.625	374
474.844	357
475.063	345
475.282	348
475.501	367
475.72	336
475.939	357
476.158	332
476.377	365
476.596	365
476.814	372
477.033	356
477.252	332
477.471	350
477.69	369
477.908	380
478.127	374
478.346	361
478.564	348
478.783	376
479.002	382
479.22	375
479.439	384
479.658	390
479.876	403
480.095	409
480.313	437
480.532	419
480.751	398
480.969	409
481.188	418
481.406	444
481.624	412
481.843	397
482.061	381
482.28	397
482.498	391
482.717	380
482.935	377
483.153	398
483.372	387
483.59	392
483.808	381
484.027	392
484.245	398
484.463	382
484.681	392
484.9	403
485.118	399
485.336	415
485.554	370
485.772	400
485.99	390
486.209	384
486.427	402
486.645	431
486.863	421
487.081	401
487.299	406
487.517	424
487.735	407
487.953	438
488.171	424
488.389	425
488.607	409
488.825	426
489.043	413
489.261	413
489.479	415
489.696	436
489.914	434
490.132	448
490.35	442
490.568	434
490.786	442
491.003	440
491.221	458
491.439	480
491.657	496
491.874	469
492.092	485
492.31	479
492.527	489
492.745	471
492.963	487
493.18	488
493.398	480
493.615	478
493.833	488
494.05	465
494.268	477
494.485	483
494.703	482
494.92	463
495.138	471
495.355	510
495.573	487
495.79	509
496.008	487
496.225	498
496.442	481
496.66	492
496.877	495
497.094	492
497.312	502
497.529	520
497.746	509
497.963	517
498.181	540
498.398	522
498.615	555
498.832	537
499.049	560
499.267	564
499.484	595
499.701	575
499.918	611
500.135	641
500.352	654
500.569	652
500.786	676
501.003	671
501.22	642
501.437	646
501.654	612
501.871	638
502.088	590
502.305	592
502.522	543
502.739	522
502.956	542
503.172	512
503.389	526
503.606	496
503.823	497
504.04	500
504.256	474
504.473	473
504.69	499
504.907	503
505.123	477
505.34	459
505.557	466
505.773	475
505.99	478
506.207	447
506.423	459
506.64	463
506.856	472
507.073	472
507.289	459
507.506	450
507.722	469
507.939	475
508.155	462
508.372	441
508.588	445
508.805	420
509.021	442
509.238	452
509.454	421
509.67	440
509.887	444
510.103	443
510.319	444
510.536	493
510.752	688
510.968	587
511.184	445
511.401	414
511.617	416
511.833	439
512.049	426
512.265	414
512.481	416
512.698	419
512.914	406
513.13	417
513.346	402
513.562	430
513.778	407
513.994	414
514.21	418
514.426	435
514.642	438
514.858	465
515.074	475
515.29	529
515.506	702
515.721	587
515.937	462
516.153	434
516.369	426
516.585	451
516.801	448
517.016	434
517.232	405
517.448	418
517.664	423
517.879	435
518.095	420
518.311	420
518.527	404
518.742	411
518.958	418
519.173	398
519.389	409
519.605	420
519.82	419
520.036	442
520.251	421
520.467	440
520.682	430
520.898	429
521.113	434
521.329	453
521.544	481
521.76	584
521.975	837
522.19	811
522.406	518
522.621	427
522.836	412
523.052	417
523.267	374
523.482	378
523.698	372
523.913	386
524.128	374
524.343	390
524.559	360
524.774	366
524.989	363
525.204	360
525.419	359
525.634	366
525.849	346
526.064	349
526.28	352
526.495	350
526.71	374
526.925	352
527.14	344
527.355	338
527.57	340
527.785	356
527.999	343
528.214	353
528.429	363
528.644	361
528.859	350
529.074	362
529.289	382
529.503	406
529.718	382
529.933	374
530.148	368
530.363	357
530.577	344
530.792	343
531.007	331
531.221	318
531.436	318
531.651	343
531.865	341
532.08	332
532.295	344
532.509	354
532.724	348
532.938	339
533.153	331
533.367	338
533.582	354
533.796	347
534.011	340
534.225	303
534.44	306
534.654	347
534.868	327
535.083	305
535.297	319
535.511	345
535.726	334
535.94	340
536.154	340
536.369	322
536.583	325
536.797	317
537.011	311
537.225	314
537.44	328
537.654	335
537.868	326
538.082	317
538.296	317
538.51	334
538.724	339
538.938	329
539.153	332
539.367	301
539.581	348
539.795	336
540.009	334
540.222	335
540.436	324
540.65	323
540.864	331
541.078	332
541.292	334
541.506	354
541.72	360
541.934	342
542.147	350
542.361	333
542.575	313
542.789	323
543.002	329
543.216	337
543.43	303
543.644	337
543.857	338
544.071	331
544.285	351
544.498	330
544.712	315
544.925	326
545.139	333
545.352	318
545.566	315
545.779	336
545.993	312
546.206	315
546.42	331
546.633	340
546.847	322
547.06	341
547.274	333
547.487	326
547.7	336
547.914	319
548.127	316
548.34	318
548.554	340
548.767	325
548.98	331
549.193	314
549.407	316
549.62	314
549.833	308
550.046	317
550.259	319
550.473	312
550.686	311
550.899	316
551.112	316
551.325	303
551.538	300
551.751	312
551.964	294
552.177	299
552.39	315
552.603	321
552.816	307
553.029	310
553.242	291
553.455	331
553.667	326
553.88	352
554.093	342
554.306	328
554.519	340
554.732	300
554.944	302
555.157	298
555.37	313
555.583	311
555.795	312
556.008	286
556.221	294
556.433	302
556.646	307
556.859	309
557.071	308
557.284	294
557.496	293
557.709	286
557.921	278
558.134	293
558.346	292
558.559	298
558.771	269
558.984	295
559.196	284
559.409	278
559.621	293
559.833	298
560.046	282
560.258	273
560.47	287
560.683	285
560.895	288
561.107	285
561.32	276
561.532	279
561.744	277
561.956	286
562.168	277
562.381	273
562.593	286
562.805	295
563.017	294
563.229	286
563.441	282
563.653	291
563.865	278
