Data from 1971.PennyLincolnUp.Lamp.En5.5.200Scan.071719.P1._HRD10591_15-18-58-843.txt Node
Date: Thu Jul 18 15:18:58 EDT 2019
User: cochatt
Spectrometer: HR+D1059
Trigger mode: 1
Integration Time (sec): 1.000000E-1
Scans to average: 1
Electric dark correction enabled: true
Nonlinearity correction enabled: false
Boxcar width: 0
XAxis mode: Wavelengths
Number of Pixels in Spectrum: 2048
>>>>>Begin Spectral Data<<<<<
223.165	-14.38
223.4	-14.38
223.635	-14.38
223.869	-0.38
224.104	-18.38
224.338	-4.38
224.573	-21.38
224.808	-22.38
225.042	1.62
225.277	-9.38
225.511	7.62
225.746	-4.38
225.98	2.62
226.215	12.62
226.449	11.62
226.683	7.62
226.918	19.62
227.152	31.62
227.387	32.62
227.621	27.62
227.856	40.62
228.09	43.62
228.324	32.62
228.559	51.62
228.793	58.62
229.027	83.62
229.262	79.62
229.496	95.62
229.73	104.62
229.964	127.62
230.199	119.62
230.433	97.62
230.667	94.62
230.901	96.62
231.136	120.62
231.37	107.62
231.604	99.62
231.838	112.62
232.072	105.62
232.306	115.62
232.541	117.62
232.775	99.62
233.009	111.62
233.243	111.62
233.477	107.62
233.711	116.62
233.945	102.62
234.179	114.62
234.413	107.62
234.647	113.62
234.881	118.62
235.115	116.62
235.349	114.62
235.583	113.62
235.817	105.62
236.051	131.62
236.285	123.62
236.519	126.62
236.753	110.62
236.987	125.62
237.221	169.62
237.455	206.62
237.689	168.62
237.922	129.62
238.156	129.62
238.39	128.62
238.624	99.62
238.858	123.62
239.091	120.62
239.325	115.62
239.559	109.62
239.793	120.62
240.027	117.62
240.26	123.62
240.494	144.62
240.728	132.62
240.961	119.62
241.195	150.62
241.429	136.62
241.662	130.62
241.896	135.62
242.13	132.62
242.363	138.62
242.597	134.62
242.83	134.62
243.064	137.62
243.298	133.62
243.531	129.62
243.765	143.62
243.998	137.62
244.232	132.62
244.465	154.62
244.699	134.62
244.932	142.62
245.166	150.62
245.399	147.62
245.633	150.62
245.866	143.62
246.099	127.62
246.333	143.62
246.566	127.62
246.8	147.62
247.033	158.62
247.266	167.62
247.5	155.62
247.733	182.62
247.966	163.62
248.2	177.62
248.433	177.62
248.666	175.62
248.899	173.62
249.133	183.62
249.366	202.62
249.599	201.62
249.832	188.62
250.066	173.62
250.299	177.62
250.532	185.62
250.765	196.62
250.998	223.62
251.231	216.62
251.465	208.62
251.698	199.62
251.931	216.62
252.164	207.62
252.397	198.62
252.63	187.62
252.863	203.62
253.096	229.62
253.329	226.62
253.562	213.62
253.795	217.62
254.028	223.62
254.261	215.62
254.494	222.62
254.727	231.62
254.96	261.62
255.193	266.62
255.426	233.62
255.659	239.62
255.892	243.62
256.124	228.62
256.357	217.62
256.59	234.62
256.823	211.62
257.056	220.62
257.289	202.62
257.521	198.62
257.754	200.62
257.987	197.62
258.22	203.62
258.452	216.62
258.685	216.62
258.918	216.62
259.151	206.62
259.383	223.62
259.616	201.62
259.849	223.62
260.081	230.62
260.314	245.62
260.547	246.62
260.779	237.62
261.012	228.62
261.244	231.62
261.477	229.62
261.71	201.62
261.942	213.62
262.175	223.62
262.407	210.62
262.64	202.62
262.872	225.62
263.105	230.62
263.337	218.62
263.57	219.62
263.802	205.62
264.035	215.62
264.267	204.62
264.499	216.62
264.732	205.62
264.964	205.62
265.197	219.62
265.429	214.62
265.661	225.62
265.894	215.62
266.126	207.62
266.358	216.62
266.591	217.62
266.823	224.62
267.055	230.62
267.287	245.62
267.52	221.62
267.752	239.62
267.984	225.62
268.216	236.62
268.448	224.62
268.681	231.62
268.913	255.62
269.145	259.62
269.377	265.62
269.609	269.62
269.841	272.62
270.073	265.62
270.306	291.62
270.538	305.62
270.77	305.62
271.002	296.62
271.234	290.62
271.466	295.62
271.698	312.62
271.93	305.62
272.162	317.62
272.394	308.62
272.626	289.62
272.858	282.62
273.09	277.62
273.322	267.62
273.553	293.62
273.785	278.62
274.017	270.62
274.249	242.62
274.481	249.62
274.713	249.62
274.945	273.62
275.176	289.62
275.408	270.62
275.64	260.62
275.872	273.62
276.104	282.62
276.335	263.62
276.567	254.62
276.799	268.62
277.031	312.62
277.262	321.62
277.494	306.62
277.726	305.62
277.957	298.62
278.189	271.62
278.421	274.62
278.652	273.62
278.884	272.62
279.115	270.62
279.347	270.62
279.579	272.62
279.81	262.62
280.042	271.62
280.273	256.62
280.505	271.62
280.736	281.62
280.968	271.62
281.199	275.62
281.431	284.62
281.662	279.62
281.894	269.62
282.125	257.62
282.356	298.62
282.588	293.62
282.819	287.62
283.051	282.62
283.282	282.62
283.513	258.62
283.745	274.62
283.976	279.62
284.207	283.62
284.439	294.62
284.67	265.62
284.901	295.62
285.132	272.62
285.364	274.62
285.595	274.62
285.826	275.62
286.057	301.62
286.288	297.62
286.52	296.62
286.751	278.62
286.982	283.62
287.213	290.62
287.444	283.62
287.675	288.62
287.906	297.62
288.138	301.62
288.369	313.62
288.6	297.62
288.831	279.62
289.062	294.62
289.293	284.62
289.524	297.62
289.755	303.62
289.986	275.62
290.217	313.62
290.448	287.62
290.679	281.62
290.91	302.62
291.141	293.62
291.371	298.62
291.602	288.62
291.833	281.62
292.064	298.62
292.295	284.62
292.526	294.62
292.757	297.62
292.987	277.62
293.218	281.62
293.449	289.62
293.68	311.62
293.91	308.62
294.141	296.62
294.372	277.62
294.603	288.62
294.833	302.62
295.064	298.62
295.295	278.62
295.525	291.62
295.756	299.62
295.987	296.62
296.217	314.62
296.448	337.62
296.679	301.62
296.909	297.62
297.14	297.62
297.37	309.62
297.601	297.62
297.831	314.62
298.062	305.62
298.292	317.62
298.523	301.62
298.753	315.62
298.984	324.62
299.214	327.62
299.445	290.62
299.675	293.62
299.905	315.62
300.136	309.62
300.366	314.62
300.597	329.62
300.827	323.62
301.057	322.62
301.288	324.62
301.518	322.62
301.748	305.62
301.979	339.62
302.209	312.62
302.439	320.62
302.669	335.62
302.9	328.62
303.13	328.62
303.36	339.62
303.59	329.62
303.82	328.62
304.051	335.62
304.281	325.62
304.511	323.62
304.741	325.62
304.971	322.62
305.201	319.62
305.431	319.62
305.661	325.62
305.891	325.62
306.121	328.62
306.352	322.62
306.582	335.62
306.812	327.62
307.042	325.62
307.272	321.62
307.502	326.62
307.731	306.62
307.961	332.62
308.191	331.62
308.421	318.62
308.651	330.62
308.881	336.62
309.111	343.62
309.341	359.62
309.571	349.62
309.8	345.62
310.03	369.62
310.26	374.62
310.49	370.62
310.72	377.62
310.949	399.62
311.179	395.62
311.409	358.62
311.639	352.62
311.868	346.62
312.098	369.62
312.328	365.62
312.557	379.62
312.787	411.62
313.017	407.62
313.246	375.62
313.476	378.62
313.706	366.62
313.935	377.62
314.165	397.62
314.394	401.62
314.624	379.62
314.853	381.62
315.083	373.62
315.312	368.62
315.542	376.62
315.771	370.62
316.001	370.62
316.23	370.62
316.46	377.62
316.689	365.62
316.919	356.62
317.148	373.62
317.377	388.62
317.607	367.62
317.836	377.62
318.065	378.62
318.295	359.62
318.524	359.62
318.753	377.62
318.983	358.62
319.212	357.62
319.441	370.62
319.67	371.62
319.9	385.62
320.129	385.62
320.358	358.62
320.587	382.62
320.816	378.62
321.046	397.62
321.275	388.62
321.504	396.62
321.733	407.62
321.962	394.62
322.191	410.62
322.42	432.62
322.649	424.62
322.878	429.62
323.108	444.62
323.337	460.62
323.566	475.62
323.795	508.62
324.024	542.62
324.253	679.62
324.482	919.62
324.71	1379.62
324.939	1871.62
325.168	1503.62
325.397	837.62
325.626	573.62
325.855	503.62
326.084	488.62
326.313	475.62
326.542	499.62
326.77	532.62
326.999	618.62
327.228	840.62
327.457	1219.62
327.686	1407.62
327.914	947.62
328.143	655.62
328.372	572.62
328.6	511.62
328.829	513.62
329.058	548.62
329.287	541.62
329.515	522.62
329.744	489.62
329.972	477.62
330.201	499.62
330.43	523.62
330.658	535.62
330.887	563.62
331.115	539.62
331.344	497.62
331.572	476.62
331.801	475.62
332.03	480.62
332.258	450.62
332.486	426.62
332.715	441.62
332.943	436.62
333.172	453.62
333.4	448.62
333.629	471.62
333.857	461.62
334.085	468.62
334.314	462.62
334.542	490.62
334.771	484.62
334.999	449.62
335.227	462.62
335.455	421.62
335.684	435.62
335.912	431.62
336.14	425.62
336.369	444.62
336.597	459.62
336.825	439.62
337.053	417.62
337.281	439.62
337.51	414.62
337.738	429.62
337.966	420.62
338.194	424.62
338.422	417.62
338.65	421.62
338.878	409.62
339.106	421.62
339.334	421.62
339.562	399.62
339.79	400.62
340.018	421.62
340.246	420.62
340.474	407.62
340.702	423.62
340.93	412.62
341.158	409.62
341.386	392.62
341.614	409.62
341.842	416.62
342.07	409.62
342.298	393.62
342.526	391.62
342.754	411.62
342.981	408.62
343.209	390.62
343.437	390.62
343.665	398.62
343.893	402.62
344.12	415.62
344.348	426.62
344.576	401.62
344.804	426.62
345.031	426.62
345.259	426.62
345.487	407.62
345.714	409.62
345.942	400.62
346.17	401.62
346.397	388.62
346.625	403.62
346.853	404.62
347.08	379.62
347.308	399.62
347.535	401.62
347.763	393.62
347.99	378.62
348.218	402.62
348.445	399.62
348.673	392.62
348.9	379.62
349.128	401.62
349.355	371.62
349.583	380.62
349.81	354.62
350.037	385.62
350.265	379.62
350.492	370.62
350.72	376.62
350.947	375.62
351.174	394.62
351.402	402.62
351.629	419.62
351.856	394.62
352.083	380.62
352.311	394.62
352.538	404.62
352.765	396.62
352.992	393.62
353.22	383.62
353.447	375.62
353.674	383.62
353.901	380.62
354.128	377.62
354.355	371.62
354.583	376.62
354.81	354.62
355.037	349.62
355.264	351.62
355.491	359.62
355.718	353.62
355.945	365.62
356.172	365.62
356.399	360.62
356.626	348.62
356.853	357.62
357.08	344.62
357.307	370.62
357.534	341.62
357.761	362.62
357.988	342.62
358.215	376.62
358.441	357.62
358.668	359.62
358.895	388.62
359.122	361.62
359.349	389.62
359.576	378.62
359.802	395.62
360.029	410.62
360.256	414.62
360.483	408.62
360.709	375.62
360.936	372.62
361.163	361.62
361.39	369.62
361.616	375.62
361.843	372.62
362.07	370.62
362.296	393.62
362.523	372.62
362.749	376.62
362.976	378.62
363.203	372.62
363.429	371.62
363.656	356.62
363.882	353.62
364.109	352.62
364.335	361.62
364.562	360.62
364.788	350.62
365.015	354.62
365.241	368.62
365.468	389.62
365.694	376.62
365.92	350.62
366.147	357.62
366.373	375.62
366.599	353.62
366.826	346.62
367.052	355.62
367.278	350.62
367.505	363.62
367.731	352.62
367.957	360.62
368.184	359.62
368.41	381.62
368.636	392.62
368.862	354.62
369.089	348.62
369.315	344.62
369.541	352.62
369.767	377.62
369.993	351.62
370.219	367.62
370.445	365.62
370.672	350.62
370.898	343.62
371.124	362.62
371.35	358.62
371.576	375.62
371.802	362.62
372.028	348.62
372.254	342.62
372.48	361.62
372.706	356.62
372.932	344.62
373.158	327.62
373.384	337.62
373.61	358.62
373.835	357.62
374.061	356.62
374.287	368.62
374.513	364.62
374.739	378.62
374.965	368.62
375.191	339.62
375.416	360.62
375.642	344.62
375.868	346.62
376.094	360.62
376.319	353.62
376.545	362.62
376.771	342.62
376.997	326.62
377.222	349.62
377.448	367.62
377.674	343.62
377.899	338.62
378.125	347.62
378.35	357.62
378.576	353.62
378.802	337.62
379.027	346.62
379.253	346.62
379.478	358.62
379.704	337.62
379.929	337.62
380.155	347.62
380.38	338.62
380.606	342.62
380.831	346.62
381.057	359.62
381.282	357.62
381.507	354.62
381.733	348.62
381.958	349.62
382.184	343.62
382.409	367.62
382.634	355.62
382.86	343.62
383.085	369.62
383.31	361.62
383.535	375.62
383.761	336.62
383.986	363.62
384.211	363.62
384.436	360.62
384.662	347.62
384.887	369.62
385.112	362.62
385.337	367.62
385.562	346.62
385.787	357.62
386.013	394.62
386.238	399.62
386.463	376.62
386.688	371.62
386.913	371.62
387.138	374.62
387.363	372.62
387.588	378.62
387.813	377.62
388.038	365.62
388.263	372.62
388.488	373.62
388.713	361.62
388.938	372.62
389.163	387.62
389.387	372.62
389.612	352.62
389.837	353.62
390.062	374.62
390.287	350.62
390.512	355.62
390.736	352.62
390.961	373.62
391.186	367.62
391.411	349.62
391.636	385.62
391.86	389.62
392.085	381.62
392.31	365.62
392.534	381.62
392.759	385.62
392.984	365.62
393.208	382.62
393.433	361.62
393.658	377.62
393.882	365.62
394.107	361.62
394.331	369.62
394.556	377.62
394.78	370.62
395.005	369.62
395.229	370.62
395.454	384.62
395.678	391.62
395.903	374.62
396.127	394.62
396.352	396.62
396.576	385.62
396.801	383.62
397.025	376.62
397.249	381.62
397.474	378.62
397.698	385.62
397.922	370.62
398.147	405.62
398.371	405.62
398.595	413.62
398.82	393.62
399.044	417.62
399.268	439.62
399.492	439.62
399.717	466.62
399.941	479.62
400.165	496.62
400.389	509.62
400.613	473.62
400.837	440.62
401.062	413.62
401.286	389.62
401.51	409.62
401.734	402.62
401.958	412.62
402.182	397.62
402.406	393.62
402.63	407.62
402.854	413.62
403.078	428.62
403.302	411.62
403.526	415.62
403.75	419.62
403.974	421.62
404.198	422.62
404.422	416.62
404.645	449.62
404.869	418.62
405.093	439.62
405.317	490.62
405.541	514.62
405.765	475.62
405.988	423.62
406.212	446.62
406.436	443.62
406.66	472.62
406.883	450.62
407.107	504.62
407.331	530.62
407.555	565.62
407.778	535.62
408.002	507.62
408.226	464.62
408.449	465.62
408.673	446.62
408.896	481.62
409.12	503.62
409.344	498.62
409.567	453.62
409.791	431.62
410.014	425.62
410.238	421.62
410.461	421.62
410.685	452.62
410.908	431.62
411.132	479.62
411.355	490.62
411.578	443.62
411.802	407.62
412.025	429.62
412.249	445.62
412.472	428.62
412.695	473.62
412.919	457.62
413.142	410.62
413.365	429.62
413.589	401.62
413.812	413.62
414.035	391.62
414.258	413.62
414.482	374.62
414.705	412.62
414.928	391.62
415.151	392.62
415.374	379.62
415.597	390.62
415.821	396.62
416.044	385.62
416.267	377.62
416.49	393.62
416.713	398.62
416.936	409.62
417.159	394.62
417.382	379.62
417.605	377.62
417.828	403.62
418.051	402.62
418.274	404.62
418.497	381.62
418.72	391.62
418.943	390.62
419.166	401.62
419.389	409.62
419.611	406.62
419.834	419.62
420.057	431.62
420.28	422.62
420.503	401.62
420.726	402.62
420.948	413.62
421.171	451.62
421.394	486.62
421.617	445.62
421.839	417.62
422.062	416.62
422.285	432.62
422.507	486.62
422.73	555.62
422.953	501.62
423.175	455.62
423.398	435.62
423.621	442.62
423.843	457.62
424.066	447.62
424.288	456.62
424.511	476.62
424.733	495.62
424.956	584.62
425.178	558.62
425.401	529.62
425.623	538.62
425.846	468.62
426.068	450.62
426.291	434.62
426.513	439.62
426.735	461.62
426.958	462.62
427.18	545.62
427.402	657.62
427.625	715.62
427.847	625.62
428.069	533.62
428.292	493.62
428.514	446.62
428.736	430.62
428.958	427.62
429.181	431.62
429.403	413.62
429.625	407.62
429.847	468.62
430.069	496.62
430.292	478.62
430.514	430.62
430.736	424.62
430.958	401.62
431.18	374.62
431.402	386.62
431.624	379.62
431.846	385.62
432.068	384.62
432.29	374.62
432.512	389.62
432.734	405.62
432.956	398.62
433.178	389.62
433.4	410.62
433.622	395.62
433.844	389.62
434.066	379.62
434.287	386.62
434.509	386.62
434.731	386.62
434.953	394.62
435.175	407.62
435.397	459.62
435.618	450.62
435.84	471.62
436.062	551.62
436.284	596.62
436.505	503.62
436.727	448.62
436.949	410.62
437.17	407.62
437.392	390.62
437.614	416.62
437.835	447.62
438.057	532.62
438.278	610.62
438.5	601.62
438.721	631.62
438.943	603.62
439.165	467.62
439.386	476.62
439.608	457.62
439.829	467.62
440.05	475.62
440.272	509.62
440.493	473.62
440.715	435.62
440.936	424.62
441.158	413.62
441.379	399.62
441.6	424.62
441.822	440.62
442.043	469.62
442.264	534.62
442.486	575.62
442.707	497.62
442.928	459.62
443.149	451.62
443.371	477.62
443.592	499.62
443.813	584.62
444.034	605.62
444.255	496.62
444.476	447.62
444.698	438.62
444.919	449.62
445.14	575.62
445.361	513.62
445.582	517.62
445.803	529.62
446.024	597.62
446.245	586.62
446.466	548.62
446.687	477.62
446.908	461.62
447.129	435.62
447.35	420.62
447.571	415.62
447.792	406.62
448.013	396.62
448.234	422.62
448.455	462.62
448.675	576.62
448.896	642.62
449.117	579.62
449.338	517.62
449.559	586.62
449.779	662.62
450	534.62
450.221	442.62
450.442	413.62
450.662	390.62
450.883	391.62
451.104	391.62
451.324	394.62
451.545	398.62
451.766	383.62
451.986	362.62
452.207	360.62
452.428	359.62
452.648	373.62
452.869	375.62
453.089	391.62
453.31	358.62
453.53	374.62
453.751	368.62
453.971	365.62
454.192	372.62
454.412	352.62
454.633	341.62
454.853	355.62
455.073	370.62
455.294	401.62
455.514	440.62
455.734	429.62
455.955	357.62
456.175	353.62
456.395	337.62
456.616	328.62
456.836	342.62
457.056	335.62
457.276	328.62
457.497	347.62
457.717	327.62
457.937	358.62
458.157	346.62
458.377	371.62
458.598	368.62
458.818	432.62
459.038	465.62
459.258	482.62
459.478	394.62
459.698	374.62
459.918	349.62
460.138	367.62
460.358	381.62
460.578	385.62
460.798	393.62
461.018	387.62
461.238	394.62
461.458	378.62
461.678	359.62
461.898	383.62
462.118	387.62
462.338	392.62
462.558	415.62
462.777	373.62
462.997	392.62
463.217	420.62
463.437	432.62
463.657	393.62
463.876	413.62
464.096	411.62
464.316	386.62
464.536	400.62
464.755	415.62
464.975	412.62
465.195	423.62
465.414	479.62
465.634	438.62
465.854	381.62
466.073	374.62
466.293	393.62
466.512	367.62
466.732	355.62
466.951	379.62
467.171	383.62
467.391	367.62
467.61	376.62
467.829	391.62
468.049	377.62
468.268	353.62
468.488	378.62
468.707	365.62
468.927	357.62
469.146	357.62
469.365	367.62
469.585	366.62
469.804	371.62
470.023	357.62
470.243	389.62
470.462	374.62
470.681	406.62
470.901	394.62
471.12	390.62
471.339	384.62
471.558	379.62
471.777	394.62
471.997	377.62
472.216	378.62
472.435	372.62
472.654	380.62
472.873	368.62
473.092	386.62
473.311	354.62
473.53	373.62
473.749	397.62
473.968	431.62
474.187	514.62
474.406	511.62
474.625	457.62
474.844	393.62
475.063	404.62
475.282	397.62
475.501	392.62
475.72	387.62
475.939	389.62
476.158	401.62
476.377	407.62
476.596	372.62
476.814	389.62
477.033	391.62
477.252	387.62
477.471	401.62
477.69	399.62
477.908	409.62
478.127	409.62
478.346	402.62
478.564	411.62
478.783	399.62
479.002	452.62
479.22	420.62
479.439	451.62
479.658	441.62
479.876	464.62
480.095	432.62
480.313	470.62
480.532	458.62
480.751	424.62
480.969	447.62
481.188	495.62
481.406	510.62
481.624	477.62
481.843	440.62
482.061	455.62
482.28	457.62
482.498	441.62
482.717	435.62
482.935	420.62
483.153	438.62
483.372	438.62
483.59	437.62
483.808	449.62
484.027	441.62
484.245	440.62
484.463	432.62
484.681	438.62
484.9	437.62
485.118	429.62
485.336	421.62
485.554	433.62
485.772	436.62
485.99	451.62
486.209	458.62
486.427	452.62
486.645	474.62
486.863	463.62
487.081	473.62
487.299	459.62
487.517	447.62
487.735	467.62
487.953	463.62
488.171	454.62
488.389	484.62
488.607	459.62
488.825	490.62
489.043	457.62
489.261	492.62
489.479	461.62
489.696	486.62
489.914	463.62
490.132	476.62
490.35	487.62
490.568	470.62
490.786	487.62
491.003	499.62
491.221	520.62
491.439	529.62
491.657	534.62
491.874	540.62
492.092	547.62
492.31	534.62
492.527	534.62
492.745	535.62
492.963	555.62
493.18	547.62
493.398	553.62
493.615	550.62
493.833	557.62
494.05	565.62
494.268	553.62
494.485	544.62
494.703	554.62
494.92	549.62
495.138	575.62
495.355	571.62
495.573	571.62
495.79	547.62
496.008	565.62
496.225	530.62
496.442	549.62
496.66	574.62
496.877	545.62
497.094	550.62
497.312	551.62
497.529	563.62
497.746	581.62
497.963	584.62
498.181	579.62
498.398	591.62
498.615	598.62
498.832	612.62
499.049	629.62
499.267	630.62
499.484	646.62
499.701	662.62
499.918	690.62
500.135	696.62
500.352	711.62
500.569	742.62
500.786	741.62
501.003	718.62
501.22	728.62
501.437	707.62
501.654	693.62
501.871	678.62
502.088	650.62
