Data from 1971.PennyLincolnUp.Lamp.En5.5.200Scan.071719.P1.Scan 2. Changed Angle._HRD10591_15-23-11-842.txt Node
Date: Thu Jul 18 15:23:11 EDT 2019
User: cochatt
Spectrometer: HR+D1059
Trigger mode: 1
Integration Time (sec): 1.000000E-1
Scans to average: 1
Electric dark correction enabled: true
Nonlinearity correction enabled: false
Boxcar width: 0
XAxis mode: Wavelengths
Number of Pixels in Spectrum: 2048
>>>>>Begin Spectral Data<<<<<
223.165	-15.31
223.4	-15.31
223.635	-15.31
223.869	-7.31
224.104	-11.31
224.338	-18.31
224.573	-20.31
224.808	-12.31
225.042	-9.31
225.277	-9.31
225.511	-12.31
225.746	-10.31
225.98	10.69
226.215	6.69
226.449	12.69
226.683	43.69
226.918	29.69
227.152	22.69
227.387	21.69
227.621	37.69
227.856	39.69
228.09	40.69
228.324	64.69
228.559	52.69
228.793	69.69
229.027	112.69
229.262	119.69
229.496	121.69
229.73	143.69
229.964	158.69
230.199	126.69
230.433	119.69
230.667	124.69
230.901	111.69
231.136	123.69
231.37	112.69
231.604	126.69
231.838	118.69
232.072	114.69
232.306	114.69
232.541	119.69
232.775	99.69
233.009	103.69
233.243	124.69
233.477	110.69
233.711	113.69
233.945	110.69
234.179	99.69
234.413	128.69
234.647	106.69
234.881	126.69
235.115	116.69
235.349	115.69
235.583	135.69
235.817	118.69
236.051	131.69
236.285	119.69
236.519	117.69
236.753	150.69
236.987	142.69
237.221	189.69
237.455	263.69
237.689	209.69
237.922	152.69
238.156	140.69
238.39	130.69
238.624	133.69
238.858	120.69
239.091	132.69
239.325	142.69
239.559	122.69
239.793	138.69
240.027	134.69
240.26	134.69
240.494	163.69
240.728	155.69
240.961	148.69
241.195	145.69
241.429	141.69
241.662	148.69
241.896	136.69
242.13	135.69
242.363	126.69
242.597	142.69
242.83	147.69
243.064	140.69
243.298	137.69
243.531	135.69
243.765	151.69
243.998	156.69
244.232	143.69
244.465	148.69
244.699	150.69
244.932	144.69
245.166	141.69
245.399	152.69
245.633	150.69
245.866	151.69
246.099	153.69
246.333	159.69
246.566	153.69
246.8	157.69
247.033	141.69
247.266	163.69
247.5	170.69
247.733	181.69
247.966	176.69
248.2	171.69
248.433	176.69
248.666	179.69
248.899	196.69
249.133	186.69
249.366	221.69
249.599	212.69
249.832	197.69
250.066	191.69
250.299	178.69
250.532	205.69
250.765	208.69
250.998	225.69
251.231	243.69
251.465	230.69
251.698	215.69
251.931	216.69
252.164	207.69
252.397	213.69
252.63	216.69
252.863	202.69
253.096	217.69
253.329	230.69
253.562	244.69
253.795	246.69
254.028	232.69
254.261	226.69
254.494	244.69
254.727	274.69
254.96	296.69
255.193	295.69
255.426	271.69
255.659	267.69
255.892	214.69
256.124	235.69
256.357	238.69
256.59	227.69
256.823	235.69
257.056	230.69
257.289	195.69
257.521	203.69
257.754	205.69
257.987	218.69
258.22	207.69
258.452	216.69
258.685	217.69
258.918	208.69
259.151	231.69
259.383	228.69
259.616	233.69
259.849	230.69
260.081	241.69
260.314	266.69
260.547	282.69
260.779	251.69
261.012	238.69
261.244	229.69
261.477	235.69
261.71	226.69
261.942	224.69
262.175	232.69
262.407	226.69
262.64	207.69
262.872	238.69
263.105	219.69
263.337	215.69
263.57	216.69
263.802	219.69
264.035	205.69
264.267	215.69
264.499	198.69
264.732	204.69
264.964	222.69
265.197	228.69
265.429	202.69
265.661	221.69
265.894	214.69
266.126	190.69
266.358	213.69
266.591	237.69
266.823	200.69
267.055	224.69
267.287	217.69
267.52	222.69
267.752	203.69
267.984	208.69
268.216	211.69
268.448	226.69
268.681	211.69
268.913	237.69
269.145	244.69
269.377	276.69
269.609	290.69
269.841	272.69
270.073	290.69
270.306	298.69
270.538	309.69
270.77	340.69
271.002	298.69
271.234	308.69
271.466	306.69
271.698	323.69
271.93	311.69
272.162	301.69
272.394	313.69
272.626	318.69
272.858	297.69
273.09	258.69
273.322	262.69
273.553	261.69
273.785	254.69
274.017	255.69
274.249	262.69
274.481	251.69
274.713	270.69
274.945	271.69
275.176	257.69
275.408	253.69
275.64	260.69
275.872	238.69
276.104	280.69
276.335	247.69
276.567	263.69
276.799	269.69
277.031	295.69
277.262	315.69
277.494	327.69
277.726	292.69
277.957	271.69
278.189	261.69
278.421	258.69
278.652	256.69
278.884	253.69
279.115	258.69
279.347	269.69
279.579	264.69
279.81	248.69
280.042	240.69
280.273	252.69
280.505	266.69
280.736	247.69
280.968	231.69
281.199	242.69
281.431	242.69
281.662	252.69
281.894	252.69
282.125	246.69
282.356	264.69
282.588	310.69
282.819	307.69
283.051	265.69
283.282	263.69
283.513	251.69
283.745	236.69
283.976	240.69
284.207	264.69
284.439	252.69
284.67	240.69
284.901	242.69
285.132	251.69
285.364	266.69
285.595	248.69
285.826	271.69
286.057	264.69
286.288	261.69
286.52	246.69
286.751	256.69
286.982	267.69
287.213	269.69
287.444	248.69
287.675	267.69
287.906	266.69
288.138	292.69
288.369	285.69
288.6	271.69
288.831	279.69
289.062	280.69
289.293	259.69
289.524	261.69
289.755	278.69
289.986	284.69
290.217	265.69
290.448	279.69
290.679	269.69
290.91	274.69
291.141	248.69
291.371	269.69
291.602	261.69
291.833	262.69
292.064	270.69
292.295	269.69
292.526	280.69
292.757	273.69
292.987	259.69
293.218	255.69
293.449	284.69
293.68	263.69
293.91	284.69
294.141	272.69
294.372	268.69
294.603	272.69
294.833	264.69
295.064	281.69
295.295	254.69
295.525	279.69
295.756	278.69
295.987	293.69
296.217	306.69
296.448	328.69
296.679	281.69
296.909	269.69
297.14	291.69
297.37	271.69
297.601	280.69
297.831	271.69
298.062	312.69
298.292	262.69
298.523	292.69
298.753	274.69
298.984	285.69
299.214	287.69
299.445	267.69
299.675	276.69
299.905	316.69
300.136	295.69
300.366	275.69
300.597	276.69
300.827	278.69
301.057	286.69
301.288	327.69
301.518	298.69
301.748	301.69
301.979	288.69
302.209	287.69
302.439	295.69
302.669	302.69
302.9	303.69
303.13	284.69
303.36	314.69
303.59	292.69
303.82	312.69
304.051	301.69
304.281	281.69
304.511	318.69
304.741	290.69
304.971	299.69
305.201	298.69
305.431	302.69
305.661	296.69
305.891	312.69
306.121	298.69
306.352	326.69
306.582	323.69
306.812	310.69
307.042	304.69
307.272	316.69
307.502	295.69
307.731	286.69
307.961	299.69
308.191	328.69
308.421	320.69
308.651	311.69
308.881	303.69
309.111	328.69
309.341	332.69
309.571	336.69
309.8	326.69
310.03	346.69
310.26	333.69
310.49	361.69
310.72	359.69
310.949	391.69
311.179	375.69
311.409	367.69
311.639	374.69
311.868	360.69
312.098	367.69
312.328	382.69
312.557	374.69
312.787	396.69
313.017	415.69
313.246	376.69
313.476	351.69
313.706	353.69
313.935	386.69
314.165	384.69
314.394	414.69
314.624	383.69
314.853	375.69
315.083	373.69
315.312	382.69
315.542	370.69
315.771	345.69
316.001	356.69
316.23	360.69
316.46	352.69
316.689	361.69
316.919	357.69
317.148	372.69
317.377	372.69
317.607	367.69
317.836	364.69
318.065	351.69
318.295	354.69
318.524	365.69
318.753	342.69
318.983	351.69
319.212	358.69
319.441	362.69
319.67	368.69
319.9	366.69
320.129	373.69
320.358	359.69
320.587	381.69
320.816	365.69
321.046	393.69
321.275	397.69
321.504	372.69
321.733	383.69
321.962	388.69
322.191	421.69
322.42	413.69
322.649	446.69
322.878	454.69
323.108	463.69
323.337	493.69
323.566	514.69
323.795	541.69
324.024	633.69
324.253	777.69
324.482	1118.69
324.71	1679.69
324.939	2432.69
325.168	2106.69
325.397	1112.69
325.626	728.69
325.855	597.69
326.084	545.69
326.313	495.69
326.542	538.69
326.77	571.69
326.999	708.69
327.228	968.69
327.457	1495.69
327.686	1790.69
327.914	1240.69
328.143	790.69
328.372	715.69
328.6	640.69
328.829	602.69
329.058	611.69
329.287	620.69
329.515	565.69
329.744	541.69
329.972	486.69
330.201	544.69
330.43	604.69
330.658	606.69
330.887	638.69
331.115	622.69
331.344	524.69
331.572	520.69
331.801	471.69
332.03	520.69
332.258	467.69
332.486	453.69
332.715	436.69
332.943	427.69
333.172	430.69
333.4	434.69
333.629	431.69
333.857	454.69
334.085	450.69
334.314	467.69
334.542	486.69
334.771	536.69
334.999	482.69
335.227	441.69
335.455	423.69
335.684	430.69
335.912	429.69
336.14	414.69
336.369	417.69
336.597	427.69
336.825	429.69
337.053	400.69
337.281	426.69
337.51	415.69
337.738	418.69
337.966	419.69
338.194	435.69
338.422	438.69
338.65	405.69
338.878	405.69
339.106	393.69
339.334	386.69
339.562	425.69
339.79	384.69
340.018	407.69
340.246	402.69
340.474	423.69
340.702	429.69
340.93	414.69
341.158	399.69
341.386	393.69
341.614	412.69
341.842	414.69
342.07	415.69
342.298	402.69
342.526	403.69
342.754	389.69
342.981	423.69
343.209	396.69
343.437	395.69
343.665	411.69
343.893	397.69
344.12	406.69
344.348	393.69
344.576	422.69
344.804	415.69
345.031	427.69
345.259	435.69
345.487	421.69
345.714	404.69
345.942	398.69
346.17	408.69
346.397	390.69
346.625	402.69
346.853	404.69
347.08	403.69
347.308	420.69
347.535	416.69
347.763	425.69
347.99	415.69
348.218	405.69
348.445	442.69
348.673	424.69
348.9	418.69
349.128	392.69
349.355	406.69
349.583	380.69
349.81	398.69
350.037	404.69
350.265	393.69
350.492	402.69
350.72	390.69
350.947	412.69
351.174	411.69
351.402	423.69
351.629	423.69
351.856	425.69
352.083	412.69
352.311	442.69
352.538	422.69
352.765	422.69
352.992	429.69
353.22	420.69
353.447	399.69
353.674	406.69
353.901	397.69
354.128	386.69
354.355	392.69
354.583	380.69
354.81	379.69
355.037	366.69
355.264	363.69
355.491	355.69
355.718	387.69
355.945	361.69
356.172	375.69
356.399	368.69
356.626	379.69
356.853	376.69
357.08	377.69
357.307	382.69
357.534	365.69
357.761	386.69
357.988	368.69
358.215	376.69
358.441	374.69
358.668	398.69
358.895	390.69
359.122	397.69
359.349	389.69
359.576	437.69
359.802	422.69
360.029	473.69
360.256	492.69
360.483	454.69
360.709	436.69
360.936	420.69
361.163	431.69
361.39	429.69
361.616	428.69
361.843	404.69
362.07	434.69
362.296	422.69
362.523	424.69
362.749	417.69
362.976	434.69
363.203	408.69
363.429	406.69
363.656	390.69
363.882	393.69
364.109	382.69
364.335	388.69
364.562	402.69
364.788	416.69
365.015	422.69
365.241	405.69
365.468	401.69
365.694	403.69
365.92	403.69
366.147	390.69
366.373	391.69
366.599	394.69
366.826	400.69
367.052	367.69
367.278	376.69
367.505	382.69
367.731	404.69
367.957	402.69
368.184	415.69
368.41	402.69
368.636	400.69
368.862	413.69
369.089	404.69
369.315	394.69
369.541	408.69
369.767	390.69
369.993	408.69
370.219	397.69
370.445	392.69
370.672	409.69
370.898	375.69
371.124	381.69
371.35	396.69
371.576	394.69
371.802	404.69
372.028	398.69
372.254	391.69
372.48	400.69
372.706	396.69
372.932	393.69
373.158	388.69
373.384	388.69
373.61	395.69
373.835	382.69
374.061	372.69
374.287	396.69
374.513	412.69
374.739	398.69
374.965	409.69
375.191	404.69
375.416	398.69
375.642	398.69
375.868	413.69
376.094	394.69
376.319	392.69
376.545	384.69
376.771	376.69
376.997	403.69
377.222	399.69
377.448	388.69
377.674	399.69
377.899	371.69
378.125	389.69
378.35	380.69
378.576	410.69
378.802	402.69
379.027	393.69
379.253	371.69
379.478	391.69
379.704	404.69
379.929	406.69
380.155	423.69
380.38	399.69
380.606	407.69
380.831	400.69
381.057	408.69
381.282	393.69
381.507	416.69
381.733	415.69
381.958	404.69
382.184	422.69
382.409	397.69
382.634	412.69
382.86	406.69
383.085	390.69
383.31	415.69
383.535	418.69
383.761	398.69
383.986	421.69
384.211	412.69
384.436	413.69
384.662	411.69
384.887	431.69
385.112	435.69
385.337	415.69
385.562	430.69
385.787	411.69
386.013	436.69
386.238	439.69
386.463	431.69
386.688	432.69
386.913	426.69
387.138	421.69
387.363	420.69
387.588	418.69
387.813	426.69
388.038	437.69
388.263	406.69
388.488	429.69
388.713	436.69
388.938	412.69
389.163	425.69
389.387	426.69
389.612	453.69
389.837	406.69
390.062	408.69
390.287	429.69
390.512	407.69
390.736	414.69
390.961	434.69
391.186	418.69
391.411	421.69
391.636	444.69
391.86	438.69
392.085	447.69
392.31	427.69
392.534	468.69
392.759	442.69
392.984	440.69
393.208	431.69
393.433	447.69
393.658	458.69
393.882	447.69
394.107	437.69
394.331	421.69
394.556	431.69
394.78	425.69
395.005	420.69
395.229	427.69
395.454	431.69
395.678	448.69
395.903	467.69
396.127	484.69
396.352	478.69
396.576	459.69
396.801	448.69
397.025	457.69
397.249	452.69
397.474	458.69
397.698	468.69
397.922	469.69
398.147	491.69
398.371	498.69
398.595	467.69
398.82	460.69
399.044	472.69
399.268	494.69
399.492	517.69
399.717	546.69
399.941	573.69
400.165	598.69
400.389	588.69
400.613	553.69
400.837	532.69
401.062	498.69
401.286	485.69
401.51	502.69
401.734	484.69
401.958	472.69
402.182	513.69
402.406	524.69
402.63	515.69
402.854	519.69
403.078	490.69
403.302	527.69
403.526	520.69
403.75	516.69
403.974	507.69
404.198	488.69
404.422	520.69
404.645	528.69
404.869	532.69
405.093	534.69
405.317	597.69
405.541	639.69
405.765	586.69
405.988	554.69
406.212	548.69
406.436	592.69
406.66	588.69
406.883	583.69
407.107	594.69
407.331	618.69
407.555	659.69
407.778	690.69
408.002	616.69
408.226	586.69
408.449	591.69
408.673	583.69
408.896	592.69
409.12	662.69
409.344	608.69
409.567	553.69
409.791	523.69
410.014	536.69
410.238	518.69
410.461	521.69
410.685	528.69
410.908	552.69
411.132	566.69
411.355	615.69
411.578	618.69
411.802	532.69
412.025	528.69
412.249	541.69
412.472	546.69
412.695	586.69
412.919	574.69
413.142	542.69
413.365	518.69
413.589	526.69
413.812	496.69
414.035	487.69
414.258	493.69
414.482	481.69
414.705	486.69
414.928	462.69
415.151	499.69
415.374	472.69
415.597	495.69
415.821	518.69
416.044	524.69
416.267	496.69
416.49	489.69
416.713	502.69
416.936	495.69
417.159	483.69
417.382	490.69
417.605	470.69
417.828	506.69
418.051	530.69
418.274	515.69
418.497	480.69
418.72	500.69
418.943	494.69
419.166	518.69
419.389	520.69
419.611	537.69
419.834	523.69
420.057	518.69
420.28	538.69
420.503	506.69
420.726	506.69
420.948	551.69
421.171	589.69
421.394	634.69
421.617	542.69
421.839	538.69
422.062	554.69
422.285	548.69
422.507	614.69
422.73	699.69
422.953	663.69
423.175	583.69
423.398	562.69
423.621	551.69
423.843	578.69
424.066	583.69
424.288	588.69
424.511	590.69
424.733	663.69
424.956	727.69
425.178	707.69
425.401	717.69
425.623	738.69
425.846	639.69
426.068	604.69
426.291	578.69
426.513	589.69
426.735	601.69
426.958	635.69
427.18	726.69
427.402	845.69
427.625	924.69
427.847	858.69
428.069	733.69
428.292	657.69
428.514	598.69
428.736	586.69
428.958	557.69
429.181	530.69
429.403	523.69
429.625	570.69
429.847	584.69
430.069	657.69
430.292	666.69
430.514	585.69
430.736	546.69
430.958	547.69
431.18	535.69
431.402	503.69
431.624	537.69
431.846	495.69
432.068	503.69
432.29	498.69
432.512	495.69
432.734	505.69
432.956	517.69
433.178	526.69
433.4	527.69
433.622	516.69
433.844	504.69
434.066	505.69
434.287	519.69
434.509	515.69
434.731	515.69
434.953	537.69
435.175	526.69
435.397	572.69
435.618	570.69
435.84	614.69
436.062	722.69
436.284	805.69
436.505	666.69
436.727	610.69
436.949	568.69
437.17	564.69
437.392	539.69
437.614	557.69
437.835	612.69
438.057	700.69
438.278	846.69
438.5	794.69
438.721	880.69
438.943	838.69
439.165	676.69
439.386	629.69
439.608	587.69
439.829	618.69
440.05	646.69
440.272	678.69
440.493	654.69
440.715	588.69
440.936	573.69
441.158	566.69
441.379	564.69
441.6	582.69
441.822	605.69
442.043	639.69
442.264	718.69
442.486	756.69
442.707	682.69
442.928	615.69
443.149	631.69
443.371	631.69
443.592	697.69
443.813	764.69
444.034	846.69
444.255	673.69
444.476	612.69
444.698	582.69
444.919	584.69
445.14	695.69
445.361	663.69
445.582	635.69
445.803	724.69
446.024	805.69
446.245	838.69
446.466	765.69
446.687	666.69
446.908	618.69
447.129	589.69
447.35	545.69
447.571	542.69
447.792	539.69
448.013	570.69
448.234	571.69
448.455	622.69
448.675	757.69
448.896	842.69
449.117	755.69
449.338	716.69
449.559	823.69
449.779	902.69
450	735.69
450.221	618.69
450.442	569.69
450.662	562.69
450.883	550.69
451.104	562.69
451.324	569.69
451.545	528.69
451.766	493.69
451.986	494.69
452.207	511.69
452.428	468.69
452.648	505.69
452.869	479.69
453.089	503.69
453.31	512.69
453.53	525.69
453.751	492.69
453.971	486.69
454.192	515.69
454.412	527.69
454.633	494.69
454.853	490.69
455.073	497.69
455.294	534.69
455.514	581.69
455.734	597.69
455.955	504.69
456.175	450.69
456.395	450.69
456.616	459.69
456.836	457.69
457.056	457.69
457.276	454.69
457.497	459.69
457.717	446.69
457.937	446.69
458.157	474.69
458.377	467.69
458.598	497.69
458.818	595.69
459.038	656.69
459.258	699.69
459.478	585.69
459.698	512.69
459.918	506.69
460.138	480.69
460.358	489.69
460.578	498.69
460.798	510.69
461.018	516.69
461.238	487.69
461.458	497.69
461.678	492.69
461.898	511.69
462.118	502.69
462.338	541.69
462.558	524.69
462.777	525.69
462.997	518.69
463.217	527.69
463.437	530.69
463.657	510.69
463.876	496.69
464.096	534.69
464.316	534.69
464.536	528.69
464.755	555.69
464.975	551.69
465.195	608.69
465.414	685.69
465.634	635.69
465.854	568.69
466.073	536.69
466.293	510.69
466.512	514.69
466.732	486.69
466.951	487.69
467.171	492.69
467.391	514.69
467.61	493.69
467.829	525.69
468.049	495.69
468.268	518.69
468.488	482.69
468.707	473.69
468.927	485.69
469.146	468.69
469.365	474.69
469.585	465.69
469.804	495.69
470.023	524.69
470.243	508.69
470.462	514.69
470.681	530.69
470.901	531.69
471.12	523.69
471.339	482.69
471.558	502.69
471.777	505.69
471.997	509.69
472.216	525.69
472.435	533.69
472.654	532.69
472.873	499.69
473.092	516.69
473.311	499.69
473.53	525.69
473.749	499.69
473.968	557.69
474.187	663.69
474.406	698.69
474.625	574.69
474.844	528.69
475.063	516.69
475.282	528.69
475.501	518.69
475.72	523.69
475.939	527.69
476.158	522.69
476.377	524.69
476.596	536.69
476.814	519.69
477.033	523.69
477.252	528.69
477.471	537.69
477.69	537.69
477.908	551.69
478.127	551.69
478.346	566.69
478.564	554.69
478.783	562.69
479.002	588.69
479.22	590.69
479.439	600.69
479.658	607.69
479.876	616.69
480.095	604.69
480.313	630.69
480.532	630.69
480.751	615.69
480.969	635.69
481.188	696.69
481.406	711.69
481.624	643.69
481.843	609.69
482.061	619.69
482.28	590.69
482.498	593.69
482.717	612.69
482.935	593.69
483.153	591.69
483.372	613.69
483.59	600.69
483.808	586.69
484.027	620.69
484.245	593.69
484.463	617.69
484.681	614.69
484.9	620.69
485.118	611.69
485.336	615.69
485.554	619.69
485.772	637.69
485.99	604.69
486.209	619.69
486.427	620.69
486.645	669.69
486.863	662.69
487.081	710.69
487.299	652.69
487.517	634.69
487.735	647.69
487.953	682.69
488.171	660.69
488.389	655.69
488.607	654.69
488.825	650.69
489.043	652.69
489.261	677.69
489.479	684.69
489.696	670.69
489.914	661.69
490.132	670.69
490.35	704.69
490.568	681.69
490.786	722.69
491.003	724.69
491.221	729.69
491.439	737.69
491.657	754.69
491.874	767.69
492.092	770.69
492.31	770.69
492.527	764.69
492.745	768.69
492.963	791.69
493.18	782.69
493.398	837.69
493.615	797.69
493.833	823.69
494.05	784.69
494.268	758.69
494.485	781.69
494.703	756.69
494.92	759.69
495.138	782.69
495.355	808.69
495.573	805.69
495.79	793.69
496.008	786.69
496.225	783.69
496.442	786.69
496.66	774.69
496.877	806.69
497.094	792.69
497.312	813.69
497.529	804.69
497.746	804.69
497.963	812.69
498.181	843.69
498.398	834.69
498.615	839.69
498.832	863.69
499.049	842.69
499.267	884.69
499.484	870.69
499.701	904.69
499.918	918.69
500.135	948.69
500.352	979.69
500.569	975.69
500.786	992.69
501.003	996.69
501.22	958.69
501.437	941.69
501.654	959.69
