Data from 1971.PennyLincolnUp.Lamp.En5.5.200Scan.071719.P1.Scan 2. Changed Angle._HRD10591_15-24-36-842.txt Node
Date: Thu Jul 18 15:24:36 EDT 2019
User: cochatt
Spectrometer: HR+D1059
Trigger mode: 1
Integration Time (sec): 1.000000E-1
Scans to average: 1
Electric dark correction enabled: true
Nonlinearity correction enabled: false
Boxcar width: 0
XAxis mode: Wavelengths
Number of Pixels in Spectrum: 2048
>>>>>Begin Spectral Data<<<<<
223.165	4.12
223.4	4.12
223.635	4.12
223.869	-14.88
224.104	-15.88
224.338	-16.88
224.573	-26.88
224.808	-16.88
225.042	-4.88
225.277	-13.88
225.511	3.12
225.746	7.12
225.98	11.12
226.215	15.12
226.449	16.12
226.683	12.12
226.918	18.12
227.152	23.12
227.387	30.12
227.621	37.12
227.856	49.12
228.09	50.12
228.324	50.12
228.559	60.12
228.793	75.12
229.027	111.12
229.262	137.12
229.496	135.12
229.73	169.12
229.964	181.12
230.199	156.12
230.433	128.12
230.667	129.12
230.901	104.12
231.136	111.12
231.37	122.12
231.604	127.12
231.838	117.12
232.072	102.12
232.306	97.12
232.541	109.12
232.775	109.12
233.009	119.12
233.243	105.12
233.477	122.12
233.711	111.12
233.945	129.12
234.179	103.12
234.413	121.12
234.647	123.12
234.881	127.12
235.115	130.12
235.349	123.12
235.583	131.12
235.817	126.12
236.051	140.12
236.285	135.12
236.519	139.12
236.753	143.12
236.987	164.12
237.221	217.12
237.455	297.12
237.689	206.12
237.922	175.12
238.156	163.12
238.39	146.12
238.624	137.12
238.858	135.12
239.091	125.12
239.325	128.12
239.559	124.12
239.793	138.12
240.027	135.12
240.26	166.12
240.494	173.12
240.728	169.12
240.961	163.12
241.195	160.12
241.429	154.12
241.662	135.12
241.896	140.12
242.13	137.12
242.363	145.12
242.597	153.12
242.83	134.12
243.064	133.12
243.298	147.12
243.531	145.12
243.765	149.12
243.998	157.12
244.232	155.12
244.465	155.12
244.699	147.12
244.932	146.12
245.166	153.12
245.399	158.12
245.633	147.12
245.866	159.12
246.099	160.12
246.333	163.12
246.566	166.12
246.8	160.12
247.033	164.12
247.266	172.12
247.5	183.12
247.733	187.12
247.966	183.12
248.2	181.12
248.433	182.12
248.666	198.12
248.899	196.12
249.133	220.12
249.366	244.12
249.599	205.12
249.832	184.12
250.066	198.12
250.299	205.12
250.532	216.12
250.765	220.12
250.998	233.12
251.231	269.12
251.465	269.12
251.698	258.12
251.931	220.12
252.164	223.12
252.397	211.12
252.63	216.12
252.863	231.12
253.096	248.12
253.329	253.12
253.562	247.12
253.795	254.12
254.028	241.12
254.261	245.12
254.494	259.12
254.727	288.12
254.96	323.12
255.193	303.12
255.426	279.12
255.659	257.12
255.892	258.12
256.124	282.12
256.357	259.12
256.59	258.12
256.823	248.12
257.056	241.12
257.289	243.12
257.521	232.12
257.754	227.12
257.987	230.12
258.22	217.12
258.452	243.12
258.685	227.12
258.918	225.12
259.151	228.12
259.383	237.12
259.616	233.12
259.849	238.12
260.081	260.12
260.314	289.12
260.547	284.12
260.779	278.12
261.012	257.12
261.244	249.12
261.477	255.12
261.71	238.12
261.942	265.12
262.175	253.12
262.407	257.12
262.64	220.12
262.872	225.12
263.105	227.12
263.337	232.12
263.57	257.12
263.802	234.12
264.035	222.12
264.267	225.12
264.499	217.12
264.732	208.12
264.964	227.12
265.197	233.12
265.429	234.12
265.661	228.12
265.894	226.12
266.126	211.12
266.358	213.12
266.591	213.12
266.823	232.12
267.055	228.12
267.287	229.12
267.52	239.12
267.752	247.12
267.984	235.12
268.216	214.12
268.448	242.12
268.681	234.12
268.913	246.12
269.145	272.12
269.377	312.12
269.609	306.12
269.841	289.12
270.073	285.12
270.306	307.12
270.538	328.12
270.77	343.12
271.002	337.12
271.234	321.12
271.466	330.12
271.698	336.12
271.93	376.12
272.162	352.12
272.394	349.12
272.626	328.12
272.858	301.12
273.09	305.12
273.322	289.12
273.553	292.12
273.785	275.12
274.017	266.12
274.249	273.12
274.481	269.12
274.713	271.12
274.945	277.12
275.176	271.12
275.408	258.12
275.64	261.12
275.872	277.12
276.104	280.12
276.335	303.12
276.567	261.12
276.799	290.12
277.031	337.12
277.262	335.12
277.494	356.12
277.726	313.12
277.957	295.12
278.189	277.12
278.421	300.12
278.652	283.12
278.884	288.12
279.115	270.12
279.347	257.12
279.579	279.12
279.81	279.12
280.042	277.12
280.273	273.12
280.505	270.12
280.736	273.12
280.968	272.12
281.199	275.12
281.431	275.12
281.662	276.12
281.894	274.12
282.125	275.12
282.356	293.12
282.588	336.12
282.819	313.12
283.051	301.12
283.282	269.12
283.513	279.12
283.745	257.12
283.976	278.12
284.207	294.12
284.439	267.12
284.67	277.12
284.901	272.12
285.132	274.12
285.364	276.12
285.595	282.12
285.826	273.12
286.057	269.12
286.288	264.12
286.52	278.12
286.751	271.12
286.982	287.12
287.213	282.12
287.444	283.12
287.675	269.12
287.906	304.12
288.138	301.12
288.369	288.12
288.6	311.12
288.831	313.12
289.062	282.12
289.293	292.12
289.524	296.12
289.755	288.12
289.986	293.12
290.217	278.12
290.448	287.12
290.679	284.12
290.91	290.12
291.141	269.12
291.371	272.12
291.602	289.12
291.833	276.12
292.064	285.12
292.295	299.12
292.526	288.12
292.757	280.12
292.987	295.12
293.218	291.12
293.449	281.12
293.68	291.12
293.91	282.12
294.141	293.12
294.372	277.12
294.603	292.12
294.833	283.12
295.064	292.12
295.295	291.12
295.525	305.12
295.756	307.12
295.987	325.12
296.217	328.12
296.448	346.12
296.679	316.12
296.909	301.12
297.14	322.12
297.37	306.12
297.601	291.12
297.831	296.12
298.062	301.12
298.292	292.12
298.523	304.12
298.753	301.12
298.984	307.12
299.214	303.12
299.445	309.12
299.675	315.12
299.905	311.12
300.136	306.12
300.366	297.12
300.597	312.12
300.827	314.12
301.057	314.12
301.288	330.12
301.518	336.12
301.748	305.12
301.979	328.12
302.209	329.12
302.439	308.12
302.669	344.12
302.9	321.12
303.13	312.12
303.36	339.12
303.59	328.12
303.82	342.12
304.051	338.12
304.281	321.12
304.511	321.12
304.741	320.12
304.971	296.12
305.201	323.12
305.431	309.12
305.661	333.12
305.891	308.12
306.121	331.12
306.352	337.12
306.582	339.12
306.812	335.12
307.042	329.12
307.272	332.12
307.502	335.12
307.731	352.12
307.961	328.12
308.191	332.12
308.421	328.12
308.651	344.12
308.881	338.12
309.111	353.12
309.341	349.12
309.571	354.12
309.8	378.12
310.03	397.12
310.26	398.12
310.49	396.12
310.72	390.12
310.949	422.12
311.179	440.12
311.409	403.12
311.639	403.12
311.868	416.12
312.098	389.12
312.328	405.12
312.557	420.12
312.787	436.12
313.017	428.12
313.246	408.12
313.476	392.12
313.706	386.12
313.935	419.12
314.165	409.12
314.394	442.12
314.624	417.12
314.853	423.12
315.083	400.12
315.312	383.12
315.542	389.12
315.771	370.12
316.001	362.12
316.23	368.12
316.46	370.12
316.689	374.12
316.919	396.12
317.148	371.12
317.377	407.12
317.607	395.12
317.836	392.12
318.065	395.12
318.295	389.12
318.524	394.12
318.753	385.12
318.983	385.12
319.212	384.12
319.441	391.12
319.67	394.12
319.9	385.12
320.129	399.12
320.358	393.12
320.587	412.12
320.816	427.12
321.046	418.12
321.275	427.12
321.504	421.12
321.733	415.12
321.962	453.12
322.191	459.12
322.42	464.12
322.649	480.12
322.878	506.12
323.108	508.12
323.337	563.12
323.566	553.12
323.795	623.12
324.024	689.12
324.253	844.12
324.482	1265.12
324.71	2004.12
324.939	2916.12
325.168	2499.12
325.397	1267.12
325.626	817.12
325.855	663.12
326.084	603.12
326.313	581.12
326.542	584.12
326.77	633.12
326.999	811.12
327.228	1146.12
327.457	1759.12
327.686	2159.12
327.914	1430.12
328.143	943.12
328.372	772.12
328.6	723.12
328.829	655.12
329.058	676.12
329.287	698.12
329.515	674.12
329.744	591.12
329.972	561.12
330.201	624.12
330.43	682.12
330.658	691.12
330.887	739.12
331.115	704.12
331.344	584.12
331.572	544.12
331.801	565.12
332.03	537.12
332.258	510.12
332.486	475.12
332.715	475.12
332.943	460.12
333.172	479.12
333.4	473.12
333.629	476.12
333.857	505.12
334.085	524.12
334.314	561.12
334.542	595.12
334.771	608.12
334.999	535.12
335.227	521.12
335.455	459.12
335.684	467.12
335.912	447.12
336.14	449.12
336.369	456.12
336.597	468.12
336.825	475.12
337.053	463.12
337.281	441.12
337.51	452.12
337.738	453.12
337.966	457.12
338.194	480.12
338.422	474.12
338.65	432.12
338.878	433.12
339.106	433.12
339.334	450.12
339.562	444.12
339.79	439.12
340.018	448.12
340.246	466.12
340.474	461.12
340.702	465.12
340.93	425.12
341.158	441.12
341.386	440.12
341.614	454.12
341.842	444.12
342.07	436.12
342.298	442.12
342.526	447.12
342.754	419.12
342.981	436.12
343.209	437.12
343.437	440.12
343.665	449.12
343.893	433.12
344.12	435.12
344.348	450.12
344.576	442.12
344.804	440.12
345.031	471.12
345.259	479.12
345.487	461.12
345.714	447.12
345.942	439.12
346.17	446.12
346.397	456.12
346.625	441.12
346.853	447.12
347.08	470.12
347.308	424.12
347.535	451.12
347.763	453.12
347.99	471.12
348.218	455.12
348.445	459.12
348.673	496.12
348.9	461.12
349.128	440.12
349.355	419.12
349.583	431.12
349.81	404.12
350.037	423.12
350.265	445.12
350.492	444.12
350.72	416.12
350.947	457.12
351.174	482.12
351.402	456.12
351.629	451.12
351.856	456.12
352.083	476.12
352.311	477.12
352.538	455.12
352.765	491.12
352.992	462.12
353.22	452.12
353.447	440.12
353.674	451.12
353.901	437.12
354.128	410.12
354.355	423.12
354.583	438.12
354.81	401.12
355.037	419.12
355.264	413.12
355.491	412.12
355.718	408.12
355.945	400.12
356.172	389.12
356.399	384.12
356.626	392.12
356.853	397.12
357.08	403.12
357.307	404.12
357.534	390.12
357.761	400.12
357.988	395.12
358.215	395.12
358.441	387.12
358.668	405.12
358.895	396.12
359.122	423.12
359.349	420.12
359.576	441.12
359.802	486.12
360.029	535.12
360.256	549.12
360.483	516.12
360.709	475.12
360.936	453.12
361.163	445.12
361.39	459.12
361.616	449.12
361.843	454.12
362.07	452.12
362.296	473.12
362.523	451.12
362.749	458.12
362.976	451.12
363.203	448.12
363.429	425.12
363.656	438.12
363.882	442.12
364.109	438.12
364.335	453.12
364.562	421.12
364.788	414.12
365.015	433.12
365.241	427.12
365.468	449.12
365.694	457.12
365.92	431.12
366.147	437.12
366.373	422.12
366.599	413.12
366.826	425.12
367.052	403.12
367.278	396.12
367.505	439.12
367.731	449.12
367.957	424.12
368.184	431.12
368.41	430.12
368.636	435.12
368.862	465.12
369.089	434.12
369.315	433.12
369.541	416.12
369.767	429.12
369.993	445.12
370.219	405.12
370.445	411.12
370.672	419.12
370.898	413.12
371.124	417.12
371.35	395.12
371.576	397.12
371.802	435.12
372.028	446.12
372.254	418.12
372.48	416.12
372.706	396.12
372.932	407.12
373.158	393.12
373.384	431.12
373.61	420.12
373.835	425.12
374.061	425.12
374.287	453.12
374.513	435.12
374.739	422.12
374.965	394.12
375.191	407.12
375.416	431.12
375.642	407.12
375.868	428.12
376.094	418.12
376.319	400.12
376.545	426.12
376.771	418.12
376.997	397.12
377.222	426.12
377.448	402.12
377.674	423.12
377.899	404.12
378.125	414.12
378.35	414.12
378.576	403.12
378.802	433.12
379.027	422.12
379.253	421.12
379.478	393.12
379.704	439.12
379.929	424.12
380.155	407.12
380.38	407.12
380.606	395.12
380.831	443.12
381.057	432.12
381.282	409.12
381.507	397.12
381.733	431.12
381.958	410.12
382.184	422.12
382.409	416.12
382.634	448.12
382.86	435.12
383.085	435.12
383.31	424.12
383.535	433.12
383.761	460.12
383.986	443.12
384.211	424.12
384.436	431.12
384.662	435.12
384.887	445.12
385.112	431.12
385.337	439.12
385.562	432.12
385.787	445.12
386.013	466.12
386.238	467.12
386.463	447.12
386.688	440.12
386.913	443.12
387.138	441.12
387.363	446.12
387.588	464.12
387.813	449.12
388.038	454.12
388.263	448.12
388.488	440.12
388.713	446.12
388.938	452.12
389.163	468.12
389.387	433.12
389.612	439.12
389.837	449.12
390.062	434.12
390.287	433.12
390.512	444.12
390.736	455.12
390.961	458.12
391.186	454.12
391.411	451.12
391.636	467.12
391.86	466.12
392.085	468.12
392.31	467.12
392.534	464.12
392.759	447.12
392.984	447.12
393.208	458.12
393.433	450.12
393.658	458.12
393.882	444.12
394.107	452.12
394.331	434.12
394.556	440.12
394.78	452.12
395.005	473.12
395.229	456.12
395.454	476.12
395.678	469.12
395.903	494.12
396.127	492.12
396.352	521.12
396.576	492.12
396.801	445.12
397.025	461.12
397.249	488.12
397.474	485.12
397.698	490.12
397.922	496.12
398.147	526.12
398.371	549.12
398.595	517.12
398.82	518.12
399.044	518.12
399.268	540.12
399.492	522.12
399.717	568.12
399.941	593.12
400.165	599.12
400.389	636.12
400.613	608.12
400.837	554.12
401.062	534.12
401.286	537.12
401.51	504.12
401.734	516.12
401.958	529.12
402.182	508.12
402.406	545.12
402.63	547.12
402.854	517.12
403.078	537.12
403.302	555.12
403.526	542.12
403.75	556.12
403.974	541.12
404.198	525.12
404.422	544.12
404.645	541.12
404.869	565.12
405.093	611.12
405.317	658.12
405.541	673.12
405.765	631.12
405.988	583.12
406.212	614.12
406.436	626.12
406.66	630.12
406.883	599.12
407.107	643.12
407.331	684.12
407.555	740.12
407.778	733.12
408.002	687.12
408.226	599.12
408.449	615.12
408.673	624.12
408.896	633.12
409.12	675.12
409.344	649.12
409.567	587.12
409.791	586.12
410.014	563.12
410.238	547.12
410.461	547.12
410.685	580.12
410.908	594.12
411.132	605.12
411.355	660.12
411.578	647.12
411.802	557.12
412.025	558.12
412.249	586.12
412.472	578.12
412.695	622.12
412.919	621.12
413.142	561.12
413.365	559.12
413.589	529.12
413.812	532.12
414.035	517.12
414.258	507.12
414.482	529.12
414.705	515.12
414.928	526.12
415.151	516.12
415.374	525.12
415.597	522.12
415.821	531.12
416.044	510.12
416.267	533.12
416.49	515.12
416.713	535.12
416.936	507.12
417.159	521.12
417.382	518.12
417.605	527.12
417.828	550.12
418.051	567.12
418.274	558.12
418.497	538.12
418.72	529.12
418.943	536.12
419.166	537.12
419.389	566.12
419.611	590.12
419.834	589.12
420.057	549.12
420.28	585.12
420.503	564.12
420.726	563.12
420.948	603.12
421.171	653.12
421.394	667.12
421.617	593.12
421.839	569.12
422.062	576.12
422.285	589.12
422.507	654.12
422.73	721.12
422.953	715.12
423.175	631.12
423.398	597.12
423.621	593.12
423.843	615.12
424.066	635.12
424.288	591.12
424.511	639.12
424.733	688.12
424.956	808.12
425.178	783.12
425.401	775.12
425.623	798.12
425.846	662.12
426.068	639.12
426.291	607.12
426.513	610.12
426.735	628.12
426.958	710.12
427.18	808.12
427.402	925.12
427.625	1041.12
427.847	962.12
428.069	810.12
428.292	693.12
428.514	639.12
428.736	625.12
428.958	614.12
429.181	603.12
429.403	561.12
429.625	584.12
429.847	642.12
430.069	717.12
430.292	697.12
430.514	616.12
430.736	583.12
430.958	568.12
431.18	561.12
431.402	551.12
431.624	511.12
431.846	544.12
432.068	533.12
432.29	546.12
432.512	549.12
432.734	548.12
432.956	535.12
433.178	541.12
433.4	559.12
433.622	543.12
433.844	540.12
434.066	532.12
434.287	540.12
434.509	546.12
434.731	525.12
434.953	570.12
435.175	585.12
435.397	621.12
435.618	640.12
435.84	677.12
436.062	797.12
436.284	898.12
436.505	728.12
436.727	653.12
436.949	599.12
437.17	585.12
437.392	597.12
437.614	626.12
437.835	657.12
438.057	757.12
438.278	882.12
438.5	897.12
438.721	943.12
438.943	930.12
439.165	726.12
439.386	668.12
439.608	649.12
439.829	666.12
440.05	699.12
440.272	724.12
440.493	696.12
440.715	616.12
440.936	600.12
441.158	602.12
441.379	616.12
441.6	631.12
441.822	636.12
442.043	689.12
442.264	781.12
442.486	852.12
442.707	723.12
442.928	656.12
443.149	675.12
443.371	699.12
443.592	730.12
443.813	862.12
444.034	900.12
444.255	752.12
444.476	653.12
444.698	633.12
444.919	619.12
445.14	733.12
445.361	702.12
445.582	705.12
445.803	782.12
446.024	907.12
446.245	890.12
446.466	823.12
446.687	716.12
446.908	634.12
447.129	610.12
447.35	615.12
447.571	609.12
447.792	592.12
448.013	608.12
448.234	611.12
448.455	703.12
448.675	811.12
448.896	940.12
449.117	801.12
449.338	763.12
449.559	871.12
449.779	949.12
450	776.12
450.221	666.12
450.442	623.12
450.662	604.12
450.883	617.12
451.104	635.12
451.324	629.12
451.545	560.12
451.766	565.12
451.986	528.12
452.207	495.12
452.428	517.12
452.648	550.12
452.869	546.12
453.089	527.12
453.31	564.12
453.53	543.12
453.751	547.12
453.971	544.12
454.192	567.12
454.412	554.12
454.633	527.12
454.853	522.12
455.073	517.12
455.294	583.12
455.514	644.12
455.734	623.12
455.955	529.12
456.175	482.12
456.395	504.12
456.616	481.12
456.836	487.12
457.056	497.12
457.276	479.12
457.497	497.12
457.717	481.12
457.937	493.12
458.157	511.12
458.377	509.12
458.598	533.12
458.818	640.12
459.038	731.12
459.258	729.12
459.478	619.12
459.698	577.12
459.918	539.12
460.138	515.12
460.358	521.12
460.578	533.12
460.798	555.12
461.018	547.12
461.238	543.12
461.458	536.12
461.678	529.12
461.898	520.12
462.118	517.12
462.338	545.12
462.558	537.12
462.777	557.12
462.997	541.12
463.217	547.12
463.437	575.12
463.657	550.12
463.876	571.12
464.096	578.12
464.316	553.12
464.536	597.12
464.755	561.12
464.975	600.12
465.195	676.12
465.414	771.12
465.634	668.12
465.854	614.12
466.073	553.12
466.293	559.12
466.512	557.12
466.732	544.12
466.951	548.12
467.171	538.12
467.391	529.12
467.61	554.12
467.829	572.12
468.049	543.12
468.268	539.12
468.488	544.12
468.707	534.12
468.927	525.12
469.146	515.12
469.365	505.12
469.585	490.12
469.804	531.12
470.023	573.12
470.243	571.12
470.462	570.12
470.681	575.12
470.901	570.12
471.12	554.12
471.339	551.12
471.558	556.12
471.777	537.12
471.997	533.12
472.216	540.12
472.435	615.12
472.654	577.12
472.873	559.12
473.092	562.12
473.311	532.12
473.53	544.12
473.749	554.12
473.968	603.12
474.187	722.12
474.406	775.12
474.625	624.12
474.844	581.12
475.063	540.12
475.282	553.12
475.501	551.12
475.72	556.12
475.939	547.12
476.158	583.12
476.377	529.12
476.596	548.12
476.814	570.12
477.033	587.12
477.252	581.12
477.471	581.12
477.69	576.12
477.908	581.12
478.127	596.12
478.346	578.12
478.564	598.12
478.783	584.12
479.002	614.12
479.22	610.12
479.439	618.12
479.658	631.12
479.876	651.12
480.095	668.12
480.313	700.12
480.532	653.12
480.751	652.12
480.969	688.12
481.188	752.12
481.406	832.12
481.624	732.12
481.843	713.12
482.061	664.12
482.28	642.12
482.498	645.12
482.717	647.12
482.935	655.12
483.153	645.12
483.372	635.12
483.59	649.12
483.808	630.12
484.027	659.12
484.245	663.12
484.463	647.12
484.681	651.12
484.9	661.12
485.118	660.12
485.336	658.12
485.554	669.12
485.772	667.12
485.99	673.12
486.209	681.12
486.427	678.12
486.645	701.12
486.863	728.12
487.081	722.12
487.299	737.12
487.517	682.12
487.735	711.12
487.953	731.12
488.171	701.12
488.389	721.12
488.607	704.12
488.825	715.12
489.043	719.12
489.261	725.12
489.479	729.12
489.696	716.12
489.914	712.12
490.132	730.12
490.35	753.12
490.568	765.12
490.786	752.12
491.003	775.12
491.221	799.12
491.439	781.12
491.657	811.12
491.874	811.12
492.092	851.12
492.31	818.12
492.527	845.12
492.745	841.12
492.963	837.12
493.18	832.12
493.398	827.12
493.615	852.12
493.833	876.12
494.05	877.12
494.268	891.12
494.485	849.12
494.703	863.12
494.92	855.12
495.138	847.12
495.355	849.12
495.573	852.12
495.79	861.12
496.008	853.12
496.225	860.12
496.442	883.12
496.66	833.12
496.877	846.12
497.094	857.12
497.312	889.12
497.529	845.12
497.746	856.12
497.963	859.12
498.181	904.12
498.398	897.12
498.615	910.12
498.832	903.12
499.049	922.12
499.267	908.12
499.484	934.12
499.701	988.12
499.918	992.12
500.135	1012.12
500.352	1031.12
500.569	1027.12
500.786	1019.12
501.003	1066.12
501.22	1018.12
501.437	1035.12
