Data from 1971.PennyLincolnUp.Lamp.En5.5.200Scan.071719.P1._HRD10591_15-19-59-841.txt Node
Date: Thu Jul 18 15:19:59 EDT 2019
User: cochatt
Spectrometer: HR+D1059
Trigger mode: 1
Integration Time (sec): 1.000000E-1
Scans to average: 1
Electric dark correction enabled: true
Nonlinearity correction enabled: false
Boxcar width: 0
XAxis mode: Wavelengths
Number of Pixels in Spectrum: 2048
>>>>>Begin Spectral Data<<<<<
223.165	-6.69
223.4	-6.69
223.635	-6.69
223.869	-10.69
224.104	-17.69
224.338	-15.69
224.573	-21.69
224.808	-9.69
225.042	-11.69
225.277	-2.69
225.511	-10.69
225.746	-0.69
225.98	3.31
226.215	20.31
226.449	18.31
226.683	13.31
226.918	24.31
227.152	28.31
227.387	25.31
227.621	44.31
227.856	46.31
228.09	52.31
228.324	61.31
228.559	61.31
228.793	76.31
229.027	89.31
229.262	102.31
229.496	100.31
229.73	130.31
229.964	149.31
230.199	126.31
230.433	125.31
230.667	100.31
230.901	116.31
231.136	115.31
231.37	120.31
231.604	127.31
231.838	113.31
232.072	100.31
232.306	115.31
232.541	110.31
232.775	124.31
233.009	110.31
233.243	123.31
233.477	109.31
233.711	114.31
233.945	105.31
234.179	120.31
234.413	124.31
234.647	116.31
234.881	120.31
235.115	116.31
235.349	110.31
235.583	114.31
235.817	131.31
236.051	125.31
236.285	123.31
236.519	126.31
236.753	139.31
236.987	140.31
237.221	180.31
237.455	221.31
237.689	181.31
237.922	144.31
238.156	135.31
238.39	116.31
238.624	132.31
238.858	128.31
239.091	131.31
239.325	119.31
239.559	121.31
239.793	124.31
240.027	128.31
240.26	145.31
240.494	142.31
240.728	171.31
240.961	155.31
241.195	147.31
241.429	149.31
241.662	146.31
241.896	124.31
242.13	127.31
242.363	131.31
242.597	144.31
242.83	142.31
243.064	134.31
243.298	145.31
243.531	151.31
243.765	129.31
243.998	141.31
244.232	128.31
244.465	143.31
244.699	127.31
244.932	142.31
245.166	155.31
245.399	147.31
245.633	154.31
245.866	154.31
246.099	144.31
246.333	157.31
246.566	159.31
246.8	142.31
247.033	163.31
247.266	158.31
247.5	168.31
247.733	173.31
247.966	172.31
248.2	176.31
248.433	182.31
248.666	188.31
248.899	194.31
249.133	197.31
249.366	206.31
249.599	207.31
249.832	176.31
250.066	195.31
250.299	187.31
250.532	206.31
250.765	208.31
250.998	216.31
251.231	249.31
251.465	199.31
251.698	216.31
251.931	206.31
252.164	198.31
252.397	210.31
252.63	206.31
252.863	210.31
253.096	223.31
253.329	237.31
253.562	247.31
253.795	219.31
254.028	231.31
254.261	226.31
254.494	236.31
254.727	254.31
254.96	293.31
255.193	282.31
255.426	272.31
255.659	245.31
255.892	223.31
256.124	232.31
256.357	239.31
256.59	231.31
256.823	230.31
257.056	220.31
257.289	228.31
257.521	223.31
257.754	225.31
257.987	217.31
258.22	223.31
258.452	213.31
258.685	227.31
258.918	219.31
259.151	224.31
259.383	231.31
259.616	232.31
259.849	244.31
260.081	240.31
260.314	269.31
260.547	237.31
260.779	246.31
261.012	252.31
261.244	245.31
261.477	242.31
261.71	230.31
261.942	228.31
262.175	237.31
262.407	232.31
262.64	228.31
262.872	210.31
263.105	224.31
263.337	219.31
263.57	240.31
263.802	209.31
264.035	218.31
264.267	220.31
264.499	231.31
264.732	227.31
264.964	212.31
265.197	244.31
265.429	228.31
265.661	225.31
265.894	222.31
266.126	220.31
266.358	248.31
266.591	247.31
266.823	235.31
267.055	235.31
267.287	245.31
267.52	251.31
267.752	223.31
267.984	233.31
268.216	250.31
268.448	238.31
268.681	252.31
268.913	263.31
269.145	271.31
269.377	290.31
269.609	302.31
269.841	295.31
270.073	293.31
270.306	311.31
270.538	323.31
270.77	336.31
271.002	318.31
271.234	326.31
271.466	330.31
271.698	322.31
271.93	341.31
272.162	332.31
272.394	324.31
272.626	319.31
272.858	312.31
273.09	292.31
273.322	293.31
273.553	278.31
273.785	289.31
274.017	282.31
274.249	288.31
274.481	285.31
274.713	289.31
274.945	293.31
275.176	275.31
275.408	293.31
275.64	276.31
275.872	258.31
276.104	274.31
276.335	269.31
276.567	279.31
276.799	292.31
277.031	311.31
277.262	317.31
277.494	342.31
277.726	331.31
277.957	298.31
278.189	295.31
278.421	297.31
278.652	279.31
278.884	283.31
279.115	269.31
279.347	275.31
279.579	281.31
279.81	282.31
280.042	284.31
280.273	301.31
280.505	283.31
280.736	276.31
280.968	273.31
281.199	267.31
281.431	276.31
281.662	268.31
281.894	279.31
282.125	291.31
282.356	311.31
282.588	312.31
282.819	299.31
283.051	289.31
283.282	296.31
283.513	302.31
283.745	296.31
283.976	291.31
284.207	304.31
284.439	302.31
284.67	312.31
284.901	298.31
285.132	305.31
285.364	287.31
285.595	289.31
285.826	282.31
286.057	320.31
286.288	281.31
286.52	307.31
286.751	305.31
286.982	305.31
287.213	286.31
287.444	293.31
287.675	291.31
287.906	314.31
288.138	319.31
288.369	311.31
288.6	331.31
288.831	318.31
289.062	293.31
289.293	305.31
289.524	320.31
289.755	320.31
289.986	288.31
290.217	287.31
290.448	303.31
290.679	309.31
290.91	288.31
291.141	292.31
291.371	289.31
291.602	309.31
291.833	318.31
292.064	294.31
292.295	305.31
292.526	317.31
292.757	293.31
292.987	312.31
293.218	308.31
293.449	309.31
293.68	291.31
293.91	308.31
294.141	317.31
294.372	298.31
294.603	293.31
294.833	319.31
295.064	305.31
295.295	289.31
295.525	308.31
295.756	313.31
295.987	326.31
296.217	343.31
296.448	343.31
296.679	304.31
296.909	305.31
297.14	322.31
297.37	321.31
297.601	323.31
297.831	319.31
298.062	304.31
298.292	303.31
298.523	320.31
298.753	325.31
298.984	315.31
299.214	314.31
299.445	340.31
299.675	318.31
299.905	331.31
300.136	323.31
300.366	344.31
300.597	334.31
300.827	323.31
301.057	331.31
301.288	332.31
301.518	325.31
301.748	334.31
301.979	344.31
302.209	330.31
302.439	339.31
302.669	347.31
302.9	351.31
303.13	336.31
303.36	360.31
303.59	352.31
303.82	360.31
304.051	332.31
304.281	351.31
304.511	339.31
304.741	330.31
304.971	345.31
305.201	334.31
305.431	328.31
305.661	335.31
305.891	348.31
306.121	356.31
306.352	344.31
306.582	321.31
306.812	349.31
307.042	330.31
307.272	345.31
307.502	351.31
307.731	343.31
307.961	348.31
308.191	352.31
308.421	329.31
308.651	347.31
308.881	333.31
309.111	378.31
309.341	351.31
309.571	368.31
309.8	390.31
310.03	389.31
310.26	380.31
310.49	383.31
310.72	388.31
310.949	426.31
311.179	406.31
311.409	384.31
311.639	382.31
311.868	394.31
312.098	390.31
312.328	394.31
312.557	413.31
312.787	419.31
313.017	417.31
313.246	394.31
313.476	394.31
313.706	391.31
313.935	377.31
314.165	401.31
314.394	397.31
314.624	399.31
314.853	413.31
315.083	400.31
315.312	395.31
315.542	392.31
315.771	393.31
316.001	391.31
316.23	394.31
316.46	391.31
316.689	399.31
316.919	385.31
317.148	385.31
317.377	412.31
317.607	387.31
317.836	407.31
318.065	384.31
318.295	396.31
318.524	409.31
318.753	376.31
318.983	386.31
319.212	388.31
319.441	405.31
319.67	391.31
319.9	377.31
320.129	372.31
320.358	402.31
320.587	395.31
320.816	383.31
321.046	413.31
321.275	407.31
321.504	407.31
321.733	432.31
321.962	438.31
322.191	441.31
322.42	457.31
322.649	440.31
322.878	464.31
323.108	467.31
323.337	507.31
323.566	508.31
323.795	522.31
324.024	601.31
324.253	715.31
324.482	997.31
324.71	1484.31
324.939	2040.31
325.168	1707.31
325.397	925.31
325.626	627.31
325.855	559.31
326.084	523.31
326.313	496.31
326.542	519.31
326.77	556.31
326.999	655.31
327.228	897.31
327.457	1316.31
327.686	1500.31
327.914	1005.31
328.143	693.31
328.372	611.31
328.6	579.31
328.829	574.31
329.058	564.31
329.287	575.31
329.515	549.31
329.744	507.31
329.972	509.31
330.201	532.31
330.43	557.31
330.658	568.31
330.887	600.31
331.115	606.31
331.344	528.31
331.572	519.31
331.801	480.31
332.03	480.31
332.258	474.31
332.486	468.31
332.715	454.31
332.943	458.31
333.172	435.31
333.4	463.31
333.629	480.31
333.857	470.31
334.085	492.31
334.314	501.31
334.542	499.31
334.771	523.31
334.999	506.31
335.227	482.31
335.455	463.31
335.684	441.31
335.912	442.31
336.14	460.31
336.369	439.31
336.597	451.31
336.825	435.31
337.053	444.31
337.281	445.31
337.51	443.31
337.738	439.31
337.966	457.31
338.194	432.31
338.422	425.31
338.65	419.31
338.878	435.31
339.106	415.31
339.334	425.31
339.562	439.31
339.79	419.31
340.018	417.31
340.246	415.31
340.474	447.31
340.702	447.31
340.93	429.31
341.158	447.31
341.386	432.31
341.614	427.31
341.842	413.31
342.07	426.31
342.298	407.31
342.526	415.31
342.754	408.31
342.981	394.31
343.209	415.31
343.437	430.31
343.665	423.31
343.893	426.31
344.12	447.31
344.348	427.31
344.576	435.31
344.804	435.31
345.031	432.31
345.259	459.31
345.487	410.31
345.714	421.31
345.942	412.31
346.17	409.31
346.397	424.31
346.625	416.31
346.853	403.31
347.08	402.31
347.308	407.31
347.535	416.31
347.763	414.31
347.99	409.31
348.218	409.31
348.445	416.31
348.673	414.31
348.9	400.31
349.128	428.31
349.355	391.31
349.583	383.31
349.81	400.31
350.037	391.31
350.265	399.31
350.492	406.31
350.72	385.31
350.947	400.31
351.174	404.31
351.402	402.31
351.629	408.31
351.856	403.31
352.083	405.31
352.311	443.31
352.538	423.31
352.765	420.31
352.992	415.31
353.22	403.31
353.447	405.31
353.674	413.31
353.901	390.31
354.128	382.31
354.355	390.31
354.583	365.31
354.81	366.31
355.037	384.31
355.264	388.31
355.491	368.31
355.718	368.31
355.945	363.31
356.172	373.31
356.399	361.31
356.626	366.31
356.853	374.31
357.08	363.31
357.307	392.31
357.534	369.31
357.761	369.31
357.988	369.31
358.215	372.31
358.441	377.31
358.668	383.31
358.895	366.31
359.122	382.31
359.349	379.31
359.576	398.31
359.802	410.31
360.029	419.31
360.256	429.31
360.483	418.31
360.709	386.31
360.936	399.31
361.163	387.31
361.39	404.31
361.616	412.31
361.843	399.31
362.07	402.31
362.296	400.31
362.523	383.31
362.749	374.31
362.976	371.31
363.203	367.31
363.429	391.31
363.656	365.31
363.882	364.31
364.109	360.31
364.335	375.31
364.562	389.31
364.788	365.31
365.015	343.31
365.241	373.31
365.468	372.31
365.694	372.31
365.92	377.31
366.147	371.31
366.373	384.31
366.599	379.31
366.826	368.31
367.052	356.31
367.278	379.31
367.505	369.31
367.731	392.31
367.957	386.31
368.184	360.31
368.41	364.31
368.636	374.31
368.862	395.31
369.089	387.31
369.315	369.31
369.541	356.31
369.767	357.31
369.993	394.31
370.219	377.31
370.445	361.31
370.672	352.31
370.898	383.31
371.124	375.31
371.35	364.31
371.576	377.31
371.802	371.31
372.028	365.31
372.254	361.31
372.48	363.31
372.706	376.31
372.932	371.31
373.158	381.31
373.384	383.31
373.61	381.31
373.835	359.31
374.061	375.31
374.287	362.31
374.513	371.31
374.739	383.31
374.965	378.31
375.191	375.31
375.416	385.31
375.642	382.31
375.868	375.31
376.094	367.31
376.319	355.31
376.545	366.31
376.771	365.31
376.997	371.31
377.222	367.31
377.448	343.31
377.674	369.31
377.899	350.31
378.125	364.31
378.35	348.31
378.576	334.31
378.802	353.31
379.027	376.31
379.253	364.31
379.478	352.31
379.704	348.31
379.929	345.31
380.155	368.31
380.38	366.31
380.606	363.31
380.831	357.31
381.057	361.31
381.282	340.31
381.507	364.31
381.733	361.31
381.958	356.31
382.184	355.31
382.409	347.31
382.634	375.31
382.86	360.31
383.085	364.31
383.31	364.31
383.535	378.31
383.761	375.31
383.986	385.31
384.211	378.31
384.436	377.31
384.662	371.31
384.887	372.31
385.112	372.31
385.337	379.31
385.562	380.31
385.787	381.31
386.013	387.31
386.238	380.31
386.463	378.31
386.688	377.31
386.913	386.31
387.138	372.31
387.363	379.31
387.588	378.31
387.813	353.31
388.038	366.31
388.263	375.31
388.488	365.31
388.713	397.31
388.938	389.31
389.163	368.31
389.387	387.31
389.612	380.31
389.837	373.31
390.062	382.31
390.287	383.31
390.512	381.31
390.736	377.31
390.961	375.31
391.186	384.31
391.411	400.31
391.636	395.31
391.86	393.31
392.085	382.31
392.31	378.31
392.534	396.31
392.759	378.31
392.984	387.31
393.208	373.31
393.433	388.31
393.658	375.31
393.882	389.31
394.107	356.31
394.331	387.31
394.556	405.31
394.78	358.31
395.005	378.31
395.229	385.31
395.454	366.31
395.678	407.31
395.903	397.31
396.127	401.31
396.352	426.31
396.576	393.31
396.801	397.31
397.025	390.31
397.249	392.31
397.474	397.31
397.698	408.31
397.922	413.31
398.147	411.31
398.371	429.31
398.595	421.31
398.82	421.31
399.044	425.31
399.268	451.31
399.492	445.31
399.717	468.31
399.941	503.31
400.165	528.31
400.389	509.31
400.613	465.31
400.837	462.31
401.062	437.31
401.286	433.31
401.51	428.31
401.734	417.31
401.958	405.31
402.182	413.31
402.406	423.31
402.63	441.31
402.854	430.31
403.078	433.31
403.302	435.31
403.526	439.31
403.75	437.31
403.974	431.31
404.198	439.31
404.422	422.31
404.645	427.31
404.869	473.31
405.093	492.31
405.317	521.31
405.541	529.31
405.765	487.31
405.988	471.31
406.212	475.31
406.436	457.31
406.66	488.31
406.883	462.31
407.107	481.31
407.331	537.31
407.555	579.31
407.778	571.31
408.002	542.31
408.226	485.31
408.449	459.31
408.673	475.31
408.896	493.31
409.12	529.31
409.344	493.31
409.567	455.31
409.791	429.31
410.014	429.31
410.238	423.31
410.461	423.31
410.685	432.31
410.908	447.31
411.132	482.31
411.355	490.31
411.578	474.31
411.802	439.31
412.025	418.31
412.249	432.31
412.472	462.31
412.695	463.31
412.919	466.31
413.142	451.31
413.365	428.31
413.589	425.31
413.812	406.31
414.035	391.31
414.258	423.31
414.482	399.31
414.705	416.31
414.928	414.31
415.151	407.31
415.374	404.31
415.597	413.31
415.821	391.31
416.044	415.31
416.267	415.31
416.49	411.31
416.713	394.31
416.936	424.31
417.159	405.31
417.382	409.31
417.605	404.31
417.828	415.31
418.051	438.31
418.274	417.31
418.497	418.31
418.72	414.31
418.943	402.31
419.166	413.31
419.389	444.31
419.611	435.31
419.834	424.31
420.057	414.31
420.28	444.31
420.503	446.31
420.726	432.31
420.948	458.31
421.171	494.31
421.394	499.31
421.617	451.31
421.839	429.31
422.062	431.31
422.285	439.31
422.507	476.31
422.73	553.31
422.953	512.31
423.175	492.31
423.398	443.31
423.621	439.31
423.843	458.31
424.066	460.31
424.288	450.31
424.511	478.31
424.733	521.31
424.956	568.31
425.178	552.31
425.401	569.31
425.623	609.31
425.846	503.31
426.068	457.31
426.291	444.31
426.513	459.31
426.735	491.31
426.958	504.31
427.18	574.31
427.402	667.31
427.625	743.31
427.847	637.31
428.069	560.31
428.292	507.31
428.514	447.31
428.736	452.31
428.958	419.31
429.181	415.31
429.403	423.31
429.625	428.31
429.847	457.31
430.069	529.31
430.292	521.31
430.514	437.31
430.736	423.31
430.958	435.31
431.18	428.31
431.402	399.31
431.624	395.31
431.846	386.31
432.068	402.31
432.29	407.31
432.512	414.31
432.734	402.31
432.956	404.31
433.178	400.31
433.4	415.31
433.622	414.31
433.844	397.31
434.066	391.31
434.287	391.31
434.509	387.31
434.731	391.31
434.953	421.31
435.175	420.31
435.397	444.31
435.618	445.31
435.84	501.31
436.062	570.31
436.284	612.31
436.505	511.31
436.727	477.31
436.949	454.31
437.17	427.31
437.392	414.31
437.614	431.31
437.835	441.31
438.057	512.31
438.278	606.31
438.5	625.31
438.721	672.31
438.943	655.31
439.165	529.31
439.386	476.31
439.608	483.31
439.829	483.31
440.05	491.31
440.272	545.31
440.493	523.31
440.715	479.31
440.936	471.31
441.158	432.31
441.379	432.31
441.6	430.31
441.822	453.31
442.043	484.31
442.264	566.31
442.486	584.31
442.707	504.31
442.928	488.31
443.149	501.31
443.371	493.31
443.592	546.31
443.813	605.31
444.034	637.31
444.255	516.31
444.476	497.31
444.698	455.31
444.919	458.31
445.14	566.31
445.361	523.31
445.582	483.31
445.803	541.31
446.024	613.31
446.245	644.31
446.466	588.31
446.687	505.31
446.908	472.31
447.129	463.31
447.35	440.31
447.571	449.31
447.792	406.31
448.013	424.31
448.234	436.31
448.455	479.31
448.675	592.31
448.896	671.31
449.117	546.31
449.338	539.31
449.559	666.31
449.779	692.31
450	528.31
450.221	474.31
450.442	445.31
450.662	412.31
450.883	422.31
451.104	422.31
451.324	425.31
451.545	395.31
451.766	402.31
451.986	366.31
452.207	372.31
452.428	373.31
452.648	364.31
452.869	366.31
453.089	366.31
453.31	381.31
453.53	390.31
453.751	395.31
453.971	381.31
454.192	396.31
454.412	384.31
454.633	363.31
454.853	375.31
455.073	387.31
455.294	400.31
455.514	460.31
455.734	445.31
455.955	376.31
456.175	363.31
456.395	353.31
456.616	347.31
456.836	362.31
457.056	355.31
457.276	348.31
457.497	335.31
457.717	348.31
457.937	352.31
458.157	361.31
458.377	343.31
458.598	387.31
458.818	423.31
459.038	491.31
459.258	483.31
459.478	419.31
459.698	387.31
459.918	365.31
460.138	375.31
460.358	391.31
460.578	381.31
460.798	406.31
461.018	393.31
461.238	388.31
461.458	392.31
461.678	384.31
461.898	399.31
462.118	395.31
462.338	401.31
462.558	387.31
462.777	410.31
462.997	407.31
463.217	431.31
463.437	419.31
463.657	427.31
463.876	404.31
464.096	421.31
464.316	395.31
464.536	419.31
464.755	407.31
464.975	424.31
465.195	448.31
465.414	469.31
465.634	440.31
465.854	427.31
466.073	397.31
466.293	411.31
466.512	390.31
466.732	363.31
466.951	371.31
467.171	383.31
467.391	384.31
467.61	392.31
467.829	405.31
468.049	391.31
468.268	393.31
468.488	384.31
468.707	374.31
468.927	389.31
469.146	353.31
469.365	368.31
469.585	363.31
469.804	365.31
470.023	401.31
470.243	387.31
470.462	382.31
470.681	397.31
470.901	386.31
471.12	397.31
471.339	385.31
471.558	399.31
471.777	390.31
471.997	398.31
472.216	388.31
472.435	402.31
472.654	416.31
472.873	374.31
473.092	388.31
473.311	380.31
473.53	398.31
473.749	411.31
473.968	445.31
474.187	528.31
474.406	533.31
474.625	446.31
474.844	414.31
475.063	395.31
475.282	375.31
475.501	388.31
475.72	397.31
475.939	403.31
476.158	387.31
476.377	386.31
476.596	410.31
476.814	391.31
477.033	396.31
477.252	397.31
477.471	405.31
477.69	404.31
477.908	417.31
478.127	425.31
478.346	419.31
478.564	439.31
478.783	431.31
479.002	440.31
479.22	439.31
479.439	441.31
479.658	446.31
479.876	438.31
480.095	462.31
480.313	494.31
480.532	501.31
480.751	451.31
480.969	473.31
481.188	503.31
481.406	522.31
481.624	475.31
481.843	446.31
482.061	465.31
482.28	474.31
482.498	436.31
482.717	443.31
482.935	463.31
483.153	452.31
483.372	432.31
483.59	459.31
483.808	446.31
484.027	438.31
484.245	464.31
484.463	457.31
484.681	467.31
484.9	460.31
485.118	446.31
485.336	439.31
485.554	433.31
485.772	452.31
485.99	449.31
486.209	454.31
486.427	465.31
486.645	479.31
486.863	475.31
487.081	478.31
487.299	471.31
487.517	480.31
487.735	481.31
487.953	476.31
488.171	472.31
488.389	485.31
488.607	475.31
488.825	471.31
489.043	480.31
489.261	495.31
489.479	499.31
489.696	476.31
489.914	480.31
490.132	471.31
490.35	501.31
490.568	532.31
490.786	524.31
491.003	527.31
491.221	532.31
491.439	556.31
491.657	551.31
491.874	553.31
492.092	581.31
492.31	573.31
492.527	564.31
492.745	569.31
492.963	562.31
493.18	561.31
493.398	567.31
493.615	590.31
493.833	590.31
494.05	588.31
494.268	577.31
494.485	561.31
494.703	567.31
494.92	565.31
495.138	557.31
495.355	579.31
495.573	595.31
495.79	544.31
496.008	597.31
496.225	573.31
496.442	566.31
496.66	571.31
496.877	579.31
497.094	557.31
497.312	586.31
497.529	590.31
497.746	615.31
497.963	613.31
498.181	602.31
498.398	605.31
498.615	632.31
498.832	643.31
499.049	637.31
499.267	657.31
499.484	668.31
499.701	699.31
499.918	728.31
500.135	727.31
500.352	759.31
500.569	776.31
500.786	752.31
501.003	748.31
501.22	718.31
501.437	712.31
501.654	692.31
501.871	696.31
