Data from 1971.PennyLincolnUp.Lamp.En5.5.200Scan.071719.P1._HRD10591_15-18-05-841.txt Node
Date: Thu Jul 18 15:18:05 EDT 2019
User: cochatt
Spectrometer: HR+D1059
Trigger mode: 1
Integration Time (sec): 1.000000E-1
Scans to average: 1
Electric dark correction enabled: true
Nonlinearity correction enabled: false
Boxcar width: 0
XAxis mode: Wavelengths
Number of Pixels in Spectrum: 2048
>>>>>Begin Spectral Data<<<<<
223.165	-19.38
223.4	-19.38
223.635	-19.38
223.869	-25.38
224.104	-15.38
224.338	-2.38
224.573	-18.38
224.808	-9.38
225.042	-8.38
225.277	-15.38
225.511	2.62
225.746	3.62
225.98	6.62
226.215	4.62
226.449	22.62
226.683	21.62
226.918	23.62
227.152	28.62
227.387	28.62
227.621	36.62
227.856	42.62
228.09	51.62
228.324	52.62
228.559	61.62
228.793	41.62
229.027	94.62
229.262	93.62
229.496	103.62
229.73	123.62
229.964	128.62
230.199	113.62
230.433	99.62
230.667	97.62
230.901	94.62
231.136	100.62
231.37	108.62
231.604	98.62
231.838	102.62
232.072	106.62
232.306	98.62
232.541	98.62
232.775	106.62
233.009	105.62
233.243	111.62
233.477	108.62
233.711	119.62
233.945	102.62
234.179	117.62
234.413	111.62
234.647	104.62
234.881	131.62
235.115	115.62
235.349	91.62
235.583	124.62
235.817	113.62
236.051	109.62
236.285	115.62
236.519	117.62
236.753	107.62
236.987	125.62
237.221	144.62
237.455	204.62
237.689	149.62
237.922	129.62
238.156	111.62
238.39	126.62
238.624	130.62
238.858	124.62
239.091	123.62
239.325	118.62
239.559	115.62
239.793	120.62
240.027	126.62
240.26	133.62
240.494	134.62
240.728	135.62
240.961	133.62
241.195	136.62
241.429	132.62
241.662	141.62
241.896	124.62
242.13	109.62
242.363	120.62
242.597	123.62
242.83	133.62
243.064	135.62
243.298	138.62
243.531	137.62
243.765	148.62
243.998	150.62
244.232	164.62
244.465	136.62
244.699	129.62
244.932	133.62
245.166	125.62
245.399	119.62
245.633	134.62
245.866	137.62
246.099	140.62
246.333	149.62
246.566	139.62
246.8	144.62
247.033	141.62
247.266	147.62
247.5	156.62
247.733	168.62
247.966	159.62
248.2	173.62
248.433	171.62
248.666	167.62
248.899	164.62
249.133	181.62
249.366	176.62
249.599	177.62
249.832	169.62
250.066	161.62
250.299	174.62
250.532	186.62
250.765	206.62
250.998	216.62
251.231	207.62
251.465	187.62
251.698	188.62
251.931	180.62
252.164	171.62
252.397	176.62
252.63	172.62
252.863	181.62
253.096	206.62
253.329	217.62
253.562	208.62
253.795	201.62
254.028	206.62
254.261	214.62
254.494	204.62
254.727	227.62
254.96	237.62
255.193	228.62
255.426	219.62
255.659	218.62
255.892	215.62
256.124	208.62
256.357	197.62
256.59	206.62
256.823	203.62
257.056	214.62
257.289	204.62
257.521	191.62
257.754	216.62
257.987	218.62
258.22	198.62
258.452	203.62
258.685	200.62
258.918	207.62
259.151	220.62
259.383	201.62
259.616	204.62
259.849	215.62
260.081	224.62
260.314	232.62
260.547	222.62
260.779	202.62
261.012	218.62
261.244	216.62
261.477	216.62
261.71	219.62
261.942	216.62
262.175	216.62
262.407	208.62
262.64	209.62
262.872	197.62
263.105	202.62
263.337	220.62
263.57	206.62
263.802	199.62
264.035	216.62
264.267	213.62
264.499	205.62
264.732	190.62
264.964	215.62
265.197	206.62
265.429	197.62
265.661	204.62
265.894	202.62
266.126	207.62
266.358	219.62
266.591	197.62
266.823	222.62
267.055	222.62
267.287	228.62
267.52	230.62
267.752	219.62
267.984	212.62
268.216	207.62
268.448	243.62
268.681	233.62
268.913	221.62
269.145	243.62
269.377	228.62
269.609	239.62
269.841	243.62
270.073	252.62
270.306	270.62
270.538	280.62
270.77	265.62
271.002	279.62
271.234	268.62
271.466	247.62
271.698	265.62
271.93	269.62
272.162	299.62
272.394	292.62
272.626	261.62
272.858	263.62
273.09	262.62
273.322	260.62
273.553	245.62
273.785	249.62
274.017	247.62
274.249	240.62
274.481	236.62
274.713	242.62
274.945	246.62
275.176	255.62
275.408	245.62
275.64	239.62
275.872	243.62
276.104	254.62
276.335	241.62
276.567	251.62
276.799	249.62
277.031	274.62
277.262	276.62
277.494	286.62
277.726	270.62
277.957	269.62
278.189	282.62
278.421	256.62
278.652	261.62
278.884	239.62
279.115	248.62
279.347	243.62
279.579	245.62
279.81	243.62
280.042	267.62
280.273	283.62
280.505	245.62
280.736	249.62
280.968	241.62
281.199	248.62
281.431	249.62
281.662	270.62
281.894	272.62
282.125	272.62
282.356	277.62
282.588	304.62
282.819	286.62
283.051	257.62
283.282	261.62
283.513	235.62
283.745	273.62
283.976	262.62
284.207	284.62
284.439	258.62
284.67	273.62
284.901	272.62
285.132	267.62
285.364	274.62
285.595	262.62
285.826	268.62
286.057	259.62
286.288	259.62
286.52	254.62
286.751	279.62
286.982	274.62
287.213	274.62
287.444	276.62
287.675	283.62
287.906	280.62
288.138	289.62
288.369	288.62
288.6	270.62
288.831	278.62
289.062	282.62
289.293	280.62
289.524	268.62
289.755	285.62
289.986	286.62
290.217	259.62
290.448	287.62
290.679	294.62
290.91	281.62
291.141	271.62
291.371	268.62
291.602	271.62
291.833	280.62
292.064	304.62
292.295	281.62
292.526	271.62
292.757	287.62
292.987	263.62
293.218	279.62
293.449	276.62
293.68	297.62
293.91	279.62
294.141	285.62
294.372	279.62
294.603	285.62
294.833	272.62
295.064	281.62
295.295	282.62
295.525	290.62
295.756	284.62
295.987	284.62
296.217	310.62
296.448	323.62
296.679	294.62
296.909	273.62
297.14	287.62
297.37	281.62
297.601	288.62
297.831	285.62
298.062	293.62
298.292	293.62
298.523	289.62
298.753	277.62
298.984	283.62
299.214	274.62
299.445	292.62
299.675	284.62
299.905	281.62
300.136	308.62
300.366	300.62
300.597	289.62
300.827	302.62
301.057	287.62
301.288	292.62
301.518	288.62
301.748	298.62
301.979	307.62
302.209	314.62
302.439	293.62
302.669	315.62
302.9	293.62
303.13	303.62
303.36	303.62
303.59	304.62
303.82	319.62
304.051	297.62
304.281	303.62
304.511	298.62
304.741	304.62
304.971	317.62
305.201	304.62
305.431	317.62
305.661	295.62
305.891	300.62
306.121	315.62
306.352	325.62
306.582	308.62
306.812	323.62
307.042	327.62
307.272	312.62
307.502	314.62
307.731	318.62
307.961	320.62
308.191	334.62
308.421	297.62
308.651	334.62
308.881	328.62
309.111	317.62
309.341	331.62
309.571	340.62
309.8	333.62
310.03	343.62
310.26	352.62
310.49	337.62
310.72	340.62
310.949	352.62
311.179	340.62
311.409	340.62
311.639	321.62
311.868	347.62
312.098	345.62
312.328	348.62
312.557	354.62
312.787	373.62
313.017	356.62
313.246	356.62
313.476	337.62
313.706	356.62
313.935	351.62
314.165	341.62
314.394	364.62
314.624	337.62
314.853	361.62
315.083	361.62
315.312	340.62
315.542	338.62
315.771	331.62
316.001	342.62
316.23	351.62
316.46	348.62
316.689	363.62
316.919	370.62
317.148	344.62
317.377	365.62
317.607	355.62
317.836	358.62
318.065	346.62
318.295	342.62
318.524	346.62
318.753	357.62
318.983	331.62
319.212	332.62
319.441	360.62
319.67	355.62
319.9	360.62
320.129	349.62
320.358	364.62
320.587	361.62
320.816	364.62
321.046	350.62
321.275	366.62
321.504	376.62
321.733	371.62
321.962	366.62
322.191	389.62
322.42	391.62
322.649	396.62
322.878	393.62
323.108	401.62
323.337	427.62
323.566	442.62
323.795	428.62
324.024	470.62
324.253	540.62
324.482	739.62
324.71	1143.62
324.939	1468.62
325.168	1273.62
325.397	707.62
325.626	507.62
325.855	456.62
326.084	439.62
326.313	431.62
326.542	411.62
326.77	453.62
326.999	544.62
327.228	706.62
327.457	1009.62
327.686	1117.62
327.914	782.62
328.143	567.62
328.372	483.62
328.6	462.62
328.829	463.62
329.058	468.62
329.287	452.62
329.515	430.62
329.744	437.62
329.972	421.62
330.201	437.62
330.43	462.62
330.658	479.62
330.887	493.62
331.115	480.62
331.344	421.62
331.572	451.62
331.801	406.62
332.03	417.62
332.258	425.62
332.486	410.62
332.715	413.62
332.943	422.62
333.172	364.62
333.4	402.62
333.629	425.62
333.857	411.62
334.085	424.62
334.314	438.62
334.542	429.62
334.771	427.62
334.999	441.62
335.227	391.62
335.455	406.62
335.684	415.62
335.912	416.62
336.14	376.62
336.369	390.62
336.597	400.62
336.825	390.62
337.053	381.62
337.281	391.62
337.51	403.62
337.738	379.62
337.966	389.62
338.194	366.62
338.422	384.62
338.65	394.62
338.878	387.62
339.106	381.62
339.334	377.62
339.562	381.62
339.79	382.62
340.018	370.62
340.246	390.62
340.474	381.62
340.702	394.62
340.93	370.62
341.158	367.62
341.386	383.62
341.614	389.62
341.842	394.62
342.07	366.62
342.298	375.62
342.526	368.62
342.754	353.62
342.981	364.62
343.209	363.62
343.437	383.62
343.665	374.62
343.893	396.62
344.12	381.62
344.348	391.62
344.576	395.62
344.804	412.62
345.031	397.62
345.259	391.62
345.487	393.62
345.714	386.62
345.942	395.62
346.17	376.62
346.397	364.62
346.625	348.62
346.853	356.62
347.08	364.62
347.308	360.62
347.535	367.62
347.763	357.62
347.99	368.62
348.218	353.62
348.445	364.62
348.673	367.62
348.9	369.62
349.128	370.62
349.355	338.62
349.583	345.62
349.81	347.62
350.037	350.62
350.265	347.62
350.492	348.62
350.72	352.62
350.947	360.62
351.174	337.62
351.402	364.62
351.629	353.62
351.856	359.62
352.083	355.62
352.311	363.62
352.538	368.62
352.765	378.62
352.992	371.62
353.22	346.62
353.447	351.62
353.674	340.62
353.901	360.62
354.128	347.62
354.355	343.62
354.583	357.62
354.81	340.62
355.037	349.62
355.264	331.62
355.491	325.62
355.718	332.62
355.945	337.62
356.172	347.62
356.399	357.62
356.626	323.62
356.853	330.62
357.08	324.62
357.307	336.62
357.534	342.62
357.761	353.62
357.988	347.62
358.215	340.62
358.441	330.62
358.668	345.62
358.895	365.62
359.122	339.62
359.349	355.62
359.576	357.62
359.802	367.62
360.029	361.62
360.256	384.62
360.483	356.62
360.709	358.62
360.936	323.62
361.163	344.62
361.39	341.62
361.616	350.62
361.843	343.62
362.07	348.62
362.296	356.62
362.523	357.62
362.749	364.62
362.976	339.62
363.203	329.62
363.429	341.62
363.656	353.62
363.882	345.62
364.109	335.62
364.335	319.62
364.562	319.62
364.788	328.62
365.015	343.62
365.241	352.62
365.468	339.62
365.694	348.62
365.92	355.62
366.147	343.62
366.373	344.62
366.599	345.62
366.826	336.62
367.052	328.62
367.278	344.62
367.505	331.62
367.731	337.62
367.957	332.62
368.184	336.62
368.41	348.62
368.636	334.62
368.862	334.62
369.089	342.62
369.315	346.62
369.541	331.62
369.767	348.62
369.993	340.62
370.219	332.62
370.445	317.62
370.672	325.62
370.898	323.62
371.124	336.62
371.35	331.62
371.576	338.62
371.802	346.62
372.028	321.62
372.254	338.62
372.48	340.62
372.706	339.62
372.932	341.62
373.158	332.62
373.384	323.62
373.61	326.62
373.835	337.62
374.061	340.62
374.287	323.62
374.513	329.62
374.739	340.62
374.965	343.62
375.191	337.62
375.416	339.62
375.642	335.62
375.868	319.62
376.094	357.62
376.319	327.62
376.545	335.62
376.771	334.62
376.997	336.62
377.222	312.62
377.448	328.62
377.674	323.62
377.899	327.62
378.125	347.62
378.35	353.62
378.576	320.62
378.802	326.62
379.027	333.62
379.253	321.62
379.478	349.62
379.704	319.62
379.929	331.62
380.155	352.62
380.38	330.62
380.606	321.62
380.831	325.62
381.057	330.62
381.282	348.62
381.507	332.62
381.733	342.62
381.958	343.62
382.184	342.62
382.409	337.62
382.634	344.62
382.86	350.62
383.085	324.62
383.31	326.62
383.535	334.62
383.761	326.62
383.986	335.62
384.211	359.62
384.436	341.62
384.662	346.62
384.887	352.62
385.112	351.62
385.337	344.62
385.562	340.62
385.787	347.62
386.013	358.62
386.238	362.62
386.463	364.62
386.688	367.62
386.913	348.62
387.138	368.62
387.363	327.62
387.588	337.62
387.813	321.62
388.038	340.62
388.263	363.62
388.488	353.62
388.713	352.62
388.938	355.62
389.163	352.62
389.387	355.62
389.612	364.62
389.837	341.62
390.062	347.62
390.287	348.62
390.512	326.62
390.736	365.62
390.961	362.62
391.186	327.62
391.411	331.62
391.636	343.62
391.86	348.62
392.085	373.62
392.31	358.62
392.534	354.62
392.759	359.62
392.984	365.62
393.208	343.62
393.433	352.62
393.658	378.62
393.882	349.62
394.107	353.62
394.331	350.62
394.556	336.62
394.78	357.62
395.005	351.62
395.229	340.62
395.454	356.62
395.678	360.62
395.903	375.62
396.127	380.62
396.352	379.62
396.576	369.62
396.801	346.62
397.025	372.62
397.249	377.62
397.474	381.62
397.698	352.62
397.922	360.62
398.147	375.62
398.371	376.62
398.595	371.62
398.82	385.62
399.044	379.62
399.268	421.62
399.492	430.62
399.717	452.62
399.941	463.62
400.165	466.62
400.389	480.62
400.613	437.62
400.837	404.62
401.062	388.62
401.286	397.62
401.51	398.62
401.734	374.62
401.958	384.62
402.182	381.62
402.406	407.62
402.63	383.62
402.854	406.62
403.078	392.62
403.302	402.62
403.526	384.62
403.75	396.62
403.974	396.62
404.198	389.62
404.422	395.62
404.645	385.62
404.869	408.62
405.093	440.62
405.317	437.62
405.541	470.62
405.765	430.62
405.988	387.62
406.212	421.62
406.436	427.62
406.66	452.62
406.883	424.62
407.107	441.62
407.331	467.62
407.555	506.62
407.778	508.62
408.002	466.62
408.226	429.62
408.449	438.62
408.673	426.62
408.896	428.62
409.12	454.62
409.344	458.62
409.567	432.62
409.791	416.62
410.014	404.62
410.238	392.62
410.461	388.62
410.685	387.62
410.908	399.62
411.132	432.62
411.355	460.62
411.578	457.62
411.802	411.62
412.025	398.62
412.249	423.62
412.472	405.62
412.695	435.62
412.919	415.62
413.142	394.62
413.365	390.62
413.589	377.62
413.812	370.62
414.035	379.62
414.258	379.62
414.482	368.62
414.705	393.62
414.928	371.62
415.151	367.62
415.374	371.62
415.597	379.62
415.821	369.62
416.044	381.62
416.267	371.62
416.49	368.62
416.713	357.62
416.936	376.62
417.159	370.62
417.382	376.62
417.605	376.62
417.828	381.62
418.051	388.62
418.274	396.62
418.497	388.62
418.72	364.62
418.943	363.62
419.166	387.62
419.389	399.62
419.611	398.62
419.834	380.62
420.057	413.62
420.28	387.62
420.503	389.62
420.726	389.62
420.948	408.62
421.171	422.62
421.394	448.62
421.617	406.62
421.839	411.62
422.062	387.62
422.285	391.62
422.507	437.62
422.73	480.62
422.953	468.62
423.175	434.62
423.398	400.62
423.621	419.62
423.843	407.62
424.066	422.62
424.288	417.62
424.511	423.62
424.733	460.62
424.956	521.62
425.178	479.62
425.401	482.62
425.623	503.62
425.846	447.62
426.068	424.62
426.291	405.62
426.513	407.62
426.735	406.62
426.958	447.62
427.18	523.62
427.402	589.62
427.625	636.62
427.847	564.62
428.069	476.62
428.292	441.62
428.514	380.62
428.736	379.62
428.958	399.62
429.181	390.62
429.403	394.62
429.625	400.62
429.847	403.62
430.069	459.62
430.292	455.62
430.514	388.62
430.736	390.62
430.958	374.62
431.18	371.62
431.402	345.62
431.624	356.62
431.846	342.62
432.068	362.62
432.29	368.62
432.512	350.62
432.734	373.62
432.956	380.62
433.178	388.62
433.4	383.62
433.622	367.62
433.844	377.62
434.066	369.62
434.287	352.62
434.509	348.62
434.731	372.62
434.953	360.62
435.175	391.62
435.397	409.62
435.618	388.62
435.84	455.62
436.062	522.62
436.284	571.62
436.505	480.62
436.727	439.62
436.949	406.62
437.17	383.62
437.392	385.62
437.614	385.62
437.835	413.62
438.057	469.62
438.278	534.62
438.5	541.62
438.721	573.62
438.943	561.62
439.165	439.62
439.386	429.62
439.608	411.62
439.829	419.62
440.05	413.62
440.272	443.62
440.493	429.62
440.715	410.62
440.936	395.62
441.158	388.62
441.379	391.62
441.6	395.62
441.822	398.62
442.043	426.62
442.264	469.62
442.486	500.62
442.707	446.62
442.928	411.62
443.149	412.62
443.371	440.62
443.592	447.62
443.813	511.62
444.034	575.62
444.255	460.62
444.476	430.62
444.698	410.62
444.919	412.62
445.14	538.62
445.361	480.62
445.582	443.62
445.803	467.62
446.024	538.62
446.245	570.62
446.466	513.62
446.687	437.62
446.908	427.62
447.129	390.62
447.35	400.62
447.571	388.62
447.792	373.62
448.013	401.62
448.234	399.62
448.455	429.62
448.675	511.62
448.896	578.62
449.117	493.62
449.338	484.62
449.559	548.62
449.779	608.62
450	502.62
450.221	411.62
450.442	383.62
450.662	376.62
450.883	386.62
451.104	379.62
451.324	376.62
451.545	352.62
451.766	361.62
451.986	349.62
452.207	345.62
452.428	321.62
452.648	352.62
452.869	347.62
453.089	323.62
453.31	347.62
453.53	353.62
453.751	335.62
453.971	332.62
454.192	348.62
454.412	328.62
454.633	331.62
454.853	329.62
455.073	334.62
455.294	365.62
455.514	401.62
455.734	411.62
455.955	353.62
456.175	309.62
456.395	313.62
456.616	303.62
456.836	326.62
457.056	327.62
457.276	308.62
457.497	306.62
457.717	322.62
457.937	306.62
458.157	326.62
458.377	339.62
458.598	341.62
458.818	400.62
459.038	423.62
459.258	418.62
459.478	379.62
459.698	349.62
459.918	349.62
460.138	355.62
460.358	359.62
460.578	377.62
460.798	367.62
461.018	373.62
461.238	356.62
461.458	379.62
461.678	364.62
461.898	369.62
462.118	350.62
462.338	376.62
462.558	369.62
462.777	387.62
462.997	401.62
463.217	387.62
463.437	395.62
463.657	369.62
463.876	374.62
464.096	389.62
464.316	378.62
464.536	376.62
464.755	385.62
464.975	405.62
465.195	403.62
465.414	446.62
465.634	403.62
465.854	387.62
466.073	358.62
466.293	357.62
466.512	337.62
466.732	346.62
466.951	349.62
467.171	345.62
467.391	355.62
467.61	354.62
467.829	363.62
468.049	347.62
468.268	348.62
468.488	351.62
468.707	333.62
468.927	352.62
469.146	342.62
469.365	323.62
469.585	339.62
469.804	351.62
470.023	362.62
470.243	362.62
470.462	355.62
470.681	366.62
470.901	365.62
471.12	343.62
471.339	334.62
471.558	346.62
471.777	358.62
471.997	351.62
472.216	349.62
472.435	349.62
472.654	358.62
472.873	355.62
473.092	332.62
473.311	358.62
473.53	347.62
473.749	368.62
473.968	378.62
474.187	450.62
474.406	462.62
474.625	401.62
474.844	352.62
475.063	371.62
475.282	357.62
475.501	359.62
475.72	366.62
475.939	365.62
476.158	360.62
476.377	368.62
476.596	352.62
476.814	356.62
477.033	367.62
477.252	366.62
477.471	358.62
477.69	375.62
477.908	387.62
478.127	401.62
478.346	361.62
478.564	382.62
478.783	375.62
479.002	375.62
479.22	409.62
479.439	432.62
479.658	410.62
479.876	392.62
480.095	411.62
480.313	428.62
480.532	446.62
480.751	421.62
480.969	392.62
481.188	435.62
481.406	467.62
481.624	426.62
481.843	412.62
482.061	405.62
482.28	411.62
482.498	427.62
482.717	412.62
482.935	394.62
483.153	395.62
483.372	398.62
483.59	400.62
483.808	388.62
484.027	393.62
484.245	409.62
484.463	415.62
484.681	417.62
484.9	415.62
485.118	429.62
485.336	401.62
485.554	416.62
485.772	411.62
485.99	398.62
486.209	421.62
486.427	419.62
486.645	420.62
486.863	425.62
487.081	442.62
487.299	418.62
487.517	428.62
487.735	436.62
487.953	435.62
488.171	420.62
488.389	412.62
488.607	435.62
488.825	446.62
489.043	433.62
489.261	441.62
489.479	427.62
489.696	420.62
489.914	441.62
490.132	465.62
490.35	457.62
490.568	452.62
490.786	485.62
491.003	467.62
491.221	471.62
491.439	471.62
491.657	463.62
491.874	489.62
492.092	502.62
492.31	509.62
492.527	484.62
492.745	491.62
492.963	489.62
493.18	502.62
493.398	526.62
493.615	502.62
493.833	508.62
494.05	510.62
494.268	489.62
494.485	523.62
494.703	494.62
494.92	499.62
495.138	511.62
495.355	487.62
495.573	523.62
495.79	508.62
496.008	501.62
496.225	501.62
496.442	493.62
496.66	527.62
496.877	520.62
497.094	523.62
497.312	505.62
497.529	533.62
497.746	519.62
497.963	541.62
498.181	549.62
498.398	548.62
498.615	568.62
498.832	560.62
499.049	569.62
499.267	579.62
499.484	617.62
499.701	622.62
499.918	634.62
500.135	677.62
500.352	694.62
500.569	701.62
500.786	711.62
501.003	703.62
501.22	679.62
501.437	665.62
501.654	616.62
501.871	638.62
502.088	613.62
