Data from 1971.PennyLincolnUp.Lamp.En5.5.200Scan.071719.P1.Scan 2. Changed Angle._HRD10591_15-23-16-843.txt Node
Date: Thu Jul 18 15:23:16 EDT 2019
User: cochatt
Spectrometer: HR+D1059
Trigger mode: 1
Integration Time (sec): 1.000000E-1
Scans to average: 1
Electric dark correction enabled: true
Nonlinearity correction enabled: false
Boxcar width: 0
XAxis mode: Wavelengths
Number of Pixels in Spectrum: 2048
>>>>>Begin Spectral Data<<<<<
223.165	-9.38
223.4	-9.38
223.635	-9.38
223.869	-14.38
224.104	-25.38
224.338	-9.38
224.573	-8.38
224.808	8.62
225.042	-17.38
225.277	-4.38
225.511	-8.38
225.746	1.62
225.98	7.62
226.215	8.62
226.449	8.62
226.683	15.62
226.918	19.62
227.152	26.62
227.387	38.62
227.621	39.62
227.856	35.62
228.09	57.62
228.324	61.62
228.559	50.62
228.793	72.62
229.027	103.62
229.262	133.62
229.496	123.62
229.73	158.62
229.964	155.62
230.199	145.62
230.433	122.62
230.667	131.62
230.901	123.62
231.136	105.62
231.37	122.62
231.604	141.62
231.838	125.62
232.072	119.62
232.306	100.62
232.541	122.62
232.775	113.62
233.009	108.62
233.243	126.62
233.477	113.62
233.711	124.62
233.945	105.62
234.179	110.62
234.413	140.62
234.647	125.62
234.881	124.62
235.115	119.62
235.349	122.62
235.583	115.62
235.817	131.62
236.051	127.62
236.285	138.62
236.519	136.62
236.753	143.62
236.987	154.62
237.221	179.62
237.455	238.62
237.689	195.62
237.922	154.62
238.156	145.62
238.39	126.62
238.624	127.62
238.858	138.62
239.091	129.62
239.325	132.62
239.559	142.62
239.793	123.62
240.027	140.62
240.26	125.62
240.494	165.62
240.728	170.62
240.961	162.62
241.195	146.62
241.429	146.62
241.662	133.62
241.896	131.62
242.13	131.62
242.363	150.62
242.597	151.62
242.83	134.62
243.064	143.62
243.298	130.62
243.531	139.62
243.765	136.62
243.998	136.62
244.232	141.62
244.465	145.62
244.699	144.62
244.932	143.62
245.166	146.62
245.399	153.62
245.633	147.62
245.866	146.62
246.099	161.62
246.333	142.62
246.566	150.62
246.8	141.62
247.033	167.62
247.266	170.62
247.5	163.62
247.733	168.62
247.966	193.62
248.2	182.62
248.433	188.62
248.666	179.62
248.899	179.62
249.133	203.62
249.366	243.62
249.599	205.62
249.832	195.62
250.066	208.62
250.299	190.62
250.532	199.62
250.765	217.62
250.998	237.62
251.231	245.62
251.465	246.62
251.698	221.62
251.931	225.62
252.164	203.62
252.397	233.62
252.63	193.62
252.863	207.62
253.096	216.62
253.329	223.62
253.562	256.62
253.795	226.62
254.028	237.62
254.261	223.62
254.494	241.62
254.727	279.62
254.96	299.62
255.193	281.62
255.426	263.62
255.659	266.62
255.892	228.62
256.124	236.62
256.357	230.62
256.59	227.62
256.823	227.62
257.056	232.62
257.289	214.62
257.521	222.62
257.754	213.62
257.987	223.62
258.22	219.62
258.452	211.62
258.685	217.62
258.918	214.62
259.151	231.62
259.383	211.62
259.616	225.62
259.849	214.62
260.081	251.62
260.314	251.62
260.547	248.62
260.779	251.62
261.012	239.62
261.244	243.62
261.477	237.62
261.71	234.62
261.942	219.62
262.175	250.62
262.407	257.62
262.64	222.62
262.872	239.62
263.105	213.62
263.337	203.62
263.57	207.62
263.802	212.62
264.035	205.62
264.267	222.62
264.499	198.62
264.732	195.62
264.964	201.62
265.197	205.62
265.429	219.62
265.661	199.62
265.894	213.62
266.126	207.62
266.358	210.62
266.591	216.62
266.823	220.62
267.055	222.62
267.287	235.62
267.52	226.62
267.752	227.62
267.984	219.62
268.216	212.62
268.448	215.62
268.681	210.62
268.913	245.62
269.145	241.62
269.377	272.62
269.609	271.62
269.841	273.62
270.073	252.62
270.306	300.62
270.538	316.62
270.77	312.62
271.002	300.62
271.234	285.62
271.466	316.62
271.698	302.62
271.93	329.62
272.162	322.62
272.394	307.62
272.626	298.62
272.858	291.62
273.09	270.62
273.322	251.62
273.553	248.62
273.785	260.62
274.017	262.62
274.249	261.62
274.481	255.62
274.713	257.62
274.945	262.62
275.176	263.62
275.408	259.62
275.64	252.62
275.872	259.62
276.104	265.62
276.335	252.62
276.567	270.62
276.799	282.62
277.031	294.62
277.262	310.62
277.494	313.62
277.726	278.62
277.957	281.62
278.189	261.62
278.421	250.62
278.652	261.62
278.884	264.62
279.115	242.62
279.347	246.62
279.579	252.62
279.81	260.62
280.042	252.62
280.273	262.62
280.505	268.62
280.736	256.62
280.968	276.62
281.199	238.62
281.431	243.62
281.662	249.62
281.894	259.62
282.125	260.62
282.356	276.62
282.588	295.62
282.819	299.62
283.051	240.62
283.282	251.62
283.513	244.62
283.745	273.62
283.976	258.62
284.207	245.62
284.439	257.62
284.67	255.62
284.901	241.62
285.132	261.62
285.364	254.62
285.595	247.62
285.826	246.62
286.057	246.62
286.288	261.62
286.52	252.62
286.751	250.62
286.982	261.62
287.213	232.62
287.444	259.62
287.675	271.62
287.906	254.62
288.138	283.62
288.369	285.62
288.6	269.62
288.831	265.62
289.062	267.62
289.293	250.62
289.524	273.62
289.755	261.62
289.986	252.62
290.217	260.62
290.448	248.62
290.679	251.62
290.91	267.62
291.141	259.62
291.371	270.62
291.602	262.62
291.833	267.62
292.064	286.62
292.295	273.62
292.526	260.62
292.757	269.62
292.987	268.62
293.218	283.62
293.449	271.62
293.68	258.62
293.91	251.62
294.141	275.62
294.372	258.62
294.603	260.62
294.833	270.62
295.064	277.62
295.295	249.62
295.525	271.62
295.756	256.62
295.987	298.62
296.217	319.62
296.448	332.62
296.679	289.62
296.909	277.62
297.14	274.62
297.37	273.62
297.601	287.62
297.831	267.62
298.062	271.62
298.292	267.62
298.523	276.62
298.753	263.62
298.984	271.62
299.214	271.62
299.445	288.62
299.675	296.62
299.905	290.62
300.136	284.62
300.366	273.62
300.597	283.62
300.827	300.62
301.057	312.62
301.288	297.62
301.518	287.62
301.748	276.62
301.979	282.62
302.209	281.62
302.439	296.62
302.669	281.62
302.9	290.62
303.13	298.62
303.36	298.62
303.59	315.62
303.82	321.62
304.051	302.62
304.281	289.62
304.511	297.62
304.741	291.62
304.971	283.62
305.201	298.62
305.431	290.62
305.661	309.62
305.891	319.62
306.121	295.62
306.352	311.62
306.582	330.62
306.812	307.62
307.042	302.62
307.272	279.62
307.502	310.62
307.731	319.62
307.961	314.62
308.191	290.62
308.421	286.62
308.651	305.62
308.881	325.62
309.111	321.62
309.341	317.62
309.571	339.62
309.8	322.62
310.03	325.62
310.26	355.62
310.49	359.62
310.72	371.62
310.949	393.62
311.179	370.62
311.409	366.62
311.639	359.62
311.868	361.62
312.098	370.62
312.328	358.62
312.557	366.62
312.787	413.62
313.017	410.62
313.246	366.62
313.476	354.62
313.706	346.62
313.935	359.62
314.165	389.62
314.394	382.62
314.624	392.62
314.853	382.62
315.083	379.62
315.312	352.62
315.542	348.62
315.771	347.62
316.001	349.62
316.23	348.62
316.46	348.62
316.689	345.62
316.919	345.62
317.148	360.62
317.377	377.62
317.607	369.62
317.836	373.62
318.065	365.62
318.295	359.62
318.524	354.62
318.753	348.62
318.983	348.62
319.212	353.62
319.441	358.62
319.67	374.62
319.9	350.62
320.129	356.62
320.358	355.62
320.587	371.62
320.816	379.62
321.046	384.62
321.275	366.62
321.504	382.62
321.733	390.62
321.962	383.62
322.191	391.62
322.42	423.62
322.649	445.62
322.878	446.62
323.108	469.62
323.337	488.62
323.566	495.62
323.795	551.62
324.024	582.62
324.253	730.62
324.482	1083.62
324.71	1686.62
324.939	2430.62
325.168	2093.62
325.397	1070.62
325.626	699.62
325.855	579.62
326.084	515.62
326.313	525.62
326.542	522.62
326.77	578.62
326.999	682.62
327.228	972.62
327.457	1475.62
327.686	1825.62
327.914	1195.62
328.143	798.62
328.372	678.62
328.6	631.62
328.829	579.62
329.058	613.62
329.287	619.62
329.515	561.62
329.744	518.62
329.972	511.62
330.201	531.62
330.43	577.62
330.658	614.62
330.887	656.62
331.115	612.62
331.344	522.62
331.572	490.62
331.801	510.62
332.03	470.62
332.258	448.62
332.486	443.62
332.715	421.62
332.943	417.62
333.172	416.62
333.4	438.62
333.629	430.62
333.857	501.62
334.085	467.62
334.314	484.62
334.542	489.62
334.771	523.62
334.999	449.62
335.227	443.62
335.455	454.62
335.684	417.62
335.912	407.62
336.14	406.62
336.369	405.62
336.597	430.62
336.825	432.62
337.053	395.62
337.281	402.62
337.51	398.62
337.738	418.62
337.966	387.62
338.194	416.62
338.422	447.62
338.65	407.62
338.878	405.62
339.106	400.62
339.334	398.62
339.562	416.62
339.79	411.62
340.018	405.62
340.246	397.62
340.474	424.62
340.702	426.62
340.93	412.62
341.158	399.62
341.386	398.62
341.614	411.62
341.842	419.62
342.07	408.62
342.298	407.62
342.526	404.62
342.754	386.62
342.981	373.62
343.209	403.62
343.437	389.62
343.665	391.62
343.893	391.62
344.12	416.62
344.348	407.62
344.576	405.62
344.804	427.62
345.031	451.62
345.259	438.62
345.487	431.62
345.714	409.62
345.942	413.62
346.17	390.62
346.397	392.62
346.625	400.62
346.853	409.62
347.08	393.62
347.308	427.62
347.535	424.62
347.763	421.62
347.99	417.62
348.218	377.62
348.445	419.62
348.673	414.62
348.9	410.62
349.128	379.62
349.355	389.62
349.583	399.62
349.81	410.62
350.037	383.62
350.265	387.62
350.492	389.62
350.72	398.62
350.947	401.62
351.174	423.62
351.402	418.62
351.629	406.62
351.856	423.62
352.083	423.62
352.311	440.62
352.538	445.62
352.765	429.62
352.992	418.62
353.22	431.62
353.447	407.62
353.674	407.62
353.901	403.62
354.128	384.62
354.355	382.62
354.583	395.62
354.81	371.62
355.037	398.62
355.264	353.62
355.491	364.62
355.718	373.62
355.945	377.62
356.172	378.62
356.399	380.62
356.626	372.62
356.853	371.62
357.08	369.62
357.307	371.62
357.534	369.62
357.761	381.62
357.988	370.62
358.215	373.62
358.441	361.62
358.668	383.62
358.895	376.62
359.122	385.62
359.349	412.62
359.576	419.62
359.802	453.62
360.029	491.62
360.256	490.62
360.483	459.62
360.709	442.62
360.936	406.62
361.163	398.62
361.39	423.62
361.616	417.62
361.843	406.62
362.07	415.62
362.296	413.62
362.523	421.62
362.749	411.62
362.976	413.62
363.203	391.62
363.429	387.62
363.656	400.62
363.882	397.62
364.109	390.62
364.335	393.62
364.562	400.62
364.788	387.62
365.015	401.62
365.241	408.62
365.468	399.62
365.694	389.62
365.92	409.62
366.147	405.62
366.373	405.62
366.599	369.62
366.826	393.62
367.052	403.62
367.278	391.62
367.505	387.62
367.731	399.62
367.957	408.62
368.184	377.62
368.41	407.62
368.636	383.62
368.862	420.62
369.089	411.62
369.315	389.62
369.541	387.62
369.767	383.62
369.993	409.62
370.219	397.62
370.445	401.62
370.672	382.62
370.898	379.62
371.124	364.62
371.35	381.62
371.576	382.62
371.802	378.62
372.028	373.62
372.254	366.62
372.48	381.62
372.706	369.62
372.932	386.62
373.158	401.62
373.384	414.62
373.61	387.62
373.835	399.62
374.061	380.62
374.287	381.62
374.513	386.62
374.739	384.62
374.965	357.62
375.191	409.62
375.416	387.62
375.642	369.62
375.868	408.62
376.094	395.62
376.319	393.62
376.545	379.62
376.771	397.62
376.997	401.62
377.222	392.62
377.448	396.62
377.674	381.62
377.899	394.62
378.125	379.62
378.35	385.62
378.576	384.62
378.802	398.62
379.027	388.62
379.253	383.62
379.478	389.62
379.704	389.62
379.929	390.62
380.155	390.62
380.38	397.62
380.606	400.62
380.831	389.62
381.057	403.62
381.282	407.62
381.507	374.62
381.733	410.62
381.958	391.62
382.184	389.62
382.409	398.62
382.634	393.62
382.86	380.62
383.085	405.62
383.31	407.62
383.535	402.62
383.761	421.62
383.986	412.62
384.211	399.62
384.436	407.62
384.662	401.62
384.887	394.62
385.112	421.62
385.337	412.62
385.562	423.62
385.787	405.62
386.013	426.62
386.238	407.62
386.463	428.62
386.688	433.62
386.913	424.62
387.138	412.62
387.363	438.62
387.588	428.62
387.813	423.62
388.038	409.62
388.263	423.62
388.488	421.62
388.713	420.62
388.938	433.62
389.163	426.62
389.387	411.62
389.612	420.62
389.837	420.62
390.062	402.62
390.287	434.62
390.512	419.62
390.736	411.62
390.961	409.62
391.186	417.62
391.411	414.62
391.636	449.62
391.86	433.62
392.085	424.62
392.31	455.62
392.534	429.62
392.759	411.62
392.984	420.62
393.208	416.62
393.433	443.62
393.658	450.62
393.882	419.62
394.107	426.62
394.331	425.62
394.556	423.62
394.78	429.62
395.005	457.62
395.229	440.62
395.454	430.62
395.678	451.62
395.903	439.62
396.127	450.62
396.352	502.62
396.576	462.62
396.801	453.62
397.025	435.62
397.249	437.62
397.474	455.62
397.698	452.62
397.922	470.62
398.147	464.62
398.371	485.62
398.595	469.62
398.82	484.62
399.044	488.62
399.268	481.62
399.492	484.62
399.717	517.62
399.941	546.62
400.165	561.62
400.389	620.62
400.613	547.62
400.837	523.62
401.062	499.62
401.286	491.62
401.51	482.62
401.734	483.62
401.958	479.62
402.182	464.62
402.406	517.62
402.63	487.62
402.854	492.62
403.078	492.62
403.302	501.62
403.526	503.62
403.75	489.62
403.974	491.62
404.198	471.62
404.422	504.62
404.645	513.62
404.869	517.62
405.093	552.62
405.317	582.62
405.541	627.62
405.765	571.62
405.988	568.62
406.212	552.62
406.436	586.62
406.66	574.62
406.883	561.62
407.107	576.62
407.331	613.62
407.555	686.62
407.778	696.62
408.002	639.62
408.226	589.62
408.449	563.62
408.673	570.62
408.896	585.62
409.12	612.62
409.344	611.62
409.567	537.62
409.791	527.62
410.014	521.62
410.238	512.62
410.461	497.62
410.685	530.62
410.908	515.62
411.132	564.62
411.355	617.62
411.578	578.62
411.802	552.62
412.025	515.62
412.249	547.62
412.472	561.62
412.695	586.62
412.919	575.62
413.142	528.62
413.365	500.62
413.589	493.62
413.812	490.62
414.035	492.62
414.258	479.62
414.482	461.62
414.705	473.62
414.928	489.62
415.151	484.62
415.374	463.62
415.597	486.62
415.821	492.62
416.044	467.62
416.267	488.62
416.49	486.62
416.713	483.62
416.936	503.62
417.159	463.62
417.382	471.62
417.605	508.62
417.828	494.62
418.051	529.62
418.274	513.62
418.497	487.62
418.72	481.62
418.943	489.62
419.166	499.62
419.389	543.62
419.611	518.62
419.834	520.62
420.057	533.62
420.28	521.62
420.503	525.62
420.726	532.62
420.948	534.62
421.171	574.62
421.394	600.62
421.617	555.62
421.839	542.62
422.062	519.62
422.285	535.62
422.507	590.62
422.73	673.62
422.953	685.62
423.175	584.62
423.398	557.62
423.621	558.62
423.843	565.62
424.066	571.62
424.288	546.62
424.511	583.62
424.733	658.62
424.956	718.62
425.178	716.62
425.401	715.62
425.623	733.62
425.846	623.62
426.068	591.62
426.291	591.62
426.513	573.62
426.735	597.62
426.958	652.62
427.18	765.62
427.402	853.62
427.625	914.62
427.847	865.62
428.069	723.62
428.292	636.62
428.514	595.62
428.736	571.62
428.958	531.62
429.181	546.62
429.403	534.62
429.625	566.62
429.847	590.62
430.069	656.62
430.292	646.62
430.514	566.62
430.736	529.62
430.958	533.62
431.18	498.62
431.402	524.62
431.624	518.62
431.846	481.62
432.068	494.62
432.29	498.62
432.512	509.62
432.734	520.62
432.956	521.62
433.178	523.62
433.4	530.62
433.622	505.62
433.844	486.62
434.066	511.62
434.287	483.62
434.509	505.62
434.731	502.62
434.953	505.62
435.175	544.62
435.397	553.62
435.618	571.62
435.84	630.62
436.062	729.62
436.284	806.62
436.505	699.62
436.727	579.62
436.949	551.62
437.17	537.62
437.392	546.62
437.614	563.62
437.835	621.62
438.057	703.62
438.278	807.62
438.5	806.62
438.721	890.62
438.943	846.62
439.165	676.62
439.386	607.62
439.608	609.62
439.829	603.62
440.05	627.62
440.272	707.62
440.493	606.62
440.715	566.62
440.936	557.62
441.158	542.62
441.379	537.62
441.6	562.62
441.822	578.62
442.043	609.62
442.264	722.62
442.486	762.62
442.707	627.62
442.928	594.62
443.149	622.62
443.371	633.62
443.592	678.62
443.813	789.62
444.034	825.62
444.255	667.62
444.476	589.62
444.698	589.62
444.919	591.62
445.14	684.62
445.361	615.62
445.582	619.62
445.803	701.62
446.024	823.62
446.245	799.62
446.466	777.62
446.687	645.62
446.908	599.62
447.129	592.62
447.35	558.62
447.571	551.62
447.792	533.62
448.013	544.62
448.234	586.62
448.455	630.62
448.675	743.62
448.896	873.62
449.117	718.62
449.338	687.62
449.559	799.62
449.779	905.62
450	733.62
450.221	613.62
450.442	589.62
450.662	520.62
450.883	557.62
451.104	565.62
451.324	557.62
451.545	527.62
451.766	517.62
451.986	477.62
452.207	510.62
452.428	494.62
452.648	482.62
452.869	469.62
453.089	504.62
453.31	522.62
453.53	502.62
453.751	475.62
453.971	477.62
454.192	535.62
454.412	513.62
454.633	483.62
454.853	471.62
455.073	472.62
455.294	515.62
455.514	618.62
455.734	596.62
455.955	497.62
456.175	478.62
456.395	457.62
456.616	444.62
456.836	449.62
457.056	436.62
457.276	426.62
457.497	443.62
457.717	466.62
457.937	473.62
458.157	463.62
458.377	456.62
458.598	474.62
458.818	566.62
459.038	669.62
459.258	688.62
459.478	561.62
459.698	518.62
459.918	504.62
460.138	476.62
460.358	495.62
460.578	472.62
460.798	504.62
461.018	513.62
461.238	502.62
461.458	471.62
461.678	498.62
461.898	486.62
462.118	460.62
462.338	502.62
462.558	491.62
462.777	523.62
462.997	538.62
463.217	506.62
463.437	499.62
463.657	504.62
463.876	518.62
464.096	540.62
464.316	527.62
464.536	535.62
464.755	523.62
464.975	546.62
465.195	612.62
465.414	732.62
465.634	618.62
465.854	537.62
466.073	540.62
466.293	518.62
466.512	511.62
466.732	501.62
466.951	481.62
467.171	480.62
467.391	516.62
467.61	490.62
467.829	521.62
468.049	510.62
468.268	499.62
468.488	500.62
468.707	476.62
468.927	481.62
469.146	501.62
469.365	503.62
469.585	471.62
469.804	498.62
470.023	519.62
470.243	520.62
470.462	501.62
470.681	537.62
470.901	542.62
471.12	521.62
471.339	489.62
471.558	510.62
471.777	507.62
471.997	507.62
472.216	497.62
472.435	534.62
472.654	518.62
472.873	501.62
473.092	487.62
473.311	510.62
473.53	525.62
473.749	534.62
473.968	556.62
474.187	669.62
474.406	718.62
474.625	579.62
474.844	515.62
475.063	505.62
475.282	505.62
475.501	525.62
475.72	526.62
475.939	501.62
476.158	529.62
476.377	523.62
476.596	522.62
476.814	546.62
477.033	537.62
477.252	535.62
477.471	546.62
477.69	533.62
477.908	523.62
478.127	567.62
478.346	563.62
478.564	534.62
478.783	558.62
479.002	571.62
479.22	575.62
479.439	585.62
479.658	609.62
479.876	601.62
480.095	614.62
480.313	650.62
480.532	639.62
480.751	603.62
480.969	621.62
481.188	698.62
481.406	737.62
481.624	636.62
481.843	634.62
482.061	615.62
482.28	610.62
482.498	596.62
482.717	572.62
482.935	589.62
483.153	572.62
483.372	606.62
483.59	617.62
483.808	578.62
484.027	580.62
484.245	603.62
484.463	619.62
484.681	603.62
484.9	617.62
485.118	609.62
485.336	588.62
485.554	601.62
485.772	622.62
485.99	611.62
486.209	605.62
486.427	625.62
486.645	630.62
486.863	644.62
487.081	668.62
487.299	663.62
487.517	656.62
487.735	639.62
487.953	667.62
488.171	661.62
488.389	652.62
488.607	659.62
488.825	650.62
489.043	647.62
489.261	657.62
489.479	666.62
489.696	677.62
489.914	691.62
490.132	666.62
490.35	683.62
490.568	673.62
490.786	704.62
491.003	718.62
491.221	738.62
491.439	718.62
491.657	725.62
491.874	747.62
492.092	780.62
492.31	735.62
492.527	785.62
492.745	765.62
492.963	767.62
493.18	767.62
493.398	787.62
493.615	781.62
493.833	775.62
494.05	777.62
494.268	767.62
494.485	754.62
494.703	793.62
494.92	808.62
495.138	791.62
495.355	809.62
495.573	788.62
495.79	758.62
496.008	784.62
496.225	783.62
496.442	793.62
496.66	801.62
496.877	775.62
497.094	794.62
497.312	799.62
497.529	798.62
497.746	790.62
497.963	821.62
498.181	822.62
498.398	851.62
498.615	870.62
498.832	861.62
499.049	882.62
499.267	871.62
499.484	884.62
499.701	897.62
499.918	910.62
500.135	942.62
500.352	953.62
500.569	942.62
500.786	976.62
501.003	969.62
501.22	965.62
501.437	931.62
501.654	935.62
