Data from 1971.PennyLincolnUp.Lamp.En5.5.200Scan.071719.P1._HRD10591_15-19-15-840.txt Node
Date: Thu Jul 18 15:19:15 EDT 2019
User: cochatt
Spectrometer: HR+D1059
Trigger mode: 1
Integration Time (sec): 1.000000E-1
Scans to average: 1
Electric dark correction enabled: true
Nonlinearity correction enabled: false
Boxcar width: 0
XAxis mode: Wavelengths
Number of Pixels in Spectrum: 2048
>>>>>Begin Spectral Data<<<<<
223.165	-12.38
223.4	-12.38
223.635	-12.38
223.869	-17.38
224.104	-12.38
224.338	-4.38
224.573	-13.38
224.808	-21.38
225.042	-14.38
225.277	-5.38
225.511	-15.38
225.746	1.62
225.98	2.62
226.215	17.62
226.449	17.62
226.683	19.62
226.918	29.62
227.152	27.62
227.387	44.62
227.621	47.62
227.856	56.62
228.09	43.62
228.324	55.62
228.559	55.62
228.793	64.62
229.027	91.62
229.262	104.62
229.496	127.62
229.73	122.62
229.964	140.62
230.199	123.62
230.433	95.62
230.667	110.62
230.901	107.62
231.136	124.62
231.37	110.62
231.604	113.62
231.838	113.62
232.072	104.62
232.306	121.62
232.541	113.62
232.775	99.62
233.009	100.62
233.243	117.62
233.477	121.62
233.711	123.62
233.945	128.62
234.179	117.62
234.413	113.62
234.647	119.62
234.881	101.62
235.115	105.62
235.349	123.62
235.583	131.62
235.817	129.62
236.051	137.62
236.285	134.62
236.519	123.62
236.753	133.62
236.987	140.62
237.221	175.62
237.455	214.62
237.689	170.62
237.922	135.62
238.156	135.62
238.39	119.62
238.624	135.62
238.858	123.62
239.091	127.62
239.325	138.62
239.559	112.62
239.793	135.62
240.027	137.62
240.26	121.62
240.494	157.62
240.728	141.62
240.961	141.62
241.195	154.62
241.429	143.62
241.662	130.62
241.896	115.62
242.13	125.62
242.363	133.62
242.597	137.62
242.83	126.62
243.064	139.62
243.298	135.62
243.531	147.62
243.765	139.62
243.998	136.62
244.232	144.62
244.465	142.62
244.699	162.62
244.932	152.62
245.166	150.62
245.399	161.62
245.633	154.62
245.866	138.62
246.099	145.62
246.333	152.62
246.566	155.62
246.8	151.62
247.033	159.62
247.266	161.62
247.5	167.62
247.733	168.62
247.966	178.62
248.2	166.62
248.433	179.62
248.666	201.62
248.899	189.62
249.133	191.62
249.366	206.62
249.599	202.62
249.832	176.62
250.066	199.62
250.299	200.62
250.532	206.62
250.765	211.62
250.998	218.62
251.231	227.62
251.465	222.62
251.698	216.62
251.931	181.62
252.164	202.62
252.397	214.62
252.63	206.62
252.863	227.62
253.096	236.62
253.329	240.62
253.562	239.62
253.795	227.62
254.028	218.62
254.261	232.62
254.494	238.62
254.727	283.62
254.96	292.62
255.193	286.62
255.426	253.62
255.659	240.62
255.892	248.62
256.124	244.62
256.357	239.62
256.59	217.62
256.823	217.62
257.056	226.62
257.289	216.62
257.521	206.62
257.754	217.62
257.987	235.62
258.22	226.62
258.452	194.62
258.685	213.62
258.918	225.62
259.151	226.62
259.383	228.62
259.616	234.62
259.849	236.62
260.081	244.62
260.314	261.62
260.547	266.62
260.779	246.62
261.012	245.62
261.244	248.62
261.477	246.62
261.71	242.62
261.942	267.62
262.175	241.62
262.407	246.62
262.64	219.62
262.872	234.62
263.105	235.62
263.337	230.62
263.57	218.62
263.802	228.62
264.035	217.62
264.267	220.62
264.499	231.62
264.732	227.62
264.964	221.62
265.197	240.62
265.429	219.62
265.661	206.62
265.894	218.62
266.126	210.62
266.358	225.62
266.591	228.62
266.823	231.62
267.055	254.62
267.287	234.62
267.52	226.62
267.752	229.62
267.984	249.62
268.216	245.62
268.448	247.62
268.681	247.62
268.913	256.62
269.145	275.62
269.377	283.62
269.609	285.62
269.841	277.62
270.073	291.62
270.306	301.62
270.538	328.62
270.77	331.62
271.002	305.62
271.234	325.62
271.466	317.62
271.698	335.62
271.93	333.62
272.162	345.62
272.394	317.62
272.626	329.62
272.858	312.62
273.09	310.62
273.322	286.62
273.553	283.62
273.785	270.62
274.017	292.62
274.249	271.62
274.481	276.62
274.713	279.62
274.945	285.62
275.176	296.62
275.408	285.62
275.64	272.62
275.872	290.62
276.104	270.62
276.335	281.62
276.567	307.62
276.799	290.62
277.031	301.62
277.262	333.62
277.494	330.62
277.726	322.62
277.957	314.62
278.189	297.62
278.421	288.62
278.652	295.62
278.884	274.62
279.115	281.62
279.347	301.62
279.579	278.62
279.81	279.62
280.042	295.62
280.273	271.62
280.505	287.62
280.736	291.62
280.968	263.62
281.199	289.62
281.431	296.62
281.662	288.62
281.894	291.62
282.125	299.62
282.356	299.62
282.588	322.62
282.819	305.62
283.051	286.62
283.282	283.62
283.513	282.62
283.745	281.62
283.976	289.62
284.207	287.62
284.439	291.62
284.67	303.62
284.901	300.62
285.132	309.62
285.364	309.62
285.595	284.62
285.826	290.62
286.057	318.62
286.288	305.62
286.52	291.62
286.751	289.62
286.982	302.62
287.213	317.62
287.444	302.62
287.675	301.62
287.906	310.62
288.138	317.62
288.369	323.62
288.6	318.62
288.831	304.62
289.062	305.62
289.293	314.62
289.524	293.62
289.755	290.62
289.986	295.62
290.217	304.62
290.448	314.62
290.679	319.62
290.91	290.62
291.141	301.62
291.371	320.62
291.602	303.62
291.833	294.62
292.064	285.62
292.295	315.62
292.526	294.62
292.757	303.62
292.987	305.62
293.218	311.62
293.449	310.62
293.68	307.62
293.91	302.62
294.141	315.62
294.372	304.62
294.603	311.62
294.833	319.62
295.064	309.62
295.295	301.62
295.525	303.62
295.756	303.62
295.987	303.62
296.217	339.62
296.448	339.62
296.679	318.62
296.909	319.62
297.14	311.62
297.37	326.62
297.601	315.62
297.831	321.62
298.062	313.62
298.292	311.62
298.523	311.62
298.753	328.62
298.984	329.62
299.214	314.62
299.445	319.62
299.675	339.62
299.905	346.62
300.136	319.62
300.366	333.62
300.597	335.62
300.827	312.62
301.057	350.62
301.288	336.62
301.518	319.62
301.748	334.62
301.979	334.62
302.209	340.62
302.439	351.62
302.669	332.62
302.9	347.62
303.13	361.62
303.36	353.62
303.59	338.62
303.82	340.62
304.051	347.62
304.281	351.62
304.511	339.62
304.741	343.62
304.971	331.62
305.201	334.62
305.431	335.62
305.661	349.62
305.891	331.62
306.121	346.62
306.352	380.62
306.582	364.62
306.812	349.62
307.042	349.62
307.272	337.62
307.502	345.62
307.731	343.62
307.961	351.62
308.191	373.62
308.421	337.62
308.651	347.62
308.881	348.62
309.111	351.62
309.341	355.62
309.571	377.62
309.8	373.62
310.03	378.62
310.26	395.62
310.49	370.62
310.72	387.62
310.949	389.62
311.179	398.62
311.409	381.62
311.639	390.62
311.868	392.62
312.098	387.62
312.328	414.62
312.557	414.62
312.787	428.62
313.017	414.62
313.246	415.62
313.476	385.62
313.706	393.62
313.935	405.62
314.165	415.62
314.394	396.62
314.624	420.62
314.853	400.62
315.083	409.62
315.312	389.62
315.542	393.62
315.771	367.62
316.001	360.62
316.23	365.62
316.46	385.62
316.689	401.62
316.919	387.62
317.148	410.62
317.377	395.62
317.607	389.62
317.836	390.62
318.065	376.62
318.295	388.62
318.524	375.62
318.753	383.62
318.983	404.62
319.212	381.62
319.441	404.62
319.67	410.62
319.9	423.62
320.129	395.62
320.358	411.62
320.587	411.62
320.816	418.62
321.046	417.62
321.275	422.62
321.504	421.62
321.733	430.62
321.962	441.62
322.191	434.62
322.42	441.62
322.649	455.62
322.878	439.62
323.108	472.62
323.337	490.62
323.566	506.62
323.795	520.62
324.024	595.62
324.253	720.62
324.482	975.62
324.71	1490.62
324.939	1956.62
325.168	1651.62
325.397	897.62
325.626	638.62
325.855	554.62
326.084	503.62
326.313	494.62
326.542	508.62
326.77	564.62
326.999	645.62
327.228	893.62
327.457	1292.62
327.686	1456.62
327.914	971.62
328.143	683.62
328.372	602.62
328.6	571.62
328.829	573.62
329.058	522.62
329.287	576.62
329.515	540.62
329.744	502.62
329.972	517.62
330.201	524.62
330.43	547.62
330.658	572.62
330.887	584.62
331.115	578.62
331.344	536.62
331.572	495.62
331.801	502.62
332.03	480.62
332.258	454.62
332.486	467.62
332.715	478.62
332.943	464.62
333.172	463.62
333.4	469.62
333.629	446.62
333.857	482.62
334.085	486.62
334.314	490.62
334.542	533.62
334.771	520.62
334.999	491.62
335.227	475.62
335.455	475.62
335.684	472.62
335.912	435.62
336.14	450.62
336.369	447.62
336.597	474.62
336.825	445.62
337.053	422.62
337.281	449.62
337.51	428.62
337.738	452.62
337.966	442.62
338.194	443.62
338.422	437.62
338.65	431.62
338.878	429.62
339.106	436.62
339.334	437.62
339.562	433.62
339.79	401.62
340.018	418.62
340.246	427.62
340.474	432.62
340.702	422.62
340.93	426.62
341.158	437.62
341.386	437.62
341.614	419.62
341.842	422.62
342.07	443.62
342.298	433.62
342.526	428.62
342.754	417.62
342.981	403.62
343.209	411.62
343.437	415.62
343.665	413.62
343.893	426.62
344.12	447.62
344.348	439.62
344.576	435.62
344.804	448.62
345.031	451.62
345.259	443.62
345.487	428.62
345.714	417.62
345.942	427.62
346.17	409.62
346.397	412.62
346.625	414.62
346.853	408.62
347.08	407.62
347.308	405.62
347.535	403.62
347.763	400.62
347.99	400.62
348.218	428.62
348.445	430.62
348.673	443.62
348.9	420.62
349.128	392.62
349.355	401.62
349.583	389.62
349.81	403.62
350.037	386.62
350.265	402.62
350.492	402.62
350.72	406.62
350.947	425.62
351.174	413.62
351.402	411.62
351.629	421.62
351.856	411.62
352.083	422.62
352.311	414.62
352.538	409.62
352.765	422.62
352.992	430.62
353.22	418.62
353.447	391.62
353.674	387.62
353.901	365.62
354.128	404.62
354.355	366.62
354.583	387.62
354.81	393.62
355.037	387.62
355.264	383.62
355.491	379.62
355.718	379.62
355.945	367.62
356.172	378.62
356.399	357.62
356.626	354.62
356.853	376.62
357.08	365.62
357.307	380.62
357.534	391.62
357.761	377.62
357.988	380.62
358.215	386.62
358.441	394.62
358.668	363.62
358.895	395.62
359.122	382.62
359.349	391.62
359.576	401.62
359.802	410.62
360.029	433.62
360.256	465.62
360.483	410.62
360.709	398.62
360.936	392.62
361.163	393.62
361.39	396.62
361.616	416.62
361.843	393.62
362.07	422.62
362.296	410.62
362.523	391.62
362.749	412.62
362.976	386.62
363.203	370.62
363.429	371.62
363.656	379.62
363.882	385.62
364.109	394.62
364.335	370.62
364.562	383.62
364.788	376.62
365.015	382.62
365.241	384.62
365.468	373.62
365.694	381.62
365.92	400.62
366.147	369.62
366.373	357.62
366.599	365.62
366.826	380.62
367.052	382.62
367.278	366.62
367.505	369.62
367.731	387.62
367.957	381.62
368.184	375.62
368.41	353.62
368.636	373.62
368.862	403.62
369.089	377.62
369.315	366.62
369.541	367.62
369.767	385.62
369.993	381.62
370.219	381.62
370.445	384.62
370.672	379.62
370.898	368.62
371.124	370.62
371.35	373.62
371.576	357.62
371.802	377.62
372.028	377.62
372.254	385.62
372.48	361.62
372.706	383.62
372.932	378.62
373.158	383.62
373.384	359.62
373.61	379.62
373.835	383.62
374.061	364.62
374.287	377.62
374.513	397.62
374.739	383.62
374.965	385.62
375.191	373.62
375.416	381.62
375.642	376.62
375.868	370.62
376.094	358.62
376.319	352.62
376.545	365.62
376.771	375.62
376.997	367.62
377.222	356.62
377.448	377.62
377.674	365.62
377.899	389.62
378.125	370.62
378.35	369.62
378.576	374.62
378.802	355.62
379.027	353.62
379.253	345.62
379.478	349.62
379.704	370.62
379.929	357.62
380.155	373.62
380.38	359.62
380.606	357.62
380.831	362.62
381.057	380.62
381.282	351.62
381.507	373.62
381.733	357.62
381.958	361.62
382.184	379.62
382.409	352.62
382.634	369.62
382.86	359.62
383.085	357.62
383.31	373.62
383.535	359.62
383.761	359.62
383.986	373.62
384.211	367.62
384.436	371.62
384.662	366.62
384.887	354.62
385.112	377.62
385.337	377.62
385.562	389.62
385.787	383.62
386.013	401.62
386.238	391.62
386.463	403.62
386.688	393.62
386.913	393.62
387.138	381.62
387.363	399.62
387.588	396.62
387.813	383.62
388.038	373.62
388.263	381.62
388.488	395.62
388.713	399.62
388.938	386.62
389.163	389.62
389.387	399.62
389.612	398.62
389.837	383.62
390.062	385.62
390.287	367.62
390.512	353.62
390.736	390.62
390.961	371.62
391.186	345.62
391.411	358.62
391.636	388.62
391.86	385.62
392.085	375.62
392.31	388.62
392.534	393.62
392.759	384.62
392.984	391.62
393.208	386.62
393.433	387.62
393.658	403.62
393.882	390.62
394.107	390.62
394.331	399.62
394.556	388.62
394.78	373.62
395.005	385.62
395.229	380.62
395.454	402.62
395.678	393.62
395.903	400.62
396.127	430.62
396.352	420.62
396.576	401.62
396.801	408.62
397.025	365.62
397.249	397.62
397.474	394.62
397.698	396.62
397.922	415.62
398.147	402.62
398.371	436.62
398.595	407.62
398.82	415.62
399.044	435.62
399.268	444.62
399.492	464.62
399.717	479.62
399.941	509.62
400.165	509.62
400.389	542.62
400.613	494.62
400.837	433.62
401.062	429.62
401.286	439.62
401.51	424.62
401.734	417.62
401.958	432.62
402.182	417.62
402.406	430.62
402.63	447.62
402.854	420.62
403.078	435.62
403.302	422.62
403.526	427.62
403.75	463.62
403.974	440.62
404.198	440.62
404.422	456.62
404.645	439.62
404.869	463.62
405.093	480.62
405.317	515.62
405.541	509.62
405.765	500.62
405.988	450.62
406.212	467.62
406.436	454.62
406.66	495.62
406.883	474.62
407.107	501.62
407.331	529.62
407.555	580.62
407.778	549.62
408.002	527.62
408.226	516.62
408.449	477.62
408.673	480.62
408.896	496.62
409.12	528.62
409.344	504.62
409.567	457.62
409.791	434.62
410.014	455.62
410.238	439.62
410.461	448.62
410.685	458.62
410.908	456.62
411.132	502.62
411.355	505.62
411.578	487.62
411.802	458.62
412.025	428.62
412.249	449.62
412.472	462.62
412.695	475.62
412.919	485.62
413.142	455.62
413.365	427.62
413.589	417.62
413.812	403.62
414.035	403.62
414.258	398.62
414.482	425.62
414.705	403.62
414.928	407.62
415.151	416.62
415.374	421.62
415.597	403.62
415.821	409.62
416.044	426.62
416.267	407.62
416.49	425.62
416.713	414.62
416.936	410.62
417.159	413.62
417.382	410.62
417.605	411.62
417.828	415.62
418.051	432.62
418.274	430.62
418.497	413.62
418.72	423.62
418.943	413.62
419.166	427.62
419.389	439.62
419.611	460.62
419.834	441.62
420.057	445.62
420.28	420.62
420.503	443.62
420.726	403.62
420.948	455.62
421.171	467.62
421.394	502.62
421.617	470.62
421.839	445.62
422.062	434.62
422.285	426.62
422.507	497.62
422.73	551.62
422.953	523.62
423.175	482.62
423.398	420.62
423.621	458.62
423.843	480.62
424.066	470.62
424.288	466.62
424.511	495.62
424.733	525.62
424.956	593.62
425.178	547.62
425.401	564.62
425.623	569.62
425.846	503.62
426.068	479.62
426.291	440.62
426.513	464.62
426.735	457.62
426.958	521.62
427.18	572.62
427.402	654.62
427.625	703.62
427.847	615.62
428.069	552.62
428.292	508.62
428.514	454.62
428.736	432.62
428.958	460.62
429.181	438.62
429.403	416.62
429.625	441.62
429.847	480.62
430.069	501.62
430.292	531.62
430.514	434.62
430.736	426.62
430.958	408.62
431.18	405.62
431.402	405.62
431.624	406.62
431.846	423.62
432.068	385.62
432.29	397.62
432.512	418.62
432.734	403.62
432.956	399.62
433.178	416.62
433.4	410.62
433.622	418.62
433.844	403.62
434.066	411.62
434.287	416.62
434.509	406.62
434.731	394.62
434.953	419.62
435.175	431.62
435.397	443.62
435.618	468.62
435.84	496.62
436.062	571.62
436.284	618.62
436.505	511.62
436.727	485.62
436.949	440.62
437.17	429.62
437.392	441.62
437.614	442.62
437.835	446.62
438.057	531.62
438.278	614.62
438.5	641.62
438.721	681.62
438.943	644.62
439.165	513.62
439.386	480.62
439.608	468.62
439.829	466.62
440.05	498.62
440.272	527.62
440.493	508.62
440.715	479.62
440.936	439.62
441.158	433.62
441.379	425.62
441.6	444.62
441.822	456.62
442.043	506.62
442.264	572.62
442.486	607.62
442.707	493.62
442.928	466.62
443.149	487.62
443.371	484.62
443.592	531.62
443.813	609.62
444.034	617.62
444.255	545.62
444.476	492.62
444.698	503.62
444.919	467.62
445.14	571.62
445.361	489.62
445.582	502.62
445.803	557.62
446.024	647.62
446.245	657.62
446.466	583.62
446.687	508.62
446.908	467.62
447.129	451.62
447.35	419.62
447.571	439.62
447.792	415.62
448.013	434.62
448.234	431.62
448.455	494.62
448.675	591.62
448.896	665.62
449.117	596.62
449.338	535.62
449.559	652.62
449.779	698.62
450	573.62
450.221	472.62
450.442	445.62
450.662	448.62
450.883	425.62
451.104	422.62
451.324	423.62
451.545	406.62
451.766	391.62
451.986	387.62
452.207	368.62
452.428	373.62
452.648	379.62
452.869	381.62
453.089	391.62
453.31	387.62
453.53	391.62
453.751	361.62
453.971	387.62
454.192	379.62
454.412	400.62
454.633	381.62
454.853	385.62
455.073	366.62
455.294	395.62
455.514	461.62
455.734	450.62
455.955	377.62
456.175	367.62
456.395	347.62
456.616	363.62
456.836	347.62
457.056	353.62
457.276	345.62
457.497	361.62
457.717	356.62
457.937	362.62
458.157	349.62
458.377	375.62
458.598	370.62
458.818	436.62
459.038	485.62
459.258	507.62
459.478	445.62
459.698	402.62
459.918	387.62
460.138	408.62
460.358	402.62
460.578	385.62
460.798	408.62
461.018	386.62
461.238	397.62
461.458	396.62
461.678	411.62
461.898	401.62
462.118	393.62
462.338	429.62
462.558	415.62
462.777	400.62
462.997	395.62
463.217	438.62
463.437	424.62
463.657	414.62
463.876	427.62
464.096	446.62
464.316	423.62
464.536	427.62
464.755	414.62
464.975	429.62
465.195	468.62
465.414	488.62
465.634	444.62
465.854	427.62
466.073	395.62
466.293	386.62
466.512	375.62
466.732	378.62
466.951	375.62
467.171	381.62
467.391	378.62
467.61	400.62
467.829	407.62
468.049	405.62
468.268	408.62
468.488	382.62
468.707	374.62
468.927	375.62
469.146	379.62
469.365	379.62
469.585	366.62
469.804	381.62
470.023	391.62
470.243	396.62
470.462	388.62
470.681	411.62
470.901	390.62
471.12	382.62
471.339	399.62
471.558	385.62
471.777	376.62
471.997	394.62
472.216	391.62
472.435	402.62
472.654	402.62
472.873	398.62
473.092	383.62
473.311	392.62
473.53	423.62
473.749	385.62
473.968	426.62
474.187	528.62
474.406	532.62
474.625	452.62
474.844	399.62
475.063	402.62
475.282	396.62
475.501	385.62
475.72	384.62
475.939	407.62
476.158	409.62
476.377	413.62
476.596	403.62
476.814	402.62
477.033	426.62
477.252	425.62
477.471	402.62
477.69	407.62
477.908	431.62
478.127	410.62
478.346	407.62
478.564	423.62
478.783	436.62
479.002	416.62
479.22	437.62
479.439	447.62
479.658	451.62
479.876	472.62
480.095	482.62
480.313	484.62
480.532	466.62
480.751	470.62
480.969	479.62
481.188	479.62
481.406	516.62
481.624	477.62
481.843	467.62
482.061	465.62
482.28	442.62
482.498	461.62
482.717	440.62
482.935	467.62
483.153	472.62
483.372	455.62
483.59	454.62
483.808	456.62
484.027	449.62
484.245	434.62
484.463	456.62
484.681	474.62
484.9	427.62
485.118	473.62
485.336	463.62
485.554	463.62
485.772	471.62
485.99	460.62
486.209	462.62
486.427	456.62
486.645	476.62
486.863	478.62
487.081	491.62
487.299	461.62
487.517	476.62
487.735	473.62
487.953	474.62
488.171	502.62
488.389	474.62
488.607	486.62
488.825	498.62
489.043	512.62
489.261	492.62
489.479	488.62
489.696	498.62
489.914	481.62
490.132	507.62
490.35	503.62
490.568	512.62
490.786	502.62
491.003	502.62
491.221	538.62
491.439	536.62
491.657	560.62
491.874	559.62
492.092	553.62
492.31	571.62
492.527	576.62
492.745	571.62
492.963	554.62
493.18	547.62
493.398	567.62
493.615	568.62
493.833	570.62
494.05	595.62
494.268	576.62
494.485	579.62
494.703	562.62
494.92	575.62
495.138	567.62
495.355	583.62
495.573	579.62
495.79	557.62
496.008	578.62
496.225	575.62
496.442	586.62
496.66	581.62
496.877	560.62
497.094	592.62
497.312	600.62
497.529	598.62
497.746	614.62
497.963	601.62
498.181	626.62
498.398	612.62
498.615	628.62
498.832	603.62
499.049	642.62
499.267	622.62
499.484	645.62
499.701	693.62
499.918	704.62
500.135	758.62
500.352	765.62
500.569	754.62
500.786	766.62
501.003	761.62
501.22	722.62
501.437	706.62
501.654	718.62
501.871	706.62
