Data from 1971.PennyLincolnUp.Lamp.En5.5.200Scan.071719.P1.Scan 2. Changed Angle._HRD10591_15-25-27-843.txt Node
Date: Thu Jul 18 15:25:27 EDT 2019
User: cochatt
Spectrometer: HR+D1059
Trigger mode: 1
Integration Time (sec): 1.000000E-1
Scans to average: 1
Electric dark correction enabled: true
Nonlinearity correction enabled: false
Boxcar width: 0
XAxis mode: Wavelengths
Number of Pixels in Spectrum: 2048
>>>>>Begin Spectral Data<<<<<
223.165	-10.5
223.4	-10.5
223.635	-10.5
223.869	-18.5
224.104	-23.5
224.338	-12.5
224.573	-9.5
224.808	-13.5
225.042	-13.5
225.277	-5.5
225.511	-10.5
225.746	-4.5
225.98	16.5
226.215	3.5
226.449	6.5
226.683	29.5
226.918	27.5
227.152	38.5
227.387	30.5
227.621	38.5
227.856	47.5
228.09	47.5
228.324	45.5
228.559	62.5
228.793	65.5
229.027	109.5
229.262	114.5
229.496	130.5
229.73	166.5
229.964	196.5
230.199	152.5
230.433	134.5
230.667	134.5
230.901	123.5
231.136	122.5
231.37	131.5
231.604	110.5
231.838	122.5
232.072	126.5
232.306	126.5
232.541	121.5
232.775	122.5
233.009	124.5
233.243	125.5
233.477	124.5
233.711	109.5
233.945	125.5
234.179	136.5
234.413	117.5
234.647	129.5
234.881	127.5
235.115	125.5
235.349	125.5
235.583	118.5
235.817	133.5
236.051	142.5
236.285	134.5
236.519	141.5
236.753	154.5
236.987	170.5
237.221	221.5
237.455	266.5
237.689	231.5
237.922	149.5
238.156	144.5
238.39	144.5
238.624	127.5
238.858	144.5
239.091	124.5
239.325	147.5
239.559	134.5
239.793	135.5
240.027	143.5
240.26	159.5
240.494	171.5
240.728	166.5
240.961	181.5
241.195	148.5
241.429	146.5
241.662	148.5
241.896	139.5
242.13	157.5
242.363	143.5
242.597	140.5
242.83	143.5
243.064	145.5
243.298	146.5
243.531	134.5
243.765	144.5
243.998	150.5
244.232	148.5
244.465	142.5
244.699	148.5
244.932	178.5
245.166	160.5
245.399	138.5
245.633	159.5
245.866	162.5
246.099	163.5
246.333	162.5
246.566	159.5
246.8	167.5
247.033	153.5
247.266	189.5
247.5	169.5
247.733	186.5
247.966	191.5
248.2	195.5
248.433	194.5
248.666	202.5
248.899	214.5
249.133	221.5
249.366	234.5
249.599	254.5
249.832	208.5
250.066	175.5
250.299	186.5
250.532	214.5
250.765	231.5
250.998	248.5
251.231	268.5
251.465	226.5
251.698	206.5
251.931	231.5
252.164	236.5
252.397	236.5
252.63	216.5
252.863	237.5
253.096	251.5
253.329	256.5
253.562	251.5
253.795	236.5
254.028	222.5
254.261	243.5
254.494	246.5
254.727	266.5
254.96	330.5
255.193	305.5
255.426	296.5
255.659	262.5
255.892	247.5
256.124	259.5
256.357	266.5
256.59	261.5
256.823	239.5
257.056	228.5
257.289	246.5
257.521	245.5
257.754	239.5
257.987	234.5
258.22	236.5
258.452	238.5
258.685	213.5
258.918	238.5
259.151	233.5
259.383	227.5
259.616	229.5
259.849	224.5
260.081	257.5
260.314	293.5
260.547	294.5
260.779	271.5
261.012	246.5
261.244	246.5
261.477	262.5
261.71	250.5
261.942	234.5
262.175	248.5
262.407	248.5
262.64	234.5
262.872	230.5
263.105	228.5
263.337	215.5
263.57	239.5
263.802	229.5
264.035	227.5
264.267	224.5
264.499	226.5
264.732	222.5
264.964	216.5
265.197	235.5
265.429	215.5
265.661	226.5
265.894	233.5
266.126	229.5
266.358	207.5
266.591	218.5
266.823	231.5
267.055	244.5
267.287	244.5
267.52	250.5
267.752	239.5
267.984	252.5
268.216	229.5
268.448	230.5
268.681	250.5
268.913	260.5
269.145	280.5
269.377	308.5
269.609	305.5
269.841	290.5
270.073	296.5
270.306	323.5
270.538	353.5
270.77	332.5
271.002	329.5
271.234	300.5
271.466	331.5
271.698	345.5
271.93	350.5
272.162	350.5
272.394	349.5
272.626	330.5
272.858	324.5
273.09	293.5
273.322	293.5
273.553	280.5
273.785	286.5
274.017	302.5
274.249	286.5
274.481	277.5
274.713	272.5
274.945	284.5
275.176	279.5
275.408	270.5
275.64	291.5
275.872	282.5
276.104	281.5
276.335	284.5
276.567	293.5
276.799	311.5
277.031	336.5
277.262	348.5
277.494	338.5
277.726	322.5
277.957	296.5
278.189	313.5
278.421	300.5
278.652	268.5
278.884	292.5
279.115	264.5
279.347	262.5
279.579	268.5
279.81	280.5
280.042	254.5
280.273	283.5
280.505	259.5
280.736	267.5
280.968	269.5
281.199	270.5
281.431	269.5
281.662	285.5
281.894	290.5
282.125	280.5
282.356	289.5
282.588	315.5
282.819	332.5
283.051	293.5
283.282	278.5
283.513	278.5
283.745	272.5
283.976	281.5
284.207	298.5
284.439	284.5
284.67	266.5
284.901	280.5
285.132	274.5
285.364	277.5
285.595	287.5
285.826	272.5
286.057	283.5
286.288	263.5
286.52	287.5
286.751	283.5
286.982	293.5
287.213	268.5
287.444	290.5
287.675	282.5
287.906	297.5
288.138	308.5
288.369	321.5
288.6	324.5
288.831	310.5
289.062	299.5
289.293	304.5
289.524	287.5
289.755	272.5
289.986	280.5
290.217	278.5
290.448	288.5
290.679	292.5
290.91	272.5
291.141	298.5
291.371	291.5
291.602	285.5
291.833	276.5
292.064	290.5
292.295	290.5
292.526	296.5
292.757	270.5
292.987	283.5
293.218	292.5
293.449	291.5
293.68	289.5
293.91	265.5
294.141	283.5
294.372	283.5
294.603	295.5
294.833	307.5
295.064	290.5
295.295	299.5
295.525	290.5
295.756	292.5
295.987	304.5
296.217	340.5
296.448	337.5
296.679	296.5
296.909	312.5
297.14	312.5
297.37	285.5
297.601	281.5
297.831	279.5
298.062	307.5
298.292	306.5
298.523	295.5
298.753	301.5
298.984	307.5
299.214	298.5
299.445	306.5
299.675	330.5
299.905	322.5
300.136	315.5
300.366	310.5
300.597	337.5
300.827	316.5
301.057	311.5
301.288	322.5
301.518	326.5
301.748	310.5
301.979	324.5
302.209	332.5
302.439	328.5
302.669	337.5
302.9	306.5
303.13	316.5
303.36	329.5
303.59	320.5
303.82	336.5
304.051	331.5
304.281	320.5
304.511	298.5
304.741	325.5
304.971	302.5
305.201	306.5
305.431	336.5
305.661	321.5
305.891	316.5
306.121	316.5
306.352	324.5
306.582	323.5
306.812	338.5
307.042	318.5
307.272	308.5
307.502	336.5
307.731	345.5
307.961	313.5
308.191	339.5
308.421	357.5
308.651	355.5
308.881	339.5
309.111	352.5
309.341	343.5
309.571	364.5
309.8	374.5
310.03	378.5
310.26	384.5
310.49	395.5
310.72	396.5
310.949	422.5
311.179	447.5
311.409	409.5
311.639	380.5
311.868	406.5
312.098	399.5
312.328	419.5
312.557	424.5
312.787	435.5
313.017	440.5
313.246	428.5
313.476	400.5
313.706	378.5
313.935	390.5
314.165	391.5
314.394	443.5
314.624	424.5
314.853	412.5
315.083	399.5
315.312	396.5
315.542	373.5
315.771	357.5
316.001	391.5
316.23	385.5
316.46	388.5
316.689	386.5
316.919	388.5
317.148	408.5
317.377	410.5
317.607	403.5
317.836	384.5
318.065	398.5
318.295	403.5
318.524	396.5
318.753	392.5
318.983	404.5
319.212	413.5
319.441	386.5
319.67	428.5
319.9	404.5
320.129	395.5
320.358	383.5
320.587	393.5
320.816	415.5
321.046	436.5
321.275	423.5
321.504	424.5
321.733	418.5
321.962	431.5
322.191	462.5
322.42	470.5
322.649	487.5
322.878	507.5
323.108	508.5
323.337	563.5
323.566	584.5
323.795	628.5
324.024	706.5
324.253	854.5
324.482	1312.5
324.71	2025.5
324.939	2920.5
325.168	2461.5
325.397	1275.5
325.626	824.5
325.855	647.5
326.084	603.5
326.313	579.5
326.542	597.5
326.77	665.5
326.999	822.5
327.228	1119.5
327.457	1716.5
327.686	2160.5
327.914	1436.5
328.143	920.5
328.372	783.5
328.6	717.5
328.829	671.5
329.058	670.5
329.287	711.5
329.515	654.5
329.744	601.5
329.972	582.5
330.201	601.5
330.43	696.5
330.658	684.5
330.887	762.5
331.115	732.5
331.344	623.5
331.572	557.5
331.801	558.5
332.03	548.5
332.258	535.5
332.486	481.5
332.715	476.5
332.943	473.5
333.172	471.5
333.4	482.5
333.629	477.5
333.857	516.5
334.085	524.5
334.314	534.5
334.542	573.5
334.771	620.5
334.999	542.5
335.227	492.5
335.455	459.5
335.684	469.5
335.912	463.5
336.14	462.5
336.369	450.5
336.597	469.5
336.825	480.5
337.053	458.5
337.281	472.5
337.51	454.5
337.738	462.5
337.966	455.5
338.194	458.5
338.422	476.5
338.65	441.5
338.878	436.5
339.106	442.5
339.334	441.5
339.562	441.5
339.79	431.5
340.018	446.5
340.246	427.5
340.474	450.5
340.702	445.5
340.93	452.5
341.158	448.5
341.386	444.5
341.614	456.5
341.842	452.5
342.07	441.5
342.298	443.5
342.526	434.5
342.754	422.5
342.981	435.5
343.209	416.5
343.437	426.5
343.665	420.5
343.893	436.5
344.12	453.5
344.348	465.5
344.576	454.5
344.804	444.5
345.031	482.5
345.259	471.5
345.487	504.5
345.714	465.5
345.942	450.5
346.17	436.5
346.397	424.5
346.625	457.5
346.853	449.5
347.08	447.5
347.308	435.5
347.535	452.5
347.763	472.5
347.99	453.5
348.218	470.5
348.445	454.5
348.673	453.5
348.9	446.5
349.128	439.5
349.355	437.5
349.583	442.5
349.81	442.5
350.037	445.5
350.265	427.5
350.492	443.5
350.72	434.5
350.947	438.5
351.174	450.5
351.402	456.5
351.629	441.5
351.856	464.5
352.083	479.5
352.311	467.5
352.538	469.5
352.765	475.5
352.992	472.5
353.22	451.5
353.447	436.5
353.674	429.5
353.901	444.5
354.128	418.5
354.355	422.5
354.583	418.5
354.81	410.5
355.037	421.5
355.264	392.5
355.491	401.5
355.718	394.5
355.945	411.5
356.172	382.5
356.399	407.5
356.626	404.5
356.853	387.5
357.08	399.5
357.307	394.5
357.534	406.5
357.761	398.5
357.988	414.5
358.215	399.5
358.441	414.5
358.668	414.5
358.895	422.5
359.122	438.5
359.349	435.5
359.576	454.5
359.802	505.5
360.029	534.5
360.256	544.5
360.483	493.5
360.709	467.5
360.936	449.5
361.163	459.5
361.39	470.5
361.616	451.5
361.843	450.5
362.07	451.5
362.296	446.5
362.523	456.5
362.749	446.5
362.976	462.5
363.203	443.5
363.429	410.5
363.656	415.5
363.882	424.5
364.109	425.5
364.335	430.5
364.562	418.5
364.788	422.5
365.015	424.5
365.241	437.5
365.468	440.5
365.694	441.5
365.92	459.5
366.147	438.5
366.373	436.5
366.599	416.5
366.826	414.5
367.052	424.5
367.278	427.5
367.505	440.5
367.731	410.5
367.957	430.5
368.184	415.5
368.41	415.5
368.636	443.5
368.862	453.5
369.089	415.5
369.315	424.5
369.541	440.5
369.767	420.5
369.993	399.5
370.219	427.5
370.445	427.5
370.672	431.5
370.898	408.5
371.124	402.5
371.35	414.5
371.576	422.5
371.802	398.5
372.028	400.5
372.254	415.5
372.48	426.5
372.706	420.5
372.932	420.5
373.158	412.5
373.384	418.5
373.61	421.5
373.835	435.5
374.061	421.5
374.287	418.5
374.513	446.5
374.739	431.5
374.965	429.5
375.191	429.5
375.416	419.5
375.642	419.5
375.868	418.5
376.094	415.5
376.319	433.5
376.545	418.5
376.771	407.5
376.997	417.5
377.222	407.5
377.448	407.5
377.674	423.5
377.899	411.5
378.125	404.5
378.35	386.5
378.576	391.5
378.802	396.5
379.027	404.5
379.253	401.5
379.478	414.5
379.704	415.5
379.929	422.5
380.155	435.5
380.38	395.5
380.606	427.5
380.831	417.5
381.057	417.5
381.282	407.5
381.507	397.5
381.733	408.5
381.958	408.5
382.184	397.5
382.409	421.5
382.634	420.5
382.86	429.5
383.085	423.5
383.31	419.5
383.535	437.5
383.761	451.5
383.986	424.5
384.211	438.5
384.436	427.5
384.662	422.5
384.887	430.5
385.112	424.5
385.337	426.5
385.562	436.5
385.787	456.5
386.013	440.5
386.238	483.5
386.463	466.5
386.688	461.5
386.913	445.5
387.138	440.5
387.363	433.5
387.588	442.5
387.813	458.5
388.038	450.5
388.263	470.5
388.488	473.5
388.713	447.5
388.938	450.5
389.163	428.5
389.387	469.5
389.612	433.5
389.837	427.5
390.062	451.5
390.287	460.5
390.512	458.5
390.736	461.5
390.961	459.5
391.186	461.5
391.411	460.5
391.636	446.5
391.86	452.5
392.085	456.5
392.31	443.5
392.534	463.5
392.759	464.5
392.984	465.5
393.208	460.5
393.433	461.5
393.658	447.5
393.882	460.5
394.107	451.5
394.331	454.5
394.556	466.5
394.78	467.5
395.005	451.5
395.229	442.5
395.454	469.5
395.678	469.5
395.903	489.5
396.127	498.5
396.352	506.5
396.576	491.5
396.801	467.5
397.025	475.5
397.249	464.5
397.474	488.5
397.698	498.5
397.922	519.5
398.147	506.5
398.371	514.5
398.595	509.5
398.82	520.5
399.044	532.5
399.268	525.5
399.492	546.5
399.717	583.5
399.941	567.5
400.165	604.5
400.389	653.5
400.613	574.5
400.837	566.5
401.062	536.5
401.286	526.5
401.51	511.5
401.734	550.5
401.958	508.5
402.182	524.5
402.406	523.5
402.63	557.5
402.854	556.5
403.078	558.5
403.302	538.5
403.526	533.5
403.75	555.5
403.974	533.5
404.198	546.5
404.422	528.5
404.645	572.5
404.869	566.5
405.093	597.5
405.317	638.5
405.541	685.5
405.765	604.5
405.988	550.5
406.212	598.5
406.436	606.5
406.66	628.5
406.883	624.5
407.107	630.5
407.331	668.5
407.555	748.5
407.778	740.5
408.002	678.5
408.226	635.5
408.449	599.5
408.673	631.5
408.896	652.5
409.12	708.5
409.344	645.5
409.567	588.5
409.791	575.5
410.014	567.5
410.238	564.5
410.461	554.5
410.685	574.5
410.908	588.5
411.132	615.5
411.355	652.5
411.578	630.5
411.802	584.5
412.025	534.5
412.249	568.5
412.472	635.5
412.695	635.5
412.919	614.5
413.142	556.5
413.365	559.5
413.589	526.5
413.812	528.5
414.035	534.5
414.258	512.5
414.482	520.5
414.705	520.5
414.928	538.5
415.151	493.5
415.374	493.5
415.597	520.5
415.821	506.5
416.044	520.5
416.267	525.5
416.49	520.5
416.713	524.5
416.936	526.5
417.159	534.5
417.382	528.5
417.605	548.5
417.828	546.5
418.051	560.5
418.274	551.5
418.497	513.5
418.72	520.5
418.943	529.5
419.166	545.5
419.389	584.5
419.611	562.5
419.834	539.5
420.057	550.5
420.28	549.5
420.503	555.5
420.726	544.5
420.948	572.5
421.171	648.5
421.394	656.5
421.617	594.5
421.839	576.5
422.062	587.5
422.285	583.5
422.507	643.5
422.73	727.5
422.953	725.5
423.175	609.5
423.398	603.5
423.621	605.5
423.843	592.5
424.066	615.5
424.288	618.5
424.511	660.5
424.733	711.5
424.956	813.5
425.178	767.5
425.401	766.5
425.623	802.5
425.846	679.5
426.068	646.5
426.291	624.5
426.513	614.5
426.735	626.5
426.958	689.5
427.18	781.5
427.402	940.5
427.625	1025.5
427.847	944.5
428.069	798.5
428.292	715.5
428.514	640.5
428.736	610.5
428.958	605.5
429.181	596.5
429.403	583.5
429.625	570.5
429.847	650.5
430.069	683.5
430.292	705.5
430.514	630.5
430.736	593.5
430.958	562.5
431.18	556.5
431.402	559.5
431.624	532.5
431.846	538.5
432.068	517.5
432.29	532.5
432.512	536.5
432.734	553.5
432.956	562.5
433.178	549.5
433.4	578.5
433.622	552.5
433.844	553.5
434.066	549.5
434.287	533.5
434.509	532.5
434.731	557.5
434.953	562.5
435.175	598.5
435.397	620.5
435.618	651.5
435.84	684.5
436.062	793.5
436.284	878.5
436.505	739.5
436.727	660.5
436.949	606.5
437.17	580.5
437.392	605.5
437.614	639.5
437.835	669.5
438.057	774.5
438.278	920.5
438.5	895.5
438.721	945.5
438.943	881.5
439.165	727.5
439.386	666.5
439.608	653.5
439.829	674.5
440.05	706.5
440.272	763.5
440.493	691.5
440.715	636.5
440.936	604.5
441.158	596.5
441.379	590.5
441.6	578.5
441.822	633.5
442.043	685.5
442.264	752.5
442.486	830.5
442.707	721.5
442.928	670.5
443.149	659.5
443.371	718.5
443.592	733.5
443.813	850.5
444.034	887.5
444.255	751.5
444.476	678.5
444.698	653.5
444.919	638.5
445.14	716.5
445.361	697.5
445.582	694.5
445.803	813.5
446.024	900.5
446.245	918.5
446.466	825.5
446.687	690.5
446.908	654.5
447.129	619.5
447.35	600.5
447.571	589.5
447.792	568.5
448.013	591.5
448.234	632.5
448.455	686.5
448.675	776.5
448.896	943.5
449.117	797.5
449.338	767.5
449.559	866.5
449.779	956.5
450	802.5
450.221	688.5
450.442	631.5
450.662	570.5
450.883	602.5
451.104	591.5
451.324	637.5
451.545	576.5
451.766	537.5
451.986	548.5
452.207	519.5
452.428	516.5
452.648	524.5
452.869	529.5
453.089	524.5
453.31	550.5
453.53	547.5
453.751	540.5
453.971	533.5
454.192	545.5
454.412	535.5
454.633	540.5
454.853	512.5
455.073	506.5
455.294	573.5
455.514	662.5
455.734	636.5
455.955	537.5
456.175	497.5
456.395	522.5
456.616	484.5
456.836	513.5
457.056	482.5
457.276	478.5
457.497	489.5
457.717	495.5
457.937	501.5
458.157	516.5
458.377	511.5
458.598	531.5
458.818	638.5
459.038	750.5
459.258	753.5
459.478	620.5
459.698	558.5
459.918	524.5
460.138	524.5
460.358	536.5
460.578	531.5
460.798	553.5
461.018	535.5
461.238	515.5
461.458	520.5
461.678	519.5
461.898	524.5
462.118	527.5
462.338	531.5
462.558	518.5
462.777	542.5
462.997	550.5
463.217	565.5
463.437	554.5
463.657	542.5
463.876	559.5
464.096	566.5
464.316	572.5
464.536	582.5
464.755	578.5
464.975	597.5
465.195	641.5
465.414	784.5
465.634	657.5
465.854	606.5
466.073	546.5
466.293	572.5
466.512	546.5
466.732	521.5
466.951	540.5
467.171	532.5
467.391	538.5
467.61	559.5
467.829	566.5
468.049	540.5
468.268	547.5
468.488	538.5
468.707	527.5
468.927	516.5
469.146	512.5
469.365	516.5
469.585	495.5
469.804	530.5
470.023	566.5
470.243	557.5
470.462	566.5
470.681	583.5
470.901	589.5
471.12	537.5
471.339	554.5
471.558	559.5
471.777	560.5
471.997	522.5
472.216	555.5
472.435	614.5
472.654	568.5
472.873	568.5
473.092	533.5
473.311	526.5
473.53	557.5
473.749	554.5
473.968	634.5
474.187	732.5
474.406	763.5
474.625	618.5
474.844	563.5
475.063	545.5
475.282	547.5
475.501	555.5
475.72	550.5
475.939	574.5
476.158	559.5
476.377	570.5
476.596	554.5
476.814	553.5
477.033	569.5
477.252	599.5
477.471	591.5
477.69	551.5
477.908	563.5
478.127	587.5
478.346	584.5
478.564	604.5
478.783	606.5
479.002	607.5
479.22	616.5
479.439	629.5
479.658	656.5
479.876	670.5
480.095	659.5
480.313	704.5
480.532	682.5
480.751	669.5
480.969	672.5
481.188	764.5
481.406	826.5
481.624	726.5
481.843	668.5
482.061	666.5
482.28	655.5
482.498	652.5
482.717	647.5
482.935	641.5
483.153	652.5
483.372	654.5
483.59	670.5
483.808	669.5
484.027	646.5
484.245	638.5
484.463	650.5
484.681	664.5
484.9	683.5
485.118	690.5
485.336	676.5
485.554	677.5
485.772	675.5
485.99	659.5
486.209	678.5
486.427	686.5
486.645	715.5
486.863	734.5
487.081	746.5
487.299	724.5
487.517	738.5
487.735	707.5
487.953	719.5
488.171	708.5
488.389	687.5
488.607	734.5
488.825	727.5
489.043	736.5
489.261	732.5
489.479	708.5
489.696	730.5
489.914	703.5
490.132	724.5
490.35	726.5
490.568	765.5
490.786	762.5
491.003	784.5
491.221	810.5
491.439	806.5
491.657	824.5
491.874	843.5
492.092	810.5
492.31	836.5
492.527	854.5
492.745	845.5
492.963	851.5
493.18	834.5
493.398	840.5
493.615	870.5
493.833	859.5
494.05	869.5
494.268	872.5
494.485	865.5
494.703	868.5
494.92	847.5
495.138	857.5
495.355	844.5
495.573	870.5
495.79	861.5
496.008	867.5
496.225	844.5
496.442	851.5
496.66	835.5
496.877	845.5
497.094	854.5
497.312	867.5
497.529	875.5
497.746	876.5
497.963	903.5
498.181	918.5
498.398	893.5
498.615	906.5
498.832	935.5
499.049	906.5
499.267	913.5
499.484	938.5
499.701	956.5
499.918	963.5
500.135	991.5
500.352	1036.5
500.569	1018.5
500.786	1022.5
501.003	1049.5
501.22	993.5
501.437	1007.5
501.654	997.5
501.871	1019.5
502.088	979.5
502.305	956.5
502.522	932.5
502.739	916.5
502.956	880.5
503.172	872.5
503.389	883.5
503.606	859.5
503.823	879.5
504.04	863.5
504.256	838.5
504.473	825.5
504.69	839.5
504.907	849.5
505.123	828.5
505.34	823.5
505.557	832.5
505.773	838.5
505.99	830.5
506.207	819.5
506.423	836.5
506.64	834.5
506.856	808.5
507.073	812.5
507.289	806.5
507.506	816.5
507.722	829.5
507.939	854.5
508.155	826.5
508.372	793.5
508.588	804.5
508.805	793.5
509.021	781.5
509.238	818.5
509.454	813.5
509.67	801.5
509.887	815.5
510.103	786.5
510.319	842.5
510.536	954.5
510.752	1634.5
510.968	1322.5
511.184	826.5
511.401	801.5
511.617	764.5
511.833	738.5
512.049	754.5
512.265	748.5
512.481	769.5
512.698	738.5
512.914	788.5
513.13	758.5
513.346	744.5
513.562	740.5
513.778	760.5
513.994	788.5
514.21	784.5
514.426	806.5
514.642	894.5
514.858	950.5
515.074	1008.5
515.29	1229.5
515.506	1859.5
515.721	1482.5
515.937	988.5
516.153	857.5
516.369	833.5
516.585	812.5
516.801	778.5
517.016	763.5
517.232	780.5
517.448	760.5
517.664	744.5
517.879	765.5
518.095	754.5
518.311	759.5
518.527	738.5
518.742	728.5
518.958	742.5
519.173	728.5
