Data from 1971.PennyLincolnUp.Lamp.En5.5.200Scan.071719.P1.Scan 2. Changed Angle._HRD10591_15-25-37-842.txt Node
Date: Thu Jul 18 15:25:37 EDT 2019
User: cochatt
Spectrometer: HR+D1059
Trigger mode: 1
Integration Time (sec): 1.000000E-1
Scans to average: 1
Electric dark correction enabled: true
Nonlinearity correction enabled: false
Boxcar width: 0
XAxis mode: Wavelengths
Number of Pixels in Spectrum: 2048
>>>>>Begin Spectral Data<<<<<
223.165	-15.38
223.4	-15.38
223.635	-15.38
223.869	-20.38
224.104	-30.38
224.338	-14.38
224.573	-12.38
224.808	-22.38
225.042	-5.38
225.277	-5.38
225.511	8.62
225.746	15.62
225.98	-3.38
226.215	15.62
226.449	21.62
226.683	15.62
226.918	19.62
227.152	32.62
227.387	33.62
227.621	35.62
227.856	49.62
228.09	41.62
228.324	41.62
228.559	39.62
228.793	76.62
229.027	102.62
229.262	106.62
229.496	132.62
229.73	150.62
229.964	185.62
230.199	160.62
230.433	143.62
230.667	135.62
230.901	133.62
231.136	120.62
231.37	115.62
231.604	119.62
231.838	133.62
232.072	129.62
232.306	110.62
232.541	117.62
232.775	123.62
233.009	125.62
233.243	116.62
233.477	129.62
233.711	121.62
233.945	125.62
234.179	115.62
234.413	123.62
234.647	123.62
234.881	122.62
235.115	132.62
235.349	128.62
235.583	134.62
235.817	136.62
236.051	152.62
236.285	143.62
236.519	134.62
236.753	161.62
236.987	169.62
237.221	220.62
237.455	266.62
237.689	224.62
237.922	165.62
238.156	163.62
238.39	139.62
238.624	143.62
238.858	160.62
239.091	133.62
239.325	127.62
239.559	149.62
239.793	145.62
240.027	148.62
240.26	153.62
240.494	188.62
240.728	180.62
240.961	166.62
241.195	168.62
241.429	152.62
241.662	151.62
241.896	159.62
242.13	159.62
242.363	152.62
242.597	140.62
242.83	167.62
243.064	145.62
243.298	150.62
243.531	156.62
243.765	150.62
243.998	158.62
244.232	151.62
244.465	152.62
244.699	150.62
244.932	161.62
245.166	170.62
245.399	171.62
245.633	155.62
245.866	157.62
246.099	147.62
246.333	167.62
246.566	166.62
246.8	167.62
247.033	184.62
247.266	181.62
247.5	176.62
247.733	179.62
247.966	185.62
248.2	184.62
248.433	189.62
248.666	197.62
248.899	221.62
249.133	216.62
249.366	264.62
249.599	219.62
249.832	215.62
250.066	212.62
250.299	210.62
250.532	212.62
250.765	255.62
250.998	259.62
251.231	270.62
251.465	257.62
251.698	246.62
251.931	230.62
252.164	231.62
252.397	239.62
252.63	227.62
252.863	238.62
253.096	237.62
253.329	276.62
253.562	270.62
253.795	249.62
254.028	252.62
254.261	269.62
254.494	270.62
254.727	303.62
254.96	319.62
255.193	318.62
255.426	306.62
255.659	284.62
255.892	269.62
256.124	271.62
256.357	280.62
256.59	257.62
256.823	260.62
257.056	251.62
257.289	245.62
257.521	235.62
257.754	224.62
257.987	240.62
258.22	224.62
258.452	246.62
258.685	235.62
258.918	233.62
259.151	238.62
259.383	247.62
259.616	250.62
259.849	256.62
260.081	261.62
260.314	286.62
260.547	294.62
260.779	271.62
261.012	259.62
261.244	236.62
261.477	276.62
261.71	257.62
261.942	264.62
262.175	277.62
262.407	274.62
262.64	243.62
262.872	229.62
263.105	249.62
263.337	231.62
263.57	249.62
263.802	229.62
264.035	221.62
264.267	240.62
264.499	225.62
264.732	225.62
264.964	226.62
265.197	212.62
265.429	247.62
265.661	236.62
265.894	238.62
266.126	238.62
266.358	232.62
266.591	238.62
266.823	228.62
267.055	251.62
267.287	267.62
267.52	264.62
267.752	250.62
267.984	228.62
268.216	256.62
268.448	262.62
268.681	241.62
268.913	289.62
269.145	277.62
269.377	319.62
269.609	314.62
269.841	301.62
270.073	300.62
270.306	327.62
270.538	362.62
270.77	364.62
271.002	351.62
271.234	337.62
271.466	340.62
271.698	363.62
271.93	350.62
272.162	373.62
272.394	363.62
272.626	349.62
272.858	337.62
273.09	303.62
273.322	317.62
273.553	307.62
273.785	296.62
274.017	273.62
274.249	295.62
274.481	292.62
274.713	287.62
274.945	297.62
275.176	287.62
275.408	282.62
275.64	295.62
275.872	297.62
276.104	283.62
276.335	268.62
276.567	313.62
276.799	317.62
277.031	334.62
277.262	343.62
277.494	347.62
277.726	333.62
277.957	320.62
278.189	311.62
278.421	298.62
278.652	275.62
278.884	296.62
279.115	269.62
279.347	289.62
279.579	274.62
279.81	269.62
280.042	270.62
280.273	276.62
280.505	277.62
280.736	292.62
280.968	273.62
281.199	279.62
281.431	283.62
281.662	278.62
281.894	280.62
282.125	297.62
282.356	316.62
282.588	330.62
282.819	325.62
283.051	304.62
283.282	283.62
283.513	296.62
283.745	304.62
283.976	304.62
284.207	279.62
284.439	287.62
284.67	280.62
284.901	307.62
285.132	267.62
285.364	288.62
285.595	295.62
285.826	281.62
286.057	280.62
286.288	299.62
286.52	295.62
286.751	298.62
286.982	289.62
287.213	267.62
287.444	291.62
287.675	285.62
287.906	305.62
288.138	312.62
288.369	317.62
288.6	299.62
288.831	316.62
289.062	302.62
289.293	302.62
289.524	308.62
289.755	293.62
289.986	304.62
290.217	299.62
290.448	307.62
290.679	301.62
290.91	309.62
291.141	312.62
291.371	281.62
291.602	279.62
291.833	295.62
292.064	290.62
292.295	294.62
292.526	309.62
292.757	323.62
292.987	287.62
293.218	280.62
293.449	294.62
293.68	324.62
293.91	299.62
294.141	293.62
294.372	297.62
294.603	292.62
294.833	295.62
295.064	294.62
295.295	311.62
295.525	311.62
295.756	305.62
295.987	333.62
296.217	327.62
296.448	348.62
296.679	327.62
296.909	304.62
297.14	296.62
297.37	324.62
297.601	300.62
297.831	305.62
298.062	315.62
298.292	308.62
298.523	302.62
298.753	317.62
298.984	305.62
299.214	311.62
299.445	320.62
299.675	319.62
299.905	316.62
300.136	331.62
300.366	310.62
300.597	329.62
300.827	323.62
301.057	339.62
301.288	316.62
301.518	332.62
301.748	335.62
301.979	330.62
302.209	341.62
302.439	334.62
302.669	325.62
302.9	337.62
303.13	321.62
303.36	326.62
303.59	339.62
303.82	333.62
304.051	336.62
304.281	341.62
304.511	347.62
304.741	373.62
304.971	333.62
305.201	348.62
305.431	329.62
305.661	336.62
305.891	332.62
306.121	346.62
306.352	348.62
306.582	349.62
306.812	340.62
307.042	347.62
307.272	340.62
307.502	341.62
307.731	355.62
307.961	361.62
308.191	336.62
308.421	347.62
308.651	353.62
308.881	372.62
309.111	363.62
309.341	362.62
309.571	350.62
309.8	382.62
310.03	381.62
310.26	388.62
310.49	407.62
310.72	424.62
310.949	425.62
311.179	444.62
311.409	423.62
311.639	395.62
311.868	409.62
312.098	410.62
312.328	426.62
312.557	433.62
312.787	444.62
313.017	445.62
313.246	453.62
313.476	436.62
313.706	413.62
313.935	401.62
314.165	438.62
314.394	427.62
314.624	439.62
314.853	414.62
315.083	409.62
315.312	388.62
315.542	392.62
315.771	387.62
316.001	378.62
316.23	409.62
316.46	389.62
316.689	414.62
316.919	393.62
317.148	434.62
317.377	417.62
317.607	412.62
317.836	429.62
318.065	402.62
318.295	399.62
318.524	402.62
318.753	387.62
318.983	407.62
319.212	405.62
319.441	413.62
319.67	435.62
319.9	411.62
320.129	419.62
320.358	405.62
320.587	416.62
320.816	416.62
321.046	409.62
321.275	449.62
321.504	430.62
321.733	441.62
321.962	432.62
322.191	488.62
322.42	481.62
322.649	485.62
322.878	511.62
323.108	515.62
323.337	583.62
323.566	595.62
323.795	640.62
324.024	705.62
324.253	873.62
324.482	1269.62
324.71	2065.62
324.939	2935.62
325.168	2513.62
325.397	1278.62
325.626	849.62
325.855	662.62
326.084	626.62
326.313	591.62
326.542	604.62
326.77	685.62
326.999	827.62
327.228	1120.62
327.457	1808.62
327.686	2217.62
327.914	1469.62
328.143	927.62
328.372	806.62
328.6	723.62
328.829	687.62
329.058	681.62
329.287	738.62
329.515	647.62
329.744	592.62
329.972	612.62
330.201	616.62
330.43	686.62
330.658	718.62
330.887	751.62
331.115	732.62
331.344	610.62
331.572	570.62
331.801	553.62
332.03	565.62
332.258	527.62
332.486	510.62
332.715	482.62
332.943	507.62
333.172	517.62
333.4	488.62
333.629	515.62
333.857	527.62
334.085	531.62
334.314	556.62
334.542	593.62
334.771	613.62
334.999	561.62
335.227	519.62
335.455	495.62
335.684	493.62
335.912	479.62
336.14	456.62
336.369	487.62
336.597	494.62
336.825	491.62
337.053	465.62
337.281	472.62
337.51	452.62
337.738	462.62
337.966	477.62
338.194	490.62
338.422	476.62
338.65	469.62
338.878	465.62
339.106	461.62
339.334	452.62
339.562	455.62
339.79	446.62
340.018	473.62
340.246	476.62
340.474	470.62
340.702	483.62
340.93	460.62
341.158	435.62
341.386	443.62
341.614	480.62
341.842	472.62
342.07	463.62
342.298	459.62
342.526	439.62
342.754	434.62
342.981	425.62
343.209	446.62
343.437	437.62
343.665	460.62
343.893	446.62
344.12	461.62
344.348	445.62
344.576	439.62
344.804	468.62
345.031	475.62
345.259	479.62
345.487	489.62
345.714	465.62
345.942	444.62
346.17	453.62
346.397	451.62
346.625	461.62
346.853	449.62
347.08	443.62
347.308	458.62
347.535	499.62
347.763	494.62
347.99	453.62
348.218	463.62
348.445	477.62
348.673	490.62
348.9	445.62
349.128	431.62
349.355	431.62
349.583	439.62
349.81	440.62
350.037	454.62
350.265	439.62
350.492	433.62
350.72	446.62
350.947	443.62
351.174	472.62
351.402	484.62
351.629	464.62
351.856	464.62
352.083	488.62
352.311	480.62
352.538	492.62
352.765	479.62
352.992	481.62
353.22	475.62
353.447	473.62
353.674	454.62
353.901	449.62
354.128	421.62
354.355	415.62
354.583	445.62
354.81	440.62
355.037	425.62
355.264	418.62
355.491	423.62
355.718	438.62
355.945	398.62
356.172	417.62
356.399	410.62
356.626	402.62
356.853	401.62
357.08	439.62
357.307	413.62
357.534	403.62
357.761	422.62
357.988	419.62
358.215	413.62
358.441	394.62
358.668	421.62
358.895	424.62
359.122	423.62
359.349	435.62
359.576	475.62
359.802	525.62
360.029	543.62
360.256	549.62
360.483	519.62
360.709	486.62
360.936	480.62
361.163	465.62
361.39	458.62
361.616	469.62
361.843	471.62
362.07	465.62
362.296	469.62
362.523	459.62
362.749	450.62
362.976	448.62
363.203	466.62
363.429	436.62
363.656	464.62
363.882	426.62
364.109	444.62
364.335	441.62
364.562	444.62
364.788	431.62
365.015	441.62
365.241	445.62
365.468	469.62
365.694	457.62
365.92	454.62
366.147	443.62
366.373	435.62
366.599	439.62
366.826	445.62
367.052	413.62
367.278	434.62
367.505	428.62
367.731	451.62
367.957	427.62
368.184	419.62
368.41	436.62
368.636	445.62
368.862	468.62
369.089	453.62
369.315	415.62
369.541	435.62
369.767	441.62
369.993	429.62
370.219	424.62
370.445	447.62
370.672	428.62
370.898	422.62
371.124	432.62
371.35	413.62
371.576	407.62
371.802	450.62
372.028	409.62
372.254	420.62
372.48	430.62
372.706	441.62
372.932	425.62
373.158	424.62
373.384	422.62
373.61	417.62
373.835	415.62
374.061	426.62
374.287	446.62
374.513	428.62
374.739	447.62
374.965	433.62
375.191	431.62
375.416	431.62
375.642	414.62
375.868	430.62
376.094	435.62
376.319	439.62
376.545	442.62
376.771	439.62
376.997	422.62
377.222	417.62
377.448	438.62
377.674	432.62
377.899	417.62
378.125	418.62
378.35	420.62
378.576	420.62
378.802	411.62
379.027	413.62
379.253	405.62
379.478	416.62
379.704	428.62
379.929	426.62
380.155	448.62
380.38	421.62
380.606	432.62
380.831	426.62
381.057	443.62
381.282	428.62
381.507	443.62
381.733	440.62
381.958	436.62
382.184	447.62
382.409	429.62
382.634	442.62
382.86	419.62
383.085	445.62
383.31	440.62
383.535	444.62
383.761	432.62
383.986	429.62
384.211	452.62
384.436	443.62
384.662	453.62
384.887	455.62
385.112	432.62
385.337	455.62
385.562	459.62
385.787	474.62
386.013	462.62
386.238	469.62
386.463	471.62
386.688	460.62
386.913	465.62
387.138	449.62
387.363	463.62
387.588	451.62
387.813	461.62
388.038	465.62
388.263	456.62
388.488	460.62
388.713	473.62
388.938	474.62
389.163	458.62
389.387	465.62
389.612	468.62
389.837	457.62
390.062	462.62
390.287	448.62
390.512	491.62
390.736	464.62
390.961	456.62
391.186	460.62
391.411	476.62
391.636	479.62
391.86	452.62
392.085	460.62
392.31	468.62
392.534	487.62
392.759	465.62
392.984	476.62
393.208	463.62
393.433	479.62
393.658	469.62
393.882	477.62
394.107	476.62
394.331	466.62
394.556	472.62
394.78	476.62
395.005	471.62
395.229	472.62
395.454	499.62
395.678	488.62
395.903	492.62
396.127	518.62
396.352	514.62
396.576	495.62
396.801	499.62
397.025	501.62
397.249	484.62
397.474	491.62
397.698	516.62
397.922	494.62
398.147	529.62
398.371	548.62
398.595	518.62
398.82	528.62
399.044	532.62
399.268	550.62
399.492	553.62
399.717	577.62
399.941	627.62
400.165	627.62
400.389	660.62
400.613	627.62
400.837	565.62
401.062	539.62
401.286	534.62
401.51	535.62
401.734	545.62
401.958	554.62
402.182	543.62
402.406	537.62
402.63	556.62
402.854	554.62
403.078	552.62
403.302	551.62
403.526	591.62
403.75	565.62
403.974	561.62
404.198	533.62
404.422	573.62
404.645	593.62
404.869	582.62
405.093	601.62
405.317	639.62
405.541	719.62
405.765	630.62
405.988	595.62
406.212	595.62
406.436	643.62
406.66	641.62
406.883	636.62
407.107	655.62
407.331	688.62
407.555	772.62
407.778	752.62
408.002	683.62
408.226	637.62
408.449	651.62
408.673	639.62
408.896	660.62
409.12	705.62
409.344	671.62
409.567	608.62
409.791	602.62
410.014	574.62
410.238	586.62
410.461	580.62
410.685	568.62
410.908	606.62
411.132	652.62
411.355	671.62
411.578	637.62
411.802	604.62
412.025	572.62
412.249	570.62
412.472	603.62
412.695	646.62
412.919	640.62
413.142	616.62
413.365	571.62
413.589	563.62
413.812	537.62
414.035	548.62
414.258	531.62
414.482	533.62
414.705	552.62
414.928	534.62
415.151	534.62
415.374	529.62
415.597	521.62
415.821	525.62
416.044	528.62
416.267	560.62
416.49	544.62
416.713	523.62
416.936	549.62
417.159	537.62
417.382	534.62
417.605	545.62
417.828	571.62
418.051	579.62
418.274	569.62
418.497	551.62
418.72	560.62
418.943	558.62
419.166	571.62
419.389	559.62
419.611	575.62
419.834	559.62
420.057	580.62
420.28	586.62
420.503	553.62
420.726	591.62
420.948	597.62
421.171	668.62
421.394	684.62
421.617	628.62
421.839	586.62
422.062	595.62
422.285	598.62
422.507	670.62
422.73	757.62
422.953	736.62
423.175	642.62
423.398	605.62
423.621	636.62
423.843	644.62
424.066	619.62
424.288	642.62
424.511	673.62
424.733	727.62
424.956	816.62
425.178	816.62
425.401	797.62
425.623	823.62
425.846	705.62
426.068	648.62
426.291	644.62
426.513	658.62
426.735	657.62
426.958	723.62
427.18	798.62
427.402	957.62
427.625	1065.62
427.847	981.62
428.069	822.62
428.292	726.62
428.514	652.62
428.736	639.62
428.958	613.62
429.181	585.62
429.403	611.62
429.625	616.62
429.847	645.62
430.069	737.62
430.292	743.62
430.514	645.62
430.736	595.62
430.958	585.62
431.18	573.62
431.402	549.62
431.624	577.62
431.846	536.62
432.068	556.62
432.29	551.62
432.512	568.62
432.734	582.62
432.956	561.62
433.178	601.62
433.4	583.62
433.622	593.62
433.844	549.62
434.066	555.62
434.287	542.62
434.509	569.62
434.731	565.62
434.953	581.62
435.175	596.62
435.397	640.62
435.618	642.62
435.84	688.62
436.062	796.62
436.284	893.62
436.505	760.62
436.727	694.62
436.949	634.62
437.17	637.62
437.392	607.62
437.614	614.62
437.835	666.62
438.057	796.62
438.278	904.62
438.5	891.62
438.721	992.62
438.943	923.62
439.165	784.62
439.386	705.62
439.608	688.62
439.829	698.62
440.05	720.62
440.272	775.62
440.493	725.62
440.715	661.62
440.936	638.62
441.158	620.62
441.379	623.62
441.6	620.62
441.822	651.62
442.043	710.62
442.264	825.62
442.486	853.62
442.707	706.62
442.928	686.62
443.149	672.62
443.371	712.62
443.592	769.62
443.813	886.62
444.034	935.62
444.255	774.62
444.476	677.62
444.698	657.62
444.919	647.62
445.14	715.62
445.361	689.62
445.582	722.62
445.803	819.62
446.024	928.62
446.245	947.62
446.466	868.62
446.687	701.62
446.908	636.62
447.129	639.62
447.35	614.62
447.571	585.62
447.792	611.62
448.013	631.62
448.234	663.62
448.455	711.62
448.675	838.62
448.896	933.62
449.117	815.62
449.338	779.62
449.559	888.62
449.779	997.62
450	818.62
450.221	691.62
450.442	621.62
450.662	621.62
450.883	619.62
451.104	616.62
451.324	633.62
451.545	567.62
451.766	585.62
451.986	556.62
452.207	540.62
452.428	532.62
452.648	539.62
452.869	561.62
453.089	544.62
453.31	571.62
453.53	571.62
453.751	554.62
453.971	536.62
454.192	577.62
454.412	568.62
454.633	545.62
454.853	536.62
455.073	541.62
455.294	590.62
455.514	661.62
455.734	656.62
455.955	569.62
456.175	552.62
456.395	485.62
456.616	499.62
456.836	499.62
457.056	489.62
457.276	496.62
457.497	472.62
457.717	509.62
457.937	526.62
458.157	513.62
458.377	525.62
458.598	541.62
458.818	617.62
459.038	764.62
459.258	783.62
459.478	641.62
459.698	573.62
459.918	544.62
460.138	539.62
460.358	571.62
460.578	567.62
460.798	568.62
461.018	560.62
461.238	535.62
461.458	548.62
461.678	544.62
461.898	544.62
462.118	544.62
462.338	547.62
462.558	565.62
462.777	586.62
462.997	588.62
463.217	555.62
463.437	583.62
463.657	560.62
463.876	576.62
464.096	562.62
464.316	592.62
464.536	593.62
464.755	621.62
464.975	619.62
465.195	673.62
465.414	793.62
465.634	678.62
465.854	632.62
466.073	584.62
466.293	559.62
466.512	535.62
466.732	535.62
466.951	541.62
467.171	553.62
467.391	538.62
467.61	563.62
467.829	572.62
468.049	577.62
468.268	590.62
468.488	561.62
468.707	542.62
468.927	554.62
469.146	534.62
469.365	555.62
469.585	558.62
469.804	533.62
470.023	567.62
470.243	574.62
470.462	577.62
470.681	609.62
470.901	581.62
471.12	574.62
471.339	573.62
471.558	583.62
471.777	572.62
471.997	571.62
472.216	558.62
472.435	646.62
472.654	619.62
472.873	563.62
473.092	537.62
473.311	541.62
473.53	564.62
473.749	577.62
473.968	638.62
474.187	761.62
474.406	798.62
474.625	629.62
474.844	573.62
475.063	573.62
475.282	541.62
475.501	559.62
475.72	577.62
475.939	592.62
476.158	594.62
476.377	579.62
476.596	571.62
476.814	585.62
477.033	581.62
477.252	604.62
477.471	607.62
477.69	583.62
477.908	603.62
478.127	587.62
478.346	605.62
478.564	622.62
478.783	611.62
479.002	628.62
479.22	629.62
479.439	638.62
479.658	688.62
479.876	695.62
480.095	667.62
480.313	713.62
480.532	701.62
480.751	693.62
480.969	701.62
481.188	793.62
481.406	832.62
481.624	749.62
481.843	709.62
482.061	692.62
482.28	679.62
482.498	675.62
482.717	656.62
482.935	675.62
483.153	663.62
483.372	685.62
483.59	682.62
483.808	692.62
484.027	690.62
484.245	701.62
484.463	679.62
484.681	691.62
484.9	703.62
485.118	684.62
485.336	696.62
485.554	704.62
485.772	704.62
485.99	677.62
486.209	691.62
486.427	696.62
486.645	704.62
486.863	772.62
487.081	746.62
487.299	732.62
487.517	709.62
487.735	737.62
487.953	713.62
488.171	729.62
488.389	743.62
488.607	719.62
488.825	759.62
489.043	729.62
489.261	744.62
489.479	748.62
489.696	748.62
489.914	783.62
490.132	746.62
490.35	777.62
490.568	753.62
490.786	781.62
491.003	804.62
491.221	812.62
491.439	813.62
491.657	822.62
491.874	832.62
492.092	841.62
492.31	854.62
492.527	887.62
492.745	859.62
492.963	894.62
493.18	871.62
493.398	899.62
493.615	899.62
493.833	865.62
494.05	911.62
494.268	901.62
494.485	887.62
494.703	883.62
494.92	891.62
495.138	847.62
495.355	892.62
495.573	883.62
495.79	882.62
496.008	890.62
496.225	889.62
496.442	883.62
496.66	889.62
496.877	891.62
497.094	876.62
497.312	902.62
497.529	899.62
497.746	896.62
497.963	898.62
498.181	911.62
498.398	954.62
498.615	949.62
498.832	962.62
499.049	942.62
499.267	972.62
499.484	997.62
499.701	1027.62
499.918	1039.62
500.135	1036.62
500.352	1049.62
500.569	1069.62
500.786	1071.62
501.003	1100.62
501.22	1047.62
501.437	1061.62
