Data from 1971.PennyLincolnUp.Lamp.En5.5.200Scan.071719.P1._HRD10591_15-20-42-841.txt Node
Date: Thu Jul 18 15:20:42 EDT 2019
User: cochatt
Spectrometer: HR+D1059
Trigger mode: 1
Integration Time (sec): 1.000000E-1
Scans to average: 1
Electric dark correction enabled: true
Nonlinearity correction enabled: false
Boxcar width: 0
XAxis mode: Wavelengths
Number of Pixels in Spectrum: 2048
>>>>>Begin Spectral Data<<<<<
223.165	-8.75
223.4	-8.75
223.635	-8.75
223.869	-14.75
224.104	-14.75
224.338	-25.75
224.573	-2.75
224.808	-18.75
225.042	-14.75
225.277	-2.75
225.511	-7.75
225.746	12.25
225.98	-0.75
226.215	-7.75
226.449	18.25
226.683	20.25
226.918	31.25
227.152	37.25
227.387	33.25
227.621	38.25
227.856	34.25
228.09	46.25
228.324	35.25
228.559	57.25
228.793	60.25
229.027	102.25
229.262	94.25
229.496	110.25
229.73	142.25
229.964	150.25
230.199	113.25
230.433	122.25
230.667	119.25
230.901	113.25
231.136	106.25
231.37	109.25
231.604	110.25
231.838	106.25
232.072	113.25
232.306	119.25
232.541	113.25
232.775	109.25
233.009	104.25
233.243	112.25
233.477	108.25
233.711	96.25
233.945	108.25
234.179	114.25
234.413	108.25
234.647	136.25
234.881	117.25
235.115	121.25
235.349	113.25
235.583	125.25
235.817	113.25
236.051	127.25
236.285	124.25
236.519	129.25
236.753	128.25
236.987	132.25
237.221	172.25
237.455	239.25
237.689	174.25
237.922	158.25
238.156	125.25
238.39	118.25
238.624	123.25
238.858	115.25
239.091	119.25
239.325	119.25
239.559	121.25
239.793	121.25
240.027	131.25
240.26	151.25
240.494	154.25
240.728	152.25
240.961	141.25
241.195	137.25
241.429	135.25
241.662	137.25
241.896	140.25
242.13	138.25
242.363	135.25
242.597	132.25
242.83	134.25
243.064	140.25
243.298	143.25
243.531	138.25
243.765	131.25
243.998	136.25
244.232	152.25
244.465	150.25
244.699	148.25
244.932	154.25
245.166	155.25
245.399	144.25
245.633	150.25
245.866	147.25
246.099	157.25
246.333	151.25
246.566	153.25
246.8	135.25
247.033	173.25
247.266	153.25
247.5	166.25
247.733	178.25
247.966	185.25
248.2	166.25
248.433	153.25
248.666	187.25
248.899	183.25
249.133	204.25
249.366	205.25
249.599	203.25
249.832	198.25
250.066	192.25
250.299	185.25
250.532	205.25
250.765	210.25
250.998	229.25
251.231	245.25
251.465	223.25
251.698	214.25
251.931	212.25
252.164	197.25
252.397	204.25
252.63	221.25
252.863	212.25
253.096	208.25
253.329	249.25
253.562	224.25
253.795	234.25
254.028	222.25
254.261	242.25
254.494	225.25
254.727	259.25
254.96	298.25
255.193	282.25
255.426	265.25
255.659	238.25
255.892	249.25
256.124	244.25
256.357	253.25
256.59	251.25
256.823	239.25
257.056	242.25
257.289	226.25
257.521	237.25
257.754	221.25
257.987	221.25
258.22	236.25
258.452	218.25
258.685	208.25
258.918	218.25
259.151	220.25
259.383	223.25
259.616	237.25
259.849	229.25
260.081	242.25
260.314	269.25
260.547	264.25
260.779	262.25
261.012	232.25
261.244	228.25
261.477	231.25
261.71	232.25
261.942	230.25
262.175	240.25
262.407	228.25
262.64	201.25
262.872	229.25
263.105	212.25
263.337	227.25
263.57	239.25
263.802	217.25
264.035	206.25
264.267	226.25
264.499	226.25
264.732	228.25
264.964	229.25
265.197	207.25
265.429	220.25
265.661	228.25
265.894	243.25
266.126	217.25
266.358	225.25
266.591	227.25
266.823	231.25
267.055	238.25
267.287	232.25
267.52	246.25
267.752	225.25
267.984	222.25
268.216	229.25
268.448	261.25
268.681	261.25
268.913	257.25
269.145	262.25
269.377	300.25
269.609	274.25
269.841	287.25
270.073	281.25
270.306	308.25
270.538	315.25
270.77	321.25
271.002	314.25
271.234	301.25
271.466	311.25
271.698	324.25
271.93	311.25
272.162	327.25
272.394	321.25
272.626	331.25
272.858	302.25
273.09	310.25
273.322	291.25
273.553	294.25
273.785	277.25
274.017	262.25
274.249	283.25
274.481	272.25
274.713	280.25
274.945	270.25
275.176	269.25
275.408	286.25
275.64	275.25
275.872	281.25
276.104	287.25
276.335	287.25
276.567	285.25
276.799	295.25
277.031	315.25
277.262	330.25
277.494	347.25
277.726	311.25
277.957	307.25
278.189	289.25
278.421	281.25
278.652	275.25
278.884	287.25
279.115	307.25
279.347	279.25
279.579	282.25
279.81	277.25
280.042	290.25
280.273	282.25
280.505	290.25
280.736	300.25
280.968	285.25
281.199	290.25
281.431	291.25
281.662	274.25
281.894	272.25
282.125	276.25
282.356	296.25
282.588	311.25
282.819	322.25
283.051	298.25
283.282	284.25
283.513	303.25
283.745	274.25
283.976	296.25
284.207	309.25
284.439	289.25
284.67	298.25
284.901	310.25
285.132	302.25
285.364	286.25
285.595	277.25
285.826	286.25
286.057	298.25
286.288	293.25
286.52	281.25
286.751	284.25
286.982	293.25
287.213	269.25
287.444	281.25
287.675	295.25
287.906	311.25
288.138	313.25
288.369	327.25
288.6	327.25
288.831	316.25
289.062	287.25
289.293	299.25
289.524	318.25
289.755	308.25
289.986	305.25
290.217	300.25
290.448	308.25
290.679	310.25
290.91	315.25
291.141	307.25
291.371	302.25
291.602	310.25
291.833	319.25
292.064	314.25
292.295	296.25
292.526	302.25
292.757	310.25
292.987	309.25
293.218	314.25
293.449	306.25
293.68	299.25
293.91	296.25
294.141	312.25
294.372	297.25
294.603	290.25
294.833	295.25
295.064	302.25
295.295	320.25
295.525	297.25
295.756	298.25
295.987	328.25
296.217	327.25
296.448	334.25
296.679	323.25
296.909	311.25
297.14	299.25
297.37	318.25
297.601	318.25
297.831	300.25
298.062	309.25
298.292	302.25
298.523	309.25
298.753	309.25
298.984	329.25
299.214	314.25
299.445	332.25
299.675	340.25
299.905	317.25
300.136	323.25
300.366	333.25
300.597	344.25
300.827	336.25
301.057	327.25
301.288	347.25
301.518	328.25
301.748	326.25
301.979	334.25
302.209	353.25
302.439	328.25
302.669	339.25
302.9	341.25
303.13	356.25
303.36	344.25
303.59	331.25
303.82	356.25
304.051	353.25
304.281	354.25
304.511	355.25
304.741	335.25
304.971	334.25
305.201	334.25
305.431	345.25
305.661	329.25
305.891	362.25
306.121	331.25
306.352	369.25
306.582	350.25
306.812	343.25
307.042	339.25
307.272	339.25
307.502	357.25
307.731	355.25
307.961	366.25
308.191	334.25
308.421	350.25
308.651	340.25
308.881	357.25
309.111	363.25
309.341	358.25
309.571	353.25
309.8	374.25
310.03	369.25
310.26	384.25
310.49	394.25
310.72	412.25
310.949	399.25
311.179	417.25
311.409	388.25
311.639	390.25
311.868	382.25
312.098	380.25
312.328	382.25
312.557	425.25
312.787	401.25
313.017	414.25
313.246	414.25
313.476	396.25
313.706	391.25
313.935	380.25
314.165	402.25
314.394	407.25
314.624	412.25
314.853	402.25
315.083	411.25
315.312	385.25
315.542	387.25
315.771	401.25
316.001	372.25
316.23	376.25
316.46	387.25
316.689	385.25
316.919	392.25
317.148	399.25
317.377	441.25
317.607	385.25
317.836	393.25
318.065	396.25
318.295	407.25
318.524	381.25
318.753	386.25
318.983	390.25
319.212	398.25
319.441	399.25
319.67	404.25
319.9	399.25
320.129	393.25
320.358	407.25
320.587	396.25
320.816	381.25
321.046	394.25
321.275	433.25
321.504	399.25
321.733	410.25
321.962	425.25
322.191	447.25
322.42	433.25
322.649	450.25
322.878	451.25
323.108	478.25
323.337	485.25
323.566	506.25
323.795	520.25
324.024	587.25
324.253	712.25
324.482	1019.25
324.71	1515.25
324.939	2053.25
325.168	1729.25
325.397	924.25
325.626	656.25
325.855	546.25
326.084	517.25
326.313	523.25
326.542	517.25
326.77	579.25
326.999	675.25
327.228	896.25
327.457	1331.25
327.686	1545.25
327.914	1035.25
328.143	699.25
328.372	633.25
328.6	577.25
328.829	558.25
329.058	589.25
329.287	557.25
329.515	530.25
329.744	501.25
329.972	482.25
330.201	507.25
330.43	571.25
330.658	563.25
330.887	599.25
331.115	589.25
331.344	510.25
331.572	506.25
331.801	486.25
332.03	485.25
332.258	464.25
332.486	471.25
332.715	453.25
332.943	441.25
333.172	463.25
333.4	461.25
333.629	470.25
333.857	472.25
334.085	484.25
334.314	492.25
334.542	532.25
334.771	507.25
334.999	499.25
335.227	484.25
335.455	459.25
335.684	450.25
335.912	441.25
336.14	454.25
336.369	437.25
336.597	454.25
336.825	458.25
337.053	433.25
337.281	439.25
337.51	437.25
337.738	433.25
337.966	445.25
338.194	454.25
338.422	439.25
338.65	424.25
338.878	455.25
339.106	417.25
339.334	429.25
339.562	423.25
339.79	439.25
340.018	446.25
340.246	438.25
340.474	421.25
340.702	415.25
340.93	420.25
341.158	435.25
341.386	421.25
341.614	420.25
341.842	434.25
342.07	415.25
342.298	420.25
342.526	429.25
342.754	421.25
342.981	403.25
343.209	404.25
343.437	424.25
343.665	407.25
343.893	427.25
344.12	422.25
344.348	438.25
344.576	420.25
344.804	417.25
345.031	439.25
345.259	449.25
345.487	417.25
345.714	431.25
345.942	411.25
346.17	427.25
346.397	439.25
346.625	416.25
346.853	405.25
347.08	398.25
347.308	408.25
347.535	405.25
347.763	417.25
347.99	420.25
348.218	415.25
348.445	421.25
348.673	420.25
348.9	403.25
349.128	403.25
349.355	394.25
349.583	406.25
349.81	407.25
350.037	391.25
350.265	393.25
350.492	401.25
350.72	404.25
350.947	398.25
351.174	412.25
351.402	413.25
351.629	390.25
351.856	415.25
352.083	409.25
352.311	413.25
352.538	429.25
352.765	399.25
352.992	405.25
353.22	405.25
353.447	402.25
353.674	379.25
353.901	393.25
354.128	379.25
354.355	383.25
354.583	364.25
354.81	364.25
355.037	386.25
355.264	369.25
355.491	358.25
355.718	363.25
355.945	359.25
356.172	357.25
356.399	369.25
356.626	348.25
356.853	343.25
357.08	381.25
357.307	363.25
357.534	355.25
357.761	350.25
357.988	383.25
358.215	381.25
358.441	386.25
358.668	381.25
358.895	379.25
359.122	378.25
359.349	396.25
359.576	403.25
359.802	408.25
360.029	441.25
360.256	426.25
360.483	437.25
360.709	403.25
360.936	414.25
361.163	391.25
361.39	398.25
361.616	388.25
361.843	385.25
362.07	388.25
362.296	401.25
362.523	395.25
362.749	394.25
362.976	386.25
363.203	383.25
363.429	381.25
363.656	376.25
363.882	376.25
364.109	381.25
364.335	370.25
364.562	377.25
364.788	366.25
365.015	379.25
365.241	393.25
365.468	389.25
365.694	383.25
365.92	375.25
366.147	387.25
366.373	361.25
366.599	379.25
366.826	387.25
367.052	378.25
367.278	371.25
367.505	373.25
367.731	383.25
367.957	362.25
368.184	375.25
368.41	392.25
368.636	405.25
368.862	387.25
369.089	388.25
369.315	364.25
369.541	364.25
369.767	362.25
369.993	344.25
370.219	366.25
370.445	362.25
370.672	375.25
370.898	368.25
371.124	365.25
371.35	377.25
371.576	357.25
371.802	355.25
372.028	376.25
372.254	365.25
372.48	369.25
372.706	375.25
372.932	357.25
373.158	354.25
373.384	369.25
373.61	356.25
373.835	341.25
374.061	367.25
374.287	356.25
374.513	355.25
374.739	364.25
374.965	382.25
375.191	359.25
375.416	375.25
375.642	355.25
375.868	369.25
376.094	379.25
376.319	357.25
376.545	375.25
376.771	366.25
376.997	359.25
377.222	348.25
377.448	357.25
377.674	371.25
377.899	358.25
378.125	343.25
378.35	367.25
378.576	350.25
378.802	347.25
379.027	363.25
379.253	363.25
379.478	329.25
379.704	357.25
379.929	353.25
380.155	358.25
380.38	355.25
380.606	383.25
380.831	349.25
381.057	356.25
381.282	358.25
381.507	343.25
381.733	354.25
381.958	357.25
382.184	366.25
382.409	369.25
382.634	360.25
382.86	350.25
383.085	358.25
383.31	374.25
383.535	373.25
383.761	370.25
383.986	362.25
384.211	372.25
384.436	389.25
384.662	369.25
384.887	365.25
385.112	375.25
385.337	382.25
385.562	380.25
385.787	371.25
386.013	385.25
386.238	393.25
386.463	367.25
386.688	381.25
386.913	365.25
387.138	382.25
387.363	375.25
387.588	369.25
387.813	366.25
388.038	389.25
388.263	382.25
388.488	375.25
388.713	389.25
388.938	377.25
389.163	383.25
389.387	373.25
389.612	358.25
389.837	376.25
390.062	381.25
390.287	378.25
390.512	359.25
390.736	362.25
390.961	370.25
391.186	366.25
391.411	379.25
391.636	366.25
391.86	365.25
392.085	405.25
392.31	394.25
392.534	387.25
392.759	385.25
392.984	359.25
393.208	381.25
393.433	380.25
393.658	371.25
393.882	372.25
394.107	393.25
394.331	367.25
394.556	368.25
394.78	377.25
395.005	370.25
395.229	371.25
395.454	369.25
395.678	396.25
395.903	388.25
396.127	413.25
396.352	410.25
396.576	408.25
396.801	386.25
397.025	376.25
397.249	377.25
397.474	400.25
397.698	402.25
397.922	426.25
398.147	415.25
398.371	415.25
398.595	403.25
398.82	388.25
399.044	409.25
399.268	414.25
399.492	470.25
399.717	487.25
399.941	493.25
400.165	485.25
400.389	494.25
400.613	478.25
400.837	460.25
401.062	429.25
401.286	419.25
401.51	402.25
401.734	407.25
401.958	398.25
402.182	416.25
402.406	423.25
402.63	434.25
402.854	427.25
403.078	429.25
403.302	435.25
403.526	432.25
403.75	429.25
403.974	430.25
404.198	420.25
404.422	427.25
404.645	413.25
404.869	427.25
405.093	470.25
405.317	488.25
405.541	519.25
405.765	483.25
405.988	440.25
406.212	480.25
406.436	473.25
406.66	489.25
406.883	484.25
407.107	498.25
407.331	509.25
407.555	552.25
407.778	542.25
408.002	503.25
408.226	466.25
408.449	494.25
408.673	475.25
408.896	499.25
409.12	521.25
409.344	491.25
409.567	461.25
409.791	436.25
410.014	445.25
410.238	421.25
410.461	420.25
410.685	417.25
410.908	459.25
411.132	460.25
411.355	486.25
411.578	481.25
411.802	434.25
412.025	441.25
412.249	437.25
412.472	460.25
412.695	493.25
412.919	468.25
413.142	433.25
413.365	445.25
413.589	413.25
413.812	428.25
414.035	427.25
414.258	407.25
414.482	422.25
414.705	415.25
414.928	433.25
415.151	410.25
415.374	399.25
415.597	399.25
415.821	398.25
416.044	404.25
416.267	405.25
416.49	399.25
416.713	381.25
416.936	388.25
417.159	406.25
417.382	407.25
417.605	394.25
417.828	445.25
418.051	427.25
418.274	425.25
418.497	418.25
418.72	398.25
418.943	414.25
419.166	423.25
419.389	433.25
419.611	435.25
419.834	423.25
420.057	435.25
420.28	435.25
420.503	406.25
420.726	428.25
420.948	435.25
421.171	477.25
421.394	471.25
421.617	459.25
421.839	443.25
422.062	435.25
422.285	432.25
422.507	491.25
422.73	543.25
422.953	531.25
423.175	462.25
423.398	453.25
423.621	454.25
423.843	460.25
424.066	446.25
424.288	451.25
424.511	467.25
424.733	521.25
424.956	588.25
425.178	570.25
425.401	579.25
425.623	574.25
425.846	490.25
426.068	472.25
426.291	448.25
426.513	462.25
426.735	477.25
426.958	505.25
427.18	594.25
427.402	668.25
427.625	742.25
427.847	638.25
428.069	539.25
428.292	499.25
428.514	452.25
428.736	441.25
428.958	440.25
429.181	413.25
429.403	424.25
429.625	426.25
429.847	443.25
430.069	520.25
430.292	492.25
430.514	459.25
430.736	410.25
430.958	410.25
431.18	403.25
431.402	402.25
431.624	387.25
431.846	393.25
432.068	374.25
432.29	391.25
432.512	388.25
432.734	422.25
432.956	406.25
433.178	416.25
433.4	420.25
433.622	404.25
433.844	392.25
434.066	397.25
434.287	399.25
434.509	402.25
434.731	398.25
434.953	422.25
435.175	435.25
435.397	429.25
435.618	468.25
435.84	493.25
436.062	569.25
436.284	626.25
436.505	493.25
436.727	475.25
436.949	431.25
437.17	426.25
437.392	433.25
437.614	430.25
437.835	462.25
438.057	547.25
438.278	601.25
438.5	606.25
438.721	683.25
438.943	635.25
439.165	517.25
439.386	477.25
439.608	457.25
439.829	479.25
440.05	483.25
440.272	539.25
440.493	494.25
440.715	469.25
440.936	438.25
441.158	424.25
441.379	429.25
441.6	442.25
441.822	446.25
442.043	498.25
442.264	557.25
442.486	612.25
442.707	498.25
442.928	488.25
443.149	452.25
443.371	481.25
443.592	542.25
443.813	601.25
444.034	653.25
444.255	541.25
444.476	482.25
444.698	457.25
444.919	462.25
445.14	540.25
445.361	505.25
445.582	484.25
445.803	529.25
446.024	621.25
446.245	639.25
446.466	593.25
446.687	486.25
446.908	475.25
447.129	442.25
447.35	422.25
447.571	421.25
447.792	421.25
448.013	432.25
448.234	437.25
448.455	501.25
448.675	568.25
448.896	656.25
449.117	585.25
449.338	545.25
449.559	630.25
449.779	700.25
450	587.25
450.221	451.25
450.442	427.25
450.662	422.25
450.883	427.25
451.104	410.25
451.324	417.25
451.545	399.25
451.766	412.25
451.986	364.25
452.207	359.25
452.428	366.25
452.648	392.25
452.869	381.25
453.089	389.25
453.31	379.25
453.53	381.25
453.751	354.25
453.971	393.25
454.192	409.25
454.412	378.25
454.633	387.25
454.853	395.25
455.073	387.25
455.294	421.25
455.514	451.25
455.734	427.25
455.955	403.25
456.175	356.25
456.395	353.25
456.616	363.25
456.836	373.25
457.056	342.25
457.276	354.25
457.497	349.25
457.717	352.25
457.937	375.25
458.157	354.25
458.377	382.25
458.598	393.25
458.818	425.25
459.038	494.25
459.258	484.25
459.478	431.25
459.698	381.25
459.918	373.25
460.138	385.25
460.358	402.25
460.578	389.25
460.798	383.25
461.018	396.25
461.238	381.25
461.458	396.25
461.678	388.25
461.898	388.25
462.118	383.25
462.338	393.25
462.558	413.25
462.777	395.25
462.997	403.25
463.217	431.25
463.437	406.25
463.657	417.25
463.876	419.25
464.096	407.25
464.316	418.25
464.536	422.25
464.755	431.25
464.975	407.25
465.195	436.25
465.414	504.25
465.634	428.25
465.854	400.25
466.073	401.25
466.293	402.25
466.512	391.25
466.732	372.25
466.951	385.25
467.171	397.25
467.391	397.25
467.61	391.25
467.829	401.25
468.049	403.25
468.268	377.25
468.488	374.25
468.707	406.25
468.927	374.25
469.146	382.25
469.365	352.25
469.585	345.25
469.804	377.25
470.023	374.25
470.243	411.25
470.462	401.25
470.681	384.25
470.901	395.25
471.12	390.25
471.339	379.25
471.558	380.25
471.777	399.25
471.997	388.25
472.216	389.25
472.435	406.25
472.654	394.25
472.873	368.25
473.092	370.25
473.311	383.25
473.53	399.25
473.749	388.25
473.968	456.25
474.187	512.25
474.406	537.25
474.625	449.25
474.844	399.25
475.063	379.25
475.282	399.25
475.501	387.25
475.72	408.25
475.939	377.25
476.158	398.25
476.377	387.25
476.596	416.25
476.814	390.25
477.033	421.25
477.252	401.25
477.471	386.25
477.69	411.25
477.908	417.25
478.127	386.25
478.346	407.25
478.564	421.25
478.783	415.25
479.002	417.25
479.22	426.25
479.439	459.25
479.658	444.25
479.876	455.25
480.095	447.25
480.313	478.25
480.532	474.25
480.751	462.25
480.969	475.25
481.188	513.25
481.406	541.25
481.624	465.25
481.843	461.25
482.061	473.25
482.28	451.25
482.498	449.25
482.717	441.25
482.935	462.25
483.153	446.25
483.372	443.25
483.59	449.25
483.808	446.25
484.027	435.25
484.245	455.25
484.463	422.25
484.681	459.25
484.9	455.25
485.118	448.25
485.336	462.25
485.554	441.25
485.772	459.25
485.99	451.25
486.209	456.25
486.427	485.25
486.645	465.25
486.863	493.25
487.081	476.25
487.299	492.25
487.517	505.25
487.735	489.25
487.953	522.25
488.171	499.25
488.389	500.25
488.607	497.25
488.825	507.25
489.043	463.25
489.261	479.25
489.479	494.25
489.696	499.25
489.914	516.25
490.132	491.25
490.35	511.25
490.568	519.25
490.786	518.25
491.003	533.25
491.221	537.25
491.439	543.25
491.657	558.25
491.874	569.25
492.092	551.25
492.31	574.25
492.527	567.25
492.745	550.25
492.963	566.25
493.18	575.25
493.398	603.25
493.615	599.25
493.833	582.25
494.05	556.25
494.268	577.25
494.485	574.25
494.703	568.25
494.92	580.25
495.138	577.25
495.355	594.25
495.573	578.25
495.79	564.25
496.008	553.25
496.225	565.25
496.442	567.25
496.66	581.25
496.877	583.25
497.094	570.25
497.312	562.25
497.529	592.25
497.746	578.25
497.963	595.25
498.181	606.25
498.398	608.25
498.615	601.25
498.832	610.25
499.049	628.25
499.267	641.25
499.484	661.25
499.701	673.25
499.918	694.25
500.135	718.25
500.352	759.25
500.569	760.25
500.786	747.25
501.003	740.25
501.22	749.25
501.437	739.25
501.654	711.25
501.871	701.25
