Data from 1971.PennyLincolnUp.Lamp.En5.5.200Scan.071719.P1.Scan 2. Changed Angle._HRD10591_15-25-24-843.txt Node
Date: Thu Jul 18 15:25:24 EDT 2019
User: cochatt
Spectrometer: HR+D1059
Trigger mode: 1
Integration Time (sec): 1.000000E-1
Scans to average: 1
Electric dark correction enabled: true
Nonlinearity correction enabled: false
Boxcar width: 0
XAxis mode: Wavelengths
Number of Pixels in Spectrum: 2048
>>>>>Begin Spectral Data<<<<<
223.165	-14.44
223.4	-14.44
223.635	-14.44
223.869	-7.44
224.104	-11.44
224.338	-7.44
224.573	-20.44
224.808	-25.44
225.042	-15.44
225.277	-14.44
225.511	2.56
225.746	13.56
225.98	1.56
226.215	15.56
226.449	25.56
226.683	9.56
226.918	22.56
227.152	25.56
227.387	41.56
227.621	38.56
227.856	49.56
228.09	61.56
228.324	59.56
228.559	56.56
228.793	75.56
229.027	107.56
229.262	125.56
229.496	117.56
229.73	158.56
229.964	182.56
230.199	163.56
230.433	131.56
230.667	144.56
230.901	122.56
231.136	122.56
231.37	126.56
231.604	106.56
231.838	120.56
232.072	115.56
232.306	110.56
232.541	127.56
232.775	120.56
233.009	125.56
233.243	129.56
233.477	107.56
233.711	120.56
233.945	132.56
234.179	120.56
234.413	129.56
234.647	115.56
234.881	129.56
235.115	124.56
235.349	120.56
235.583	142.56
235.817	131.56
236.051	133.56
236.285	145.56
236.519	131.56
236.753	137.56
236.987	152.56
237.221	215.56
237.455	296.56
237.689	221.56
237.922	163.56
238.156	159.56
238.39	150.56
238.624	146.56
238.858	138.56
239.091	133.56
239.325	104.56
239.559	135.56
239.793	138.56
240.027	153.56
240.26	162.56
240.494	174.56
240.728	181.56
240.961	187.56
241.195	167.56
241.429	144.56
241.662	136.56
241.896	163.56
242.13	142.56
242.363	125.56
242.597	143.56
242.83	149.56
243.064	146.56
243.298	154.56
243.531	151.56
243.765	172.56
243.998	161.56
244.232	157.56
244.465	153.56
244.699	165.56
244.932	158.56
245.166	174.56
245.399	171.56
245.633	157.56
245.866	169.56
246.099	159.56
246.333	170.56
246.566	160.56
246.8	156.56
247.033	173.56
247.266	167.56
247.5	184.56
247.733	184.56
247.966	183.56
248.2	180.56
248.433	191.56
248.666	184.56
248.899	200.56
249.133	213.56
249.366	246.56
249.599	220.56
249.832	203.56
250.066	199.56
250.299	202.56
250.532	219.56
250.765	229.56
250.998	243.56
251.231	259.56
251.465	235.56
251.698	230.56
251.931	225.56
252.164	226.56
252.397	209.56
252.63	232.56
252.863	235.56
253.096	231.56
253.329	247.56
253.562	275.56
253.795	267.56
254.028	238.56
254.261	244.56
254.494	275.56
254.727	302.56
254.96	330.56
255.193	309.56
255.426	285.56
255.659	277.56
255.892	269.56
256.124	265.56
256.357	238.56
256.59	270.56
256.823	245.56
257.056	248.56
257.289	235.56
257.521	227.56
257.754	231.56
257.987	230.56
258.22	242.56
258.452	214.56
258.685	250.56
258.918	222.56
259.151	215.56
259.383	226.56
259.616	246.56
259.849	252.56
260.081	255.56
260.314	270.56
260.547	290.56
260.779	281.56
261.012	271.56
261.244	268.56
261.477	246.56
261.71	252.56
261.942	243.56
262.175	267.56
262.407	244.56
262.64	238.56
262.872	225.56
263.105	222.56
263.337	235.56
263.57	218.56
263.802	237.56
264.035	218.56
264.267	221.56
264.499	218.56
264.732	217.56
264.964	231.56
265.197	231.56
265.429	226.56
265.661	228.56
265.894	222.56
266.126	226.56
266.358	226.56
266.591	206.56
266.823	243.56
267.055	247.56
267.287	241.56
267.52	227.56
267.752	239.56
267.984	245.56
268.216	233.56
268.448	247.56
268.681	259.56
268.913	251.56
269.145	292.56
269.377	301.56
269.609	313.56
269.841	307.56
270.073	294.56
270.306	319.56
270.538	335.56
270.77	334.56
271.002	339.56
271.234	324.56
271.466	325.56
271.698	356.56
271.93	364.56
272.162	358.56
272.394	364.56
272.626	345.56
272.858	322.56
273.09	284.56
273.322	297.56
273.553	295.56
273.785	297.56
274.017	282.56
274.249	292.56
274.481	269.56
274.713	270.56
274.945	264.56
275.176	279.56
275.408	291.56
275.64	300.56
275.872	276.56
276.104	285.56
276.335	280.56
276.567	268.56
276.799	311.56
277.031	325.56
277.262	327.56
277.494	345.56
277.726	321.56
277.957	317.56
278.189	285.56
278.421	284.56
278.652	292.56
278.884	289.56
279.115	297.56
279.347	276.56
279.579	283.56
279.81	278.56
280.042	277.56
280.273	295.56
280.505	275.56
280.736	285.56
280.968	285.56
281.199	280.56
281.431	280.56
281.662	282.56
281.894	277.56
282.125	282.56
282.356	284.56
282.588	313.56
282.819	325.56
283.051	282.56
283.282	267.56
283.513	272.56
283.745	294.56
283.976	287.56
284.207	271.56
284.439	291.56
284.67	284.56
284.901	304.56
285.132	284.56
285.364	278.56
285.595	276.56
285.826	262.56
286.057	281.56
286.288	279.56
286.52	279.56
286.751	278.56
286.982	267.56
287.213	289.56
287.444	281.56
287.675	307.56
287.906	306.56
288.138	316.56
288.369	319.56
288.6	315.56
288.831	289.56
289.062	293.56
289.293	298.56
289.524	283.56
289.755	282.56
289.986	294.56
290.217	285.56
290.448	296.56
290.679	273.56
290.91	277.56
291.141	310.56
291.371	285.56
291.602	292.56
291.833	275.56
292.064	290.56
292.295	292.56
292.526	278.56
292.757	277.56
292.987	279.56
293.218	283.56
293.449	277.56
293.68	301.56
293.91	306.56
294.141	277.56
294.372	294.56
294.603	302.56
294.833	308.56
295.064	306.56
295.295	313.56
295.525	279.56
295.756	302.56
295.987	320.56
296.217	329.56
296.448	342.56
296.679	303.56
296.909	307.56
297.14	289.56
297.37	301.56
297.601	298.56
297.831	309.56
298.062	303.56
298.292	307.56
298.523	289.56
298.753	307.56
298.984	295.56
299.214	303.56
299.445	287.56
299.675	319.56
299.905	337.56
300.136	322.56
300.366	306.56
300.597	314.56
300.827	326.56
301.057	327.56
301.288	319.56
301.518	325.56
301.748	329.56
301.979	317.56
302.209	341.56
302.439	349.56
302.669	341.56
302.9	322.56
303.13	321.56
303.36	325.56
303.59	323.56
303.82	335.56
304.051	336.56
304.281	308.56
304.511	322.56
304.741	324.56
304.971	332.56
305.201	307.56
305.431	310.56
305.661	337.56
305.891	317.56
306.121	318.56
306.352	348.56
306.582	339.56
306.812	336.56
307.042	335.56
307.272	337.56
307.502	342.56
307.731	341.56
307.961	319.56
308.191	332.56
308.421	344.56
308.651	337.56
308.881	361.56
309.111	358.56
309.341	358.56
309.571	370.56
309.8	371.56
310.03	397.56
310.26	400.56
310.49	409.56
310.72	405.56
310.949	420.56
311.179	428.56
311.409	404.56
311.639	382.56
311.868	390.56
312.098	395.56
312.328	397.56
312.557	419.56
312.787	435.56
313.017	442.56
313.246	421.56
313.476	395.56
313.706	391.56
313.935	414.56
314.165	414.56
314.394	426.56
314.624	412.56
314.853	411.56
315.083	392.56
315.312	393.56
315.542	393.56
315.771	386.56
316.001	377.56
316.23	384.56
316.46	367.56
316.689	381.56
316.919	411.56
317.148	417.56
317.377	427.56
317.607	423.56
317.836	382.56
318.065	400.56
318.295	379.56
318.524	395.56
318.753	389.56
318.983	374.56
319.212	405.56
319.441	407.56
319.67	417.56
319.9	413.56
320.129	377.56
320.358	404.56
320.587	395.56
320.816	400.56
321.046	426.56
321.275	413.56
321.504	406.56
321.733	419.56
321.962	423.56
322.191	463.56
322.42	491.56
322.649	487.56
322.878	511.56
323.108	526.56
323.337	550.56
323.566	603.56
323.795	636.56
324.024	693.56
324.253	878.56
324.482	1297.56
324.71	2029.56
324.939	2936.56
325.168	2502.56
325.397	1294.56
325.626	858.56
325.855	687.56
326.084	610.56
326.313	591.56
326.542	581.56
326.77	655.56
326.999	799.56
327.228	1151.56
327.457	1769.56
327.686	2139.56
327.914	1491.56
328.143	909.56
328.372	795.56
328.6	728.56
328.829	672.56
329.058	695.56
329.287	725.56
329.515	676.56
329.744	626.56
329.972	594.56
330.201	614.56
330.43	671.56
330.658	711.56
330.887	710.56
331.115	726.56
331.344	622.56
331.572	577.56
331.801	539.56
332.03	544.56
332.258	512.56
332.486	498.56
332.715	475.56
332.943	507.56
333.172	479.56
333.4	487.56
333.629	477.56
333.857	500.56
334.085	535.56
334.314	543.56
334.542	579.56
334.771	625.56
334.999	546.56
335.227	510.56
335.455	476.56
335.684	455.56
335.912	460.56
336.14	454.56
336.369	466.56
336.597	487.56
336.825	472.56
337.053	453.56
337.281	449.56
337.51	441.56
337.738	449.56
337.966	449.56
338.194	461.56
338.422	462.56
338.65	472.56
338.878	450.56
339.106	456.56
339.334	457.56
339.562	452.56
339.79	429.56
340.018	429.56
340.246	450.56
340.474	461.56
340.702	461.56
340.93	440.56
341.158	460.56
341.386	454.56
341.614	456.56
341.842	474.56
342.07	438.56
342.298	454.56
342.526	430.56
342.754	441.56
342.981	423.56
343.209	435.56
343.437	430.56
343.665	434.56
343.893	447.56
344.12	437.56
344.348	446.56
344.576	451.56
344.804	480.56
345.031	461.56
345.259	494.56
345.487	487.56
345.714	460.56
345.942	429.56
346.17	460.56
346.397	436.56
346.625	438.56
346.853	453.56
347.08	440.56
347.308	453.56
347.535	464.56
347.763	455.56
347.99	476.56
348.218	458.56
348.445	483.56
348.673	445.56
348.9	446.56
349.128	431.56
349.355	450.56
349.583	430.56
349.81	428.56
350.037	428.56
350.265	415.56
350.492	404.56
350.72	414.56
350.947	433.56
351.174	437.56
351.402	459.56
351.629	461.56
351.856	453.56
352.083	463.56
352.311	483.56
352.538	472.56
352.765	471.56
352.992	469.56
353.22	451.56
353.447	452.56
353.674	458.56
353.901	432.56
354.128	423.56
354.355	411.56
354.583	398.56
354.81	415.56
355.037	426.56
355.264	385.56
355.491	425.56
355.718	396.56
355.945	398.56
356.172	406.56
356.399	396.56
356.626	377.56
356.853	390.56
357.08	420.56
357.307	383.56
357.534	410.56
357.761	407.56
357.988	398.56
358.215	415.56
358.441	414.56
358.668	410.56
358.895	407.56
359.122	429.56
359.349	442.56
359.576	450.56
359.802	492.56
360.029	516.56
360.256	569.56
360.483	521.56
360.709	481.56
360.936	457.56
361.163	450.56
361.39	454.56
361.616	474.56
361.843	448.56
362.07	451.56
362.296	461.56
362.523	466.56
362.749	468.56
362.976	459.56
363.203	425.56
363.429	415.56
363.656	413.56
363.882	434.56
364.109	434.56
364.335	426.56
364.562	440.56
364.788	421.56
365.015	435.56
365.241	439.56
365.468	439.56
365.694	435.56
365.92	445.56
366.147	431.56
366.373	417.56
366.599	427.56
366.826	434.56
367.052	412.56
367.278	417.56
367.505	431.56
367.731	427.56
367.957	418.56
368.184	430.56
368.41	433.56
368.636	447.56
368.862	445.56
369.089	436.56
369.315	434.56
369.541	425.56
369.767	436.56
369.993	428.56
370.219	418.56
370.445	413.56
370.672	397.56
370.898	415.56
371.124	423.56
371.35	429.56
371.576	423.56
371.802	418.56
372.028	422.56
372.254	393.56
372.48	413.56
372.706	420.56
372.932	415.56
373.158	412.56
373.384	447.56
373.61	420.56
373.835	413.56
374.061	422.56
374.287	411.56
374.513	419.56
374.739	447.56
374.965	434.56
375.191	419.56
375.416	429.56
375.642	453.56
375.868	417.56
376.094	406.56
376.319	423.56
376.545	424.56
376.771	422.56
376.997	419.56
377.222	421.56
377.448	423.56
377.674	416.56
377.899	413.56
378.125	409.56
378.35	393.56
378.576	393.56
378.802	417.56
379.027	426.56
379.253	413.56
379.478	431.56
379.704	403.56
379.929	394.56
380.155	414.56
380.38	398.56
380.606	416.56
380.831	422.56
381.057	404.56
381.282	422.56
381.507	409.56
381.733	438.56
381.958	404.56
382.184	426.56
382.409	441.56
382.634	429.56
382.86	443.56
383.085	439.56
383.31	435.56
383.535	437.56
383.761	450.56
383.986	430.56
384.211	434.56
384.436	447.56
384.662	435.56
384.887	451.56
385.112	434.56
385.337	446.56
385.562	447.56
385.787	450.56
386.013	461.56
386.238	469.56
386.463	468.56
386.688	443.56
386.913	452.56
387.138	462.56
387.363	441.56
387.588	447.56
387.813	462.56
388.038	444.56
388.263	449.56
388.488	458.56
388.713	453.56
388.938	452.56
389.163	449.56
389.387	472.56
389.612	458.56
389.837	457.56
390.062	437.56
390.287	457.56
390.512	467.56
390.736	479.56
390.961	441.56
391.186	452.56
391.411	455.56
391.636	453.56
391.86	470.56
392.085	470.56
392.31	462.56
392.534	469.56
392.759	452.56
392.984	457.56
393.208	458.56
393.433	457.56
393.658	457.56
393.882	457.56
394.107	438.56
394.331	454.56
394.556	454.56
394.78	451.56
395.005	445.56
395.229	441.56
395.454	455.56
395.678	468.56
395.903	478.56
396.127	511.56
396.352	503.56
396.576	484.56
396.801	487.56
397.025	507.56
397.249	502.56
397.474	473.56
397.698	493.56
397.922	505.56
398.147	535.56
398.371	519.56
398.595	504.56
398.82	498.56
399.044	488.56
399.268	519.56
399.492	547.56
399.717	562.56
399.941	597.56
400.165	653.56
400.389	628.56
400.613	583.56
400.837	559.56
401.062	538.56
401.286	517.56
401.51	520.56
401.734	526.56
401.958	553.56
402.182	541.56
402.406	535.56
402.63	565.56
402.854	517.56
403.078	546.56
403.302	558.56
403.526	567.56
403.75	545.56
403.974	552.56
404.198	550.56
404.422	540.56
404.645	545.56
404.869	553.56
405.093	608.56
405.317	635.56
405.541	666.56
405.765	619.56
405.988	604.56
406.212	596.56
406.436	616.56
406.66	629.56
406.883	605.56
407.107	640.56
407.331	653.56
407.555	738.56
407.778	761.56
408.002	685.56
408.226	618.56
408.449	620.56
408.673	634.56
408.896	663.56
409.12	683.56
409.344	644.56
409.567	571.56
409.791	585.56
410.014	547.56
410.238	537.56
410.461	557.56
410.685	593.56
410.908	577.56
411.132	609.56
411.355	652.56
411.578	639.56
411.802	565.56
412.025	554.56
412.249	574.56
412.472	610.56
412.695	633.56
412.919	629.56
413.142	591.56
413.365	548.56
413.589	562.56
413.812	519.56
414.035	521.56
414.258	508.56
414.482	502.56
414.705	517.56
414.928	524.56
415.151	522.56
415.374	488.56
415.597	503.56
415.821	499.56
416.044	522.56
416.267	537.56
416.49	526.56
416.713	537.56
416.936	522.56
417.159	545.56
417.382	521.56
417.605	547.56
417.828	561.56
418.051	581.56
418.274	563.56
418.497	527.56
418.72	517.56
418.943	538.56
419.166	556.56
419.389	570.56
419.611	560.56
419.834	548.56
420.057	579.56
420.28	589.56
420.503	566.56
420.726	565.56
420.948	597.56
421.171	634.56
421.394	679.56
421.617	596.56
421.839	565.56
422.062	573.56
422.285	582.56
422.507	670.56
422.73	746.56
422.953	715.56
423.175	633.56
423.398	581.56
423.621	569.56
423.843	626.56
424.066	636.56
424.288	616.56
424.511	651.56
424.733	702.56
424.956	802.56
425.178	793.56
425.401	770.56
425.623	791.56
425.846	693.56
426.068	652.56
426.291	624.56
426.513	613.56
426.735	631.56
426.958	684.56
427.18	784.56
427.402	945.56
427.625	1041.56
427.847	929.56
428.069	803.56
428.292	716.56
428.514	635.56
428.736	626.56
428.958	595.56
429.181	586.56
429.403	579.56
429.625	580.56
429.847	621.56
430.069	735.56
430.292	735.56
430.514	612.56
430.736	586.56
430.958	569.56
431.18	557.56
431.402	543.56
431.624	533.56
431.846	547.56
432.068	531.56
432.29	550.56
432.512	552.56
432.734	546.56
432.956	539.56
433.178	536.56
433.4	567.56
433.622	556.56
433.844	561.56
434.066	532.56
434.287	537.56
434.509	554.56
434.731	562.56
434.953	570.56
435.175	562.56
435.397	611.56
435.618	638.56
435.84	675.56
436.062	818.56
436.284	868.56
436.505	744.56
436.727	675.56
436.949	613.56
437.17	583.56
437.392	586.56
437.614	628.56
437.835	669.56
438.057	796.56
438.278	937.56
438.5	899.56
438.721	949.56
438.943	917.56
439.165	733.56
439.386	693.56
439.608	677.56
439.829	682.56
440.05	698.56
440.272	743.56
440.493	715.56
440.715	636.56
440.936	609.56
441.158	609.56
441.379	599.56
441.6	620.56
441.822	628.56
442.043	691.56
442.264	797.56
442.486	851.56
442.707	707.56
442.928	668.56
443.149	695.56
443.371	716.56
443.592	750.56
443.813	868.56
444.034	899.56
444.255	765.56
444.476	650.56
444.698	627.56
444.919	625.56
445.14	717.56
445.361	693.56
445.582	719.56
445.803	762.56
446.024	929.56
446.245	903.56
446.466	834.56
446.687	727.56
446.908	637.56
447.129	619.56
447.35	601.56
447.571	591.56
447.792	596.56
448.013	605.56
448.234	635.56
448.455	692.56
448.675	801.56
448.896	909.56
449.117	800.56
449.338	789.56
449.559	887.56
449.779	972.56
450	804.56
450.221	668.56
450.442	602.56
450.662	602.56
450.883	625.56
451.104	637.56
451.324	600.56
451.545	575.56
451.766	558.56
451.986	546.56
452.207	530.56
452.428	530.56
452.648	551.56
452.869	540.56
453.089	556.56
453.31	579.56
453.53	558.56
453.751	538.56
453.971	545.56
454.192	563.56
454.412	566.56
454.633	533.56
454.853	526.56
455.073	529.56
455.294	567.56
455.514	646.56
455.734	643.56
455.955	542.56
456.175	479.56
456.395	490.56
456.616	468.56
456.836	488.56
457.056	473.56
457.276	457.56
457.497	472.56
457.717	491.56
457.937	490.56
458.157	514.56
458.377	530.56
458.598	538.56
458.818	623.56
459.038	730.56
459.258	726.56
459.478	620.56
459.698	574.56
459.918	559.56
460.138	525.56
460.358	557.56
460.578	534.56
460.798	549.56
461.018	555.56
461.238	554.56
461.458	543.56
461.678	515.56
461.898	545.56
462.118	525.56
462.338	539.56
462.558	549.56
462.777	542.56
462.997	549.56
463.217	549.56
463.437	562.56
463.657	558.56
463.876	565.56
464.096	555.56
464.316	564.56
464.536	566.56
464.755	588.56
464.975	585.56
465.195	643.56
465.414	792.56
465.634	666.56
465.854	606.56
466.073	567.56
466.293	545.56
466.512	555.56
466.732	545.56
466.951	533.56
467.171	540.56
467.391	524.56
467.61	528.56
467.829	561.56
468.049	544.56
468.268	571.56
468.488	548.56
468.707	513.56
468.927	526.56
469.146	504.56
469.365	505.56
469.585	526.56
469.804	534.56
470.023	563.56
470.243	534.56
470.462	567.56
470.681	596.56
470.901	587.56
471.12	558.56
471.339	566.56
471.558	548.56
471.777	557.56
471.997	540.56
472.216	540.56
472.435	597.56
472.654	606.56
472.873	565.56
473.092	523.56
473.311	535.56
473.53	548.56
473.749	568.56
473.968	631.56
474.187	761.56
474.406	763.56
474.625	637.56
474.844	561.56
475.063	567.56
475.282	543.56
475.501	553.56
475.72	578.56
475.939	549.56
476.158	572.56
476.377	552.56
476.596	553.56
476.814	571.56
477.033	575.56
477.252	587.56
477.471	585.56
477.69	585.56
477.908	581.56
478.127	591.56
478.346	603.56
478.564	605.56
478.783	606.56
479.002	630.56
479.22	636.56
479.439	606.56
479.658	649.56
479.876	655.56
480.095	681.56
480.313	699.56
480.532	647.56
480.751	678.56
480.969	702.56
481.188	779.56
481.406	833.56
481.624	738.56
481.843	713.56
482.061	673.56
482.28	661.56
482.498	644.56
482.717	653.56
482.935	634.56
483.153	649.56
483.372	651.56
483.59	674.56
483.808	649.56
484.027	638.56
484.245	653.56
484.463	630.56
484.681	673.56
484.9	671.56
485.118	679.56
485.336	664.56
485.554	661.56
485.772	660.56
485.99	674.56
486.209	655.56
486.427	693.56
486.645	699.56
486.863	730.56
487.081	741.56
487.299	709.56
487.517	720.56
487.735	718.56
487.953	705.56
488.171	685.56
488.389	705.56
488.607	725.56
488.825	714.56
489.043	711.56
489.261	706.56
489.479	718.56
489.696	722.56
489.914	745.56
490.132	755.56
490.35	762.56
490.568	771.56
490.786	779.56
491.003	747.56
491.221	779.56
491.439	825.56
491.657	790.56
491.874	813.56
492.092	814.56
492.31	837.56
492.527	829.56
492.745	846.56
492.963	843.56
493.18	843.56
493.398	837.56
493.615	854.56
493.833	836.56
494.05	862.56
494.268	875.56
494.485	860.56
494.703	865.56
494.92	856.56
495.138	847.56
495.355	853.56
495.573	842.56
495.79	857.56
496.008	857.56
496.225	851.56
496.442	854.56
496.66	846.56
496.877	841.56
497.094	891.56
497.312	851.56
497.529	867.56
497.746	867.56
497.963	893.56
498.181	921.56
498.398	899.56
498.615	926.56
498.832	917.56
499.049	943.56
499.267	935.56
499.484	938.56
499.701	987.56
499.918	976.56
500.135	973.56
500.352	1027.56
500.569	1031.56
500.786	1063.56
501.003	1044.56
501.22	1020.56
501.437	1033.56
