Data from 1971.PennyLincolnUp.Lamp.En5.5.200Scan.071719.P1._HRD10591_15-19-14-841.txt Node
Date: Thu Jul 18 15:19:14 EDT 2019
User: cochatt
Spectrometer: HR+D1059
Trigger mode: 1
Integration Time (sec): 1.000000E-1
Scans to average: 1
Electric dark correction enabled: true
Nonlinearity correction enabled: false
Boxcar width: 0
XAxis mode: Wavelengths
Number of Pixels in Spectrum: 2048
>>>>>Begin Spectral Data<<<<<
223.165	-13.19
223.4	-13.19
223.635	-13.19
223.869	-17.19
224.104	-15.19
224.338	-5.19
224.573	-14.19
224.808	-18.19
225.042	2.81
225.277	-0.19
225.511	-7.19
225.746	-11.19
225.98	4.81
226.215	9.81
226.449	10.81
226.683	16.81
226.918	29.81
227.152	26.81
227.387	29.81
227.621	40.81
227.856	37.81
228.09	36.81
228.324	40.81
228.559	42.81
228.793	65.81
229.027	75.81
229.262	100.81
229.496	102.81
229.73	115.81
229.964	144.81
230.199	121.81
230.433	99.81
230.667	106.81
230.901	94.81
231.136	117.81
231.37	104.81
231.604	122.81
231.838	128.81
232.072	89.81
232.306	100.81
232.541	109.81
232.775	115.81
233.009	109.81
233.243	107.81
233.477	119.81
233.711	125.81
233.945	112.81
234.179	101.81
234.413	93.81
234.647	116.81
234.881	106.81
235.115	115.81
235.349	115.81
235.583	126.81
235.817	123.81
236.051	125.81
236.285	106.81
236.519	125.81
236.753	139.81
236.987	141.81
237.221	170.81
237.455	206.81
237.689	169.81
237.922	139.81
238.156	121.81
238.39	139.81
238.624	136.81
238.858	137.81
239.091	122.81
239.325	119.81
239.559	110.81
239.793	113.81
240.027	135.81
240.26	128.81
240.494	146.81
240.728	150.81
240.961	146.81
241.195	142.81
241.429	130.81
241.662	119.81
241.896	141.81
242.13	107.81
242.363	120.81
242.597	126.81
242.83	129.81
243.064	149.81
243.298	125.81
243.531	121.81
243.765	142.81
243.998	120.81
244.232	137.81
244.465	142.81
244.699	140.81
244.932	142.81
245.166	142.81
245.399	144.81
245.633	134.81
245.866	148.81
246.099	152.81
246.333	154.81
246.566	141.81
246.8	133.81
247.033	148.81
247.266	154.81
247.5	155.81
247.733	165.81
247.966	181.81
248.2	178.81
248.433	168.81
248.666	168.81
248.899	173.81
249.133	194.81
249.366	201.81
249.599	189.81
249.832	190.81
250.066	174.81
250.299	201.81
250.532	188.81
250.765	205.81
250.998	204.81
251.231	223.81
251.465	213.81
251.698	189.81
251.931	195.81
252.164	201.81
252.397	199.81
252.63	201.81
252.863	197.81
253.096	238.81
253.329	227.81
253.562	228.81
253.795	217.81
254.028	206.81
254.261	224.81
254.494	235.81
254.727	244.81
254.96	279.81
255.193	272.81
255.426	262.81
255.659	234.81
255.892	218.81
256.124	231.81
256.357	241.81
256.59	232.81
256.823	227.81
257.056	221.81
257.289	219.81
257.521	216.81
257.754	210.81
257.987	212.81
258.22	219.81
258.452	233.81
258.685	216.81
258.918	213.81
259.151	202.81
259.383	212.81
259.616	215.81
259.849	216.81
260.081	242.81
260.314	235.81
260.547	245.81
260.779	247.81
261.012	234.81
261.244	227.81
261.477	235.81
261.71	231.81
261.942	214.81
262.175	239.81
262.407	234.81
262.64	217.81
262.872	210.81
263.105	223.81
263.337	216.81
263.57	205.81
263.802	223.81
264.035	225.81
264.267	206.81
264.499	210.81
264.732	221.81
264.964	229.81
265.197	215.81
265.429	222.81
265.661	219.81
265.894	210.81
266.126	225.81
266.358	222.81
266.591	232.81
266.823	210.81
267.055	211.81
267.287	234.81
267.52	248.81
267.752	242.81
267.984	252.81
268.216	233.81
268.448	252.81
268.681	251.81
268.913	259.81
269.145	272.81
269.377	283.81
269.609	284.81
269.841	270.81
270.073	266.81
270.306	281.81
270.538	313.81
270.77	301.81
271.002	316.81
271.234	311.81
271.466	305.81
271.698	318.81
271.93	307.81
272.162	301.81
272.394	311.81
272.626	314.81
272.858	287.81
273.09	282.81
273.322	273.81
273.553	273.81
273.785	261.81
274.017	289.81
274.249	268.81
274.481	261.81
274.713	278.81
274.945	275.81
275.176	269.81
275.408	278.81
275.64	268.81
275.872	254.81
276.104	257.81
276.335	264.81
276.567	275.81
276.799	288.81
277.031	306.81
277.262	334.81
277.494	308.81
277.726	312.81
277.957	296.81
278.189	292.81
278.421	292.81
278.652	289.81
278.884	276.81
279.115	270.81
279.347	271.81
279.579	286.81
279.81	268.81
280.042	267.81
280.273	285.81
280.505	284.81
280.736	279.81
280.968	270.81
281.199	254.81
281.431	284.81
281.662	277.81
281.894	265.81
282.125	274.81
282.356	291.81
282.588	306.81
282.819	312.81
283.051	276.81
283.282	278.81
283.513	274.81
283.745	289.81
283.976	291.81
284.207	273.81
284.439	291.81
284.67	266.81
284.901	278.81
285.132	277.81
285.364	284.81
285.595	272.81
285.826	271.81
286.057	282.81
286.288	289.81
286.52	267.81
286.751	309.81
286.982	292.81
287.213	289.81
287.444	285.81
287.675	286.81
287.906	304.81
288.138	285.81
288.369	308.81
288.6	311.81
288.831	312.81
289.062	287.81
289.293	297.81
289.524	301.81
289.755	305.81
289.986	280.81
290.217	270.81
290.448	278.81
290.679	290.81
290.91	293.81
291.141	282.81
291.371	282.81
291.602	278.81
291.833	298.81
292.064	286.81
292.295	308.81
292.526	297.81
292.757	301.81
292.987	290.81
293.218	291.81
293.449	309.81
293.68	305.81
293.91	292.81
294.141	299.81
294.372	273.81
294.603	299.81
294.833	294.81
295.064	297.81
295.295	304.81
295.525	307.81
295.756	315.81
295.987	314.81
296.217	321.81
296.448	325.81
296.679	294.81
296.909	305.81
297.14	289.81
297.37	298.81
297.601	311.81
297.831	299.81
298.062	289.81
298.292	285.81
298.523	307.81
298.753	312.81
298.984	299.81
299.214	293.81
299.445	297.81
299.675	311.81
299.905	295.81
300.136	313.81
300.366	297.81
300.597	312.81
300.827	333.81
301.057	312.81
301.288	332.81
301.518	330.81
301.748	326.81
301.979	326.81
302.209	328.81
302.439	341.81
302.669	349.81
302.9	334.81
303.13	324.81
303.36	327.81
303.59	315.81
303.82	331.81
304.051	334.81
304.281	327.81
304.511	326.81
304.741	318.81
304.971	334.81
305.201	330.81
305.431	342.81
305.661	327.81
305.891	322.81
306.121	329.81
306.352	341.81
306.582	350.81
306.812	341.81
307.042	333.81
307.272	336.81
307.502	345.81
307.731	338.81
307.961	340.81
308.191	360.81
308.421	328.81
308.651	342.81
308.881	336.81
309.111	354.81
309.341	347.81
309.571	374.81
309.8	347.81
310.03	364.81
310.26	365.81
310.49	379.81
310.72	369.81
310.949	389.81
311.179	402.81
311.409	378.81
311.639	372.81
311.868	386.81
312.098	388.81
312.328	390.81
312.557	388.81
312.787	405.81
313.017	375.81
313.246	392.81
313.476	376.81
313.706	369.81
313.935	388.81
314.165	402.81
314.394	392.81
314.624	393.81
314.853	391.81
315.083	380.81
315.312	380.81
315.542	385.81
315.771	364.81
316.001	360.81
316.23	373.81
316.46	378.81
316.689	387.81
316.919	402.81
317.148	382.81
317.377	388.81
317.607	406.81
317.836	385.81
318.065	386.81
318.295	396.81
318.524	386.81
318.753	384.81
318.983	382.81
319.212	376.81
319.441	398.81
319.67	392.81
319.9	365.81
320.129	388.81
320.358	388.81
320.587	383.81
320.816	410.81
321.046	393.81
321.275	403.81
321.504	377.81
321.733	389.81
321.962	396.81
322.191	436.81
322.42	434.81
322.649	423.81
322.878	465.81
323.108	459.81
323.337	476.81
323.566	487.81
323.795	515.81
324.024	541.81
324.253	672.81
324.482	943.81
324.71	1429.81
324.939	1920.81
325.168	1594.81
325.397	859.81
325.626	607.81
325.855	528.81
326.084	484.81
326.313	464.81
326.542	507.81
326.77	557.81
326.999	640.81
327.228	848.81
327.457	1243.81
327.686	1458.81
327.914	938.81
328.143	634.81
328.372	603.81
328.6	556.81
328.829	517.81
329.058	538.81
329.287	555.81
329.515	534.81
329.744	502.81
329.972	517.81
330.201	516.81
330.43	551.81
330.658	549.81
330.887	567.81
331.115	560.81
331.344	506.81
331.572	497.81
331.801	482.81
332.03	467.81
332.258	480.81
332.486	457.81
332.715	446.81
332.943	456.81
333.172	425.81
333.4	452.81
333.629	456.81
333.857	477.81
334.085	488.81
334.314	475.81
334.542	518.81
334.771	508.81
334.999	469.81
335.227	466.81
335.455	456.81
335.684	436.81
335.912	440.81
336.14	431.81
336.369	443.81
336.597	451.81
336.825	429.81
337.053	444.81
337.281	436.81
337.51	426.81
337.738	424.81
337.966	437.81
338.194	414.81
338.422	418.81
338.65	425.81
338.878	411.81
339.106	411.81
339.334	404.81
339.562	404.81
339.79	397.81
340.018	411.81
340.246	397.81
340.474	437.81
340.702	429.81
340.93	422.81
341.158	406.81
341.386	409.81
341.614	421.81
341.842	411.81
342.07	414.81
342.298	392.81
342.526	407.81
342.754	396.81
342.981	401.81
343.209	414.81
343.437	430.81
343.665	418.81
343.893	442.81
344.12	427.81
344.348	418.81
344.576	423.81
344.804	406.81
345.031	417.81
345.259	429.81
345.487	430.81
345.714	425.81
345.942	418.81
346.17	404.81
346.397	397.81
346.625	387.81
346.853	394.81
347.08	405.81
347.308	386.81
347.535	396.81
347.763	393.81
347.99	397.81
348.218	399.81
348.445	410.81
348.673	422.81
348.9	404.81
349.128	410.81
349.355	389.81
349.583	373.81
349.81	383.81
350.037	375.81
350.265	374.81
350.492	401.81
350.72	391.81
350.947	390.81
351.174	395.81
351.402	398.81
351.629	382.81
351.856	398.81
352.083	396.81
352.311	409.81
352.538	408.81
352.765	403.81
352.992	406.81
353.22	375.81
353.447	378.81
353.674	388.81
353.901	362.81
354.128	382.81
354.355	363.81
354.583	399.81
354.81	374.81
355.037	369.81
355.264	386.81
355.491	375.81
355.718	376.81
355.945	362.81
356.172	368.81
356.399	365.81
356.626	359.81
356.853	354.81
357.08	388.81
357.307	357.81
357.534	372.81
357.761	376.81
357.988	357.81
358.215	361.81
358.441	373.81
358.668	350.81
358.895	344.81
359.122	385.81
359.349	413.81
359.576	404.81
359.802	410.81
360.029	406.81
360.256	410.81
360.483	403.81
360.709	373.81
360.936	392.81
361.163	378.81
361.39	392.81
361.616	390.81
361.843	377.81
362.07	381.81
362.296	385.81
362.523	379.81
362.749	383.81
362.976	364.81
363.203	368.81
363.429	359.81
363.656	376.81
363.882	368.81
364.109	363.81
364.335	368.81
364.562	356.81
364.788	376.81
365.015	353.81
365.241	352.81
365.468	381.81
365.694	380.81
365.92	366.81
366.147	359.81
366.373	362.81
366.599	357.81
366.826	353.81
367.052	338.81
367.278	362.81
367.505	355.81
367.731	376.81
367.957	371.81
368.184	352.81
368.41	379.81
368.636	388.81
368.862	384.81
369.089	365.81
369.315	368.81
369.541	359.81
369.767	353.81
369.993	359.81
370.219	363.81
370.445	360.81
370.672	361.81
370.898	377.81
371.124	370.81
371.35	353.81
371.576	352.81
371.802	358.81
372.028	372.81
372.254	362.81
372.48	340.81
372.706	369.81
372.932	356.81
373.158	348.81
373.384	363.81
373.61	339.81
373.835	357.81
374.061	374.81
374.287	353.81
374.513	356.81
374.739	379.81
374.965	381.81
375.191	371.81
375.416	356.81
375.642	353.81
375.868	375.81
376.094	340.81
376.319	360.81
376.545	344.81
376.771	367.81
376.997	345.81
377.222	336.81
377.448	354.81
377.674	352.81
377.899	353.81
378.125	359.81
378.35	376.81
378.576	338.81
378.802	361.81
379.027	340.81
379.253	342.81
379.478	351.81
379.704	350.81
379.929	348.81
380.155	321.81
380.38	349.81
380.606	360.81
380.831	351.81
381.057	373.81
381.282	353.81
381.507	347.81
381.733	347.81
381.958	348.81
382.184	371.81
382.409	351.81
382.634	366.81
382.86	361.81
383.085	353.81
383.31	349.81
383.535	380.81
383.761	347.81
383.986	359.81
384.211	362.81
384.436	364.81
384.662	357.81
384.887	350.81
385.112	381.81
385.337	378.81
385.562	373.81
385.787	384.81
386.013	382.81
386.238	372.81
386.463	382.81
386.688	370.81
386.913	368.81
387.138	388.81
387.363	367.81
387.588	363.81
387.813	370.81
388.038	368.81
388.263	364.81
388.488	380.81
388.713	384.81
388.938	344.81
389.163	374.81
389.387	382.81
389.612	383.81
389.837	365.81
390.062	362.81
390.287	376.81
390.512	378.81
390.736	380.81
390.961	380.81
391.186	388.81
391.411	396.81
391.636	373.81
391.86	373.81
392.085	363.81
392.31	384.81
392.534	387.81
392.759	388.81
392.984	365.81
393.208	382.81
393.433	365.81
393.658	387.81
393.882	377.81
394.107	373.81
394.331	369.81
394.556	384.81
394.78	360.81
395.005	358.81
395.229	368.81
395.454	377.81
395.678	385.81
395.903	390.81
396.127	407.81
396.352	408.81
396.576	405.81
396.801	393.81
397.025	395.81
397.249	374.81
397.474	396.81
397.698	382.81
397.922	414.81
398.147	416.81
398.371	423.81
398.595	413.81
398.82	401.81
399.044	411.81
399.268	428.81
399.492	457.81
399.717	491.81
399.941	492.81
400.165	483.81
400.389	507.81
400.613	474.81
400.837	442.81
401.062	425.81
401.286	428.81
401.51	420.81
401.734	397.81
401.958	420.81
402.182	420.81
402.406	429.81
402.63	418.81
402.854	426.81
403.078	431.81
403.302	413.81
403.526	436.81
403.75	438.81
403.974	416.81
404.198	408.81
404.422	423.81
404.645	432.81
404.869	442.81
405.093	449.81
405.317	499.81
405.541	512.81
405.765	454.81
405.988	454.81
406.212	433.81
406.436	458.81
406.66	468.81
406.883	471.81
407.107	476.81
407.331	531.81
407.555	568.81
407.778	547.81
408.002	497.81
408.226	484.81
408.449	460.81
408.673	477.81
408.896	490.81
409.12	507.81
409.344	476.81
409.567	442.81
409.791	429.81
410.014	420.81
410.238	427.81
410.461	429.81
410.685	434.81
410.908	440.81
411.132	473.81
411.355	477.81
411.578	491.81
411.802	432.81
412.025	451.81
412.249	405.81
412.472	446.81
412.695	475.81
412.919	464.81
413.142	429.81
413.365	406.81
413.589	427.81
413.812	408.81
414.035	400.81
414.258	407.81
414.482	385.81
414.705	414.81
414.928	391.81
415.151	416.81
415.374	389.81
415.597	402.81
415.821	395.81
416.044	410.81
416.267	404.81
416.49	388.81
416.713	410.81
416.936	404.81
417.159	374.81
417.382	392.81
417.605	406.81
417.828	409.81
418.051	422.81
418.274	418.81
418.497	404.81
418.72	399.81
418.943	407.81
419.166	424.81
419.389	435.81
419.611	429.81
419.834	419.81
420.057	426.81
420.28	420.81
420.503	440.81
420.726	395.81
420.948	445.81
421.171	450.81
421.394	500.81
421.617	431.81
421.839	426.81
422.062	427.81
422.285	452.81
422.507	471.81
422.73	540.81
422.953	516.81
423.175	468.81
423.398	450.81
423.621	426.81
423.843	444.81
424.066	449.81
424.288	462.81
424.511	461.81
424.733	516.81
424.956	570.81
425.178	568.81
425.401	554.81
425.623	564.81
425.846	481.81
426.068	460.81
426.291	441.81
426.513	448.81
426.735	448.81
426.958	499.81
427.18	573.81
427.402	633.81
427.625	720.81
427.847	634.81
428.069	551.81
428.292	510.81
428.514	454.81
428.736	430.81
428.958	434.81
429.181	418.81
429.403	421.81
429.625	443.81
429.847	456.81
430.069	515.81
430.292	487.81
430.514	448.81
430.736	405.81
430.958	408.81
431.18	416.81
431.402	391.81
431.624	396.81
431.846	398.81
432.068	391.81
432.29	397.81
432.512	396.81
432.734	398.81
432.956	405.81
433.178	396.81
433.4	397.81
433.622	392.81
433.844	386.81
434.066	396.81
434.287	396.81
434.509	393.81
434.731	404.81
434.953	404.81
435.175	424.81
435.397	438.81
435.618	450.81
435.84	482.81
436.062	582.81
436.284	604.81
436.505	517.81
436.727	432.81
436.949	421.81
437.17	413.81
437.392	405.81
437.614	417.81
437.835	441.81
438.057	516.81
438.278	606.81
438.5	632.81
438.721	683.81
438.943	632.81
439.165	488.81
439.386	476.81
439.608	480.81
439.829	460.81
440.05	461.81
440.272	520.81
440.493	482.81
440.715	446.81
440.936	439.81
441.158	449.81
441.379	415.81
441.6	430.81
441.822	457.81
442.043	502.81
442.264	542.81
442.486	574.81
442.707	485.81
442.928	462.81
443.149	471.81
443.371	474.81
443.592	527.81
443.813	603.81
444.034	636.81
444.255	549.81
444.476	477.81
444.698	454.81
444.919	451.81
445.14	579.81
445.361	517.81
445.582	484.81
445.803	540.81
446.024	598.81
446.245	626.81
446.466	568.81
446.687	499.81
446.908	442.81
447.129	444.81
447.35	430.81
447.571	434.81
447.792	421.81
448.013	418.81
448.234	433.81
448.455	476.81
448.675	553.81
448.896	653.81
449.117	552.81
449.338	545.81
449.559	620.81
449.779	700.81
450	564.81
450.221	462.81
450.442	440.81
450.662	423.81
450.883	396.81
451.104	416.81
451.324	411.81
451.545	382.81
451.766	394.81
451.986	387.81
452.207	380.81
452.428	372.81
452.648	374.81
452.869	356.81
453.089	396.81
453.31	394.81
453.53	378.81
453.751	364.81
453.971	362.81
454.192	370.81
454.412	368.81
454.633	380.81
454.853	376.81
455.073	355.81
455.294	376.81
455.514	446.81
455.734	431.81
455.955	376.81
456.175	347.81
456.395	346.81
456.616	348.81
456.836	352.81
457.056	339.81
457.276	338.81
457.497	345.81
457.717	351.81
457.937	361.81
458.157	359.81
458.377	354.81
458.598	388.81
458.818	408.81
459.038	496.81
459.258	494.81
459.478	418.81
459.698	379.81
459.918	382.81
460.138	382.81
460.358	384.81
460.578	377.81
460.798	399.81
461.018	390.81
461.238	386.81
461.458	389.81
461.678	379.81
461.898	380.81
462.118	401.81
462.338	420.81
462.558	397.81
462.777	387.81
462.997	396.81
463.217	421.81
463.437	435.81
463.657	406.81
463.876	406.81
464.096	429.81
464.316	396.81
464.536	400.81
464.755	414.81
464.975	427.81
465.195	442.81
465.414	500.81
465.634	419.81
465.854	426.81
466.073	401.81
466.293	381.81
466.512	374.81
466.732	376.81
466.951	393.81
467.171	390.81
467.391	377.81
467.61	389.81
467.829	411.81
468.049	376.81
468.268	376.81
468.488	378.81
468.707	365.81
468.927	370.81
469.146	366.81
469.365	378.81
469.585	363.81
469.804	364.81
470.023	356.81
470.243	364.81
470.462	384.81
470.681	400.81
470.901	385.81
471.12	374.81
471.339	374.81
471.558	381.81
471.777	370.81
471.997	376.81
472.216	365.81
472.435	392.81
472.654	402.81
472.873	376.81
473.092	380.81
473.311	372.81
473.53	391.81
473.749	390.81
473.968	433.81
474.187	485.81
474.406	517.81
474.625	434.81
474.844	408.81
475.063	372.81
475.282	399.81
475.501	392.81
475.72	404.81
475.939	384.81
476.158	374.81
476.377	402.81
476.596	400.81
476.814	400.81
477.033	381.81
477.252	396.81
477.471	413.81
477.69	410.81
477.908	411.81
478.127	405.81
478.346	384.81
478.564	406.81
478.783	427.81
479.002	421.81
479.22	432.81
479.439	445.81
479.658	448.81
479.876	474.81
480.095	466.81
480.313	494.81
480.532	454.81
480.751	454.81
480.969	459.81
481.188	499.81
481.406	519.81
481.624	465.81
481.843	424.81
482.061	453.81
482.28	449.81
482.498	426.81
482.717	456.81
482.935	429.81
483.153	444.81
483.372	463.81
483.59	424.81
483.808	446.81
484.027	436.81
484.245	443.81
484.463	435.81
484.681	442.81
484.9	440.81
485.118	451.81
485.336	464.81
485.554	461.81
485.772	459.81
485.99	440.81
486.209	459.81
486.427	439.81
486.645	467.81
486.863	474.81
487.081	458.81
487.299	478.81
487.517	474.81
487.735	481.81
487.953	466.81
488.171	483.81
488.389	488.81
488.607	482.81
488.825	471.81
489.043	486.81
489.261	501.81
489.479	489.81
489.696	500.81
489.914	488.81
490.132	488.81
490.35	489.81
490.568	489.81
490.786	503.81
491.003	523.81
491.221	531.81
491.439	528.81
491.657	518.81
491.874	542.81
492.092	551.81
492.31	560.81
492.527	560.81
492.745	562.81
492.963	536.81
493.18	540.81
493.398	565.81
493.615	573.81
493.833	562.81
494.05	565.81
494.268	575.81
494.485	553.81
494.703	560.81
494.92	560.81
495.138	585.81
495.355	560.81
495.573	557.81
495.79	581.81
496.008	560.81
496.225	547.81
496.442	567.81
496.66	562.81
496.877	560.81
497.094	556.81
497.312	588.81
497.529	580.81
497.746	593.81
497.963	581.81
498.181	618.81
498.398	584.81
498.615	605.81
498.832	603.81
499.049	639.81
499.267	633.81
499.484	661.81
499.701	676.81
499.918	688.81
500.135	693.81
500.352	731.81
500.569	761.81
500.786	752.81
501.003	720.81
501.22	705.81
501.437	709.81
501.654	690.81
501.871	692.81
502.088	658.81
