Data from 1971.PennyLincolnUp.Lamp.En5.5.200Scan.071719.P1.Scan 2. Changed Angle._HRD10591_15-23-12-842.txt Node
Date: Thu Jul 18 15:23:12 EDT 2019
User: cochatt
Spectrometer: HR+D1059
Trigger mode: 1
Integration Time (sec): 1.000000E-1
Scans to average: 1
Electric dark correction enabled: true
Nonlinearity correction enabled: false
Boxcar width: 0
XAxis mode: Wavelengths
Number of Pixels in Spectrum: 2048
>>>>>Begin Spectral Data<<<<<
223.165	-24.31
223.4	-24.31
223.635	-24.31
223.869	-16.31
224.104	-13.31
224.338	-15.31
224.573	-4.31
224.808	-21.31
225.042	-13.31
225.277	0.69
225.511	-4.31
225.746	1.69
225.98	12.69
226.215	14.69
226.449	13.69
226.683	11.69
226.918	25.69
227.152	31.69
227.387	28.69
227.621	49.69
227.856	50.69
228.09	43.69
228.324	41.69
228.559	50.69
228.793	65.69
229.027	108.69
229.262	106.69
229.496	132.69
229.73	154.69
229.964	171.69
230.199	147.69
230.433	112.69
230.667	115.69
230.901	124.69
231.136	102.69
231.37	109.69
231.604	107.69
231.838	104.69
232.072	137.69
232.306	122.69
232.541	117.69
232.775	115.69
233.009	102.69
233.243	99.69
233.477	110.69
233.711	127.69
233.945	115.69
234.179	113.69
234.413	108.69
234.647	119.69
234.881	120.69
235.115	125.69
235.349	121.69
235.583	117.69
235.817	118.69
236.051	127.69
236.285	119.69
236.519	133.69
236.753	133.69
236.987	150.69
237.221	195.69
237.455	248.69
237.689	201.69
237.922	162.69
238.156	145.69
238.39	135.69
238.624	124.69
238.858	126.69
239.091	133.69
239.325	123.69
239.559	124.69
239.793	124.69
240.027	134.69
240.26	151.69
240.494	162.69
240.728	157.69
240.961	163.69
241.195	123.69
241.429	148.69
241.662	144.69
241.896	128.69
242.13	153.69
242.363	135.69
242.597	129.69
242.83	143.69
243.064	146.69
243.298	137.69
243.531	135.69
243.765	138.69
243.998	151.69
244.232	159.69
244.465	155.69
244.699	138.69
244.932	136.69
245.166	145.69
245.399	134.69
245.633	146.69
245.866	152.69
246.099	131.69
246.333	151.69
246.566	153.69
246.8	152.69
247.033	152.69
247.266	160.69
247.5	168.69
247.733	155.69
247.966	170.69
248.2	161.69
248.433	176.69
248.666	183.69
248.899	188.69
249.133	199.69
249.366	208.69
249.599	203.69
249.832	203.69
250.066	177.69
250.299	185.69
250.532	206.69
250.765	207.69
250.998	219.69
251.231	231.69
251.465	218.69
251.698	223.69
251.931	201.69
252.164	202.69
252.397	204.69
252.63	209.69
252.863	217.69
253.096	233.69
253.329	254.69
253.562	229.69
253.795	221.69
254.028	231.69
254.261	226.69
254.494	251.69
254.727	275.69
254.96	299.69
255.193	290.69
255.426	249.69
255.659	250.69
255.892	230.69
256.124	233.69
256.357	230.69
256.59	222.69
256.823	219.69
257.056	214.69
257.289	224.69
257.521	229.69
257.754	223.69
257.987	202.69
258.22	213.69
258.452	213.69
258.685	226.69
258.918	221.69
259.151	232.69
259.383	216.69
259.616	230.69
259.849	228.69
260.081	232.69
260.314	273.69
260.547	272.69
260.779	250.69
261.012	244.69
261.244	229.69
261.477	232.69
261.71	224.69
261.942	220.69
262.175	259.69
262.407	252.69
262.64	226.69
262.872	211.69
263.105	196.69
263.337	213.69
263.57	216.69
263.802	218.69
264.035	196.69
264.267	202.69
264.499	188.69
264.732	209.69
264.964	208.69
265.197	201.69
265.429	204.69
265.661	208.69
265.894	211.69
266.126	210.69
266.358	220.69
266.591	188.69
266.823	224.69
267.055	227.69
267.287	209.69
267.52	211.69
267.752	216.69
267.984	224.69
268.216	227.69
268.448	231.69
268.681	222.69
268.913	247.69
269.145	264.69
269.377	277.69
269.609	280.69
269.841	275.69
270.073	269.69
270.306	304.69
270.538	309.69
270.77	324.69
271.002	293.69
271.234	283.69
271.466	314.69
271.698	321.69
271.93	317.69
272.162	323.69
272.394	313.69
272.626	304.69
272.858	279.69
273.09	271.69
273.322	265.69
273.553	265.69
273.785	274.69
274.017	277.69
274.249	230.69
274.481	241.69
274.713	256.69
274.945	256.69
275.176	269.69
275.408	252.69
275.64	264.69
275.872	262.69
276.104	260.69
276.335	247.69
276.567	276.69
276.799	273.69
277.031	303.69
277.262	322.69
277.494	313.69
277.726	283.69
277.957	292.69
278.189	274.69
278.421	248.69
278.652	246.69
278.884	269.69
279.115	260.69
279.347	250.69
279.579	239.69
279.81	257.69
280.042	234.69
280.273	270.69
280.505	260.69
280.736	244.69
280.968	261.69
281.199	250.69
281.431	260.69
281.662	263.69
281.894	235.69
282.125	261.69
282.356	273.69
282.588	287.69
282.819	301.69
283.051	248.69
283.282	249.69
283.513	251.69
283.745	255.69
283.976	260.69
284.207	278.69
284.439	272.69
284.67	255.69
284.901	268.69
285.132	251.69
285.364	261.69
285.595	264.69
285.826	245.69
286.057	263.69
286.288	251.69
286.52	259.69
286.751	226.69
286.982	249.69
287.213	269.69
287.444	260.69
287.675	262.69
287.906	267.69
288.138	277.69
288.369	280.69
288.6	288.69
288.831	283.69
289.062	288.69
289.293	275.69
289.524	266.69
289.755	275.69
289.986	265.69
290.217	273.69
290.448	265.69
290.679	269.69
290.91	255.69
291.141	262.69
291.371	282.69
291.602	265.69
291.833	257.69
292.064	263.69
292.295	272.69
292.526	274.69
292.757	270.69
292.987	278.69
293.218	265.69
293.449	265.69
293.68	256.69
293.91	270.69
294.141	271.69
294.372	269.69
294.603	258.69
294.833	262.69
295.064	277.69
295.295	287.69
295.525	277.69
295.756	269.69
295.987	290.69
296.217	309.69
296.448	321.69
296.679	297.69
296.909	272.69
297.14	264.69
297.37	273.69
297.601	287.69
297.831	268.69
298.062	272.69
298.292	275.69
298.523	246.69
298.753	275.69
298.984	265.69
299.214	270.69
299.445	286.69
299.675	287.69
299.905	277.69
300.136	287.69
300.366	283.69
300.597	280.69
300.827	293.69
301.057	307.69
301.288	294.69
301.518	296.69
301.748	287.69
301.979	306.69
302.209	302.69
302.439	306.69
302.669	304.69
302.9	304.69
303.13	304.69
303.36	296.69
303.59	295.69
303.82	333.69
304.051	316.69
304.281	297.69
304.511	291.69
304.741	294.69
304.971	296.69
305.201	283.69
305.431	301.69
305.661	294.69
305.891	287.69
306.121	295.69
306.352	318.69
306.582	307.69
306.812	326.69
307.042	303.69
307.272	314.69
307.502	311.69
307.731	308.69
307.961	325.69
308.191	300.69
308.421	316.69
308.651	334.69
308.881	330.69
309.111	314.69
309.341	305.69
309.571	344.69
309.8	324.69
310.03	351.69
310.26	361.69
310.49	380.69
310.72	376.69
310.949	390.69
311.179	394.69
311.409	369.69
311.639	372.69
311.868	359.69
312.098	371.69
312.328	371.69
312.557	383.69
312.787	410.69
313.017	380.69
313.246	380.69
313.476	346.69
313.706	349.69
313.935	361.69
314.165	370.69
314.394	383.69
314.624	372.69
314.853	375.69
315.083	369.69
315.312	352.69
315.542	345.69
315.771	370.69
316.001	334.69
316.23	329.69
316.46	353.69
316.689	351.69
316.919	366.69
317.148	377.69
317.377	371.69
317.607	360.69
317.836	364.69
318.065	349.69
318.295	359.69
318.524	362.69
318.753	362.69
318.983	358.69
319.212	365.69
319.441	380.69
319.67	372.69
319.9	359.69
320.129	381.69
320.358	379.69
320.587	383.69
320.816	369.69
321.046	381.69
321.275	393.69
321.504	378.69
321.733	373.69
321.962	405.69
322.191	422.69
322.42	416.69
322.649	434.69
322.878	460.69
323.108	461.69
323.337	515.69
323.566	517.69
323.795	539.69
324.024	601.69
324.253	753.69
324.482	1108.69
324.71	1733.69
324.939	2435.69
325.168	2137.69
325.397	1098.69
325.626	732.69
325.855	604.69
326.084	555.69
326.313	513.69
326.542	526.69
326.77	578.69
326.999	674.69
327.228	968.69
327.457	1467.69
327.686	1805.69
327.914	1244.69
328.143	806.69
328.372	681.69
328.6	619.69
328.829	589.69
329.058	607.69
329.287	631.69
329.515	571.69
329.744	532.69
329.972	519.69
330.201	538.69
330.43	562.69
330.658	623.69
330.887	634.69
331.115	636.69
331.344	545.69
331.572	495.69
331.801	490.69
332.03	509.69
332.258	485.69
332.486	441.69
332.715	448.69
332.943	410.69
333.172	432.69
333.4	443.69
333.629	435.69
333.857	435.69
334.085	461.69
334.314	485.69
334.542	511.69
334.771	537.69
334.999	497.69
335.227	447.69
335.455	443.69
335.684	448.69
335.912	416.69
336.14	412.69
336.369	416.69
336.597	443.69
336.825	413.69
337.053	426.69
337.281	426.69
337.51	408.69
337.738	421.69
337.966	427.69
338.194	431.69
338.422	421.69
338.65	412.69
338.878	403.69
339.106	404.69
339.334	406.69
339.562	404.69
339.79	395.69
340.018	393.69
340.246	418.69
340.474	434.69
340.702	391.69
340.93	404.69
341.158	397.69
341.386	397.69
341.614	408.69
341.842	412.69
342.07	400.69
342.298	407.69
342.526	396.69
342.754	408.69
342.981	389.69
343.209	398.69
343.437	398.69
343.665	383.69
343.893	395.69
344.12	398.69
344.348	414.69
344.576	393.69
344.804	413.69
345.031	432.69
345.259	447.69
345.487	437.69
345.714	427.69
345.942	422.69
346.17	415.69
346.397	408.69
346.625	393.69
346.853	417.69
347.08	391.69
347.308	405.69
347.535	423.69
347.763	410.69
347.99	428.69
348.218	429.69
348.445	423.69
348.673	416.69
348.9	409.69
349.128	420.69
349.355	400.69
349.583	387.69
349.81	383.69
350.037	399.69
350.265	414.69
350.492	376.69
350.72	394.69
350.947	412.69
351.174	425.69
351.402	447.69
351.629	421.69
351.856	422.69
352.083	437.69
352.311	451.69
352.538	441.69
352.765	456.69
352.992	433.69
353.22	409.69
353.447	424.69
353.674	410.69
353.901	399.69
354.128	385.69
354.355	401.69
354.583	404.69
354.81	384.69
355.037	387.69
355.264	370.69
355.491	391.69
355.718	372.69
355.945	360.69
356.172	364.69
356.399	374.69
356.626	367.69
356.853	380.69
357.08	377.69
357.307	388.69
357.534	375.69
357.761	387.69
357.988	394.69
358.215	367.69
358.441	379.69
358.668	389.69
358.895	384.69
359.122	412.69
359.349	409.69
359.576	432.69
359.802	437.69
360.029	475.69
360.256	475.69
360.483	469.69
360.709	415.69
360.936	431.69
361.163	402.69
361.39	412.69
361.616	437.69
361.843	421.69
362.07	421.69
362.296	409.69
362.523	417.69
362.749	408.69
362.976	400.69
363.203	397.69
363.429	390.69
363.656	424.69
363.882	396.69
364.109	394.69
364.335	390.69
364.562	418.69
364.788	387.69
365.015	398.69
365.241	415.69
365.468	388.69
365.694	413.69
365.92	403.69
366.147	420.69
366.373	394.69
366.599	390.69
366.826	403.69
367.052	382.69
367.278	390.69
367.505	407.69
367.731	407.69
367.957	400.69
368.184	411.69
368.41	416.69
368.636	401.69
368.862	412.69
369.089	408.69
369.315	396.69
369.541	378.69
369.767	401.69
369.993	386.69
370.219	390.69
370.445	392.69
370.672	393.69
370.898	389.69
371.124	394.69
371.35	394.69
371.576	388.69
371.802	375.69
372.028	372.69
372.254	402.69
372.48	389.69
372.706	392.69
372.932	402.69
373.158	388.69
373.384	392.69
373.61	389.69
373.835	408.69
374.061	399.69
374.287	383.69
374.513	409.69
374.739	403.69
374.965	406.69
375.191	384.69
375.416	393.69
375.642	384.69
375.868	401.69
376.094	393.69
376.319	394.69
376.545	379.69
376.771	379.69
376.997	390.69
377.222	397.69
377.448	406.69
377.674	383.69
377.899	363.69
378.125	376.69
378.35	376.69
378.576	364.69
378.802	387.69
379.027	395.69
379.253	394.69
379.478	378.69
379.704	366.69
379.929	377.69
380.155	393.69
380.38	396.69
380.606	404.69
380.831	392.69
381.057	389.69
381.282	396.69
381.507	387.69
381.733	412.69
381.958	398.69
382.184	391.69
382.409	397.69
382.634	404.69
382.86	391.69
383.085	395.69
383.31	415.69
383.535	414.69
383.761	416.69
383.986	403.69
384.211	399.69
384.436	398.69
384.662	406.69
384.887	401.69
385.112	437.69
385.337	406.69
385.562	401.69
385.787	414.69
386.013	441.69
386.238	426.69
386.463	433.69
386.688	434.69
386.913	411.69
387.138	433.69
387.363	428.69
387.588	436.69
387.813	441.69
388.038	428.69
388.263	410.69
388.488	426.69
388.713	410.69
388.938	424.69
389.163	439.69
389.387	428.69
389.612	455.69
389.837	432.69
390.062	408.69
390.287	418.69
390.512	429.69
390.736	409.69
390.961	443.69
391.186	432.69
391.411	453.69
391.636	425.69
391.86	433.69
392.085	448.69
392.31	438.69
392.534	417.69
392.759	440.69
392.984	421.69
393.208	435.69
393.433	457.69
393.658	464.69
393.882	425.69
394.107	432.69
394.331	442.69
394.556	425.69
394.78	431.69
395.005	435.69
395.229	420.69
395.454	451.69
395.678	450.69
395.903	438.69
396.127	483.69
396.352	471.69
396.576	455.69
396.801	438.69
397.025	451.69
397.249	457.69
397.474	442.69
397.698	449.69
397.922	469.69
398.147	490.69
398.371	485.69
398.595	469.69
398.82	475.69
399.044	474.69
399.268	484.69
399.492	507.69
399.717	529.69
399.941	567.69
400.165	589.69
400.389	618.69
400.613	573.69
400.837	533.69
401.062	498.69
401.286	500.69
401.51	476.69
401.734	485.69
401.958	499.69
402.182	498.69
402.406	522.69
402.63	509.69
402.854	495.69
403.078	527.69
403.302	517.69
403.526	508.69
403.75	509.69
403.974	516.69
404.198	476.69
404.422	487.69
404.645	525.69
404.869	531.69
405.093	572.69
405.317	585.69
405.541	609.69
405.765	590.69
405.988	546.69
406.212	561.69
406.436	603.69
406.66	630.69
406.883	569.69
407.107	588.69
407.331	631.69
407.555	669.69
407.778	705.69
408.002	630.69
408.226	578.69
408.449	566.69
408.673	568.69
408.896	593.69
409.12	641.69
409.344	595.69
409.567	541.69
409.791	535.69
410.014	516.69
410.238	521.69
410.461	528.69
410.685	551.69
410.908	573.69
411.132	568.69
411.355	615.69
411.578	591.69
411.802	533.69
412.025	561.69
412.249	541.69
412.472	562.69
412.695	597.69
412.919	568.69
413.142	518.69
413.365	508.69
413.589	509.69
413.812	493.69
414.035	500.69
414.258	492.69
414.482	478.69
414.705	477.69
414.928	481.69
415.151	478.69
415.374	468.69
415.597	496.69
415.821	474.69
416.044	464.69
416.267	508.69
416.49	521.69
416.713	481.69
416.936	485.69
417.159	489.69
417.382	497.69
417.605	493.69
417.828	491.69
418.051	543.69
418.274	533.69
418.497	500.69
418.72	505.69
418.943	486.69
419.166	512.69
419.389	533.69
419.611	516.69
419.834	513.69
420.057	540.69
420.28	529.69
420.503	523.69
420.726	521.69
420.948	531.69
421.171	587.69
421.394	597.69
421.617	551.69
421.839	541.69
422.062	535.69
422.285	547.69
422.507	597.69
422.73	674.69
422.953	641.69
423.175	571.69
423.398	550.69
423.621	557.69
423.843	574.69
424.066	581.69
424.288	563.69
424.511	609.69
424.733	659.69
424.956	745.69
425.178	702.69
425.401	703.69
425.623	735.69
425.846	640.69
426.068	597.69
426.291	566.69
426.513	557.69
426.735	594.69
426.958	634.69
427.18	717.69
427.402	841.69
427.625	981.69
427.847	879.69
428.069	747.69
428.292	659.69
428.514	603.69
428.736	550.69
428.958	575.69
429.181	545.69
429.403	576.69
429.625	572.69
429.847	586.69
430.069	673.69
430.292	643.69
430.514	576.69
430.736	526.69
430.958	507.69
431.18	530.69
431.402	514.69
431.624	489.69
431.846	508.69
432.068	499.69
432.29	501.69
432.512	500.69
432.734	506.69
432.956	513.69
433.178	544.69
433.4	531.69
433.622	520.69
433.844	501.69
434.066	499.69
434.287	484.69
434.509	499.69
434.731	518.69
434.953	503.69
435.175	566.69
435.397	585.69
435.618	589.69
435.84	632.69
436.062	745.69
436.284	813.69
436.505	687.69
436.727	604.69
436.949	570.69
437.17	563.69
437.392	563.69
437.614	590.69
437.835	605.69
438.057	746.69
438.278	835.69
438.5	838.69
438.721	849.69
438.943	856.69
439.165	684.69
439.386	618.69
439.608	627.69
439.829	614.69
440.05	615.69
440.272	667.69
440.493	661.69
440.715	601.69
440.936	575.69
441.158	548.69
441.379	555.69
441.6	546.69
441.822	582.69
442.043	632.69
442.264	723.69
442.486	781.69
442.707	680.69
442.928	604.69
443.149	619.69
443.371	662.69
443.592	683.69
443.813	771.69
444.034	847.69
444.255	708.69
444.476	609.69
444.698	620.69
444.919	608.69
445.14	676.69
445.361	649.69
445.582	656.69
445.803	713.69
446.024	852.69
446.245	853.69
446.466	761.69
446.687	653.69
446.908	609.69
447.129	575.69
447.35	536.69
447.571	558.69
447.792	561.69
448.013	573.69
448.234	582.69
448.455	647.69
448.675	757.69
448.896	849.69
449.117	759.69
449.338	682.69
449.559	827.69
449.779	879.69
450	739.69
450.221	626.69
450.442	580.69
450.662	533.69
450.883	585.69
451.104	601.69
451.324	568.69
451.545	529.69
451.766	532.69
451.986	495.69
452.207	481.69
452.428	487.69
452.648	492.69
452.869	504.69
453.089	499.69
453.31	523.69
453.53	516.69
453.751	496.69
453.971	509.69
454.192	533.69
454.412	522.69
454.633	488.69
454.853	476.69
455.073	500.69
455.294	539.69
455.514	587.69
455.734	582.69
455.955	473.69
456.175	472.69
456.395	447.69
456.616	472.69
456.836	438.69
457.056	431.69
457.276	434.69
457.497	425.69
457.717	468.69
457.937	472.69
458.157	483.69
458.377	466.69
458.598	507.69
458.818	576.69
459.038	657.69
459.258	700.69
459.478	579.69
459.698	507.69
459.918	506.69
460.138	510.69
460.358	488.69
460.578	484.69
460.798	500.69
461.018	513.69
461.238	522.69
461.458	495.69
461.678	498.69
461.898	496.69
462.118	483.69
462.338	490.69
462.558	518.69
462.777	516.69
462.997	532.69
463.217	534.69
463.437	537.69
463.657	506.69
463.876	533.69
464.096	520.69
464.316	525.69
464.536	545.69
464.755	543.69
464.975	573.69
465.195	618.69
465.414	737.69
465.634	614.69
465.854	577.69
466.073	546.69
466.293	511.69
466.512	496.69
466.732	481.69
466.951	485.69
467.171	482.69
467.391	498.69
467.61	498.69
467.829	526.69
468.049	521.69
468.268	509.69
468.488	510.69
468.707	494.69
468.927	490.69
469.146	468.69
469.365	482.69
469.585	481.69
469.804	472.69
470.023	500.69
470.243	499.69
470.462	508.69
470.681	545.69
470.901	516.69
471.12	511.69
471.339	504.69
471.558	516.69
471.777	511.69
471.997	516.69
472.216	515.69
472.435	573.69
472.654	539.69
472.873	519.69
473.092	512.69
473.311	495.69
473.53	513.69
473.749	534.69
473.968	566.69
474.187	677.69
474.406	686.69
474.625	593.69
474.844	538.69
475.063	516.69
475.282	526.69
475.501	511.69
475.72	539.69
475.939	549.69
476.158	548.69
476.377	513.69
476.596	520.69
476.814	545.69
477.033	554.69
477.252	523.69
477.471	558.69
477.69	537.69
477.908	538.69
478.127	549.69
478.346	549.69
478.564	560.69
478.783	581.69
479.002	592.69
479.22	613.69
479.439	600.69
479.658	621.69
479.876	634.69
480.095	604.69
480.313	629.69
480.532	623.69
480.751	599.69
480.969	645.69
481.188	691.69
481.406	762.69
481.624	653.69
481.843	613.69
482.061	615.69
482.28	601.69
482.498	619.69
482.717	598.69
482.935	603.69
483.153	616.69
483.372	608.69
483.59	611.69
483.808	618.69
484.027	609.69
484.245	608.69
484.463	601.69
484.681	628.69
484.9	623.69
485.118	626.69
485.336	635.69
485.554	628.69
485.772	611.69
485.99	630.69
486.209	617.69
486.427	643.69
486.645	643.69
486.863	678.69
487.081	663.69
487.299	657.69
487.517	666.69
487.735	659.69
487.953	667.69
488.171	653.69
488.389	684.69
488.607	669.69
488.825	672.69
489.043	660.69
489.261	671.69
489.479	675.69
489.696	678.69
489.914	664.69
490.132	683.69
490.35	683.69
490.568	726.69
490.786	684.69
491.003	730.69
491.221	735.69
491.439	756.69
491.657	747.69
491.874	762.69
492.092	788.69
492.31	779.69
492.527	793.69
492.745	796.69
492.963	787.69
493.18	788.69
493.398	796.69
493.615	800.69
493.833	790.69
494.05	777.69
494.268	794.69
494.485	767.69
494.703	794.69
494.92	788.69
495.138	827.69
495.355	802.69
495.573	809.69
495.79	809.69
496.008	783.69
496.225	811.69
496.442	798.69
496.66	768.69
496.877	813.69
497.094	808.69
497.312	798.69
497.529	811.69
497.746	834.69
497.963	800.69
498.181	842.69
498.398	845.69
498.615	867.69
498.832	864.69
499.049	840.69
499.267	903.69
499.484	883.69
499.701	924.69
499.918	930.69
500.135	924.69
500.352	944.69
500.569	1002.69
500.786	980.69
501.003	987.69
501.22	986.69
501.437	955.69
501.654	944.69
