Data from 1971.PennyLincolnUp.Lamp.En5.5.200Scan.071719.P1.Scan 2. Changed Angle._HRD10591_15-23-03-842.txt Node
Date: Thu Jul 18 15:23:03 EDT 2019
User: cochatt
Spectrometer: HR+D1059
Trigger mode: 1
Integration Time (sec): 1.000000E-1
Scans to average: 1
Electric dark correction enabled: true
Nonlinearity correction enabled: false
Boxcar width: 0
XAxis mode: Wavelengths
Number of Pixels in Spectrum: 2048
>>>>>Begin Spectral Data<<<<<
223.165	-16.25
223.4	-16.25
223.635	-16.25
223.869	-23.25
224.104	-17.25
224.338	-15.25
224.573	-3.25
224.808	-5.25
225.042	-0.25
225.277	7.75
225.511	-5.25
225.746	-3.25
225.98	0.75
226.215	-7.25
226.449	15.75
226.683	16.75
226.918	21.75
227.152	33.75
227.387	59.75
227.621	53.75
227.856	44.75
228.09	52.75
228.324	47.75
228.559	52.75
228.793	86.75
229.027	120.75
229.262	119.75
229.496	127.75
229.73	145.75
229.964	157.75
230.199	135.75
230.433	122.75
230.667	118.75
230.901	125.75
231.136	102.75
231.37	127.75
231.604	120.75
231.838	123.75
232.072	118.75
232.306	120.75
232.541	118.75
232.775	115.75
233.009	118.75
233.243	119.75
233.477	113.75
233.711	102.75
233.945	128.75
234.179	122.75
234.413	125.75
234.647	138.75
234.881	120.75
235.115	131.75
235.349	116.75
235.583	120.75
235.817	132.75
236.051	127.75
236.285	126.75
236.519	130.75
236.753	129.75
236.987	153.75
237.221	194.75
237.455	233.75
237.689	188.75
237.922	147.75
238.156	131.75
238.39	135.75
238.624	124.75
238.858	135.75
239.091	149.75
239.325	135.75
239.559	148.75
239.793	140.75
240.027	144.75
240.26	155.75
240.494	174.75
240.728	169.75
240.961	164.75
241.195	164.75
241.429	148.75
241.662	131.75
241.896	135.75
242.13	134.75
242.363	133.75
242.597	122.75
242.83	136.75
243.064	158.75
243.298	156.75
243.531	152.75
243.765	142.75
243.998	146.75
244.232	161.75
244.465	147.75
244.699	149.75
244.932	143.75
245.166	152.75
245.399	146.75
245.633	144.75
245.866	149.75
246.099	155.75
246.333	161.75
246.566	152.75
246.8	145.75
247.033	136.75
247.266	153.75
247.5	166.75
247.733	188.75
247.966	185.75
248.2	180.75
248.433	177.75
248.666	186.75
248.899	208.75
249.133	190.75
249.366	216.75
249.599	203.75
249.832	193.75
250.066	182.75
250.299	198.75
250.532	190.75
250.765	211.75
250.998	206.75
251.231	234.75
251.465	220.75
251.698	199.75
251.931	214.75
252.164	193.75
252.397	185.75
252.63	192.75
252.863	212.75
253.096	216.75
253.329	234.75
253.562	227.75
253.795	226.75
254.028	209.75
254.261	228.75
254.494	246.75
254.727	268.75
254.96	290.75
255.193	264.75
255.426	268.75
255.659	241.75
255.892	237.75
256.124	241.75
256.357	240.75
256.59	231.75
256.823	211.75
257.056	210.75
257.289	203.75
257.521	212.75
257.754	195.75
257.987	208.75
258.22	217.75
258.452	213.75
258.685	203.75
258.918	204.75
259.151	205.75
259.383	222.75
259.616	215.75
259.849	225.75
260.081	234.75
260.314	249.75
260.547	265.75
260.779	261.75
261.012	241.75
261.244	223.75
261.477	227.75
261.71	218.75
261.942	221.75
262.175	232.75
262.407	247.75
262.64	212.75
262.872	208.75
263.105	201.75
263.337	209.75
263.57	213.75
263.802	206.75
264.035	195.75
264.267	202.75
264.499	188.75
264.732	187.75
264.964	210.75
265.197	203.75
265.429	232.75
265.661	207.75
265.894	180.75
266.126	207.75
266.358	208.75
266.591	213.75
266.823	209.75
267.055	224.75
267.287	225.75
267.52	230.75
267.752	214.75
267.984	215.75
268.216	222.75
268.448	239.75
268.681	224.75
268.913	242.75
269.145	268.75
269.377	268.75
269.609	261.75
269.841	257.75
270.073	266.75
270.306	282.75
270.538	298.75
270.77	304.75
271.002	280.75
271.234	262.75
271.466	301.75
271.698	306.75
271.93	323.75
272.162	312.75
272.394	297.75
272.626	296.75
272.858	282.75
273.09	292.75
273.322	248.75
273.553	248.75
273.785	236.75
274.017	251.75
274.249	258.75
274.481	253.75
274.713	259.75
274.945	269.75
275.176	250.75
275.408	242.75
275.64	231.75
275.872	254.75
276.104	242.75
276.335	236.75
276.567	266.75
276.799	258.75
277.031	294.75
277.262	284.75
277.494	291.75
277.726	283.75
277.957	279.75
278.189	260.75
278.421	264.75
278.652	252.75
278.884	254.75
279.115	252.75
279.347	235.75
279.579	251.75
279.81	228.75
280.042	238.75
280.273	252.75
280.505	249.75
280.736	239.75
280.968	248.75
281.199	232.75
281.431	236.75
281.662	243.75
281.894	242.75
282.125	246.75
282.356	255.75
282.588	271.75
282.819	307.75
283.051	240.75
283.282	236.75
283.513	236.75
283.745	235.75
283.976	255.75
284.207	254.75
284.439	251.75
284.67	268.75
284.901	247.75
285.132	254.75
285.364	260.75
285.595	262.75
285.826	239.75
286.057	253.75
286.288	268.75
286.52	252.75
286.751	227.75
286.982	252.75
287.213	240.75
287.444	272.75
287.675	247.75
287.906	263.75
288.138	256.75
288.369	257.75
288.6	266.75
288.831	269.75
289.062	263.75
289.293	272.75
289.524	266.75
289.755	249.75
289.986	254.75
290.217	264.75
290.448	255.75
290.679	258.75
290.91	236.75
291.141	250.75
291.371	239.75
291.602	260.75
291.833	248.75
292.064	259.75
292.295	242.75
292.526	258.75
292.757	272.75
292.987	257.75
293.218	247.75
293.449	262.75
293.68	244.75
293.91	235.75
294.141	265.75
294.372	251.75
294.603	250.75
294.833	259.75
295.064	243.75
295.295	262.75
295.525	231.75
295.756	250.75
295.987	281.75
296.217	269.75
296.448	285.75
296.679	268.75
296.909	268.75
297.14	270.75
297.37	269.75
297.601	272.75
297.831	265.75
298.062	260.75
298.292	273.75
298.523	272.75
298.753	269.75
298.984	273.75
299.214	276.75
299.445	259.75
299.675	277.75
299.905	282.75
300.136	292.75
300.366	278.75
300.597	275.75
300.827	291.75
301.057	284.75
301.288	294.75
301.518	291.75
301.748	303.75
301.979	288.75
302.209	276.75
302.439	306.75
302.669	282.75
302.9	284.75
303.13	279.75
303.36	289.75
303.59	300.75
303.82	314.75
304.051	282.75
304.281	281.75
304.511	273.75
304.741	288.75
304.971	280.75
305.201	289.75
305.431	296.75
305.661	284.75
305.891	278.75
306.121	294.75
306.352	305.75
306.582	310.75
306.812	297.75
307.042	289.75
307.272	298.75
307.502	305.75
307.731	302.75
307.961	284.75
308.191	287.75
308.421	297.75
308.651	292.75
308.881	285.75
309.111	313.75
309.341	307.75
309.571	316.75
309.8	317.75
310.03	327.75
310.26	347.75
310.49	352.75
310.72	371.75
310.949	366.75
311.179	364.75
311.409	369.75
311.639	338.75
311.868	349.75
312.098	344.75
312.328	353.75
312.557	374.75
312.787	382.75
313.017	386.75
313.246	342.75
313.476	314.75
313.706	349.75
313.935	339.75
314.165	377.75
314.394	352.75
314.624	371.75
314.853	366.75
315.083	343.75
315.312	341.75
315.542	336.75
315.771	351.75
316.001	330.75
316.23	329.75
316.46	340.75
316.689	323.75
316.919	345.75
317.148	368.75
317.377	367.75
317.607	336.75
317.836	339.75
318.065	326.75
318.295	364.75
318.524	348.75
318.753	348.75
318.983	363.75
319.212	345.75
319.441	384.75
319.67	371.75
319.9	347.75
320.129	337.75
320.358	338.75
320.587	372.75
320.816	363.75
321.046	382.75
321.275	366.75
321.504	385.75
321.733	357.75
321.962	371.75
322.191	401.75
322.42	396.75
322.649	398.75
322.878	398.75
323.108	444.75
323.337	466.75
323.566	462.75
323.795	522.75
324.024	580.75
324.253	698.75
324.482	1008.75
324.71	1561.75
324.939	2242.75
325.168	1942.75
325.397	1029.75
325.626	691.75
325.855	582.75
326.084	522.75
326.313	487.75
326.542	504.75
326.77	547.75
326.999	652.75
327.228	910.75
327.457	1380.75
327.686	1685.75
327.914	1139.75
328.143	738.75
328.372	648.75
328.6	608.75
328.829	570.75
329.058	580.75
329.287	589.75
329.515	556.75
329.744	502.75
329.972	494.75
330.201	514.75
330.43	568.75
330.658	591.75
330.887	612.75
331.115	572.75
331.344	522.75
331.572	459.75
331.801	475.75
332.03	454.75
332.258	429.75
332.486	422.75
332.715	423.75
332.943	425.75
333.172	405.75
333.4	411.75
333.629	433.75
333.857	431.75
334.085	439.75
334.314	450.75
334.542	472.75
334.771	498.75
334.999	434.75
335.227	450.75
335.455	401.75
335.684	407.75
335.912	411.75
336.14	397.75
336.369	402.75
336.597	418.75
336.825	424.75
337.053	412.75
337.281	394.75
337.51	390.75
337.738	385.75
337.966	399.75
338.194	406.75
338.422	381.75
338.65	384.75
338.878	403.75
339.106	381.75
339.334	382.75
339.562	379.75
339.79	386.75
340.018	379.75
340.246	392.75
340.474	402.75
340.702	410.75
340.93	399.75
341.158	398.75
341.386	396.75
341.614	392.75
341.842	388.75
342.07	382.75
342.298	388.75
342.526	363.75
342.754	378.75
342.981	366.75
343.209	356.75
343.437	380.75
343.665	403.75
343.893	389.75
344.12	389.75
344.348	389.75
344.576	376.75
344.804	405.75
345.031	401.75
345.259	418.75
345.487	399.75
345.714	386.75
345.942	406.75
346.17	377.75
346.397	386.75
346.625	388.75
346.853	389.75
347.08	383.75
347.308	388.75
347.535	386.75
347.763	394.75
347.99	382.75
348.218	428.75
348.445	407.75
348.673	418.75
348.9	381.75
349.128	380.75
349.355	381.75
349.583	386.75
349.81	376.75
350.037	349.75
350.265	358.75
350.492	357.75
350.72	400.75
350.947	398.75
351.174	399.75
351.402	415.75
351.629	390.75
351.856	375.75
352.083	401.75
352.311	395.75
352.538	404.75
352.765	398.75
352.992	406.75
353.22	401.75
353.447	401.75
353.674	359.75
353.901	360.75
354.128	356.75
354.355	362.75
354.583	383.75
354.81	366.75
355.037	364.75
355.264	362.75
355.491	366.75
355.718	362.75
355.945	347.75
356.172	383.75
356.399	366.75
356.626	340.75
356.853	378.75
357.08	342.75
357.307	352.75
357.534	353.75
357.761	375.75
357.988	344.75
358.215	369.75
358.441	348.75
358.668	367.75
358.895	377.75
359.122	368.75
359.349	392.75
359.576	403.75
359.802	433.75
360.029	470.75
360.256	468.75
360.483	461.75
360.709	398.75
360.936	406.75
361.163	407.75
361.39	399.75
361.616	420.75
361.843	406.75
362.07	390.75
362.296	411.75
362.523	394.75
362.749	372.75
362.976	398.75
363.203	379.75
363.429	380.75
363.656	377.75
363.882	363.75
364.109	381.75
364.335	383.75
364.562	391.75
364.788	385.75
365.015	386.75
365.241	366.75
365.468	386.75
365.694	390.75
365.92	403.75
366.147	393.75
366.373	384.75
366.599	391.75
366.826	382.75
367.052	357.75
367.278	370.75
367.505	365.75
367.731	361.75
367.957	363.75
368.184	371.75
368.41	377.75
368.636	389.75
368.862	394.75
369.089	398.75
369.315	388.75
369.541	389.75
369.767	390.75
369.993	354.75
370.219	376.75
370.445	368.75
370.672	378.75
370.898	372.75
371.124	364.75
371.35	377.75
371.576	358.75
371.802	370.75
372.028	369.75
372.254	362.75
372.48	368.75
372.706	382.75
372.932	382.75
373.158	381.75
373.384	380.75
373.61	390.75
373.835	354.75
374.061	380.75
374.287	370.75
374.513	386.75
374.739	386.75
374.965	377.75
375.191	385.75
375.416	365.75
375.642	378.75
375.868	374.75
376.094	390.75
376.319	371.75
376.545	390.75
376.771	364.75
376.997	366.75
377.222	369.75
377.448	361.75
377.674	362.75
377.899	359.75
378.125	360.75
378.35	385.75
378.576	353.75
378.802	365.75
379.027	345.75
379.253	371.75
379.478	368.75
379.704	380.75
379.929	379.75
380.155	379.75
380.38	396.75
380.606	398.75
380.831	382.75
381.057	396.75
381.282	365.75
381.507	370.75
381.733	386.75
381.958	382.75
382.184	366.75
382.409	384.75
382.634	390.75
382.86	391.75
383.085	378.75
383.31	385.75
383.535	387.75
383.761	391.75
383.986	387.75
384.211	405.75
384.436	385.75
384.662	408.75
384.887	383.75
385.112	378.75
385.337	384.75
385.562	404.75
385.787	394.75
386.013	422.75
386.238	412.75
386.463	414.75
386.688	393.75
386.913	385.75
387.138	394.75
387.363	399.75
387.588	390.75
387.813	379.75
388.038	410.75
388.263	404.75
388.488	389.75
388.713	408.75
388.938	410.75
389.163	419.75
389.387	423.75
389.612	403.75
389.837	406.75
390.062	397.75
390.287	382.75
390.512	381.75
390.736	392.75
390.961	408.75
391.186	405.75
391.411	399.75
391.636	412.75
391.86	416.75
392.085	426.75
392.31	406.75
392.534	407.75
392.759	412.75
392.984	404.75
393.208	419.75
393.433	422.75
393.658	438.75
393.882	408.75
394.107	388.75
394.331	400.75
394.556	408.75
394.78	414.75
395.005	417.75
395.229	396.75
395.454	420.75
395.678	427.75
395.903	434.75
396.127	442.75
396.352	455.75
396.576	424.75
396.801	448.75
397.025	450.75
397.249	443.75
397.474	441.75
397.698	426.75
397.922	462.75
398.147	439.75
398.371	459.75
398.595	456.75
398.82	463.75
399.044	457.75
399.268	472.75
399.492	465.75
399.717	487.75
399.941	542.75
400.165	555.75
400.389	575.75
400.613	520.75
400.837	497.75
401.062	466.75
401.286	466.75
401.51	479.75
401.734	454.75
401.958	474.75
402.182	440.75
402.406	488.75
402.63	496.75
402.854	467.75
403.078	472.75
403.302	480.75
403.526	483.75
403.75	505.75
403.974	478.75
404.198	493.75
404.422	502.75
404.645	482.75
404.869	494.75
405.093	508.75
405.317	548.75
405.541	570.75
405.765	566.75
405.988	531.75
406.212	546.75
406.436	554.75
406.66	585.75
406.883	529.75
407.107	558.75
407.331	606.75
407.555	624.75
407.778	646.75
408.002	594.75
408.226	560.75
408.449	552.75
408.673	529.75
408.896	580.75
409.12	606.75
409.344	590.75
409.567	514.75
409.791	484.75
410.014	490.75
410.238	484.75
410.461	488.75
410.685	496.75
410.908	499.75
411.132	521.75
411.355	591.75
411.578	534.75
411.802	510.75
412.025	494.75
412.249	479.75
412.472	496.75
412.695	561.75
412.919	540.75
413.142	480.75
413.365	478.75
413.589	490.75
413.812	467.75
414.035	450.75
414.258	471.75
414.482	457.75
414.705	458.75
414.928	448.75
415.151	461.75
415.374	477.75
415.597	454.75
415.821	464.75
416.044	454.75
416.267	474.75
416.49	475.75
416.713	471.75
416.936	459.75
417.159	480.75
417.382	476.75
417.605	474.75
417.828	479.75
418.051	515.75
418.274	482.75
418.497	460.75
418.72	477.75
418.943	464.75
419.166	466.75
419.389	489.75
419.611	489.75
419.834	490.75
420.057	479.75
420.28	507.75
420.503	511.75
420.726	489.75
420.948	500.75
421.171	560.75
421.394	589.75
421.617	538.75
421.839	518.75
422.062	499.75
422.285	514.75
422.507	572.75
422.73	646.75
422.953	620.75
423.175	544.75
423.398	522.75
423.621	552.75
423.843	555.75
424.066	568.75
424.288	547.75
424.511	564.75
424.733	636.75
424.956	688.75
425.178	673.75
425.401	674.75
425.623	688.75
425.846	621.75
426.068	570.75
426.291	554.75
426.513	548.75
426.735	580.75
426.958	595.75
427.18	685.75
427.402	787.75
427.625	896.75
427.847	796.75
428.069	704.75
428.292	618.75
428.514	579.75
428.736	528.75
428.958	540.75
429.181	532.75
429.403	531.75
429.625	530.75
429.847	545.75
430.069	617.75
430.292	640.75
430.514	540.75
430.736	508.75
430.958	524.75
431.18	490.75
431.402	486.75
431.624	478.75
431.846	474.75
432.068	474.75
432.29	466.75
432.512	483.75
432.734	507.75
432.956	484.75
433.178	502.75
433.4	506.75
433.622	504.75
433.844	466.75
434.066	480.75
434.287	483.75
434.509	470.75
434.731	477.75
434.953	499.75
435.175	498.75
435.397	523.75
435.618	536.75
435.84	612.75
436.062	673.75
436.284	746.75
436.505	607.75
436.727	580.75
436.949	556.75
437.17	529.75
437.392	540.75
437.614	531.75
437.835	574.75
438.057	660.75
438.278	769.75
438.5	786.75
438.721	818.75
438.943	796.75
439.165	648.75
439.386	579.75
439.608	584.75
439.829	590.75
440.05	616.75
440.272	665.75
440.493	612.75
440.715	560.75
440.936	544.75
441.158	533.75
441.379	520.75
441.6	548.75
441.822	550.75
442.043	582.75
442.264	700.75
442.486	716.75
442.707	615.75
442.928	595.75
443.149	597.75
443.371	617.75
443.592	654.75
443.813	744.75
444.034	790.75
444.255	657.75
444.476	583.75
444.698	577.75
444.919	561.75
445.14	703.75
445.361	617.75
445.582	611.75
445.803	653.75
446.024	774.75
446.245	781.75
446.466	698.75
446.687	612.75
446.908	585.75
447.129	551.75
447.35	522.75
447.571	520.75
447.792	510.75
448.013	522.75
448.234	557.75
448.455	611.75
448.675	713.75
448.896	824.75
449.117	710.75
449.338	654.75
449.559	747.75
449.779	823.75
450	705.75
450.221	580.75
450.442	548.75
450.662	529.75
450.883	536.75
451.104	566.75
451.324	538.75
451.545	494.75
451.766	473.75
451.986	474.75
452.207	460.75
452.428	460.75
452.648	484.75
452.869	467.75
453.089	483.75
453.31	499.75
453.53	485.75
453.751	475.75
453.971	506.75
454.192	502.75
454.412	486.75
454.633	474.75
454.853	473.75
455.073	468.75
455.294	516.75
455.514	566.75
455.734	561.75
455.955	481.75
456.175	434.75
456.395	432.75
456.616	436.75
456.836	455.75
457.056	435.75
457.276	426.75
457.497	449.75
457.717	433.75
457.937	455.75
458.157	461.75
458.377	450.75
458.598	470.75
458.818	546.75
459.038	666.75
459.258	648.75
459.478	522.75
459.698	488.75
459.918	493.75
460.138	491.75
460.358	479.75
460.578	472.75
460.798	495.75
461.018	495.75
461.238	487.75
461.458	502.75
461.678	466.75
461.898	456.75
462.118	468.75
462.338	475.75
462.558	485.75
462.777	492.75
462.997	495.75
463.217	491.75
463.437	513.75
463.657	492.75
463.876	498.75
464.096	498.75
464.316	490.75
464.536	515.75
464.755	518.75
464.975	499.75
465.195	589.75
465.414	662.75
465.634	607.75
465.854	520.75
466.073	512.75
466.293	485.75
466.512	478.75
466.732	475.75
466.951	445.75
467.171	465.75
467.391	483.75
467.61	477.75
467.829	498.75
468.049	506.75
468.268	512.75
468.488	470.75
468.707	463.75
468.927	461.75
469.146	460.75
469.365	455.75
469.585	471.75
469.804	490.75
470.023	474.75
470.243	483.75
470.462	511.75
470.681	505.75
470.901	505.75
471.12	492.75
471.339	476.75
471.558	507.75
471.777	505.75
471.997	471.75
472.216	484.75
472.435	541.75
472.654	489.75
472.873	480.75
473.092	487.75
473.311	467.75
473.53	456.75
473.749	495.75
473.968	554.75
474.187	655.75
474.406	668.75
474.625	570.75
474.844	523.75
475.063	496.75
475.282	483.75
475.501	478.75
475.72	492.75
475.939	498.75
476.158	480.75
476.377	480.75
476.596	464.75
476.814	497.75
477.033	502.75
477.252	523.75
477.471	504.75
477.69	502.75
477.908	509.75
478.127	523.75
478.346	526.75
478.564	524.75
478.783	528.75
479.002	543.75
479.22	541.75
479.439	559.75
479.658	567.75
479.876	575.75
480.095	588.75
480.313	624.75
480.532	577.75
480.751	568.75
480.969	582.75
481.188	641.75
481.406	692.75
481.624	632.75
481.843	588.75
482.061	591.75
482.28	598.75
482.498	590.75
482.717	574.75
482.935	571.75
483.153	574.75
483.372	582.75
483.59	581.75
483.808	553.75
484.027	577.75
484.245	557.75
484.463	560.75
484.681	607.75
484.9	575.75
485.118	555.75
485.336	595.75
485.554	588.75
485.772	583.75
485.99	599.75
486.209	594.75
486.427	584.75
486.645	588.75
486.863	641.75
487.081	644.75
487.299	615.75
487.517	607.75
487.735	615.75
487.953	611.75
488.171	614.75
488.389	614.75
488.607	641.75
488.825	626.75
489.043	630.75
489.261	657.75
489.479	656.75
489.696	633.75
489.914	640.75
490.132	654.75
490.35	630.75
490.568	666.75
490.786	658.75
491.003	672.75
491.221	698.75
491.439	712.75
491.657	712.75
491.874	705.75
492.092	738.75
492.31	736.75
492.527	744.75
492.745	748.75
492.963	727.75
493.18	752.75
493.398	764.75
493.615	758.75
493.833	739.75
494.05	763.75
494.268	737.75
494.485	775.75
494.703	755.75
494.92	735.75
495.138	735.75
495.355	767.75
495.573	769.75
495.79	735.75
496.008	750.75
496.225	754.75
496.442	764.75
496.66	776.75
496.877	730.75
497.094	764.75
497.312	777.75
497.529	774.75
497.746	764.75
497.963	770.75
498.181	804.75
498.398	832.75
498.615	802.75
498.832	806.75
499.049	792.75
499.267	799.75
499.484	846.75
499.701	846.75
499.918	848.75
500.135	906.75
500.352	910.75
500.569	911.75
500.786	945.75
501.003	936.75
501.22	900.75
501.437	900.75
501.654	895.75
