Data from 1971.PennyLincolnUp.Lamp.En5.5.200Scan.071719.P1.Scan 2. Changed Angle._HRD10591_15-24-50-842.txt Node
Date: Thu Jul 18 15:24:50 EDT 2019
User: cochatt
Spectrometer: HR+D1059
Trigger mode: 1
Integration Time (sec): 1.000000E-1
Scans to average: 1
Electric dark correction enabled: true
Nonlinearity correction enabled: false
Boxcar width: 0
XAxis mode: Wavelengths
Number of Pixels in Spectrum: 2048
>>>>>Begin Spectral Data<<<<<
223.165	-3.69
223.4	-3.69
223.635	-3.69
223.869	-16.69
224.104	-12.69
224.338	4.31
224.573	-23.69
224.808	-10.69
225.042	-9.69
225.277	-0.69
225.511	-11.69
225.746	7.31
225.98	6.31
226.215	-2.69
226.449	7.31
226.683	13.31
226.918	24.31
227.152	29.31
227.387	19.31
227.621	30.31
227.856	41.31
228.09	43.31
228.324	43.31
228.559	55.31
228.793	80.31
229.027	127.31
229.262	121.31
229.496	138.31
229.73	158.31
229.964	198.31
230.199	139.31
230.433	138.31
230.667	121.31
230.901	127.31
231.136	117.31
231.37	127.31
231.604	117.31
231.838	115.31
232.072	119.31
232.306	122.31
232.541	126.31
232.775	124.31
233.009	123.31
233.243	117.31
233.477	116.31
233.711	121.31
233.945	117.31
234.179	129.31
234.413	119.31
234.647	101.31
234.881	122.31
235.115	128.31
235.349	132.31
235.583	124.31
235.817	126.31
236.051	150.31
236.285	136.31
236.519	149.31
236.753	148.31
236.987	169.31
237.221	218.31
237.455	288.31
237.689	214.31
237.922	171.31
238.156	147.31
238.39	152.31
238.624	141.31
238.858	122.31
239.091	144.31
239.325	126.31
239.559	138.31
239.793	147.31
240.027	153.31
240.26	150.31
240.494	185.31
240.728	168.31
240.961	179.31
241.195	170.31
241.429	153.31
241.662	157.31
241.896	154.31
242.13	168.31
242.363	152.31
242.597	151.31
242.83	146.31
243.064	135.31
243.298	135.31
243.531	149.31
243.765	148.31
243.998	159.31
244.232	159.31
244.465	159.31
244.699	167.31
244.932	161.31
245.166	147.31
245.399	153.31
245.633	159.31
245.866	144.31
246.099	165.31
246.333	152.31
246.566	171.31
246.8	169.31
247.033	168.31
247.266	163.31
247.5	192.31
247.733	181.31
247.966	178.31
248.2	180.31
248.433	182.31
248.666	194.31
248.899	202.31
249.133	227.31
249.366	244.31
249.599	221.31
249.832	210.31
250.066	219.31
250.299	189.31
250.532	198.31
250.765	236.31
250.998	238.31
251.231	278.31
251.465	249.31
251.698	234.31
251.931	227.31
252.164	217.31
252.397	223.31
252.63	189.31
252.863	219.31
253.096	246.31
253.329	254.31
253.562	257.31
253.795	260.31
254.028	240.31
254.261	242.31
254.494	249.31
254.727	308.31
254.96	322.31
255.193	317.31
255.426	298.31
255.659	262.31
255.892	261.31
256.124	244.31
256.357	250.31
256.59	241.31
256.823	232.31
257.056	252.31
257.289	218.31
257.521	236.31
257.754	240.31
257.987	241.31
258.22	228.31
258.452	231.31
258.685	228.31
258.918	226.31
259.151	224.31
259.383	240.31
259.616	258.31
259.849	238.31
260.081	247.31
260.314	295.31
260.547	293.31
260.779	273.31
261.012	269.31
261.244	276.31
261.477	252.31
261.71	230.31
261.942	245.31
262.175	256.31
262.407	275.31
262.64	256.31
262.872	238.31
263.105	241.31
263.337	224.31
263.57	227.31
263.802	232.31
264.035	225.31
264.267	223.31
264.499	241.31
264.732	232.31
264.964	220.31
265.197	226.31
265.429	218.31
265.661	225.31
265.894	212.31
266.126	243.31
266.358	230.31
266.591	237.31
266.823	238.31
267.055	230.31
267.287	241.31
267.52	227.31
267.752	230.31
267.984	235.31
268.216	260.31
268.448	263.31
268.681	260.31
268.913	264.31
269.145	270.31
269.377	289.31
269.609	291.31
269.841	310.31
270.073	281.31
270.306	330.31
270.538	344.31
270.77	346.31
271.002	311.31
271.234	322.31
271.466	346.31
271.698	330.31
271.93	340.31
272.162	344.31
272.394	351.31
272.626	341.31
272.858	313.31
273.09	299.31
273.322	305.31
273.553	304.31
273.785	286.31
274.017	274.31
274.249	278.31
274.481	272.31
274.713	262.31
274.945	294.31
275.176	274.31
275.408	271.31
275.64	279.31
275.872	275.31
276.104	279.31
276.335	282.31
276.567	308.31
276.799	318.31
277.031	327.31
277.262	344.31
277.494	347.31
277.726	333.31
277.957	314.31
278.189	311.31
278.421	297.31
278.652	284.31
278.884	280.31
279.115	274.31
279.347	267.31
279.579	286.31
279.81	271.31
280.042	278.31
280.273	256.31
280.505	279.31
280.736	265.31
280.968	258.31
281.199	279.31
281.431	281.31
281.662	292.31
281.894	276.31
282.125	282.31
282.356	283.31
282.588	316.31
282.819	319.31
283.051	282.31
283.282	278.31
283.513	290.31
283.745	272.31
283.976	288.31
284.207	282.31
284.439	296.31
284.67	286.31
284.901	260.31
285.132	278.31
285.364	285.31
285.595	282.31
285.826	286.31
286.057	294.31
286.288	287.31
286.52	278.31
286.751	289.31
286.982	278.31
287.213	257.31
287.444	291.31
287.675	303.31
287.906	280.31
288.138	296.31
288.369	314.31
288.6	310.31
288.831	305.31
289.062	291.31
289.293	294.31
289.524	283.31
289.755	286.31
289.986	297.31
290.217	295.31
290.448	286.31
290.679	292.31
290.91	281.31
291.141	291.31
291.371	305.31
291.602	292.31
291.833	283.31
292.064	306.31
292.295	307.31
292.526	281.31
292.757	313.31
292.987	293.31
293.218	284.31
293.449	319.31
293.68	292.31
293.91	283.31
294.141	295.31
294.372	297.31
294.603	298.31
294.833	305.31
295.064	297.31
295.295	299.31
295.525	298.31
295.756	314.31
295.987	302.31
296.217	338.31
296.448	330.31
296.679	322.31
296.909	307.31
297.14	319.31
297.37	299.31
297.601	291.31
297.831	288.31
298.062	312.31
298.292	290.31
298.523	310.31
298.753	327.31
298.984	299.31
299.214	288.31
299.445	299.31
299.675	299.31
299.905	307.31
300.136	313.31
300.366	307.31
300.597	308.31
300.827	319.31
301.057	328.31
301.288	318.31
301.518	352.31
301.748	331.31
301.979	330.31
302.209	309.31
302.439	337.31
302.669	336.31
302.9	327.31
303.13	326.31
303.36	337.31
303.59	328.31
303.82	351.31
304.051	354.31
304.281	333.31
304.511	317.31
304.741	330.31
304.971	345.31
305.201	327.31
305.431	314.31
305.661	331.31
305.891	321.31
306.121	306.31
306.352	346.31
306.582	337.31
306.812	351.31
307.042	336.31
307.272	327.31
307.502	332.31
307.731	316.31
307.961	351.31
308.191	315.31
308.421	342.31
308.651	359.31
308.881	349.31
309.111	361.31
309.341	364.31
309.571	362.31
309.8	351.31
310.03	417.31
310.26	404.31
310.49	403.31
310.72	410.31
310.949	429.31
311.179	412.31
311.409	399.31
311.639	393.31
311.868	378.31
312.098	396.31
312.328	417.31
312.557	410.31
312.787	449.31
313.017	454.31
313.246	414.31
313.476	410.31
313.706	405.31
313.935	396.31
314.165	400.31
314.394	425.31
314.624	438.31
314.853	433.31
315.083	401.31
315.312	402.31
315.542	371.31
315.771	393.31
316.001	396.31
316.23	378.31
316.46	403.31
316.689	403.31
316.919	386.31
317.148	416.31
317.377	410.31
317.607	412.31
317.836	423.31
318.065	417.31
318.295	392.31
318.524	398.31
318.753	402.31
318.983	386.31
319.212	390.31
319.441	386.31
319.67	415.31
319.9	412.31
320.129	394.31
320.358	390.31
320.587	411.31
320.816	424.31
321.046	447.31
321.275	400.31
321.504	419.31
321.733	443.31
321.962	426.31
322.191	451.31
322.42	483.31
322.649	495.31
322.878	491.31
323.108	539.31
323.337	576.31
323.566	588.31
323.795	648.31
324.024	726.31
324.253	887.31
324.482	1287.31
324.71	2048.31
324.939	2938.31
325.168	2510.31
325.397	1270.31
325.626	842.31
325.855	667.31
326.084	608.31
326.313	582.31
326.542	622.31
326.77	639.31
326.999	801.31
327.228	1169.31
327.457	1783.31
327.686	2220.31
327.914	1447.31
328.143	926.31
328.372	802.31
328.6	745.31
328.829	686.31
329.058	681.31
329.287	712.31
329.515	653.31
329.744	584.31
329.972	594.31
330.201	612.31
330.43	692.31
330.658	698.31
330.887	732.31
331.115	719.31
331.344	601.31
331.572	549.31
331.801	555.31
332.03	542.31
332.258	517.31
332.486	484.31
332.715	487.31
332.943	495.31
333.172	484.31
333.4	500.31
333.629	483.31
333.857	483.31
334.085	535.31
334.314	547.31
334.542	581.31
334.771	580.31
334.999	523.31
335.227	533.31
335.455	496.31
335.684	456.31
335.912	462.31
336.14	476.31
336.369	476.31
336.597	492.31
336.825	475.31
337.053	471.31
337.281	453.31
337.51	451.31
337.738	471.31
337.966	474.31
338.194	474.31
338.422	466.31
338.65	453.31
338.878	470.31
339.106	450.31
339.334	443.31
339.562	439.31
339.79	464.31
340.018	451.31
340.246	452.31
340.474	441.31
340.702	452.31
340.93	454.31
341.158	448.31
341.386	458.31
341.614	450.31
341.842	462.31
342.07	452.31
342.298	437.31
342.526	442.31
342.754	447.31
342.981	419.31
343.209	432.31
343.437	441.31
343.665	449.31
343.893	467.31
344.12	441.31
344.348	433.31
344.576	449.31
344.804	488.31
345.031	453.31
345.259	513.31
345.487	471.31
345.714	452.31
345.942	449.31
346.17	444.31
346.397	450.31
346.625	460.31
346.853	452.31
347.08	438.31
347.308	461.31
347.535	454.31
347.763	466.31
347.99	459.31
348.218	452.31
348.445	473.31
348.673	469.31
348.9	436.31
349.128	454.31
349.355	417.31
349.583	442.31
349.81	424.31
350.037	431.31
350.265	426.31
350.492	460.31
350.72	441.31
350.947	455.31
351.174	470.31
351.402	467.31
351.629	466.31
351.856	458.31
352.083	475.31
352.311	480.31
352.538	479.31
352.765	488.31
352.992	472.31
353.22	460.31
353.447	465.31
353.674	459.31
353.901	423.31
354.128	393.31
354.355	418.31
354.583	416.31
354.81	431.31
355.037	421.31
355.264	408.31
355.491	399.31
355.718	382.31
355.945	415.31
356.172	414.31
356.399	396.31
356.626	430.31
356.853	416.31
357.08	415.31
357.307	402.31
357.534	403.31
357.761	403.31
357.988	440.31
358.215	397.31
358.441	397.31
358.668	413.31
358.895	431.31
359.122	426.31
359.349	426.31
359.576	460.31
359.802	506.31
360.029	538.31
360.256	560.31
360.483	503.31
360.709	487.31
360.936	472.31
361.163	460.31
361.39	482.31
361.616	459.31
361.843	450.31
362.07	452.31
362.296	490.31
362.523	452.31
362.749	473.31
362.976	464.31
363.203	446.31
363.429	450.31
363.656	447.31
363.882	450.31
364.109	436.31
364.335	416.31
364.562	448.31
364.788	443.31
365.015	432.31
365.241	421.31
365.468	422.31
365.694	451.31
365.92	446.31
366.147	438.31
366.373	429.31
366.599	444.31
366.826	431.31
367.052	421.31
367.278	416.31
367.505	449.31
367.731	422.31
367.957	436.31
368.184	440.31
368.41	455.31
368.636	464.31
368.862	427.31
369.089	459.31
369.315	428.31
369.541	437.31
369.767	415.31
369.993	440.31
370.219	427.31
370.445	438.31
370.672	432.31
370.898	418.31
371.124	420.31
371.35	412.31
371.576	430.31
371.802	428.31
372.028	437.31
372.254	407.31
372.48	417.31
372.706	399.31
372.932	443.31
373.158	424.31
373.384	418.31
373.61	446.31
373.835	425.31
374.061	424.31
374.287	439.31
374.513	450.31
374.739	423.31
374.965	420.31
375.191	428.31
375.416	417.31
375.642	424.31
375.868	411.31
376.094	419.31
376.319	413.31
376.545	420.31
376.771	414.31
376.997	436.31
377.222	432.31
377.448	405.31
377.674	424.31
377.899	435.31
378.125	420.31
378.35	422.31
378.576	423.31
378.802	430.31
379.027	440.31
379.253	427.31
379.478	401.31
379.704	427.31
379.929	425.31
380.155	424.31
380.38	424.31
380.606	418.31
380.831	410.31
381.057	441.31
381.282	439.31
381.507	433.31
381.733	435.31
381.958	420.31
382.184	423.31
382.409	448.31
382.634	440.31
382.86	424.31
383.085	438.31
383.31	442.31
383.535	445.31
383.761	431.31
383.986	435.31
384.211	426.31
384.436	427.31
384.662	420.31
384.887	439.31
385.112	424.31
385.337	454.31
385.562	450.31
385.787	457.31
386.013	475.31
386.238	479.31
386.463	455.31
386.688	463.31
386.913	446.31
387.138	442.31
387.363	455.31
387.588	464.31
387.813	456.31
388.038	462.31
388.263	459.31
388.488	460.31
388.713	470.31
388.938	460.31
389.163	444.31
389.387	449.31
389.612	449.31
389.837	460.31
390.062	441.31
390.287	465.31
390.512	456.31
390.736	444.31
390.961	450.31
391.186	450.31
391.411	462.31
391.636	450.31
391.86	442.31
392.085	462.31
392.31	468.31
392.534	446.31
392.759	454.31
392.984	442.31
393.208	452.31
393.433	457.31
393.658	463.31
393.882	456.31
394.107	455.31
394.331	453.31
394.556	478.31
394.78	431.31
395.005	470.31
395.229	467.31
395.454	478.31
395.678	459.31
395.903	489.31
396.127	481.31
396.352	527.31
396.576	490.31
396.801	476.31
397.025	472.31
397.249	470.31
397.474	503.31
397.698	486.31
397.922	497.31
398.147	522.31
398.371	535.31
398.595	505.31
398.82	515.31
399.044	502.31
399.268	534.31
399.492	524.31
399.717	569.31
399.941	595.31
400.165	626.31
400.389	682.31
400.613	614.31
400.837	570.31
401.062	532.31
401.286	525.31
401.51	538.31
401.734	542.31
401.958	530.31
402.182	526.31
402.406	567.31
402.63	563.31
402.854	548.31
403.078	567.31
403.302	544.31
403.526	566.31
403.75	553.31
403.974	566.31
404.198	550.31
404.422	551.31
404.645	561.31
404.869	574.31
405.093	600.31
405.317	645.31
405.541	678.31
405.765	639.31
405.988	613.31
406.212	598.31
406.436	647.31
406.66	638.31
406.883	627.31
407.107	628.31
407.331	698.31
407.555	750.31
407.778	762.31
408.002	695.31
408.226	646.31
408.449	622.31
408.673	616.31
408.896	669.31
409.12	677.31
409.344	674.31
409.567	591.31
409.791	553.31
410.014	553.31
410.238	575.31
410.461	583.31
410.685	585.31
410.908	592.31
411.132	635.31
411.355	666.31
411.578	642.31
411.802	591.31
412.025	566.31
412.249	596.31
412.472	619.31
412.695	648.31
412.919	627.31
413.142	602.31
413.365	569.31
413.589	527.31
413.812	546.31
414.035	538.31
414.258	535.31
414.482	517.31
414.705	523.31
414.928	536.31
415.151	515.31
415.374	518.31
415.597	519.31
415.821	501.31
416.044	522.31
416.267	540.31
416.49	540.31
416.713	538.31
416.936	519.31
417.159	530.31
417.382	574.31
417.605	533.31
417.828	558.31
418.051	570.31
418.274	568.31
418.497	534.31
418.72	551.31
418.943	511.31
419.166	571.31
419.389	588.31
419.611	571.31
419.834	586.31
420.057	567.31
420.28	590.31
420.503	570.31
420.726	580.31
420.948	586.31
421.171	639.31
421.394	681.31
421.617	601.31
421.839	589.31
422.062	582.31
422.285	588.31
422.507	652.31
422.73	721.31
422.953	717.31
423.175	653.31
423.398	609.31
423.621	599.31
423.843	626.31
424.066	623.31
424.288	611.31
424.511	651.31
424.733	696.31
424.956	815.31
425.178	783.31
425.401	780.31
425.623	810.31
425.846	693.31
426.068	644.31
426.291	625.31
426.513	633.31
426.735	651.31
426.958	703.31
427.18	798.31
427.402	952.31
427.625	1059.31
427.847	950.31
428.069	811.31
428.292	744.31
428.514	633.31
428.736	634.31
428.958	599.31
429.181	591.31
429.403	596.31
429.625	574.31
429.847	648.31
430.069	756.31
430.292	734.31
430.514	614.31
430.736	579.31
430.958	577.31
431.18	550.31
431.402	551.31
431.624	556.31
431.846	528.31
432.068	528.31
432.29	548.31
432.512	565.31
432.734	567.31
432.956	567.31
433.178	576.31
433.4	579.31
433.622	596.31
433.844	544.31
434.066	538.31
434.287	542.31
434.509	566.31
434.731	562.31
434.953	592.31
435.175	611.31
435.397	626.31
435.618	660.31
435.84	707.31
436.062	812.31
436.284	892.31
436.505	743.31
436.727	678.31
436.949	628.31
437.17	598.31
437.392	602.31
437.614	611.31
437.835	656.31
438.057	796.31
438.278	929.31
438.5	916.31
438.721	971.31
438.943	938.31
439.165	728.31
439.386	667.31
439.608	678.31
439.829	662.31
440.05	699.31
440.272	758.31
440.493	724.31
440.715	653.31
440.936	607.31
441.158	626.31
441.379	609.31
441.6	596.31
441.822	647.31
442.043	712.31
442.264	791.31
442.486	840.31
442.707	727.31
442.928	682.31
443.149	676.31
443.371	704.31
443.592	742.31
443.813	836.31
444.034	907.31
444.255	753.31
444.476	645.31
444.698	637.31
444.919	640.31
445.14	769.31
445.361	715.31
445.582	697.31
445.803	791.31
446.024	896.31
446.245	940.31
446.466	850.31
446.687	714.31
446.908	679.31
447.129	638.31
447.35	599.31
447.571	601.31
447.792	593.31
448.013	611.31
448.234	634.31
448.455	708.31
448.675	811.31
448.896	950.31
449.117	805.31
449.338	757.31
449.559	888.31
449.779	1008.31
450	820.31
450.221	680.31
450.442	619.31
450.662	610.31
450.883	636.31
451.104	638.31
451.324	614.31
451.545	572.31
451.766	576.31
451.986	549.31
452.207	524.31
452.428	526.31
452.648	541.31
452.869	535.31
453.089	551.31
453.31	578.31
453.53	558.31
453.751	559.31
453.971	544.31
454.192	570.31
454.412	564.31
454.633	554.31
454.853	550.31
455.073	532.31
455.294	574.31
455.514	659.31
455.734	631.31
455.955	555.31
456.175	520.31
456.395	496.31
456.616	514.31
456.836	487.31
457.056	481.31
457.276	463.31
457.497	510.31
457.717	470.31
457.937	502.31
458.157	529.31
458.377	514.31
458.598	548.31
458.818	623.31
459.038	757.31
459.258	742.31
459.478	634.31
459.698	560.31
459.918	548.31
460.138	548.31
460.358	536.31
460.578	519.31
460.798	521.31
461.018	543.31
461.238	567.31
461.458	551.31
461.678	543.31
461.898	521.31
462.118	547.31
462.338	553.31
462.558	528.31
462.777	558.31
462.997	560.31
463.217	578.31
463.437	558.31
463.657	580.31
463.876	542.31
464.096	574.31
464.316	570.31
464.536	603.31
464.755	593.31
464.975	615.31
465.195	662.31
465.414	795.31
465.634	691.31
465.854	633.31
466.073	576.31
466.293	568.31
466.512	554.31
466.732	544.31
466.951	536.31
467.171	531.31
467.391	552.31
467.61	572.31
467.829	573.31
468.049	580.31
468.268	569.31
468.488	564.31
468.707	528.31
468.927	519.31
469.146	518.31
469.365	529.31
469.585	533.31
469.804	547.31
470.023	569.31
470.243	551.31
470.462	541.31
470.681	582.31
470.901	579.31
471.12	576.31
471.339	560.31
471.558	552.31
471.777	562.31
471.997	546.31
472.216	563.31
472.435	597.31
472.654	595.31
472.873	572.31
473.092	563.31
473.311	568.31
473.53	556.31
473.749	574.31
473.968	613.31
474.187	743.31
474.406	799.31
474.625	618.31
474.844	592.31
475.063	566.31
475.282	556.31
475.501	567.31
475.72	564.31
475.939	588.31
476.158	570.31
476.377	567.31
476.596	577.31
476.814	592.31
477.033	609.31
477.252	605.31
477.471	592.31
477.69	586.31
477.908	588.31
478.127	587.31
478.346	597.31
478.564	601.31
478.783	600.31
479.002	631.31
479.22	625.31
479.439	660.31
479.658	658.31
479.876	676.31
480.095	674.31
480.313	708.31
480.532	699.31
480.751	682.31
480.969	686.31
481.188	762.31
481.406	848.31
481.624	742.31
481.843	688.31
482.061	651.31
482.28	658.31
482.498	631.31
482.717	668.31
482.935	664.31
483.153	659.31
483.372	646.31
483.59	656.31
483.808	633.31
484.027	650.31
484.245	673.31
484.463	670.31
484.681	683.31
484.9	664.31
485.118	664.31
485.336	687.31
485.554	695.31
485.772	671.31
485.99	662.31
486.209	679.31
486.427	700.31
486.645	712.31
486.863	741.31
487.081	718.31
487.299	735.31
487.517	730.31
487.735	710.31
487.953	699.31
488.171	731.31
488.389	715.31
488.607	719.31
488.825	738.31
489.043	714.31
489.261	721.31
489.479	736.31
489.696	744.31
489.914	737.31
490.132	730.31
490.35	756.31
490.568	788.31
490.786	763.31
491.003	795.31
491.221	803.31
491.439	823.31
491.657	825.31
491.874	836.31
492.092	848.31
492.31	829.31
492.527	855.31
492.745	863.31
492.963	855.31
493.18	879.31
493.398	858.31
493.615	865.31
493.833	882.31
494.05	912.31
494.268	869.31
494.485	877.31
494.703	845.31
494.92	866.31
495.138	862.31
495.355	883.31
495.573	896.31
495.79	866.31
496.008	862.31
496.225	878.31
496.442	882.31
496.66	866.31
496.877	874.31
497.094	900.31
497.312	875.31
497.529	879.31
497.746	909.31
497.963	900.31
498.181	918.31
498.398	932.31
498.615	933.31
498.832	929.31
499.049	954.31
499.267	946.31
499.484	976.31
499.701	971.31
499.918	979.31
500.135	1033.31
500.352	1050.31
500.569	1052.31
500.786	1077.31
501.003	1032.31
501.22	1064.31
501.437	1040.31
