Data from 1971.PennyLincolnUp.Lamp.En5.5.200Scan.071719.P1._HRD10591_15-20-35-846.txt Node
Date: Thu Jul 18 15:20:35 EDT 2019
User: cochatt
Spectrometer: HR+D1059
Trigger mode: 1
Integration Time (sec): 1.000000E-1
Scans to average: 1
Electric dark correction enabled: true
Nonlinearity correction enabled: false
Boxcar width: 0
XAxis mode: Wavelengths
Number of Pixels in Spectrum: 2048
>>>>>Begin Spectral Data<<<<<
223.165	0.06
223.4	0.06
223.635	0.06
223.869	-31.94
224.104	-25.94
224.338	-6.94
224.573	-12.94
224.808	2.06
225.042	-19.94
225.277	-10.94
225.511	-7.94
225.746	1.06
225.98	5.06
226.215	20.06
226.449	18.06
226.683	21.06
226.918	20.06
227.152	29.06
227.387	43.06
227.621	29.06
227.856	36.06
228.09	37.06
228.324	56.06
228.559	59.06
228.793	77.06
229.027	91.06
229.262	84.06
229.496	115.06
229.73	127.06
229.964	160.06
230.199	121.06
230.433	101.06
230.667	102.06
230.901	108.06
231.136	115.06
231.37	112.06
231.604	115.06
231.838	106.06
232.072	107.06
232.306	99.06
232.541	111.06
232.775	121.06
233.009	99.06
233.243	105.06
233.477	124.06
233.711	117.06
233.945	117.06
234.179	124.06
234.413	112.06
234.647	126.06
234.881	114.06
235.115	119.06
235.349	122.06
235.583	106.06
235.817	110.06
236.051	118.06
236.285	129.06
236.519	121.06
236.753	135.06
236.987	157.06
237.221	167.06
237.455	219.06
237.689	183.06
237.922	141.06
238.156	137.06
238.39	129.06
238.624	117.06
238.858	119.06
239.091	122.06
239.325	110.06
239.559	131.06
239.793	116.06
240.027	131.06
240.26	146.06
240.494	155.06
240.728	145.06
240.961	149.06
241.195	134.06
241.429	144.06
241.662	145.06
241.896	146.06
242.13	117.06
242.363	147.06
242.597	132.06
242.83	143.06
243.064	125.06
243.298	135.06
243.531	144.06
243.765	145.06
243.998	149.06
244.232	155.06
244.465	153.06
244.699	137.06
244.932	145.06
245.166	140.06
245.399	142.06
245.633	145.06
245.866	153.06
246.099	146.06
246.333	134.06
246.566	155.06
246.8	163.06
247.033	155.06
247.266	150.06
247.5	161.06
247.733	151.06
247.966	163.06
248.2	177.06
248.433	190.06
248.666	175.06
248.899	179.06
249.133	184.06
249.366	203.06
249.599	193.06
249.832	195.06
250.066	193.06
250.299	195.06
250.532	188.06
250.765	203.06
250.998	224.06
251.231	241.06
251.465	227.06
251.698	207.06
251.931	223.06
252.164	225.06
252.397	200.06
252.63	222.06
252.863	214.06
253.096	211.06
253.329	235.06
253.562	250.06
253.795	224.06
254.028	229.06
254.261	227.06
254.494	235.06
254.727	254.06
254.96	288.06
255.193	279.06
255.426	249.06
255.659	240.06
255.892	237.06
256.124	258.06
256.357	259.06
256.59	246.06
256.823	227.06
257.056	231.06
257.289	222.06
257.521	217.06
257.754	215.06
257.987	202.06
258.22	227.06
258.452	223.06
258.685	224.06
258.918	204.06
259.151	228.06
259.383	219.06
259.616	229.06
259.849	253.06
260.081	235.06
260.314	254.06
260.547	265.06
260.779	256.06
261.012	257.06
261.244	228.06
261.477	243.06
261.71	249.06
261.942	235.06
262.175	235.06
262.407	223.06
262.64	203.06
262.872	206.06
263.105	217.06
263.337	215.06
263.57	210.06
263.802	215.06
264.035	238.06
264.267	220.06
264.499	222.06
264.732	235.06
264.964	231.06
265.197	227.06
265.429	216.06
265.661	234.06
265.894	229.06
266.126	216.06
266.358	236.06
266.591	222.06
266.823	225.06
267.055	252.06
267.287	232.06
267.52	240.06
267.752	228.06
267.984	247.06
268.216	238.06
268.448	272.06
268.681	257.06
268.913	256.06
269.145	268.06
269.377	293.06
269.609	292.06
269.841	277.06
270.073	293.06
270.306	302.06
270.538	316.06
270.77	317.06
271.002	297.06
271.234	325.06
271.466	313.06
271.698	322.06
271.93	347.06
272.162	339.06
272.394	330.06
272.626	323.06
272.858	312.06
273.09	284.06
273.322	272.06
273.553	271.06
273.785	289.06
274.017	288.06
274.249	280.06
274.481	291.06
274.713	271.06
274.945	271.06
275.176	275.06
275.408	286.06
275.64	286.06
275.872	270.06
276.104	275.06
276.335	290.06
276.567	289.06
276.799	312.06
277.031	300.06
277.262	324.06
277.494	320.06
277.726	312.06
277.957	288.06
278.189	288.06
278.421	284.06
278.652	271.06
278.884	290.06
279.115	277.06
279.347	286.06
279.579	289.06
279.81	277.06
280.042	284.06
280.273	273.06
280.505	275.06
280.736	275.06
280.968	283.06
281.199	271.06
281.431	283.06
281.662	281.06
281.894	295.06
282.125	283.06
282.356	312.06
282.588	319.06
282.819	305.06
283.051	299.06
283.282	274.06
283.513	289.06
283.745	279.06
283.976	295.06
284.207	297.06
284.439	305.06
284.67	296.06
284.901	270.06
285.132	309.06
285.364	291.06
285.595	285.06
285.826	286.06
286.057	273.06
286.288	286.06
286.52	271.06
286.751	293.06
286.982	283.06
287.213	288.06
287.444	297.06
287.675	298.06
287.906	309.06
288.138	323.06
288.369	304.06
288.6	313.06
288.831	311.06
289.062	322.06
289.293	308.06
289.524	315.06
289.755	271.06
289.986	309.06
290.217	302.06
290.448	313.06
290.679	294.06
290.91	301.06
291.141	310.06
291.371	303.06
291.602	296.06
291.833	305.06
292.064	300.06
292.295	292.06
292.526	303.06
292.757	301.06
292.987	296.06
293.218	300.06
293.449	309.06
293.68	288.06
293.91	301.06
294.141	300.06
294.372	302.06
294.603	286.06
294.833	301.06
295.064	318.06
295.295	295.06
295.525	301.06
295.756	308.06
295.987	322.06
296.217	333.06
296.448	340.06
296.679	321.06
296.909	302.06
297.14	313.06
297.37	315.06
297.601	334.06
297.831	314.06
298.062	322.06
298.292	326.06
298.523	330.06
298.753	326.06
298.984	325.06
299.214	319.06
299.445	308.06
299.675	330.06
299.905	324.06
300.136	319.06
300.366	331.06
300.597	319.06
300.827	333.06
301.057	333.06
301.288	351.06
301.518	337.06
301.748	331.06
301.979	326.06
302.209	355.06
302.439	327.06
302.669	324.06
302.9	328.06
303.13	340.06
303.36	334.06
303.59	323.06
303.82	335.06
304.051	347.06
304.281	329.06
304.511	334.06
304.741	331.06
304.971	317.06
305.201	354.06
305.431	326.06
305.661	328.06
305.891	320.06
306.121	344.06
306.352	339.06
306.582	346.06
306.812	338.06
307.042	349.06
307.272	331.06
307.502	340.06
307.731	346.06
307.961	332.06
308.191	322.06
308.421	336.06
308.651	345.06
308.881	346.06
309.111	360.06
309.341	375.06
309.571	364.06
309.8	362.06
310.03	376.06
310.26	400.06
310.49	385.06
310.72	392.06
310.949	414.06
311.179	393.06
311.409	395.06
311.639	381.06
311.868	400.06
312.098	377.06
312.328	383.06
312.557	428.06
312.787	418.06
313.017	405.06
313.246	391.06
313.476	383.06
313.706	393.06
313.935	390.06
314.165	380.06
314.394	400.06
314.624	417.06
314.853	387.06
315.083	384.06
315.312	386.06
315.542	383.06
315.771	380.06
316.001	384.06
316.23	375.06
316.46	391.06
316.689	410.06
316.919	401.06
317.148	394.06
317.377	393.06
317.607	390.06
317.836	404.06
318.065	377.06
318.295	399.06
318.524	411.06
318.753	373.06
318.983	393.06
319.212	383.06
319.441	385.06
319.67	389.06
319.9	387.06
320.129	383.06
320.358	381.06
320.587	389.06
320.816	408.06
321.046	397.06
321.275	401.06
321.504	393.06
321.733	411.06
321.962	416.06
322.191	414.06
322.42	434.06
322.649	459.06
322.878	463.06
323.108	464.06
323.337	484.06
323.566	525.06
323.795	532.06
324.024	576.06
324.253	703.06
324.482	999.06
324.71	1504.06
324.939	2011.06
325.168	1738.06
325.397	908.06
325.626	641.06
325.855	532.06
326.084	501.06
326.313	487.06
326.542	525.06
326.77	549.06
326.999	653.06
327.228	899.06
327.457	1325.06
327.686	1531.06
327.914	1005.06
328.143	686.06
328.372	619.06
328.6	576.06
328.829	541.06
329.058	563.06
329.287	564.06
329.515	551.06
329.744	520.06
329.972	528.06
330.201	533.06
330.43	543.06
330.658	589.06
330.887	602.06
331.115	572.06
331.344	507.06
331.572	495.06
331.801	491.06
332.03	463.06
332.258	477.06
332.486	470.06
332.715	436.06
332.943	437.06
333.172	454.06
333.4	463.06
333.629	450.06
333.857	458.06
334.085	470.06
334.314	488.06
334.542	524.06
334.771	508.06
334.999	486.06
335.227	449.06
335.455	442.06
335.684	427.06
335.912	439.06
336.14	425.06
336.369	435.06
336.597	438.06
336.825	447.06
337.053	464.06
337.281	449.06
337.51	440.06
337.738	426.06
337.966	421.06
338.194	439.06
338.422	424.06
338.65	427.06
338.878	422.06
339.106	430.06
339.334	448.06
339.562	417.06
339.79	429.06
340.018	444.06
340.246	441.06
340.474	411.06
340.702	437.06
340.93	422.06
341.158	408.06
341.386	423.06
341.614	436.06
341.842	424.06
342.07	427.06
342.298	400.06
342.526	422.06
342.754	406.06
342.981	399.06
343.209	427.06
343.437	432.06
343.665	405.06
343.893	427.06
344.12	435.06
344.348	433.06
344.576	435.06
344.804	428.06
345.031	437.06
345.259	453.06
345.487	424.06
345.714	407.06
345.942	391.06
346.17	405.06
346.397	401.06
346.625	392.06
346.853	398.06
347.08	387.06
347.308	421.06
347.535	425.06
347.763	412.06
347.99	404.06
348.218	431.06
348.445	403.06
348.673	413.06
348.9	400.06
349.128	413.06
349.355	410.06
349.583	371.06
349.81	398.06
350.037	389.06
350.265	387.06
350.492	388.06
350.72	385.06
350.947	396.06
351.174	415.06
351.402	407.06
351.629	405.06
351.856	400.06
352.083	395.06
352.311	417.06
352.538	409.06
352.765	423.06
352.992	395.06
353.22	414.06
353.447	402.06
353.674	385.06
353.901	381.06
354.128	367.06
354.355	383.06
354.583	380.06
354.81	357.06
355.037	381.06
355.264	363.06
355.491	372.06
355.718	370.06
355.945	386.06
356.172	366.06
356.399	362.06
356.626	372.06
356.853	367.06
357.08	366.06
357.307	388.06
357.534	360.06
357.761	363.06
357.988	365.06
358.215	357.06
358.441	370.06
358.668	349.06
358.895	361.06
359.122	365.06
359.349	378.06
359.576	402.06
359.802	406.06
360.029	439.06
360.256	414.06
360.483	420.06
360.709	399.06
360.936	410.06
361.163	396.06
361.39	397.06
361.616	365.06
361.843	378.06
362.07	387.06
362.296	398.06
362.523	372.06
362.749	352.06
362.976	383.06
363.203	377.06
363.429	373.06
363.656	369.06
363.882	364.06
364.109	356.06
364.335	368.06
364.562	373.06
364.788	357.06
365.015	376.06
365.241	366.06
365.468	371.06
365.694	363.06
365.92	379.06
366.147	362.06
366.373	375.06
366.599	379.06
366.826	371.06
367.052	366.06
367.278	367.06
367.505	357.06
367.731	390.06
367.957	369.06
368.184	368.06
368.41	368.06
368.636	364.06
368.862	385.06
369.089	372.06
369.315	364.06
369.541	355.06
369.767	361.06
369.993	358.06
370.219	360.06
370.445	359.06
370.672	364.06
370.898	377.06
371.124	352.06
371.35	364.06
371.576	352.06
371.802	348.06
372.028	358.06
372.254	375.06
372.48	367.06
372.706	348.06
372.932	333.06
373.158	355.06
373.384	356.06
373.61	374.06
373.835	365.06
374.061	371.06
374.287	349.06
374.513	364.06
374.739	399.06
374.965	364.06
375.191	379.06
375.416	370.06
375.642	341.06
375.868	350.06
376.094	350.06
376.319	346.06
376.545	362.06
376.771	352.06
376.997	353.06
377.222	344.06
377.448	345.06
377.674	346.06
377.899	359.06
378.125	353.06
378.35	330.06
378.576	334.06
378.802	360.06
379.027	352.06
379.253	356.06
379.478	344.06
379.704	334.06
379.929	340.06
380.155	365.06
380.38	344.06
380.606	365.06
380.831	339.06
381.057	364.06
381.282	365.06
381.507	349.06
381.733	366.06
381.958	352.06
382.184	375.06
382.409	366.06
382.634	366.06
382.86	358.06
383.085	358.06
383.31	358.06
383.535	350.06
383.761	374.06
383.986	359.06
384.211	333.06
384.436	375.06
384.662	363.06
384.887	360.06
385.112	376.06
385.337	365.06
385.562	368.06
385.787	388.06
386.013	387.06
386.238	380.06
386.463	379.06
386.688	389.06
386.913	367.06
387.138	363.06
387.363	369.06
387.588	362.06
387.813	384.06
388.038	378.06
388.263	373.06
388.488	381.06
388.713	358.06
388.938	363.06
389.163	370.06
389.387	365.06
389.612	379.06
389.837	361.06
390.062	377.06
390.287	345.06
390.512	345.06
390.736	351.06
390.961	377.06
391.186	383.06
391.411	379.06
391.636	378.06
391.86	374.06
392.085	380.06
392.31	365.06
392.534	373.06
392.759	385.06
392.984	366.06
393.208	381.06
393.433	363.06
393.658	367.06
393.882	366.06
394.107	379.06
394.331	360.06
394.556	361.06
394.78	374.06
395.005	373.06
395.229	372.06
395.454	372.06
395.678	389.06
395.903	404.06
396.127	395.06
396.352	406.06
396.576	407.06
396.801	386.06
397.025	400.06
397.249	389.06
397.474	415.06
397.698	397.06
397.922	400.06
398.147	401.06
398.371	416.06
398.595	407.06
398.82	411.06
399.044	439.06
399.268	433.06
399.492	453.06
399.717	472.06
399.941	490.06
400.165	491.06
400.389	504.06
400.613	461.06
400.837	444.06
401.062	430.06
401.286	413.06
401.51	403.06
401.734	401.06
401.958	425.06
402.182	400.06
402.406	402.06
402.63	439.06
402.854	429.06
403.078	415.06
403.302	423.06
403.526	429.06
403.75	436.06
403.974	451.06
404.198	413.06
404.422	437.06
404.645	443.06
404.869	430.06
405.093	453.06
405.317	494.06
405.541	511.06
405.765	479.06
405.988	438.06
406.212	465.06
406.436	478.06
406.66	484.06
406.883	461.06
407.107	473.06
407.331	523.06
407.555	561.06
407.778	543.06
408.002	529.06
408.226	476.06
408.449	476.06
408.673	467.06
408.896	488.06
409.12	519.06
409.344	486.06
409.567	441.06
409.791	442.06
410.014	448.06
410.238	420.06
410.461	404.06
410.685	432.06
410.908	449.06
411.132	478.06
411.355	491.06
411.578	475.06
411.802	417.06
412.025	417.06
412.249	422.06
412.472	450.06
412.695	476.06
412.919	476.06
413.142	445.06
413.365	436.06
413.589	422.06
413.812	395.06
414.035	410.06
414.258	388.06
414.482	405.06
414.705	402.06
414.928	401.06
415.151	415.06
415.374	398.06
415.597	395.06
415.821	413.06
416.044	397.06
416.267	398.06
416.49	403.06
416.713	400.06
416.936	398.06
417.159	386.06
417.382	399.06
417.605	405.06
417.828	397.06
418.051	408.06
418.274	420.06
418.497	406.06
418.72	405.06
418.943	390.06
419.166	422.06
419.389	430.06
419.611	425.06
419.834	418.06
420.057	431.06
420.28	449.06
420.503	416.06
420.726	417.06
420.948	440.06
421.171	461.06
421.394	481.06
421.617	429.06
421.839	419.06
422.062	414.06
422.285	444.06
422.507	494.06
422.73	546.06
422.953	523.06
423.175	458.06
423.398	454.06
423.621	437.06
423.843	437.06
424.066	465.06
424.288	443.06
424.511	487.06
424.733	538.06
424.956	580.06
425.178	557.06
425.401	540.06
425.623	564.06
425.846	489.06
426.068	470.06
426.291	447.06
426.513	471.06
426.735	455.06
426.958	483.06
427.18	589.06
427.402	664.06
427.625	731.06
427.847	641.06
428.069	555.06
428.292	488.06
428.514	448.06
428.736	445.06
428.958	449.06
429.181	414.06
429.403	421.06
429.625	438.06
429.847	443.06
430.069	503.06
430.292	499.06
430.514	428.06
430.736	427.06
430.958	411.06
431.18	413.06
431.402	418.06
431.624	398.06
431.846	382.06
432.068	386.06
432.29	399.06
432.512	398.06
432.734	415.06
432.956	396.06
433.178	403.06
433.4	411.06
433.622	399.06
433.844	388.06
434.066	385.06
434.287	400.06
434.509	392.06
434.731	405.06
434.953	405.06
435.175	417.06
435.397	431.06
435.618	460.06
435.84	500.06
436.062	524.06
436.284	613.06
436.505	515.06
436.727	463.06
436.949	409.06
437.17	437.06
437.392	411.06
437.614	431.06
437.835	469.06
438.057	537.06
438.278	619.06
438.5	614.06
438.721	663.06
438.943	635.06
439.165	549.06
439.386	478.06
439.608	464.06
439.829	461.06
440.05	503.06
440.272	527.06
440.493	496.06
440.715	446.06
440.936	429.06
441.158	437.06
441.379	433.06
441.6	446.06
441.822	455.06
442.043	487.06
442.264	544.06
442.486	582.06
442.707	481.06
442.928	457.06
443.149	476.06
443.371	501.06
443.592	527.06
443.813	596.06
444.034	636.06
444.255	545.06
444.476	484.06
444.698	445.06
444.919	474.06
445.14	565.06
445.361	509.06
445.582	486.06
445.803	569.06
446.024	620.06
446.245	619.06
446.466	576.06
446.687	491.06
446.908	461.06
447.129	436.06
447.35	451.06
447.571	442.06
447.792	442.06
448.013	440.06
448.234	443.06
448.455	481.06
448.675	588.06
448.896	650.06
449.117	585.06
449.338	543.06
449.559	639.06
449.779	696.06
450	567.06
450.221	456.06
450.442	443.06
450.662	407.06
450.883	424.06
451.104	417.06
451.324	431.06
451.545	399.06
451.766	379.06
451.986	377.06
452.207	368.06
452.428	396.06
452.648	384.06
452.869	388.06
453.089	370.06
453.31	389.06
453.53	400.06
453.751	381.06
453.971	363.06
454.192	381.06
454.412	387.06
454.633	377.06
454.853	370.06
455.073	362.06
455.294	395.06
455.514	459.06
455.734	446.06
455.955	380.06
456.175	367.06
456.395	363.06
456.616	344.06
456.836	360.06
457.056	346.06
457.276	329.06
457.497	342.06
457.717	343.06
457.937	365.06
458.157	357.06
458.377	345.06
458.598	404.06
458.818	436.06
459.038	477.06
459.258	519.06
459.478	440.06
459.698	399.06
459.918	369.06
460.138	358.06
460.358	365.06
460.578	391.06
460.798	402.06
461.018	394.06
461.238	388.06
461.458	392.06
461.678	394.06
461.898	398.06
462.118	400.06
462.338	396.06
462.558	394.06
462.777	387.06
462.997	407.06
463.217	427.06
463.437	430.06
463.657	430.06
463.876	399.06
464.096	409.06
464.316	409.06
464.536	410.06
464.755	413.06
464.975	405.06
465.195	452.06
465.414	483.06
465.634	435.06
465.854	404.06
466.073	387.06
466.293	398.06
466.512	387.06
466.732	381.06
466.951	390.06
467.171	374.06
467.391	372.06
467.61	374.06
467.829	381.06
468.049	371.06
468.268	376.06
468.488	369.06
468.707	383.06
468.927	355.06
469.146	351.06
469.365	365.06
469.585	371.06
469.804	365.06
470.023	397.06
470.243	402.06
470.462	389.06
470.681	391.06
470.901	392.06
471.12	384.06
471.339	385.06
471.558	401.06
471.777	400.06
471.997	388.06
472.216	384.06
472.435	384.06
472.654	388.06
472.873	362.06
473.092	379.06
473.311	377.06
473.53	375.06
473.749	383.06
473.968	428.06
474.187	511.06
474.406	509.06
474.625	441.06
474.844	397.06
475.063	377.06
475.282	367.06
475.501	393.06
475.72	380.06
475.939	399.06
476.158	389.06
476.377	384.06
476.596	384.06
476.814	384.06
477.033	409.06
477.252	390.06
477.471	406.06
477.69	387.06
477.908	392.06
478.127	397.06
478.346	410.06
478.564	431.06
478.783	419.06
479.002	432.06
479.22	437.06
479.439	447.06
479.658	445.06
479.876	448.06
480.095	440.06
480.313	471.06
480.532	466.06
480.751	455.06
480.969	464.06
481.188	513.06
481.406	541.06
481.624	480.06
481.843	464.06
482.061	429.06
482.28	429.06
482.498	448.06
482.717	436.06
482.935	442.06
483.153	444.06
483.372	460.06
483.59	440.06
483.808	456.06
484.027	422.06
484.245	454.06
484.463	461.06
484.681	458.06
484.9	449.06
485.118	422.06
485.336	456.06
485.554	427.06
485.772	468.06
485.99	448.06
486.209	447.06
486.427	451.06
486.645	461.06
486.863	486.06
487.081	504.06
487.299	482.06
487.517	465.06
487.735	483.06
487.953	477.06
488.171	455.06
488.389	484.06
488.607	477.06
488.825	485.06
489.043	479.06
489.261	480.06
489.479	482.06
489.696	480.06
489.914	484.06
490.132	499.06
490.35	506.06
490.568	468.06
490.786	512.06
491.003	523.06
491.221	523.06
491.439	541.06
491.657	560.06
491.874	544.06
492.092	561.06
492.31	530.06
492.527	572.06
492.745	558.06
492.963	563.06
493.18	548.06
493.398	568.06
493.615	587.06
493.833	553.06
494.05	579.06
494.268	558.06
494.485	583.06
494.703	554.06
494.92	559.06
495.138	577.06
495.355	567.06
495.573	559.06
495.79	580.06
496.008	567.06
496.225	582.06
496.442	578.06
496.66	558.06
496.877	575.06
497.094	573.06
497.312	550.06
497.529	568.06
497.746	574.06
497.963	605.06
498.181	623.06
498.398	613.06
498.615	612.06
498.832	611.06
499.049	609.06
499.267	628.06
499.484	653.06
499.701	655.06
499.918	689.06
500.135	709.06
500.352	744.06
500.569	748.06
500.786	745.06
501.003	719.06
501.22	720.06
501.437	693.06
501.654	699.06
501.871	700.06
502.088	688.06
