Data from 1971.PennyLincolnUp.Lamp.En5.5.200Scan.071719.P1.Scan 2. Changed Angle._HRD10591_15-23-37-842.txt Node
Date: Thu Jul 18 15:23:37 EDT 2019
User: cochatt
Spectrometer: HR+D1059
Trigger mode: 1
Integration Time (sec): 1.000000E-1
Scans to average: 1
Electric dark correction enabled: true
Nonlinearity correction enabled: false
Boxcar width: 0
XAxis mode: Wavelengths
Number of Pixels in Spectrum: 2048
>>>>>Begin Spectral Data<<<<<
223.165	-16.5
223.4	-16.5
223.635	-16.5
223.869	-25.5
224.104	-25.5
224.338	-6.5
224.573	-25.5
224.808	-14.5
225.042	-0.5
225.277	-9.5
225.511	-5.5
225.746	12.5
225.98	11.5
226.215	9.5
226.449	17.5
226.683	26.5
226.918	23.5
227.152	28.5
227.387	34.5
227.621	37.5
227.856	41.5
228.09	39.5
228.324	58.5
228.559	47.5
228.793	55.5
229.027	113.5
229.262	130.5
229.496	142.5
229.73	152.5
229.964	197.5
230.199	143.5
230.433	132.5
230.667	121.5
230.901	122.5
231.136	109.5
231.37	115.5
231.604	117.5
231.838	107.5
232.072	116.5
232.306	104.5
232.541	133.5
232.775	116.5
233.009	121.5
233.243	111.5
233.477	127.5
233.711	112.5
233.945	133.5
234.179	120.5
234.413	131.5
234.647	117.5
234.881	131.5
235.115	111.5
235.349	121.5
235.583	123.5
235.817	128.5
236.051	127.5
236.285	133.5
236.519	159.5
236.753	151.5
236.987	158.5
237.221	186.5
237.455	272.5
237.689	204.5
237.922	174.5
238.156	151.5
238.39	135.5
238.624	152.5
238.858	126.5
239.091	130.5
239.325	132.5
239.559	117.5
239.793	138.5
240.027	156.5
240.26	160.5
240.494	167.5
240.728	156.5
240.961	158.5
241.195	163.5
241.429	159.5
241.662	126.5
241.896	166.5
242.13	146.5
242.363	134.5
242.597	142.5
242.83	133.5
243.064	145.5
243.298	146.5
243.531	145.5
243.765	151.5
243.998	140.5
244.232	144.5
244.465	156.5
244.699	149.5
244.932	143.5
245.166	146.5
245.399	145.5
245.633	154.5
245.866	161.5
246.099	146.5
246.333	155.5
246.566	157.5
246.8	164.5
247.033	168.5
247.266	168.5
247.5	175.5
247.733	196.5
247.966	182.5
248.2	209.5
248.433	198.5
248.666	170.5
248.899	200.5
249.133	223.5
249.366	260.5
249.599	217.5
249.832	190.5
250.066	198.5
250.299	195.5
250.532	203.5
250.765	230.5
250.998	236.5
251.231	232.5
251.465	225.5
251.698	220.5
251.931	203.5
252.164	211.5
252.397	224.5
252.63	223.5
252.863	243.5
253.096	237.5
253.329	251.5
253.562	231.5
253.795	262.5
254.028	207.5
254.261	235.5
254.494	244.5
254.727	289.5
254.96	293.5
255.193	307.5
255.426	294.5
255.659	268.5
255.892	253.5
256.124	251.5
256.357	242.5
256.59	249.5
256.823	237.5
257.056	237.5
257.289	213.5
257.521	226.5
257.754	230.5
257.987	228.5
258.22	227.5
258.452	220.5
258.685	217.5
258.918	231.5
259.151	221.5
259.383	230.5
259.616	240.5
259.849	236.5
260.081	255.5
260.314	280.5
260.547	269.5
260.779	280.5
261.012	238.5
261.244	243.5
261.477	244.5
261.71	225.5
261.942	244.5
262.175	250.5
262.407	247.5
262.64	226.5
262.872	229.5
263.105	219.5
263.337	220.5
263.57	227.5
263.802	212.5
264.035	253.5
264.267	235.5
264.499	222.5
264.732	225.5
264.964	231.5
265.197	215.5
265.429	219.5
265.661	217.5
265.894	219.5
266.126	223.5
266.358	231.5
266.591	220.5
266.823	247.5
267.055	249.5
267.287	233.5
267.52	215.5
267.752	234.5
267.984	219.5
268.216	227.5
268.448	224.5
268.681	259.5
268.913	249.5
269.145	284.5
269.377	292.5
269.609	287.5
269.841	272.5
270.073	279.5
270.306	311.5
270.538	332.5
270.77	324.5
271.002	324.5
271.234	300.5
271.466	336.5
271.698	323.5
271.93	330.5
272.162	315.5
272.394	328.5
272.626	338.5
272.858	299.5
273.09	285.5
273.322	304.5
273.553	281.5
273.785	272.5
274.017	269.5
274.249	282.5
274.481	279.5
274.713	277.5
274.945	288.5
275.176	288.5
275.408	282.5
275.64	271.5
275.872	264.5
276.104	268.5
276.335	285.5
276.567	281.5
276.799	307.5
277.031	329.5
277.262	328.5
277.494	323.5
277.726	303.5
277.957	302.5
278.189	291.5
278.421	284.5
278.652	268.5
278.884	255.5
279.115	264.5
279.347	269.5
279.579	267.5
279.81	254.5
280.042	260.5
280.273	270.5
280.505	273.5
280.736	270.5
280.968	260.5
281.199	277.5
281.431	272.5
281.662	275.5
281.894	262.5
282.125	257.5
282.356	277.5
282.588	332.5
282.819	331.5
283.051	289.5
283.282	259.5
283.513	256.5
283.745	270.5
283.976	261.5
284.207	262.5
284.439	244.5
284.67	278.5
284.901	280.5
285.132	285.5
285.364	253.5
285.595	260.5
285.826	265.5
286.057	280.5
286.288	292.5
286.52	284.5
286.751	280.5
286.982	264.5
287.213	263.5
287.444	309.5
287.675	278.5
287.906	278.5
288.138	282.5
288.369	292.5
288.6	295.5
288.831	288.5
289.062	289.5
289.293	299.5
289.524	292.5
289.755	284.5
289.986	270.5
290.217	287.5
290.448	285.5
290.679	281.5
290.91	276.5
291.141	268.5
291.371	295.5
291.602	276.5
291.833	275.5
292.064	277.5
292.295	266.5
292.526	271.5
292.757	277.5
292.987	291.5
293.218	287.5
293.449	264.5
293.68	290.5
293.91	275.5
294.141	279.5
294.372	279.5
294.603	282.5
294.833	269.5
295.064	272.5
295.295	294.5
295.525	284.5
295.756	284.5
295.987	279.5
296.217	311.5
296.448	327.5
296.679	314.5
296.909	263.5
297.14	288.5
297.37	292.5
297.601	287.5
297.831	283.5
298.062	281.5
298.292	284.5
298.523	279.5
298.753	281.5
298.984	295.5
299.214	285.5
299.445	294.5
299.675	311.5
299.905	305.5
300.136	303.5
300.366	293.5
300.597	287.5
300.827	309.5
301.057	321.5
301.288	320.5
301.518	330.5
301.748	305.5
301.979	309.5
302.209	312.5
302.439	327.5
302.669	315.5
302.9	297.5
303.13	301.5
303.36	321.5
303.59	300.5
303.82	352.5
304.051	318.5
304.281	311.5
304.511	316.5
304.741	313.5
304.971	318.5
305.201	309.5
305.431	301.5
305.661	307.5
305.891	326.5
306.121	320.5
306.352	332.5
306.582	334.5
306.812	313.5
307.042	317.5
307.272	326.5
307.502	305.5
307.731	345.5
307.961	332.5
308.191	315.5
308.421	319.5
308.651	325.5
308.881	330.5
309.111	356.5
309.341	329.5
309.571	353.5
309.8	357.5
310.03	368.5
310.26	384.5
310.49	357.5
310.72	385.5
310.949	403.5
311.179	398.5
311.409	388.5
311.639	382.5
311.868	388.5
312.098	381.5
312.328	389.5
312.557	400.5
312.787	411.5
313.017	413.5
313.246	392.5
313.476	381.5
313.706	381.5
313.935	382.5
314.165	400.5
314.394	417.5
314.624	426.5
314.853	393.5
315.083	395.5
315.312	381.5
315.542	382.5
315.771	349.5
316.001	354.5
316.23	353.5
316.46	370.5
316.689	379.5
316.919	375.5
317.148	389.5
317.377	383.5
317.607	375.5
317.836	396.5
318.065	374.5
318.295	349.5
318.524	383.5
318.753	339.5
318.983	369.5
319.212	375.5
319.441	381.5
319.67	384.5
319.9	376.5
320.129	371.5
320.358	385.5
320.587	393.5
320.816	403.5
321.046	395.5
321.275	411.5
321.504	417.5
321.733	427.5
321.962	409.5
322.191	440.5
322.42	471.5
322.649	482.5
322.878	481.5
323.108	488.5
323.337	511.5
323.566	539.5
323.795	576.5
324.024	631.5
324.253	799.5
324.482	1192.5
324.71	1824.5
324.939	2630.5
325.168	2235.5
325.397	1165.5
325.626	799.5
325.855	587.5
326.084	557.5
326.313	533.5
326.542	557.5
326.77	625.5
326.999	738.5
327.228	1040.5
327.457	1552.5
327.686	1959.5
327.914	1326.5
328.143	846.5
328.372	721.5
328.6	684.5
328.829	612.5
329.058	649.5
329.287	663.5
329.515	620.5
329.744	569.5
329.972	552.5
330.201	575.5
330.43	627.5
330.658	648.5
330.887	702.5
331.115	675.5
331.344	541.5
331.572	538.5
331.801	515.5
332.03	509.5
332.258	503.5
332.486	456.5
332.715	464.5
332.943	463.5
333.172	439.5
333.4	435.5
333.629	461.5
333.857	460.5
334.085	475.5
334.314	499.5
334.542	540.5
334.771	555.5
334.999	518.5
335.227	478.5
335.455	470.5
335.684	452.5
335.912	451.5
336.14	449.5
336.369	432.5
336.597	455.5
336.825	446.5
337.053	439.5
337.281	453.5
337.51	433.5
337.738	455.5
337.966	432.5
338.194	472.5
338.422	446.5
338.65	439.5
338.878	431.5
339.106	430.5
339.334	442.5
339.562	438.5
339.79	413.5
340.018	417.5
340.246	439.5
340.474	451.5
340.702	443.5
340.93	416.5
341.158	416.5
341.386	418.5
341.614	433.5
341.842	447.5
342.07	441.5
342.298	423.5
342.526	411.5
342.754	413.5
342.981	423.5
343.209	398.5
343.437	431.5
343.665	409.5
343.893	418.5
344.12	426.5
344.348	422.5
344.576	416.5
344.804	423.5
345.031	452.5
345.259	452.5
345.487	437.5
345.714	453.5
345.942	431.5
346.17	437.5
346.397	431.5
346.625	422.5
346.853	429.5
347.08	441.5
347.308	443.5
347.535	451.5
347.763	456.5
347.99	419.5
348.218	427.5
348.445	433.5
348.673	444.5
348.9	448.5
349.128	416.5
349.355	420.5
349.583	398.5
349.81	423.5
350.037	405.5
350.265	397.5
350.492	423.5
350.72	409.5
350.947	430.5
351.174	421.5
351.402	429.5
351.629	439.5
351.856	439.5
352.083	453.5
352.311	455.5
352.538	435.5
352.765	483.5
352.992	430.5
353.22	441.5
353.447	427.5
353.674	399.5
353.901	409.5
354.128	418.5
354.355	409.5
354.583	413.5
354.81	395.5
355.037	410.5
355.264	396.5
355.491	387.5
355.718	402.5
355.945	387.5
356.172	387.5
356.399	395.5
356.626	404.5
356.853	399.5
357.08	373.5
357.307	384.5
357.534	378.5
357.761	386.5
357.988	389.5
358.215	395.5
358.441	396.5
358.668	405.5
358.895	394.5
359.122	430.5
359.349	419.5
359.576	441.5
359.802	475.5
360.029	487.5
360.256	530.5
360.483	482.5
360.709	450.5
360.936	439.5
361.163	445.5
361.39	427.5
361.616	464.5
361.843	440.5
362.07	436.5
362.296	429.5
362.523	428.5
362.749	419.5
362.976	417.5
363.203	428.5
363.429	421.5
363.656	429.5
363.882	411.5
364.109	411.5
364.335	432.5
364.562	413.5
364.788	411.5
365.015	423.5
365.241	423.5
365.468	432.5
365.694	422.5
365.92	402.5
366.147	408.5
366.373	423.5
366.599	416.5
366.826	409.5
367.052	377.5
367.278	417.5
367.505	415.5
367.731	414.5
367.957	401.5
368.184	412.5
368.41	428.5
368.636	445.5
368.862	445.5
369.089	419.5
369.315	401.5
369.541	417.5
369.767	392.5
369.993	417.5
370.219	411.5
370.445	414.5
370.672	415.5
370.898	403.5
371.124	378.5
371.35	401.5
371.576	422.5
371.802	389.5
372.028	404.5
372.254	397.5
372.48	393.5
372.706	411.5
372.932	391.5
373.158	402.5
373.384	406.5
373.61	413.5
373.835	407.5
374.061	393.5
374.287	405.5
374.513	405.5
374.739	423.5
374.965	394.5
375.191	402.5
375.416	419.5
375.642	416.5
375.868	409.5
376.094	411.5
376.319	404.5
376.545	427.5
376.771	405.5
376.997	395.5
377.222	403.5
377.448	413.5
377.674	413.5
377.899	402.5
378.125	400.5
378.35	393.5
378.576	422.5
378.802	401.5
379.027	393.5
379.253	424.5
379.478	400.5
379.704	393.5
379.929	412.5
380.155	421.5
380.38	415.5
380.606	419.5
380.831	404.5
381.057	413.5
381.282	414.5
381.507	383.5
381.733	408.5
381.958	415.5
382.184	411.5
382.409	421.5
382.634	418.5
382.86	411.5
383.085	422.5
383.31	429.5
383.535	423.5
383.761	415.5
383.986	421.5
384.211	430.5
384.436	427.5
384.662	427.5
384.887	443.5
385.112	429.5
385.337	415.5
385.562	431.5
385.787	426.5
386.013	455.5
386.238	462.5
386.463	444.5
386.688	451.5
386.913	460.5
387.138	432.5
387.363	449.5
387.588	431.5
387.813	441.5
388.038	425.5
388.263	433.5
388.488	417.5
388.713	441.5
388.938	443.5
389.163	439.5
389.387	466.5
389.612	438.5
389.837	432.5
390.062	451.5
390.287	439.5
390.512	432.5
390.736	437.5
390.961	422.5
391.186	467.5
391.411	443.5
391.636	431.5
391.86	420.5
392.085	452.5
392.31	470.5
392.534	452.5
392.759	459.5
392.984	432.5
393.208	462.5
393.433	469.5
393.658	466.5
393.882	455.5
394.107	441.5
394.331	449.5
394.556	455.5
394.78	445.5
395.005	455.5
395.229	438.5
395.454	446.5
395.678	465.5
395.903	458.5
396.127	480.5
396.352	489.5
396.576	471.5
396.801	474.5
397.025	468.5
397.249	466.5
397.474	464.5
397.698	474.5
397.922	483.5
398.147	507.5
398.371	514.5
398.595	499.5
398.82	508.5
399.044	496.5
399.268	495.5
399.492	510.5
399.717	532.5
399.941	571.5
400.165	589.5
400.389	620.5
400.613	567.5
400.837	539.5
401.062	526.5
401.286	543.5
401.51	508.5
401.734	500.5
401.958	509.5
402.182	517.5
402.406	522.5
402.63	537.5
402.854	527.5
403.078	510.5
403.302	522.5
403.526	544.5
403.75	527.5
403.974	527.5
404.198	517.5
404.422	537.5
404.645	552.5
404.869	561.5
405.093	557.5
405.317	613.5
405.541	640.5
405.765	591.5
405.988	555.5
406.212	572.5
406.436	590.5
406.66	623.5
406.883	609.5
407.107	588.5
407.331	636.5
407.555	721.5
407.778	718.5
408.002	655.5
408.226	593.5
408.449	593.5
408.673	599.5
408.896	666.5
409.12	679.5
409.344	629.5
409.567	590.5
409.791	541.5
410.014	556.5
410.238	545.5
410.461	545.5
410.685	545.5
410.908	581.5
411.132	611.5
411.355	641.5
411.578	602.5
411.802	566.5
412.025	535.5
412.249	537.5
412.472	574.5
412.695	624.5
412.919	604.5
413.142	576.5
413.365	559.5
413.589	548.5
413.812	530.5
414.035	535.5
414.258	515.5
414.482	493.5
414.705	503.5
414.928	519.5
415.151	505.5
415.374	490.5
415.597	520.5
415.821	515.5
416.044	511.5
416.267	525.5
416.49	519.5
416.713	509.5
416.936	529.5
417.159	533.5
417.382	519.5
417.605	497.5
417.828	543.5
418.051	549.5
418.274	556.5
418.497	527.5
418.72	511.5
418.943	536.5
419.166	527.5
419.389	551.5
419.611	568.5
419.834	521.5
420.057	565.5
420.28	558.5
420.503	525.5
420.726	548.5
420.948	585.5
421.171	606.5
421.394	629.5
421.617	560.5
421.839	544.5
422.062	559.5
422.285	565.5
422.507	624.5
422.73	705.5
422.953	693.5
423.175	635.5
423.398	593.5
423.621	572.5
423.843	581.5
424.066	600.5
424.288	615.5
424.511	631.5
424.733	671.5
424.956	749.5
425.178	727.5
425.401	757.5
425.623	752.5
425.846	665.5
426.068	616.5
426.291	608.5
426.513	601.5
426.735	613.5
426.958	640.5
427.18	781.5
427.402	910.5
427.625	974.5
427.847	898.5
428.069	775.5
428.292	695.5
428.514	613.5
428.736	603.5
428.958	588.5
429.181	558.5
429.403	565.5
429.625	575.5
429.847	616.5
430.069	693.5
430.292	711.5
430.514	576.5
430.736	565.5
430.958	562.5
431.18	564.5
431.402	550.5
431.624	524.5
431.846	522.5
432.068	503.5
432.29	539.5
432.512	532.5
432.734	557.5
432.956	544.5
433.178	548.5
433.4	567.5
433.622	535.5
433.844	533.5
434.066	516.5
434.287	522.5
434.509	499.5
434.731	538.5
434.953	557.5
435.175	561.5
435.397	596.5
435.618	597.5
435.84	667.5
436.062	760.5
436.284	843.5
436.505	727.5
436.727	648.5
436.949	592.5
437.17	574.5
437.392	557.5
437.614	593.5
437.835	639.5
438.057	771.5
438.278	876.5
438.5	839.5
438.721	925.5
438.943	866.5
439.165	705.5
439.386	655.5
439.608	637.5
439.829	629.5
440.05	686.5
440.272	707.5
440.493	660.5
440.715	631.5
440.936	601.5
441.158	569.5
441.379	570.5
441.6	590.5
441.822	623.5
442.043	675.5
442.264	741.5
442.486	811.5
442.707	682.5
442.928	629.5
443.149	640.5
443.371	675.5
443.592	733.5
443.813	810.5
444.034	867.5
444.255	719.5
444.476	657.5
444.698	621.5
444.919	645.5
445.14	709.5
445.361	652.5
445.582	691.5
445.803	739.5
446.024	832.5
446.245	876.5
446.466	805.5
446.687	696.5
446.908	651.5
447.129	601.5
447.35	582.5
447.571	589.5
447.792	573.5
448.013	579.5
448.234	590.5
448.455	660.5
448.675	781.5
448.896	887.5
449.117	755.5
449.338	735.5
449.559	846.5
449.779	943.5
450	749.5
450.221	634.5
450.442	589.5
450.662	562.5
450.883	584.5
451.104	612.5
451.324	593.5
451.545	549.5
451.766	544.5
451.986	512.5
452.207	524.5
452.428	514.5
452.648	512.5
452.869	495.5
453.089	519.5
453.31	523.5
453.53	530.5
453.751	506.5
453.971	514.5
454.192	567.5
454.412	544.5
454.633	525.5
454.853	513.5
455.073	501.5
455.294	547.5
455.514	622.5
455.734	623.5
455.955	517.5
456.175	495.5
456.395	479.5
456.616	463.5
456.836	456.5
457.056	466.5
457.276	460.5
457.497	471.5
457.717	493.5
457.937	465.5
458.157	461.5
458.377	505.5
458.598	519.5
458.818	603.5
459.038	686.5
459.258	718.5
459.478	591.5
459.698	531.5
459.918	524.5
460.138	525.5
460.358	517.5
460.578	503.5
460.798	507.5
461.018	522.5
461.238	543.5
461.458	523.5
461.678	515.5
461.898	536.5
462.118	523.5
462.338	533.5
462.558	524.5
462.777	527.5
462.997	534.5
463.217	529.5
463.437	546.5
463.657	549.5
463.876	539.5
464.096	552.5
464.316	537.5
464.536	570.5
464.755	575.5
464.975	597.5
465.195	651.5
465.414	767.5
465.634	642.5
465.854	588.5
466.073	570.5
466.293	541.5
466.512	523.5
466.732	524.5
466.951	507.5
467.171	508.5
467.391	523.5
467.61	519.5
467.829	524.5
468.049	553.5
468.268	529.5
468.488	505.5
468.707	520.5
468.927	518.5
469.146	491.5
469.365	525.5
469.585	498.5
469.804	508.5
470.023	534.5
470.243	517.5
470.462	531.5
470.681	564.5
470.901	553.5
471.12	541.5
471.339	528.5
471.558	538.5
471.777	538.5
471.997	519.5
472.216	535.5
472.435	559.5
472.654	575.5
472.873	556.5
473.092	545.5
473.311	517.5
473.53	525.5
473.749	547.5
473.968	599.5
474.187	713.5
474.406	709.5
474.625	613.5
474.844	568.5
475.063	545.5
475.282	544.5
475.501	541.5
475.72	535.5
475.939	575.5
476.158	539.5
476.377	528.5
476.596	537.5
476.814	539.5
477.033	575.5
477.252	588.5
477.471	571.5
477.69	579.5
477.908	592.5
478.127	586.5
478.346	572.5
478.564	569.5
478.783	603.5
479.002	585.5
479.22	611.5
479.439	611.5
479.658	625.5
479.876	636.5
480.095	627.5
480.313	674.5
480.532	661.5
480.751	645.5
480.969	650.5
481.188	731.5
481.406	775.5
481.624	675.5
481.843	668.5
482.061	637.5
482.28	644.5
482.498	636.5
482.717	634.5
482.935	625.5
483.153	629.5
483.372	622.5
483.59	645.5
483.808	627.5
484.027	631.5
484.245	617.5
484.463	631.5
484.681	639.5
484.9	621.5
485.118	627.5
485.336	643.5
485.554	646.5
485.772	634.5
485.99	644.5
486.209	648.5
486.427	670.5
486.645	675.5
486.863	696.5
487.081	671.5
487.299	691.5
487.517	675.5
487.735	686.5
487.953	673.5
488.171	700.5
488.389	673.5
488.607	698.5
488.825	697.5
489.043	676.5
489.261	678.5
489.479	700.5
489.696	699.5
489.914	685.5
490.132	700.5
490.35	729.5
490.568	716.5
490.786	727.5
491.003	770.5
491.221	755.5
491.439	765.5
491.657	788.5
491.874	809.5
492.092	824.5
492.31	820.5
492.527	807.5
492.745	791.5
492.963	795.5
493.18	827.5
493.398	824.5
493.615	817.5
493.833	825.5
494.05	839.5
494.268	824.5
494.485	815.5
494.703	822.5
494.92	826.5
495.138	817.5
495.355	821.5
495.573	827.5
495.79	832.5
496.008	835.5
496.225	841.5
496.442	812.5
496.66	843.5
496.877	835.5
497.094	823.5
497.312	830.5
497.529	858.5
497.746	844.5
497.963	843.5
498.181	873.5
498.398	887.5
498.615	890.5
498.832	893.5
499.049	871.5
499.267	905.5
499.484	923.5
499.701	925.5
499.918	950.5
500.135	986.5
500.352	1005.5
500.569	978.5
500.786	1002.5
501.003	1007.5
501.22	978.5
501.437	982.5
501.654	945.5
501.871	984.5
502.088	969.5
502.305	954.5
502.522	900.5
502.739	893.5
502.956	866.5
503.172	860.5
503.389	843.5
503.606	875.5
503.823	863.5
504.04	852.5
504.256	821.5
504.473	811.5
504.69	819.5
504.907	831.5
505.123	808.5
505.34	786.5
505.557	801.5
505.773	810.5
505.99	797.5
506.207	800.5
506.423	767.5
506.64	793.5
506.856	789.5
507.073	776.5
507.289	769.5
507.506	817.5
507.722	820.5
507.939	849.5
508.155	803.5
508.372	760.5
508.588	786.5
508.805	756.5
509.021	751.5
509.238	791.5
509.454	736.5
509.67	773.5
509.887	755.5
510.103	755.5
510.319	801.5
510.536	886.5
510.752	1545.5
510.968	1272.5
511.184	815.5
511.401	766.5
511.617	757.5
511.833	751.5
512.049	726.5
512.265	708.5
512.481	721.5
512.698	721.5
512.914	696.5
513.13	731.5
513.346	724.5
513.562	716.5
513.778	736.5
513.994	743.5
514.21	745.5
514.426	805.5
514.642	868.5
514.858	873.5
515.074	957.5
515.29	1147.5
515.506	1805.5
515.721	1442.5
515.937	947.5
516.153	837.5
516.369	812.5
516.585	752.5
516.801	734.5
517.016	727.5
517.232	744.5
517.448	739.5
517.664	758.5
517.879	709.5
518.095	707.5
518.311	709.5
518.527	726.5
518.742	720.5
518.958	707.5
519.173	707.5
519.389	715.5
