Data from 1971.PennyLincolnUp.Lamp.En5.5.200Scan.071719.P1._HRD10591_15-20-29-842.txt Node
Date: Thu Jul 18 15:20:29 EDT 2019
User: cochatt
Spectrometer: HR+D1059
Trigger mode: 1
Integration Time (sec): 1.000000E-1
Scans to average: 1
Electric dark correction enabled: true
Nonlinearity correction enabled: false
Boxcar width: 0
XAxis mode: Wavelengths
Number of Pixels in Spectrum: 2048
>>>>>Begin Spectral Data<<<<<
223.165	-11.31
223.4	-11.31
223.635	-11.31
223.869	-35.31
224.104	-7.31
224.338	-10.31
224.573	-14.31
224.808	-16.31
225.042	-17.31
225.277	4.69
225.511	-8.31
225.746	1.69
225.98	16.69
226.215	14.69
226.449	18.69
226.683	12.69
226.918	16.69
227.152	34.69
227.387	41.69
227.621	40.69
227.856	41.69
228.09	35.69
228.324	48.69
228.559	56.69
228.793	77.69
229.027	83.69
229.262	108.69
229.496	124.69
229.73	117.69
229.964	136.69
230.199	125.69
230.433	120.69
230.667	127.69
230.901	110.69
231.136	111.69
231.37	104.69
231.604	101.69
231.838	118.69
232.072	125.69
232.306	117.69
232.541	113.69
232.775	120.69
233.009	119.69
233.243	110.69
233.477	112.69
233.711	113.69
233.945	126.69
234.179	106.69
234.413	113.69
234.647	112.69
234.881	117.69
235.115	127.69
235.349	126.69
235.583	133.69
235.817	119.69
236.051	130.69
236.285	136.69
236.519	113.69
236.753	126.69
236.987	151.69
237.221	182.69
237.455	228.69
237.689	182.69
237.922	145.69
238.156	121.69
238.39	137.69
238.624	118.69
238.858	132.69
239.091	137.69
239.325	138.69
239.559	127.69
239.793	133.69
240.027	138.69
240.26	153.69
240.494	167.69
240.728	151.69
240.961	162.69
241.195	153.69
241.429	154.69
241.662	130.69
241.896	123.69
242.13	152.69
242.363	148.69
242.597	124.69
242.83	135.69
243.064	143.69
243.298	144.69
243.531	135.69
243.765	162.69
243.998	141.69
244.232	141.69
244.465	143.69
244.699	142.69
244.932	157.69
245.166	135.69
245.399	152.69
245.633	162.69
245.866	160.69
246.099	147.69
246.333	131.69
246.566	146.69
246.8	153.69
247.033	162.69
247.266	159.69
247.5	167.69
247.733	179.69
247.966	188.69
248.2	173.69
248.433	173.69
248.666	188.69
248.899	209.69
249.133	206.69
249.366	202.69
249.599	202.69
249.832	189.69
250.066	185.69
250.299	199.69
250.532	202.69
250.765	226.69
250.998	235.69
251.231	228.69
251.465	229.69
251.698	223.69
251.931	211.69
252.164	206.69
252.397	207.69
252.63	219.69
252.863	201.69
253.096	230.69
253.329	235.69
253.562	230.69
253.795	245.69
254.028	235.69
254.261	249.69
254.494	226.69
254.727	256.69
254.96	301.69
255.193	274.69
255.426	278.69
255.659	252.69
255.892	237.69
256.124	254.69
256.357	240.69
256.59	229.69
256.823	241.69
257.056	224.69
257.289	222.69
257.521	209.69
257.754	211.69
257.987	214.69
258.22	232.69
258.452	221.69
258.685	226.69
258.918	214.69
259.151	209.69
259.383	242.69
259.616	238.69
259.849	244.69
260.081	255.69
260.314	261.69
260.547	281.69
260.779	268.69
261.012	259.69
261.244	255.69
261.477	246.69
261.71	245.69
261.942	240.69
262.175	241.69
262.407	218.69
262.64	224.69
262.872	232.69
263.105	222.69
263.337	231.69
263.57	226.69
263.802	213.69
264.035	221.69
264.267	223.69
264.499	205.69
264.732	233.69
264.964	202.69
265.197	240.69
265.429	224.69
265.661	216.69
265.894	214.69
266.126	232.69
266.358	226.69
266.591	233.69
266.823	244.69
267.055	243.69
267.287	237.69
267.52	222.69
267.752	221.69
267.984	234.69
268.216	254.69
268.448	246.69
268.681	258.69
268.913	279.69
269.145	267.69
269.377	285.69
269.609	280.69
269.841	292.69
270.073	294.69
270.306	313.69
270.538	322.69
270.77	327.69
271.002	331.69
271.234	312.69
271.466	318.69
271.698	321.69
271.93	327.69
272.162	328.69
272.394	331.69
272.626	321.69
272.858	312.69
273.09	294.69
273.322	289.69
273.553	281.69
273.785	290.69
274.017	271.69
274.249	291.69
274.481	283.69
274.713	279.69
274.945	273.69
275.176	296.69
275.408	270.69
275.64	275.69
275.872	270.69
276.104	291.69
276.335	293.69
276.567	293.69
276.799	306.69
277.031	345.69
277.262	333.69
277.494	329.69
277.726	304.69
277.957	314.69
278.189	303.69
278.421	295.69
278.652	295.69
278.884	280.69
279.115	280.69
279.347	275.69
279.579	299.69
279.81	275.69
280.042	272.69
280.273	281.69
280.505	285.69
280.736	309.69
280.968	273.69
281.199	281.69
281.431	275.69
281.662	300.69
281.894	291.69
282.125	295.69
282.356	311.69
282.588	310.69
282.819	326.69
283.051	272.69
283.282	278.69
283.513	283.69
283.745	294.69
283.976	309.69
284.207	301.69
284.439	295.69
284.67	303.69
284.901	293.69
285.132	297.69
285.364	277.69
285.595	304.69
285.826	292.69
286.057	299.69
286.288	310.69
286.52	289.69
286.751	295.69
286.982	321.69
287.213	304.69
287.444	297.69
287.675	319.69
287.906	336.69
288.138	325.69
288.369	326.69
288.6	339.69
288.831	293.69
289.062	312.69
289.293	328.69
289.524	313.69
289.755	287.69
289.986	296.69
290.217	321.69
290.448	289.69
290.679	314.69
290.91	301.69
291.141	307.69
291.371	299.69
291.602	315.69
291.833	306.69
292.064	309.69
292.295	307.69
292.526	331.69
292.757	309.69
292.987	308.69
293.218	310.69
293.449	302.69
293.68	295.69
293.91	310.69
294.141	320.69
294.372	312.69
294.603	299.69
294.833	313.69
295.064	325.69
295.295	310.69
295.525	326.69
295.756	315.69
295.987	329.69
296.217	326.69
296.448	341.69
296.679	304.69
296.909	325.69
297.14	298.69
297.37	327.69
297.601	305.69
297.831	328.69
298.062	316.69
298.292	325.69
298.523	318.69
298.753	325.69
298.984	317.69
299.214	318.69
299.445	322.69
299.675	338.69
299.905	307.69
300.136	338.69
300.366	325.69
300.597	314.69
300.827	346.69
301.057	322.69
301.288	329.69
301.518	341.69
301.748	334.69
301.979	349.69
302.209	332.69
302.439	319.69
302.669	329.69
302.9	344.69
303.13	320.69
303.36	351.69
303.59	353.69
303.82	340.69
304.051	337.69
304.281	341.69
304.511	340.69
304.741	338.69
304.971	343.69
305.201	327.69
305.431	333.69
305.661	350.69
305.891	336.69
306.121	347.69
306.352	358.69
306.582	348.69
306.812	360.69
307.042	346.69
307.272	355.69
307.502	337.69
307.731	355.69
307.961	355.69
308.191	352.69
308.421	334.69
308.651	376.69
308.881	353.69
309.111	370.69
309.341	358.69
309.571	365.69
309.8	353.69
310.03	374.69
310.26	395.69
310.49	390.69
310.72	396.69
310.949	401.69
311.179	411.69
311.409	404.69
311.639	373.69
311.868	382.69
312.098	386.69
312.328	392.69
312.557	421.69
312.787	430.69
313.017	423.69
313.246	393.69
313.476	395.69
313.706	401.69
313.935	402.69
314.165	410.69
314.394	432.69
314.624	416.69
314.853	413.69
315.083	395.69
315.312	400.69
315.542	399.69
315.771	390.69
316.001	387.69
316.23	384.69
316.46	388.69
316.689	406.69
316.919	413.69
317.148	395.69
317.377	407.69
317.607	393.69
317.836	381.69
318.065	416.69
318.295	373.69
318.524	382.69
318.753	388.69
318.983	392.69
319.212	398.69
319.441	409.69
319.67	403.69
319.9	391.69
320.129	400.69
320.358	397.69
320.587	384.69
320.816	432.69
321.046	416.69
321.275	431.69
321.504	437.69
321.733	425.69
321.962	430.69
322.191	439.69
322.42	447.69
322.649	458.69
322.878	445.69
323.108	481.69
323.337	527.69
323.566	503.69
323.795	545.69
324.024	597.69
324.253	699.69
324.482	1015.69
324.71	1516.69
324.939	2045.69
325.168	1735.69
325.397	917.69
325.626	649.69
325.855	551.69
326.084	512.69
326.313	501.69
326.542	515.69
326.77	582.69
326.999	693.69
327.228	929.69
327.457	1313.69
327.686	1525.69
327.914	1033.69
328.143	705.69
328.372	608.69
328.6	581.69
328.829	567.69
329.058	598.69
329.287	591.69
329.515	562.69
329.744	507.69
329.972	528.69
330.201	539.69
330.43	569.69
330.658	565.69
330.887	597.69
331.115	585.69
331.344	550.69
331.572	491.69
331.801	509.69
332.03	489.69
332.258	470.69
332.486	492.69
332.715	438.69
332.943	465.69
333.172	448.69
333.4	456.69
333.629	478.69
333.857	497.69
334.085	486.69
334.314	513.69
334.542	529.69
334.771	538.69
334.999	505.69
335.227	471.69
335.455	461.69
335.684	459.69
335.912	461.69
336.14	454.69
336.369	456.69
336.597	457.69
336.825	473.69
337.053	434.69
337.281	457.69
337.51	422.69
337.738	448.69
337.966	448.69
338.194	443.69
338.422	442.69
338.65	437.69
338.878	455.69
339.106	433.69
339.334	419.69
339.562	424.69
339.79	441.69
340.018	442.69
340.246	440.69
340.474	450.69
340.702	430.69
340.93	426.69
341.158	427.69
341.386	431.69
341.614	439.69
341.842	427.69
342.07	419.69
342.298	446.69
342.526	430.69
342.754	441.69
342.981	416.69
343.209	403.69
343.437	432.69
343.665	418.69
343.893	437.69
344.12	431.69
344.348	432.69
344.576	434.69
344.804	450.69
345.031	450.69
345.259	445.69
345.487	431.69
345.714	407.69
345.942	418.69
346.17	427.69
346.397	416.69
346.625	406.69
346.853	404.69
347.08	398.69
347.308	427.69
347.535	430.69
347.763	421.69
347.99	429.69
348.218	417.69
348.445	416.69
348.673	429.69
348.9	411.69
349.128	423.69
349.355	391.69
349.583	397.69
349.81	390.69
350.037	395.69
350.265	400.69
350.492	394.69
350.72	402.69
350.947	383.69
351.174	421.69
351.402	427.69
351.629	409.69
351.856	397.69
352.083	397.69
352.311	429.69
352.538	415.69
352.765	413.69
352.992	403.69
353.22	402.69
353.447	400.69
353.674	399.69
353.901	394.69
354.128	376.69
354.355	385.69
354.583	380.69
354.81	393.69
355.037	389.69
355.264	377.69
355.491	388.69
355.718	373.69
355.945	372.69
356.172	374.69
356.399	379.69
356.626	402.69
356.853	391.69
357.08	368.69
357.307	372.69
357.534	373.69
357.761	375.69
357.988	370.69
358.215	376.69
358.441	381.69
358.668	373.69
358.895	378.69
359.122	382.69
359.349	382.69
359.576	407.69
359.802	414.69
360.029	399.69
360.256	441.69
360.483	432.69
360.709	399.69
360.936	411.69
361.163	382.69
361.39	387.69
361.616	385.69
361.843	413.69
362.07	403.69
362.296	403.69
362.523	380.69
362.749	393.69
362.976	377.69
363.203	417.69
363.429	393.69
363.656	399.69
363.882	391.69
364.109	388.69
364.335	387.69
364.562	385.69
364.788	374.69
365.015	374.69
365.241	380.69
365.468	372.69
365.694	381.69
365.92	382.69
366.147	371.69
366.373	405.69
366.599	375.69
366.826	368.69
367.052	383.69
367.278	391.69
367.505	372.69
367.731	374.69
367.957	372.69
368.184	386.69
368.41	408.69
368.636	385.69
368.862	379.69
369.089	381.69
369.315	366.69
369.541	383.69
369.767	395.69
369.993	386.69
370.219	367.69
370.445	369.69
370.672	383.69
370.898	356.69
371.124	366.69
371.35	366.69
371.576	363.69
371.802	366.69
372.028	355.69
372.254	366.69
372.48	360.69
372.706	379.69
372.932	361.69
373.158	366.69
373.384	374.69
373.61	376.69
373.835	364.69
374.061	363.69
374.287	367.69
374.513	365.69
374.739	401.69
374.965	369.69
375.191	359.69
375.416	370.69
375.642	369.69
375.868	342.69
376.094	350.69
376.319	383.69
376.545	376.69
376.771	368.69
376.997	345.69
377.222	357.69
377.448	378.69
377.674	359.69
377.899	347.69
378.125	365.69
378.35	358.69
378.576	353.69
378.802	354.69
379.027	357.69
379.253	375.69
379.478	355.69
379.704	354.69
379.929	350.69
380.155	346.69
380.38	341.69
380.606	359.69
380.831	375.69
381.057	363.69
381.282	381.69
381.507	348.69
381.733	367.69
381.958	377.69
382.184	357.69
382.409	381.69
382.634	389.69
382.86	359.69
383.085	367.69
383.31	388.69
383.535	351.69
383.761	369.69
383.986	377.69
384.211	363.69
384.436	393.69
384.662	374.69
384.887	378.69
385.112	377.69
385.337	366.69
385.562	380.69
385.787	377.69
386.013	385.69
386.238	377.69
386.463	383.69
386.688	382.69
386.913	359.69
387.138	385.69
387.363	389.69
387.588	375.69
387.813	373.69
388.038	371.69
388.263	377.69
388.488	373.69
388.713	364.69
388.938	417.69
389.163	385.69
389.387	373.69
389.612	373.69
389.837	378.69
390.062	365.69
390.287	376.69
390.512	377.69
390.736	386.69
390.961	395.69
391.186	391.69
391.411	368.69
391.636	385.69
391.86	397.69
392.085	395.69
392.31	391.69
392.534	385.69
392.759	361.69
392.984	387.69
393.208	373.69
393.433	384.69
393.658	369.69
393.882	379.69
394.107	379.69
394.331	381.69
394.556	386.69
394.78	386.69
395.005	371.69
395.229	385.69
395.454	393.69
395.678	394.69
395.903	388.69
396.127	411.69
396.352	425.69
396.576	400.69
396.801	385.69
397.025	407.69
397.249	405.69
397.474	384.69
397.698	415.69
397.922	414.69
398.147	414.69
398.371	434.69
398.595	419.69
398.82	394.69
399.044	413.69
399.268	437.69
399.492	457.69
399.717	493.69
399.941	504.69
400.165	493.69
400.389	519.69
400.613	492.69
400.837	453.69
401.062	415.69
401.286	430.69
401.51	424.69
401.734	427.69
401.958	421.69
402.182	443.69
402.406	436.69
402.63	441.69
402.854	426.69
403.078	425.69
403.302	434.69
403.526	454.69
403.75	425.69
403.974	436.69
404.198	417.69
404.422	467.69
404.645	449.69
404.869	433.69
405.093	486.69
405.317	505.69
405.541	519.69
405.765	460.69
405.988	469.69
406.212	472.69
406.436	466.69
406.66	483.69
406.883	472.69
407.107	503.69
407.331	517.69
407.555	582.69
407.778	582.69
408.002	523.69
408.226	481.69
408.449	483.69
408.673	463.69
408.896	507.69
409.12	541.69
409.344	522.69
409.567	451.69
409.791	431.69
410.014	447.69
410.238	414.69
410.461	429.69
410.685	434.69
410.908	449.69
411.132	482.69
411.355	514.69
411.578	506.69
411.802	437.69
412.025	428.69
412.249	442.69
412.472	461.69
412.695	488.69
412.919	468.69
413.142	448.69
413.365	429.69
413.589	413.69
413.812	409.69
414.035	421.69
414.258	426.69
414.482	421.69
414.705	417.69
414.928	417.69
415.151	412.69
415.374	398.69
415.597	415.69
415.821	399.69
416.044	426.69
416.267	409.69
416.49	402.69
416.713	428.69
416.936	399.69
417.159	406.69
417.382	416.69
417.605	410.69
417.828	419.69
418.051	442.69
418.274	413.69
418.497	400.69
418.72	397.69
418.943	398.69
419.166	425.69
419.389	428.69
419.611	421.69
419.834	417.69
420.057	423.69
420.28	428.69
420.503	419.69
420.726	430.69
420.948	441.69
421.171	464.69
421.394	492.69
421.617	460.69
421.839	447.69
422.062	449.69
422.285	432.69
422.507	505.69
422.73	560.69
422.953	518.69
423.175	472.69
423.398	451.69
423.621	426.69
423.843	465.69
424.066	474.69
424.288	467.69
424.511	488.69
424.733	497.69
424.956	573.69
425.178	561.69
425.401	558.69
425.623	577.69
425.846	501.69
426.068	465.69
426.291	456.69
426.513	441.69
426.735	458.69
426.958	523.69
427.18	587.69
427.402	691.69
427.625	758.69
427.847	653.69
428.069	563.69
428.292	499.69
428.514	474.69
428.736	447.69
428.958	442.69
429.181	429.69
429.403	410.69
429.625	450.69
429.847	477.69
430.069	523.69
430.292	510.69
430.514	431.69
430.736	415.69
430.958	416.69
431.18	388.69
431.402	402.69
431.624	391.69
431.846	403.69
432.068	395.69
432.29	399.69
432.512	397.69
432.734	409.69
432.956	417.69
433.178	424.69
433.4	422.69
433.622	384.69
433.844	402.69
434.066	385.69
434.287	396.69
434.509	423.69
434.731	418.69
434.953	414.69
435.175	430.69
435.397	444.69
435.618	474.69
435.84	520.69
436.062	558.69
436.284	641.69
436.505	545.69
436.727	462.69
436.949	439.69
437.17	446.69
437.392	426.69
437.614	457.69
437.835	480.69
438.057	546.69
438.278	642.69
438.5	643.69
438.721	691.69
438.943	662.69
439.165	526.69
439.386	478.69
439.608	499.69
439.829	463.69
440.05	479.69
440.272	552.69
440.493	507.69
440.715	465.69
440.936	432.69
441.158	439.69
441.379	415.69
441.6	440.69
441.822	448.69
442.043	496.69
442.264	561.69
442.486	601.69
442.707	523.69
442.928	504.69
443.149	472.69
443.371	522.69
443.592	520.69
443.813	593.69
444.034	665.69
444.255	553.69
444.476	476.69
444.698	478.69
444.919	491.69
445.14	559.69
445.361	513.69
445.582	511.69
445.803	546.69
446.024	638.69
446.245	660.69
446.466	592.69
446.687	518.69
446.908	466.69
447.129	430.69
447.35	412.69
447.571	432.69
447.792	439.69
448.013	443.69
448.234	440.69
448.455	489.69
448.675	621.69
448.896	692.69
449.117	579.69
449.338	549.69
449.559	643.69
449.779	701.69
450	560.69
450.221	470.69
450.442	464.69
450.662	438.69
450.883	428.69
451.104	431.69
451.324	412.69
451.545	397.69
451.766	393.69
451.986	396.69
452.207	389.69
452.428	393.69
452.648	380.69
452.869	375.69
453.089	380.69
453.31	384.69
453.53	377.69
453.751	382.69
453.971	385.69
454.192	390.69
454.412	383.69
454.633	386.69
454.853	374.69
455.073	369.69
455.294	401.69
455.514	483.69
455.734	459.69
455.955	375.69
456.175	374.69
456.395	343.69
456.616	354.69
456.836	351.69
457.056	349.69
457.276	328.69
457.497	355.69
457.717	330.69
457.937	373.69
458.157	378.69
458.377	367.69
458.598	383.69
458.818	429.69
459.038	483.69
459.258	494.69
459.478	429.69
459.698	410.69
459.918	410.69
460.138	387.69
460.358	377.69
460.578	386.69
460.798	393.69
461.018	395.69
461.238	399.69
461.458	392.69
461.678	379.69
461.898	391.69
462.118	396.69
462.338	391.69
462.558	401.69
462.777	402.69
462.997	401.69
463.217	441.69
463.437	427.69
463.657	423.69
463.876	402.69
464.096	395.69
464.316	403.69
464.536	423.69
464.755	417.69
464.975	447.69
465.195	456.69
465.414	505.69
465.634	451.69
465.854	398.69
466.073	386.69
466.293	401.69
466.512	359.69
466.732	397.69
466.951	375.69
467.171	392.69
467.391	377.69
467.61	381.69
467.829	393.69
468.049	385.69
468.268	393.69
468.488	371.69
468.707	373.69
468.927	375.69
469.146	374.69
469.365	355.69
469.585	401.69
469.804	369.69
470.023	385.69
470.243	394.69
470.462	407.69
470.681	415.69
470.901	399.69
471.12	386.69
471.339	381.69
471.558	402.69
471.777	391.69
471.997	403.69
472.216	411.69
472.435	403.69
472.654	393.69
472.873	367.69
473.092	362.69
473.311	382.69
473.53	391.69
473.749	415.69
473.968	459.69
474.187	537.69
474.406	530.69
474.625	447.69
474.844	392.69
475.063	413.69
475.282	394.69
475.501	386.69
475.72	400.69
475.939	406.69
476.158	415.69
476.377	397.69
476.596	391.69
476.814	403.69
477.033	409.69
477.252	417.69
477.471	419.69
477.69	408.69
477.908	425.69
478.127	413.69
478.346	429.69
478.564	435.69
478.783	452.69
479.002	449.69
479.22	440.69
479.439	446.69
479.658	457.69
479.876	471.69
480.095	460.69
480.313	471.69
480.532	490.69
480.751	474.69
480.969	486.69
481.188	507.69
481.406	551.69
481.624	450.69
481.843	461.69
482.061	445.69
482.28	446.69
482.498	439.69
482.717	445.69
482.935	445.69
483.153	434.69
483.372	441.69
483.59	460.69
483.808	453.69
484.027	449.69
484.245	467.69
484.463	445.69
484.681	461.69
484.9	473.69
485.118	457.69
485.336	467.69
485.554	449.69
485.772	456.69
485.99	471.69
486.209	447.69
486.427	449.69
486.645	455.69
486.863	470.69
487.081	491.69
487.299	488.69
487.517	511.69
487.735	477.69
487.953	494.69
488.171	506.69
488.389	477.69
488.607	506.69
488.825	489.69
489.043	488.69
489.261	490.69
489.479	483.69
489.696	496.69
489.914	508.69
490.132	518.69
490.35	518.69
490.568	510.69
490.786	521.69
491.003	513.69
491.221	550.69
491.439	546.69
491.657	552.69
491.874	566.69
492.092	555.69
492.31	555.69
492.527	562.69
492.745	575.69
492.963	559.69
493.18	569.69
493.398	557.69
493.615	575.69
493.833	588.69
494.05	577.69
494.268	570.69
494.485	559.69
494.703	562.69
494.92	571.69
495.138	583.69
495.355	590.69
495.573	590.69
495.79	617.69
496.008	579.69
496.225	575.69
496.442	569.69
496.66	572.69
496.877	570.69
497.094	583.69
497.312	582.69
497.529	606.69
497.746	601.69
497.963	609.69
498.181	610.69
498.398	615.69
498.615	606.69
498.832	627.69
499.049	633.69
499.267	637.69
499.484	682.69
499.701	690.69
499.918	708.69
500.135	704.69
500.352	743.69
500.569	753.69
500.786	761.69
501.003	753.69
501.22	746.69
501.437	716.69
501.654	695.69
501.871	698.69
