Data from 1971.PennyLincolnUp.Lamp.En5.5.200Scan.071719.P1.Scan 2. Changed Angle._HRD10591_15-25-00-843.txt Node
Date: Thu Jul 18 15:25:00 EDT 2019
User: cochatt
Spectrometer: HR+D1059
Trigger mode: 1
Integration Time (sec): 1.000000E-1
Scans to average: 1
Electric dark correction enabled: true
Nonlinearity correction enabled: false
Boxcar width: 0
XAxis mode: Wavelengths
Number of Pixels in Spectrum: 2048
>>>>>Begin Spectral Data<<<<<
223.165	-8.56
223.4	-8.56
223.635	-8.56
223.869	-14.56
224.104	-18.56
224.338	-24.56
224.573	-9.56
224.808	-4.56
225.042	-5.56
225.277	-2.56
225.511	8.44
225.746	-10.56
225.98	-2.56
226.215	9.44
226.449	15.44
226.683	25.44
226.918	19.44
227.152	23.44
227.387	42.44
227.621	16.44
227.856	26.44
228.09	42.44
228.324	45.44
228.559	62.44
228.793	63.44
229.027	107.44
229.262	119.44
229.496	130.44
229.73	145.44
229.964	194.44
230.199	157.44
230.433	127.44
230.667	128.44
230.901	117.44
231.136	117.44
231.37	134.44
231.604	125.44
231.838	117.44
232.072	121.44
232.306	123.44
232.541	133.44
232.775	120.44
233.009	121.44
233.243	110.44
233.477	119.44
233.711	116.44
233.945	127.44
234.179	123.44
234.413	107.44
234.647	129.44
234.881	116.44
235.115	115.44
235.349	122.44
235.583	117.44
235.817	120.44
236.051	133.44
236.285	130.44
236.519	133.44
236.753	151.44
236.987	151.44
237.221	201.44
237.455	287.44
237.689	213.44
237.922	164.44
238.156	151.44
238.39	143.44
238.624	136.44
238.858	134.44
239.091	140.44
239.325	135.44
239.559	133.44
239.793	139.44
240.027	157.44
240.26	155.44
240.494	181.44
240.728	183.44
240.961	168.44
241.195	161.44
241.429	152.44
241.662	145.44
241.896	138.44
242.13	142.44
242.363	137.44
242.597	131.44
242.83	156.44
243.064	139.44
243.298	155.44
243.531	150.44
243.765	149.44
243.998	151.44
244.232	159.44
244.465	156.44
244.699	151.44
244.932	153.44
245.166	163.44
245.399	144.44
245.633	149.44
245.866	151.44
246.099	146.44
246.333	153.44
246.566	155.44
246.8	159.44
247.033	162.44
247.266	170.44
247.5	170.44
247.733	183.44
247.966	193.44
248.2	193.44
248.433	189.44
248.666	199.44
248.899	202.44
249.133	215.44
249.366	258.44
249.599	224.44
249.832	210.44
250.066	199.44
250.299	198.44
250.532	212.44
250.765	218.44
250.998	252.44
251.231	264.44
251.465	259.44
251.698	229.44
251.931	226.44
252.164	211.44
252.397	208.44
252.63	214.44
252.863	227.44
253.096	234.44
253.329	246.44
253.562	253.44
253.795	255.44
254.028	242.44
254.261	247.44
254.494	264.44
254.727	309.44
254.96	314.44
255.193	326.44
255.426	294.44
255.659	275.44
255.892	263.44
256.124	261.44
256.357	264.44
256.59	255.44
256.823	226.44
257.056	220.44
257.289	234.44
257.521	227.44
257.754	219.44
257.987	241.44
258.22	227.44
258.452	217.44
258.685	226.44
258.918	233.44
259.151	240.44
259.383	236.44
259.616	245.44
259.849	251.44
260.081	253.44
260.314	291.44
260.547	305.44
260.779	297.44
261.012	271.44
261.244	239.44
261.477	234.44
261.71	239.44
261.942	255.44
262.175	279.44
262.407	267.44
262.64	223.44
262.872	234.44
263.105	240.44
263.337	225.44
263.57	244.44
263.802	232.44
264.035	214.44
264.267	215.44
264.499	230.44
264.732	213.44
264.964	222.44
265.197	232.44
265.429	203.44
265.661	225.44
265.894	227.44
266.126	232.44
266.358	248.44
266.591	227.44
266.823	211.44
267.055	239.44
267.287	235.44
267.52	233.44
267.752	233.44
267.984	230.44
268.216	238.44
268.448	257.44
268.681	231.44
268.913	252.44
269.145	306.44
269.377	305.44
269.609	298.44
269.841	283.44
270.073	284.44
270.306	324.44
270.538	344.44
270.77	347.44
271.002	348.44
271.234	331.44
271.466	305.44
271.698	339.44
271.93	356.44
272.162	368.44
272.394	351.44
272.626	339.44
272.858	327.44
273.09	318.44
273.322	295.44
273.553	295.44
273.785	277.44
274.017	276.44
274.249	275.44
274.481	284.44
274.713	290.44
274.945	269.44
275.176	287.44
275.408	294.44
275.64	287.44
275.872	277.44
276.104	288.44
276.335	280.44
276.567	278.44
276.799	294.44
277.031	335.44
277.262	340.44
277.494	352.44
277.726	346.44
277.957	314.44
278.189	300.44
278.421	277.44
278.652	291.44
278.884	277.44
279.115	289.44
279.347	278.44
279.579	262.44
279.81	275.44
280.042	268.44
280.273	270.44
280.505	271.44
280.736	267.44
280.968	269.44
281.199	258.44
281.431	260.44
281.662	273.44
281.894	281.44
282.125	284.44
282.356	287.44
282.588	313.44
282.819	330.44
283.051	271.44
283.282	284.44
283.513	290.44
283.745	287.44
283.976	275.44
284.207	283.44
284.439	277.44
284.67	274.44
284.901	268.44
285.132	273.44
285.364	296.44
285.595	270.44
285.826	267.44
286.057	279.44
286.288	279.44
286.52	270.44
286.751	282.44
286.982	273.44
287.213	291.44
287.444	303.44
287.675	280.44
287.906	287.44
288.138	307.44
288.369	321.44
288.6	316.44
288.831	292.44
289.062	288.44
289.293	295.44
289.524	284.44
289.755	304.44
289.986	283.44
290.217	287.44
290.448	293.44
290.679	296.44
290.91	281.44
291.141	292.44
291.371	300.44
291.602	293.44
291.833	288.44
292.064	269.44
292.295	288.44
292.526	286.44
292.757	290.44
292.987	271.44
293.218	281.44
293.449	296.44
293.68	306.44
293.91	312.44
294.141	281.44
294.372	291.44
294.603	289.44
294.833	279.44
295.064	286.44
295.295	292.44
295.525	293.44
295.756	295.44
295.987	306.44
296.217	329.44
296.448	354.44
296.679	293.44
296.909	288.44
297.14	306.44
297.37	280.44
297.601	299.44
297.831	290.44
298.062	313.44
298.292	294.44
298.523	312.44
298.753	321.44
298.984	307.44
299.214	296.44
299.445	297.44
299.675	291.44
299.905	325.44
300.136	311.44
300.366	323.44
300.597	319.44
300.827	319.44
301.057	321.44
301.288	334.44
301.518	336.44
301.748	324.44
301.979	327.44
302.209	315.44
302.439	333.44
302.669	322.44
302.9	323.44
303.13	327.44
303.36	345.44
303.59	322.44
303.82	357.44
304.051	342.44
304.281	323.44
304.511	333.44
304.741	321.44
304.971	302.44
305.201	323.44
305.431	322.44
305.661	315.44
305.891	339.44
306.121	327.44
306.352	338.44
306.582	334.44
306.812	333.44
307.042	321.44
307.272	317.44
307.502	326.44
307.731	340.44
307.961	336.44
308.191	331.44
308.421	340.44
308.651	343.44
308.881	348.44
309.111	347.44
309.341	371.44
309.571	362.44
309.8	371.44
310.03	381.44
310.26	373.44
310.49	395.44
310.72	417.44
310.949	418.44
311.179	439.44
311.409	409.44
311.639	396.44
311.868	399.44
312.098	385.44
312.328	406.44
312.557	436.44
312.787	443.44
313.017	449.44
313.246	413.44
313.476	401.44
313.706	404.44
313.935	389.44
314.165	419.44
314.394	428.44
314.624	436.44
314.853	411.44
315.083	412.44
315.312	399.44
315.542	385.44
315.771	400.44
316.001	375.44
316.23	375.44
316.46	400.44
316.689	395.44
316.919	392.44
317.148	417.44
317.377	424.44
317.607	419.44
317.836	411.44
318.065	393.44
318.295	375.44
318.524	398.44
318.753	412.44
318.983	395.44
319.212	389.44
319.441	402.44
319.67	400.44
319.9	418.44
320.129	400.44
320.358	383.44
320.587	388.44
320.816	414.44
321.046	437.44
321.275	435.44
321.504	448.44
321.733	435.44
321.962	421.44
322.191	435.44
322.42	483.44
322.649	504.44
322.878	498.44
323.108	505.44
323.337	552.44
323.566	576.44
323.795	633.44
324.024	676.44
324.253	867.44
324.482	1279.44
324.71	1990.44
324.939	2907.44
325.168	2508.44
325.397	1291.44
325.626	817.44
325.855	663.44
326.084	594.44
326.313	574.44
326.542	603.44
326.77	667.44
326.999	785.44
327.228	1151.44
327.457	1765.44
327.686	2165.44
327.914	1423.44
328.143	909.44
328.372	783.44
328.6	707.44
328.829	687.44
329.058	671.44
329.287	709.44
329.515	644.44
329.744	594.44
329.972	590.44
330.201	602.44
330.43	684.44
330.658	693.44
330.887	748.44
331.115	714.44
331.344	586.44
331.572	562.44
331.801	588.44
332.03	533.44
332.258	511.44
332.486	488.44
332.715	478.44
332.943	473.44
333.172	483.44
333.4	463.44
333.629	472.44
333.857	497.44
334.085	504.44
334.314	545.44
334.542	582.44
334.771	607.44
334.999	539.44
335.227	516.44
335.455	478.44
335.684	472.44
335.912	475.44
336.14	458.44
336.369	439.44
336.597	467.44
336.825	465.44
337.053	472.44
337.281	455.44
337.51	475.44
337.738	438.44
337.966	459.44
338.194	458.44
338.422	458.44
338.65	445.44
338.878	460.44
339.106	449.44
339.334	455.44
339.562	427.44
339.79	447.44
340.018	439.44
340.246	455.44
340.474	454.44
340.702	452.44
340.93	448.44
341.158	427.44
341.386	419.44
341.614	457.44
341.842	441.44
342.07	440.44
342.298	442.44
342.526	435.44
342.754	448.44
342.981	412.44
343.209	443.44
343.437	440.44
343.665	423.44
343.893	434.44
344.12	447.44
344.348	440.44
344.576	445.44
344.804	457.44
345.031	475.44
345.259	509.44
345.487	474.44
345.714	449.44
345.942	451.44
346.17	460.44
346.397	436.44
346.625	449.44
346.853	424.44
347.08	459.44
347.308	455.44
347.535	468.44
347.763	453.44
347.99	463.44
348.218	481.44
348.445	484.44
348.673	481.44
348.9	442.44
349.128	440.44
349.355	441.44
349.583	431.44
349.81	410.44
350.037	417.44
350.265	436.44
350.492	429.44
350.72	419.44
350.947	436.44
351.174	435.44
351.402	472.44
351.629	465.44
351.856	439.44
352.083	465.44
352.311	467.44
352.538	492.44
352.765	477.44
352.992	451.44
353.22	442.44
353.447	437.44
353.674	439.44
353.901	433.44
354.128	418.44
354.355	453.44
354.583	411.44
354.81	417.44
355.037	412.44
355.264	390.44
355.491	428.44
355.718	417.44
355.945	417.44
356.172	417.44
356.399	394.44
356.626	400.44
356.853	404.44
357.08	395.44
357.307	385.44
357.534	397.44
357.761	413.44
357.988	401.44
358.215	404.44
358.441	406.44
358.668	393.44
358.895	428.44
359.122	409.44
359.349	426.44
359.576	466.44
359.802	484.44
360.029	527.44
360.256	545.44
360.483	520.44
360.709	453.44
360.936	467.44
361.163	454.44
361.39	458.44
361.616	460.44
361.843	457.44
362.07	468.44
362.296	452.44
362.523	461.44
362.749	453.44
362.976	428.44
363.203	447.44
363.429	433.44
363.656	438.44
363.882	415.44
364.109	436.44
364.335	431.44
364.562	417.44
364.788	431.44
365.015	446.44
365.241	416.44
365.468	423.44
365.694	465.44
365.92	425.44
366.147	428.44
366.373	429.44
366.599	419.44
366.826	434.44
367.052	418.44
367.278	422.44
367.505	427.44
367.731	432.44
367.957	415.44
368.184	427.44
368.41	417.44
368.636	433.44
368.862	459.44
369.089	427.44
369.315	395.44
369.541	411.44
369.767	414.44
369.993	410.44
370.219	431.44
370.445	427.44
370.672	433.44
370.898	421.44
371.124	411.44
371.35	427.44
371.576	415.44
371.802	423.44
372.028	425.44
372.254	429.44
372.48	403.44
372.706	416.44
372.932	420.44
373.158	423.44
373.384	439.44
373.61	422.44
373.835	421.44
374.061	428.44
374.287	443.44
374.513	421.44
374.739	451.44
374.965	428.44
375.191	424.44
375.416	443.44
375.642	420.44
375.868	415.44
376.094	417.44
376.319	421.44
376.545	424.44
376.771	425.44
376.997	408.44
377.222	398.44
377.448	440.44
377.674	411.44
377.899	419.44
378.125	418.44
378.35	418.44
378.576	422.44
378.802	424.44
379.027	405.44
379.253	421.44
379.478	411.44
379.704	413.44
379.929	426.44
380.155	427.44
380.38	409.44
380.606	415.44
380.831	431.44
381.057	410.44
381.282	419.44
381.507	432.44
381.733	413.44
381.958	417.44
382.184	423.44
382.409	428.44
382.634	426.44
382.86	417.44
383.085	436.44
383.31	445.44
383.535	435.44
383.761	435.44
383.986	437.44
384.211	423.44
384.436	437.44
384.662	418.44
384.887	440.44
385.112	441.44
385.337	450.44
385.562	425.44
385.787	444.44
386.013	463.44
386.238	456.44
386.463	469.44
386.688	456.44
386.913	428.44
387.138	440.44
387.363	465.44
387.588	456.44
387.813	423.44
388.038	452.44
388.263	467.44
388.488	438.44
388.713	450.44
388.938	457.44
389.163	469.44
389.387	468.44
389.612	477.44
389.837	468.44
390.062	468.44
390.287	460.44
390.512	441.44
390.736	452.44
390.961	451.44
391.186	466.44
391.411	461.44
391.636	469.44
391.86	466.44
392.085	460.44
392.31	463.44
392.534	445.44
392.759	448.44
392.984	458.44
393.208	474.44
393.433	435.44
393.658	462.44
393.882	458.44
394.107	464.44
394.331	470.44
394.556	447.44
394.78	469.44
395.005	457.44
395.229	441.44
395.454	453.44
395.678	460.44
395.903	479.44
396.127	486.44
396.352	489.44
396.576	479.44
396.801	479.44
397.025	488.44
397.249	468.44
397.474	491.44
397.698	481.44
397.922	500.44
398.147	520.44
398.371	524.44
398.595	491.44
398.82	493.44
399.044	504.44
399.268	524.44
399.492	556.44
399.717	578.44
399.941	592.44
400.165	637.44
400.389	648.44
400.613	592.44
400.837	563.44
401.062	539.44
401.286	533.44
401.51	499.44
401.734	515.44
401.958	535.44
402.182	539.44
402.406	543.44
402.63	533.44
402.854	554.44
403.078	522.44
403.302	553.44
403.526	556.44
403.75	557.44
403.974	549.44
404.198	537.44
404.422	563.44
404.645	555.44
404.869	587.44
405.093	588.44
405.317	633.44
405.541	674.44
405.765	620.44
405.988	615.44
406.212	586.44
406.436	632.44
406.66	642.44
406.883	613.44
407.107	623.44
407.331	663.44
407.555	722.44
407.778	742.44
408.002	689.44
408.226	603.44
408.449	612.44
408.673	591.44
408.896	647.44
409.12	708.44
409.344	663.44
409.567	613.44
409.791	563.44
410.014	548.44
410.238	565.44
410.461	543.44
410.685	554.44
410.908	592.44
411.132	628.44
411.355	657.44
411.578	613.44
411.802	573.44
412.025	554.44
412.249	579.44
412.472	596.44
412.695	628.44
412.919	623.44
413.142	578.44
413.365	554.44
413.589	557.44
413.812	549.44
414.035	533.44
414.258	513.44
414.482	511.44
414.705	529.44
414.928	524.44
415.151	518.44
415.374	507.44
415.597	511.44
415.821	516.44
416.044	507.44
416.267	525.44
416.49	521.44
416.713	524.44
416.936	532.44
417.159	513.44
417.382	514.44
417.605	539.44
417.828	554.44
418.051	548.44
418.274	562.44
418.497	529.44
418.72	533.44
418.943	525.44
419.166	548.44
419.389	549.44
419.611	579.44
419.834	564.44
420.057	561.44
420.28	577.44
420.503	572.44
420.726	573.44
420.948	576.44
421.171	641.44
421.394	676.44
421.617	603.44
421.839	561.44
422.062	583.44
422.285	603.44
422.507	669.44
422.73	745.44
422.953	703.44
423.175	600.44
423.398	609.44
423.621	577.44
423.843	603.44
424.066	629.44
424.288	609.44
424.511	644.44
424.733	712.44
424.956	792.44
425.178	769.44
425.401	786.44
425.623	786.44
425.846	680.44
426.068	643.44
426.291	625.44
426.513	627.44
426.735	658.44
426.958	705.44
427.18	780.44
427.402	935.44
427.625	1041.44
427.847	1010.44
428.069	841.44
428.292	717.44
428.514	640.44
428.736	616.44
428.958	600.44
429.181	583.44
429.403	570.44
429.625	618.44
429.847	633.44
430.069	723.44
430.292	711.44
430.514	619.44
430.736	588.44
430.958	577.44
431.18	572.44
431.402	568.44
431.624	551.44
431.846	532.44
432.068	516.44
432.29	524.44
432.512	565.44
432.734	570.44
432.956	559.44
433.178	572.44
433.4	579.44
433.622	539.44
433.844	526.44
434.066	541.44
434.287	547.44
434.509	547.44
434.731	573.44
434.953	567.44
435.175	568.44
435.397	615.44
435.618	644.44
435.84	673.44
436.062	799.44
436.284	843.44
436.505	721.44
436.727	661.44
436.949	629.44
437.17	592.44
437.392	575.44
437.614	635.44
437.835	666.44
438.057	770.44
438.278	907.44
438.5	895.44
438.721	967.44
438.943	899.44
439.165	754.44
439.386	699.44
439.608	679.44
439.829	657.44
440.05	709.44
440.272	770.44
440.493	697.44
440.715	635.44
440.936	625.44
441.158	604.44
441.379	597.44
441.6	616.44
441.822	643.44
442.043	676.44
442.264	781.44
442.486	824.44
442.707	702.44
442.928	652.44
443.149	674.44
443.371	697.44
443.592	716.44
443.813	833.44
444.034	889.44
444.255	743.44
444.476	652.44
444.698	654.44
444.919	652.44
445.14	724.44
445.361	710.44
445.582	681.44
445.803	795.44
446.024	888.44
446.245	903.44
446.466	835.44
446.687	690.44
446.908	654.44
447.129	627.44
447.35	597.44
447.571	597.44
447.792	564.44
448.013	583.44
448.234	641.44
448.455	695.44
448.675	815.44
448.896	940.44
449.117	821.44
449.338	787.44
449.559	864.44
449.779	976.44
450	811.44
450.221	691.44
450.442	608.44
450.662	607.44
450.883	597.44
451.104	635.44
451.324	611.44
451.545	579.44
451.766	574.44
451.986	555.44
452.207	517.44
452.428	536.44
452.648	527.44
452.869	534.44
453.089	548.44
453.31	561.44
453.53	539.44
453.751	533.44
453.971	555.44
454.192	566.44
454.412	564.44
454.633	552.44
454.853	541.44
455.073	528.44
455.294	572.44
455.514	636.44
455.734	636.44
455.955	535.44
456.175	498.44
456.395	482.44
456.616	484.44
456.836	509.44
457.056	485.44
457.276	486.44
457.497	488.44
457.717	499.44
457.937	493.44
458.157	503.44
458.377	513.44
458.598	542.44
458.818	643.44
459.038	728.44
459.258	771.44
459.478	639.44
459.698	555.44
459.918	531.44
460.138	532.44
460.358	533.44
460.578	512.44
460.798	513.44
461.018	536.44
461.238	532.44
461.458	543.44
461.678	523.44
461.898	535.44
462.118	523.44
462.338	543.44
462.558	549.44
462.777	543.44
462.997	549.44
463.217	551.44
463.437	569.44
463.657	553.44
463.876	544.44
464.096	578.44
464.316	547.44
464.536	567.44
464.755	591.44
464.975	585.44
465.195	675.44
465.414	791.44
465.634	669.44
465.854	579.44
466.073	587.44
466.293	555.44
466.512	549.44
466.732	537.44
466.951	537.44
467.171	520.44
467.391	538.44
467.61	546.44
467.829	553.44
468.049	562.44
468.268	556.44
468.488	563.44
468.707	533.44
468.927	517.44
469.146	523.44
469.365	521.44
469.585	505.44
469.804	524.44
470.023	565.44
470.243	546.44
470.462	561.44
470.681	567.44
470.901	588.44
471.12	541.44
471.339	568.44
471.558	544.44
471.777	545.44
471.997	537.44
472.216	547.44
472.435	617.44
472.654	597.44
472.873	579.44
473.092	548.44
473.311	544.44
473.53	546.44
473.749	553.44
473.968	641.44
474.187	753.44
474.406	773.44
474.625	635.44
474.844	588.44
475.063	545.44
475.282	555.44
475.501	525.44
475.72	553.44
475.939	554.44
476.158	580.44
476.377	568.44
476.596	568.44
476.814	580.44
477.033	591.44
477.252	585.44
477.471	560.44
477.69	585.44
477.908	591.44
478.127	603.44
478.346	581.44
478.564	588.44
478.783	609.44
479.002	606.44
479.22	625.44
479.439	633.44
479.658	669.44
479.876	647.44
480.095	654.44
480.313	719.44
480.532	677.44
480.751	676.44
480.969	684.44
481.188	780.44
481.406	837.44
481.624	737.44
481.843	687.44
482.061	697.44
482.28	669.44
482.498	665.44
482.717	646.44
482.935	650.44
483.153	684.44
483.372	652.44
483.59	645.44
483.808	649.44
484.027	644.44
484.245	635.44
484.463	644.44
484.681	680.44
484.9	665.44
485.118	657.44
485.336	656.44
485.554	705.44
485.772	677.44
485.99	655.44
486.209	674.44
486.427	684.44
486.645	689.44
486.863	720.44
487.081	724.44
487.299	725.44
487.517	729.44
487.735	700.44
487.953	707.44
488.171	729.44
488.389	726.44
488.607	719.44
488.825	714.44
489.043	712.44
489.261	731.44
489.479	717.44
489.696	755.44
489.914	718.44
490.132	739.44
490.35	767.44
490.568	743.44
490.786	764.44
491.003	771.44
491.221	792.44
491.439	780.44
491.657	828.44
491.874	858.44
492.092	855.44
492.31	817.44
492.527	813.44
492.745	874.44
492.963	831.44
493.18	867.44
493.398	865.44
493.615	864.44
493.833	859.44
494.05	881.44
494.268	857.44
494.485	853.44
494.703	867.44
494.92	857.44
495.138	855.44
495.355	876.44
495.573	857.44
495.79	885.44
496.008	863.44
496.225	868.44
496.442	844.44
496.66	859.44
496.877	897.44
497.094	883.44
497.312	887.44
497.529	862.44
497.746	883.44
497.963	891.44
498.181	944.44
498.398	921.44
498.615	929.44
498.832	933.44
499.049	937.44
499.267	944.44
499.484	982.44
499.701	978.44
499.918	967.44
500.135	995.44
500.352	1064.44
500.569	1049.44
500.786	1075.44
501.003	1044.44
501.22	1030.44
501.437	1057.44
