Data from 1971.PennyLincolnUp.Lamp.En5.5.200Scan.071719.P1.Scan 2. Changed Angle._HRD10591_15-22-59-842.txt Node
Date: Thu Jul 18 15:22:59 EDT 2019
User: cochatt
Spectrometer: HR+D1059
Trigger mode: 1
Integration Time (sec): 1.000000E-1
Scans to average: 1
Electric dark correction enabled: true
Nonlinearity correction enabled: false
Boxcar width: 0
XAxis mode: Wavelengths
Number of Pixels in Spectrum: 2048
>>>>>Begin Spectral Data<<<<<
223.165	-16.88
223.4	-16.88
223.635	-16.88
223.869	-16.88
224.104	-16.88
224.338	-14.88
224.573	-8.88
224.808	1.12
225.042	-14.88
225.277	-15.88
225.511	13.12
225.746	-2.88
225.98	5.12
226.215	13.12
226.449	12.12
226.683	14.12
226.918	20.12
227.152	29.12
227.387	38.12
227.621	34.12
227.856	49.12
228.09	40.12
228.324	42.12
228.559	57.12
228.793	70.12
229.027	96.12
229.262	108.12
229.496	108.12
229.73	125.12
229.964	165.12
230.199	141.12
230.433	121.12
230.667	107.12
230.901	103.12
231.136	117.12
231.37	115.12
231.604	100.12
231.838	120.12
232.072	104.12
232.306	109.12
232.541	116.12
232.775	112.12
233.009	119.12
233.243	113.12
233.477	103.12
233.711	124.12
233.945	126.12
234.179	101.12
234.413	125.12
234.647	122.12
234.881	122.12
235.115	125.12
235.349	109.12
235.583	126.12
235.817	108.12
236.051	115.12
236.285	115.12
236.519	125.12
236.753	145.12
236.987	139.12
237.221	176.12
237.455	231.12
237.689	195.12
237.922	134.12
238.156	134.12
238.39	114.12
238.624	125.12
238.858	130.12
239.091	123.12
239.325	132.12
239.559	114.12
239.793	130.12
240.027	142.12
240.26	139.12
240.494	150.12
240.728	152.12
240.961	148.12
241.195	153.12
241.429	138.12
241.662	136.12
241.896	118.12
242.13	148.12
242.363	125.12
242.597	122.12
242.83	122.12
243.064	135.12
243.298	149.12
243.531	130.12
243.765	130.12
243.998	139.12
244.232	145.12
244.465	121.12
244.699	139.12
244.932	149.12
245.166	128.12
245.399	124.12
245.633	136.12
245.866	147.12
246.099	162.12
246.333	150.12
246.566	142.12
246.8	144.12
247.033	146.12
247.266	142.12
247.5	147.12
247.733	174.12
247.966	174.12
248.2	175.12
248.433	166.12
248.666	182.12
248.899	178.12
249.133	185.12
249.366	213.12
249.599	204.12
249.832	175.12
250.066	188.12
250.299	177.12
250.532	183.12
250.765	203.12
250.998	221.12
251.231	222.12
251.465	206.12
251.698	210.12
251.931	185.12
252.164	190.12
252.397	210.12
252.63	200.12
252.863	205.12
253.096	198.12
253.329	220.12
253.562	224.12
253.795	221.12
254.028	217.12
254.261	215.12
254.494	254.12
254.727	245.12
254.96	293.12
255.193	285.12
255.426	255.12
255.659	248.12
255.892	226.12
256.124	235.12
256.357	229.12
256.59	217.12
256.823	221.12
257.056	213.12
257.289	202.12
257.521	218.12
257.754	226.12
257.987	195.12
258.22	213.12
258.452	197.12
258.685	199.12
258.918	191.12
259.151	202.12
259.383	217.12
259.616	213.12
259.849	213.12
260.081	221.12
260.314	241.12
260.547	240.12
260.779	225.12
261.012	237.12
261.244	213.12
261.477	227.12
261.71	205.12
261.942	225.12
262.175	236.12
262.407	229.12
262.64	205.12
262.872	206.12
263.105	196.12
263.337	207.12
263.57	199.12
263.802	197.12
264.035	202.12
264.267	208.12
264.499	202.12
264.732	206.12
264.964	201.12
265.197	201.12
265.429	201.12
265.661	199.12
265.894	186.12
266.126	198.12
266.358	190.12
266.591	208.12
266.823	215.12
267.055	214.12
267.287	207.12
267.52	216.12
267.752	214.12
267.984	200.12
268.216	210.12
268.448	211.12
268.681	212.12
268.913	213.12
269.145	247.12
269.377	257.12
269.609	278.12
269.841	262.12
270.073	236.12
270.306	274.12
270.538	287.12
270.77	301.12
271.002	276.12
271.234	299.12
271.466	285.12
271.698	294.12
271.93	312.12
272.162	308.12
272.394	292.12
272.626	288.12
272.858	280.12
273.09	271.12
273.322	268.12
273.553	239.12
273.785	251.12
274.017	240.12
274.249	240.12
274.481	217.12
274.713	242.12
274.945	264.12
275.176	234.12
275.408	223.12
275.64	249.12
275.872	242.12
276.104	229.12
276.335	276.12
276.567	234.12
276.799	251.12
277.031	277.12
277.262	292.12
277.494	307.12
277.726	277.12
277.957	244.12
278.189	246.12
278.421	262.12
278.652	218.12
278.884	250.12
279.115	248.12
279.347	247.12
279.579	232.12
279.81	247.12
280.042	261.12
280.273	228.12
280.505	243.12
280.736	236.12
280.968	256.12
281.199	228.12
281.431	250.12
281.662	227.12
281.894	240.12
282.125	254.12
282.356	268.12
282.588	277.12
282.819	284.12
283.051	241.12
283.282	245.12
283.513	247.12
283.745	229.12
283.976	241.12
284.207	241.12
284.439	244.12
284.67	245.12
284.901	243.12
285.132	236.12
285.364	258.12
285.595	248.12
285.826	242.12
286.057	251.12
286.288	234.12
286.52	242.12
286.751	249.12
286.982	256.12
287.213	246.12
287.444	246.12
287.675	268.12
287.906	246.12
288.138	260.12
288.369	270.12
288.6	277.12
288.831	262.12
289.062	266.12
289.293	253.12
289.524	250.12
289.755	269.12
289.986	246.12
290.217	246.12
290.448	257.12
290.679	261.12
290.91	261.12
291.141	266.12
291.371	258.12
291.602	243.12
291.833	260.12
292.064	261.12
292.295	261.12
292.526	261.12
292.757	246.12
292.987	253.12
293.218	268.12
293.449	272.12
293.68	264.12
293.91	269.12
294.141	255.12
294.372	256.12
294.603	268.12
294.833	269.12
295.064	240.12
295.295	254.12
295.525	245.12
295.756	243.12
295.987	276.12
296.217	288.12
296.448	311.12
296.679	285.12
296.909	256.12
297.14	250.12
297.37	269.12
297.601	273.12
297.831	256.12
298.062	270.12
298.292	279.12
298.523	276.12
298.753	272.12
298.984	265.12
299.214	268.12
299.445	265.12
299.675	279.12
299.905	278.12
300.136	261.12
300.366	262.12
300.597	270.12
300.827	285.12
301.057	291.12
301.288	283.12
301.518	270.12
301.748	272.12
301.979	288.12
302.209	264.12
302.439	277.12
302.669	290.12
302.9	292.12
303.13	276.12
303.36	280.12
303.59	275.12
303.82	299.12
304.051	281.12
304.281	295.12
304.511	276.12
304.741	312.12
304.971	300.12
305.201	277.12
305.431	298.12
305.661	286.12
305.891	286.12
306.121	283.12
306.352	289.12
306.582	285.12
306.812	293.12
307.042	270.12
307.272	280.12
307.502	293.12
307.731	292.12
307.961	302.12
308.191	298.12
308.421	283.12
308.651	284.12
308.881	297.12
309.111	299.12
309.341	312.12
309.571	323.12
309.8	342.12
310.03	318.12
310.26	331.12
310.49	316.12
310.72	344.12
310.949	377.12
311.179	374.12
311.409	355.12
311.639	316.12
311.868	317.12
312.098	321.12
312.328	345.12
312.557	358.12
312.787	384.12
313.017	380.12
313.246	343.12
313.476	348.12
313.706	340.12
313.935	353.12
314.165	353.12
314.394	364.12
314.624	354.12
314.853	332.12
315.083	334.12
315.312	324.12
315.542	317.12
315.771	327.12
316.001	328.12
316.23	331.12
316.46	304.12
316.689	332.12
316.919	334.12
317.148	358.12
317.377	355.12
317.607	360.12
317.836	364.12
318.065	337.12
318.295	331.12
318.524	345.12
318.753	330.12
318.983	335.12
319.212	347.12
319.441	357.12
319.67	351.12
319.9	348.12
320.129	344.12
320.358	332.12
320.587	354.12
320.816	339.12
321.046	366.12
321.275	382.12
321.504	361.12
321.733	368.12
321.962	378.12
322.191	388.12
322.42	406.12
322.649	436.12
322.878	411.12
323.108	441.12
323.337	452.12
323.566	482.12
323.795	524.12
324.024	549.12
324.253	678.12
324.482	981.12
324.71	1562.12
324.939	2220.12
325.168	1913.12
325.397	1016.12
325.626	655.12
325.855	552.12
326.084	484.12
326.313	468.12
326.542	476.12
326.77	535.12
326.999	636.12
327.228	898.12
327.457	1368.12
327.686	1627.12
327.914	1127.12
328.143	749.12
328.372	624.12
328.6	592.12
328.829	564.12
329.058	579.12
329.287	583.12
329.515	535.12
329.744	486.12
329.972	501.12
330.201	510.12
330.43	542.12
330.658	559.12
330.887	611.12
331.115	582.12
331.344	497.12
331.572	448.12
331.801	463.12
332.03	460.12
332.258	429.12
332.486	396.12
332.715	412.12
332.943	425.12
333.172	420.12
333.4	411.12
333.629	423.12
333.857	420.12
334.085	423.12
334.314	443.12
334.542	447.12
334.771	472.12
334.999	449.12
335.227	434.12
335.455	414.12
335.684	407.12
335.912	406.12
336.14	383.12
336.369	405.12
336.597	395.12
336.825	399.12
337.053	395.12
337.281	392.12
337.51	394.12
337.738	411.12
337.966	404.12
338.194	406.12
338.422	413.12
338.65	402.12
338.878	404.12
339.106	393.12
339.334	385.12
339.562	382.12
339.79	369.12
340.018	379.12
340.246	393.12
340.474	395.12
340.702	395.12
340.93	380.12
341.158	385.12
341.386	388.12
341.614	387.12
341.842	396.12
342.07	378.12
342.298	372.12
342.526	381.12
342.754	366.12
342.981	366.12
343.209	373.12
343.437	384.12
343.665	388.12
343.893	373.12
344.12	375.12
344.348	376.12
344.576	393.12
344.804	395.12
345.031	416.12
345.259	428.12
345.487	412.12
345.714	377.12
345.942	380.12
346.17	397.12
346.397	389.12
346.625	379.12
346.853	388.12
347.08	380.12
347.308	407.12
347.535	397.12
347.763	398.12
347.99	405.12
348.218	394.12
348.445	411.12
348.673	398.12
348.9	374.12
349.128	377.12
349.355	375.12
349.583	377.12
349.81	363.12
350.037	376.12
350.265	390.12
350.492	387.12
350.72	341.12
350.947	374.12
351.174	381.12
351.402	392.12
351.629	401.12
351.856	398.12
352.083	400.12
352.311	403.12
352.538	409.12
352.765	434.12
352.992	393.12
353.22	414.12
353.447	378.12
353.674	390.12
353.901	392.12
354.128	340.12
354.355	361.12
354.583	358.12
354.81	371.12
355.037	355.12
355.264	350.12
355.491	378.12
355.718	359.12
355.945	357.12
356.172	347.12
356.399	346.12
356.626	361.12
356.853	357.12
357.08	360.12
357.307	351.12
357.534	365.12
357.761	363.12
357.988	345.12
358.215	358.12
358.441	391.12
358.668	388.12
358.895	377.12
359.122	372.12
359.349	394.12
359.576	377.12
359.802	409.12
360.029	453.12
360.256	478.12
360.483	440.12
360.709	405.12
360.936	418.12
361.163	409.12
361.39	387.12
361.616	410.12
361.843	397.12
362.07	386.12
362.296	397.12
362.523	389.12
362.749	397.12
362.976	398.12
363.203	365.12
363.429	386.12
363.656	373.12
363.882	382.12
364.109	361.12
364.335	366.12
364.562	382.12
364.788	360.12
365.015	378.12
365.241	386.12
365.468	377.12
365.694	391.12
365.92	369.12
366.147	379.12
366.373	371.12
366.599	360.12
366.826	396.12
367.052	379.12
367.278	382.12
367.505	372.12
367.731	371.12
367.957	366.12
368.184	375.12
368.41	382.12
368.636	401.12
368.862	386.12
369.089	401.12
369.315	390.12
369.541	385.12
369.767	379.12
369.993	370.12
370.219	381.12
370.445	352.12
370.672	359.12
370.898	367.12
371.124	374.12
371.35	372.12
371.576	370.12
371.802	372.12
372.028	362.12
372.254	382.12
372.48	361.12
372.706	382.12
372.932	346.12
373.158	359.12
373.384	392.12
373.61	408.12
373.835	391.12
374.061	372.12
374.287	382.12
374.513	376.12
374.739	372.12
374.965	377.12
375.191	389.12
375.416	399.12
375.642	365.12
375.868	374.12
376.094	372.12
376.319	371.12
376.545	363.12
376.771	366.12
376.997	362.12
377.222	393.12
377.448	377.12
377.674	364.12
377.899	388.12
378.125	374.12
378.35	373.12
378.576	389.12
378.802	380.12
379.027	402.12
379.253	380.12
379.478	366.12
379.704	361.12
379.929	379.12
380.155	365.12
380.38	368.12
380.606	380.12
380.831	386.12
381.057	380.12
381.282	380.12
381.507	388.12
381.733	380.12
381.958	374.12
382.184	378.12
382.409	413.12
382.634	398.12
382.86	382.12
383.085	392.12
383.31	404.12
383.535	395.12
383.761	388.12
383.986	393.12
384.211	391.12
384.436	403.12
384.662	397.12
384.887	389.12
385.112	396.12
385.337	377.12
385.562	390.12
385.787	432.12
386.013	394.12
386.238	417.12
386.463	417.12
386.688	399.12
386.913	403.12
387.138	396.12
387.363	402.12
387.588	404.12
387.813	400.12
388.038	381.12
388.263	392.12
388.488	410.12
388.713	420.12
388.938	396.12
389.163	413.12
389.387	407.12
389.612	426.12
389.837	400.12
390.062	405.12
390.287	401.12
390.512	392.12
390.736	419.12
390.961	385.12
391.186	389.12
391.411	420.12
391.636	413.12
391.86	424.12
392.085	416.12
392.31	416.12
392.534	406.12
392.759	428.12
392.984	413.12
393.208	404.12
393.433	416.12
393.658	436.12
393.882	422.12
394.107	412.12
394.331	403.12
394.556	417.12
394.78	402.12
395.005	418.12
395.229	424.12
395.454	438.12
395.678	415.12
395.903	441.12
396.127	460.12
396.352	460.12
396.576	445.12
396.801	431.12
397.025	425.12
397.249	426.12
397.474	437.12
397.698	458.12
397.922	457.12
398.147	477.12
398.371	474.12
398.595	449.12
398.82	443.12
399.044	468.12
399.268	460.12
399.492	494.12
399.717	521.12
399.941	554.12
400.165	548.12
400.389	566.12
400.613	485.12
400.837	496.12
401.062	510.12
401.286	492.12
401.51	452.12
401.734	463.12
401.958	468.12
402.182	499.12
402.406	500.12
402.63	502.12
402.854	487.12
403.078	487.12
403.302	486.12
403.526	485.12
403.75	478.12
403.974	482.12
404.198	467.12
404.422	496.12
404.645	505.12
404.869	489.12
405.093	518.12
405.317	547.12
405.541	600.12
405.765	560.12
405.988	516.12
406.212	516.12
406.436	568.12
406.66	598.12
406.883	545.12
407.107	556.12
407.331	608.12
407.555	660.12
407.778	609.12
408.002	594.12
408.226	563.12
408.449	557.12
408.673	580.12
408.896	576.12
409.12	611.12
409.344	554.12
409.567	537.12
409.791	497.12
410.014	505.12
410.238	490.12
410.461	498.12
410.685	479.12
410.908	514.12
411.132	552.12
411.355	564.12
411.578	555.12
411.802	519.12
412.025	509.12
412.249	524.12
412.472	528.12
412.695	564.12
412.919	540.12
413.142	507.12
413.365	483.12
413.589	491.12
413.812	473.12
414.035	484.12
414.258	478.12
414.482	482.12
414.705	481.12
414.928	463.12
415.151	464.12
415.374	479.12
415.597	482.12
415.821	439.12
416.044	464.12
416.267	463.12
416.49	496.12
416.713	460.12
416.936	455.12
417.159	468.12
417.382	458.12
417.605	469.12
417.828	488.12
418.051	519.12
418.274	483.12
418.497	478.12
418.72	470.12
418.943	475.12
419.166	480.12
419.389	509.12
419.611	499.12
419.834	524.12
420.057	518.12
420.28	502.12
420.503	492.12
420.726	493.12
420.948	524.12
421.171	560.12
421.394	595.12
421.617	546.12
421.839	504.12
422.062	507.12
422.285	517.12
422.507	587.12
422.73	654.12
422.953	637.12
423.175	574.12
423.398	531.12
423.621	518.12
423.843	532.12
424.066	553.12
424.288	547.12
424.511	568.12
424.733	611.12
424.956	734.12
425.178	677.12
425.401	676.12
425.623	691.12
425.846	602.12
426.068	560.12
426.291	556.12
426.513	564.12
426.735	569.12
426.958	617.12
427.18	697.12
427.402	813.12
427.625	881.12
427.847	800.12
428.069	721.12
428.292	611.12
428.514	582.12
428.736	553.12
428.958	556.12
429.181	528.12
429.403	505.12
429.625	538.12
429.847	562.12
430.069	620.12
430.292	620.12
430.514	542.12
430.736	533.12
430.958	532.12
431.18	498.12
431.402	485.12
431.624	469.12
431.846	482.12
432.068	484.12
432.29	458.12
432.512	466.12
432.734	481.12
432.956	480.12
433.178	508.12
433.4	490.12
433.622	506.12
433.844	492.12
434.066	466.12
434.287	483.12
434.509	478.12
434.731	475.12
434.953	504.12
435.175	521.12
435.397	552.12
435.618	563.12
435.84	604.12
436.062	679.12
436.284	777.12
436.505	672.12
436.727	580.12
436.949	536.12
437.17	548.12
437.392	546.12
437.614	554.12
437.835	563.12
438.057	685.12
438.278	780.12
438.5	758.12
438.721	830.12
438.943	787.12
439.165	648.12
439.386	604.12
439.608	580.12
439.829	590.12
440.05	607.12
440.272	653.12
440.493	614.12
440.715	581.12
440.936	538.12
441.158	522.12
441.379	537.12
441.6	564.12
441.822	566.12
442.043	606.12
442.264	691.12
442.486	735.12
442.707	634.12
442.928	594.12
443.149	598.12
443.371	578.12
443.592	636.12
443.813	733.12
444.034	800.12
444.255	659.12
444.476	585.12
444.698	550.12
444.919	543.12
445.14	684.12
445.361	643.12
445.582	609.12
445.803	668.12
446.024	788.12
446.245	769.12
446.466	717.12
446.687	624.12
446.908	548.12
447.129	542.12
447.35	528.12
447.571	539.12
447.792	533.12
448.013	536.12
448.234	565.12
448.455	587.12
448.675	684.12
448.896	828.12
449.117	726.12
449.338	662.12
449.559	744.12
449.779	846.12
450	690.12
450.221	584.12
450.442	543.12
450.662	532.12
450.883	540.12
451.104	553.12
451.324	545.12
451.545	517.12
451.766	493.12
451.986	465.12
452.207	476.12
452.428	466.12
452.648	458.12
452.869	459.12
453.089	473.12
453.31	526.12
453.53	492.12
453.751	477.12
453.971	466.12
454.192	499.12
454.412	490.12
454.633	477.12
454.853	468.12
455.073	453.12
455.294	498.12
455.514	556.12
455.734	544.12
455.955	465.12
456.175	438.12
456.395	422.12
456.616	442.12
456.836	412.12
457.056	442.12
457.276	434.12
457.497	437.12
457.717	434.12
457.937	435.12
458.157	441.12
458.377	457.12
458.598	476.12
458.818	529.12
459.038	613.12
459.258	625.12
459.478	558.12
459.698	499.12
459.918	494.12
460.138	482.12
460.358	481.12
460.578	473.12
460.798	473.12
461.018	518.12
461.238	498.12
461.458	470.12
461.678	461.12
461.898	483.12
462.118	462.12
462.338	486.12
462.558	485.12
462.777	500.12
462.997	509.12
463.217	498.12
463.437	524.12
463.657	490.12
463.876	488.12
464.096	510.12
464.316	522.12
464.536	508.12
464.755	513.12
464.975	535.12
465.195	576.12
465.414	654.12
465.634	581.12
465.854	546.12
466.073	517.12
466.293	492.12
466.512	470.12
466.732	484.12
466.951	475.12
467.171	463.12
467.391	480.12
467.61	496.12
467.829	508.12
468.049	512.12
468.268	489.12
468.488	482.12
468.707	468.12
468.927	481.12
469.146	464.12
469.365	482.12
469.585	465.12
469.804	470.12
470.023	470.12
470.243	479.12
470.462	483.12
470.681	511.12
470.901	507.12
471.12	488.12
471.339	480.12
471.558	469.12
471.777	498.12
471.997	462.12
472.216	485.12
472.435	527.12
472.654	499.12
472.873	489.12
473.092	478.12
473.311	474.12
473.53	492.12
473.749	518.12
473.968	536.12
474.187	656.12
474.406	674.12
474.625	550.12
474.844	501.12
475.063	497.12
475.282	497.12
475.501	473.12
475.72	482.12
475.939	489.12
476.158	523.12
476.377	511.12
476.596	492.12
476.814	496.12
477.033	510.12
477.252	520.12
477.471	501.12
477.69	520.12
477.908	546.12
478.127	514.12
478.346	539.12
478.564	550.12
478.783	531.12
479.002	542.12
479.22	568.12
479.439	552.12
479.658	544.12
479.876	588.12
480.095	575.12
480.313	615.12
480.532	617.12
480.751	580.12
480.969	585.12
481.188	673.12
481.406	668.12
481.624	620.12
481.843	602.12
482.061	597.12
482.28	558.12
482.498	555.12
482.717	553.12
482.935	567.12
483.153	604.12
483.372	577.12
483.59	586.12
483.808	578.12
484.027	581.12
484.245	558.12
484.463	577.12
484.681	577.12
484.9	601.12
485.118	596.12
485.336	599.12
485.554	585.12
485.772	600.12
485.99	582.12
486.209	594.12
486.427	589.12
486.645	626.12
486.863	640.12
487.081	636.12
487.299	613.12
487.517	617.12
487.735	634.12
487.953	611.12
488.171	649.12
488.389	637.12
488.607	634.12
488.825	614.12
489.043	609.12
489.261	633.12
489.479	637.12
489.696	648.12
489.914	659.12
490.132	651.12
490.35	642.12
490.568	648.12
490.786	661.12
491.003	696.12
491.221	708.12
491.439	694.12
491.657	700.12
491.874	735.12
492.092	741.12
492.31	756.12
492.527	724.12
492.745	717.12
492.963	737.12
493.18	745.12
493.398	756.12
493.615	754.12
493.833	766.12
494.05	778.12
494.268	789.12
494.485	712.12
494.703	768.12
494.92	760.12
495.138	757.12
495.355	737.12
495.573	759.12
495.79	745.12
496.008	728.12
496.225	774.12
496.442	764.12
496.66	728.12
496.877	745.12
497.094	733.12
497.312	776.12
497.529	777.12
497.746	779.12
497.963	777.12
498.181	825.12
498.398	817.12
498.615	811.12
498.832	820.12
499.049	843.12
499.267	838.12
499.484	857.12
499.701	870.12
499.918	914.12
500.135	894.12
500.352	917.12
500.569	939.12
500.786	932.12
501.003	920.12
501.22	920.12
501.437	936.12
501.654	944.12
