Data from 1971.PennyLincolnUp.Lamp.En5.5.200Scan.071719.P1._HRD10591_15-18-41-842.txt Node
Date: Thu Jul 18 15:18:41 EDT 2019
User: cochatt
Spectrometer: HR+D1059
Trigger mode: 1
Integration Time (sec): 1.000000E-1
Scans to average: 1
Electric dark correction enabled: true
Nonlinearity correction enabled: false
Boxcar width: 0
XAxis mode: Wavelengths
Number of Pixels in Spectrum: 2048
>>>>>Begin Spectral Data<<<<<
223.165	-20.38
223.4	-20.38
223.635	-20.38
223.869	-15.38
224.104	-25.38
224.338	-24.38
224.573	-9.38
224.808	-20.38
225.042	-12.38
225.277	-11.38
225.511	4.62
225.746	3.62
225.98	5.62
226.215	20.62
226.449	9.62
226.683	25.62
226.918	33.62
227.152	35.62
227.387	32.62
227.621	39.62
227.856	37.62
228.09	42.62
228.324	59.62
228.559	55.62
228.793	41.62
229.027	87.62
229.262	92.62
229.496	94.62
229.73	119.62
229.964	146.62
230.199	119.62
230.433	116.62
230.667	115.62
230.901	116.62
231.136	118.62
231.37	101.62
231.604	115.62
231.838	117.62
232.072	98.62
232.306	103.62
232.541	93.62
232.775	119.62
233.009	105.62
233.243	108.62
233.477	100.62
233.711	112.62
233.945	118.62
234.179	118.62
234.413	114.62
234.647	91.62
234.881	118.62
235.115	124.62
235.349	112.62
235.583	117.62
235.817	117.62
236.051	123.62
236.285	124.62
236.519	108.62
236.753	136.62
236.987	147.62
237.221	166.62
237.455	204.62
237.689	157.62
237.922	129.62
238.156	138.62
238.39	107.62
238.624	136.62
238.858	119.62
239.091	104.62
239.325	119.62
239.559	134.62
239.793	112.62
240.027	124.62
240.26	113.62
240.494	137.62
240.728	138.62
240.961	133.62
241.195	141.62
241.429	138.62
241.662	144.62
241.896	140.62
242.13	122.62
242.363	136.62
242.597	145.62
242.83	141.62
243.064	131.62
243.298	126.62
243.531	148.62
243.765	126.62
243.998	140.62
244.232	142.62
244.465	128.62
244.699	140.62
244.932	136.62
245.166	137.62
245.399	137.62
245.633	139.62
245.866	135.62
246.099	145.62
246.333	151.62
246.566	134.62
246.8	146.62
247.033	144.62
247.266	160.62
247.5	159.62
247.733	176.62
247.966	167.62
248.2	185.62
248.433	146.62
248.666	165.62
248.899	187.62
249.133	172.62
249.366	194.62
249.599	207.62
249.832	200.62
250.066	195.62
250.299	189.62
250.532	210.62
250.765	193.62
250.998	223.62
251.231	208.62
251.465	219.62
251.698	211.62
251.931	205.62
252.164	210.62
252.397	195.62
252.63	196.62
252.863	211.62
253.096	214.62
253.329	217.62
253.562	233.62
253.795	209.62
254.028	214.62
254.261	191.62
254.494	213.62
254.727	250.62
254.96	246.62
255.193	255.62
255.426	219.62
255.659	221.62
255.892	227.62
256.124	252.62
256.357	223.62
256.59	216.62
256.823	224.62
257.056	204.62
257.289	213.62
257.521	208.62
257.754	187.62
257.987	231.62
258.22	203.62
258.452	203.62
258.685	210.62
258.918	193.62
259.151	212.62
259.383	205.62
259.616	235.62
259.849	216.62
260.081	239.62
260.314	232.62
260.547	262.62
260.779	248.62
261.012	245.62
261.244	231.62
261.477	237.62
261.71	225.62
261.942	239.62
262.175	231.62
262.407	227.62
262.64	247.62
262.872	221.62
263.105	224.62
263.337	211.62
263.57	200.62
263.802	215.62
264.035	206.62
264.267	219.62
264.499	206.62
264.732	217.62
264.964	213.62
265.197	219.62
265.429	219.62
265.661	215.62
265.894	231.62
266.126	209.62
266.358	215.62
266.591	206.62
266.823	229.62
267.055	235.62
267.287	232.62
267.52	205.62
267.752	217.62
267.984	199.62
268.216	218.62
268.448	243.62
268.681	219.62
268.913	243.62
269.145	277.62
269.377	269.62
269.609	285.62
269.841	278.62
270.073	254.62
270.306	293.62
270.538	311.62
270.77	335.62
271.002	311.62
271.234	296.62
271.466	285.62
271.698	300.62
271.93	302.62
272.162	320.62
272.394	300.62
272.626	306.62
272.858	292.62
273.09	281.62
273.322	278.62
273.553	261.62
273.785	267.62
274.017	281.62
274.249	263.62
274.481	279.62
274.713	254.62
274.945	271.62
275.176	266.62
275.408	250.62
275.64	232.62
275.872	273.62
276.104	271.62
276.335	264.62
276.567	264.62
276.799	285.62
277.031	316.62
277.262	299.62
277.494	293.62
277.726	307.62
277.957	297.62
278.189	277.62
278.421	273.62
278.652	286.62
278.884	267.62
279.115	271.62
279.347	268.62
279.579	255.62
279.81	253.62
280.042	253.62
280.273	261.62
280.505	292.62
280.736	271.62
280.968	270.62
281.199	267.62
281.431	237.62
281.662	270.62
281.894	270.62
282.125	272.62
282.356	283.62
282.588	301.62
282.819	299.62
283.051	290.62
283.282	273.62
283.513	270.62
283.745	271.62
283.976	283.62
284.207	280.62
284.439	283.62
284.67	263.62
284.901	276.62
285.132	295.62
285.364	278.62
285.595	268.62
285.826	283.62
286.057	297.62
286.288	265.62
286.52	281.62
286.751	268.62
286.982	282.62
287.213	284.62
287.444	266.62
287.675	292.62
287.906	296.62
288.138	282.62
288.369	293.62
288.6	293.62
288.831	302.62
289.062	315.62
289.293	287.62
289.524	295.62
289.755	272.62
289.986	296.62
290.217	293.62
290.448	294.62
290.679	291.62
290.91	288.62
291.141	284.62
291.371	305.62
291.602	287.62
291.833	301.62
292.064	279.62
292.295	272.62
292.526	287.62
292.757	287.62
292.987	284.62
293.218	302.62
293.449	286.62
293.68	289.62
293.91	283.62
294.141	288.62
294.372	309.62
294.603	303.62
294.833	286.62
295.064	277.62
295.295	297.62
295.525	283.62
295.756	281.62
295.987	286.62
296.217	305.62
296.448	318.62
296.679	309.62
296.909	307.62
297.14	283.62
297.37	311.62
297.601	300.62
297.831	287.62
298.062	283.62
298.292	296.62
298.523	298.62
298.753	299.62
298.984	288.62
299.214	310.62
299.445	285.62
299.675	307.62
299.905	327.62
300.136	326.62
300.366	304.62
300.597	314.62
300.827	309.62
301.057	318.62
301.288	326.62
301.518	336.62
301.748	318.62
301.979	314.62
302.209	328.62
302.439	321.62
302.669	325.62
302.9	319.62
303.13	304.62
303.36	317.62
303.59	311.62
303.82	335.62
304.051	318.62
304.281	346.62
304.511	320.62
304.741	311.62
304.971	314.62
305.201	323.62
305.431	322.62
305.661	330.62
305.891	327.62
306.121	311.62
306.352	326.62
306.582	332.62
306.812	321.62
307.042	321.62
307.272	304.62
307.502	330.62
307.731	330.62
307.961	332.62
308.191	313.62
308.421	342.62
308.651	322.62
308.881	327.62
309.111	328.62
309.341	338.62
309.571	353.62
309.8	343.62
310.03	369.62
310.26	363.62
310.49	356.62
310.72	380.62
310.949	378.62
311.179	380.62
311.409	360.62
311.639	363.62
311.868	340.62
312.098	353.62
312.328	378.62
312.557	381.62
312.787	395.62
313.017	395.62
313.246	368.62
313.476	359.62
313.706	363.62
313.935	340.62
314.165	382.62
314.394	396.62
314.624	384.62
314.853	380.62
315.083	376.62
315.312	358.62
315.542	379.62
315.771	369.62
316.001	342.62
316.23	359.62
316.46	366.62
316.689	369.62
316.919	373.62
317.148	371.62
317.377	384.62
317.607	372.62
317.836	371.62
318.065	355.62
318.295	366.62
318.524	367.62
318.753	372.62
318.983	393.62
319.212	360.62
319.441	378.62
319.67	382.62
319.9	385.62
320.129	368.62
320.358	362.62
320.587	365.62
320.816	387.62
321.046	394.62
321.275	388.62
321.504	382.62
321.733	375.62
321.962	389.62
322.191	388.62
322.42	415.62
322.649	429.62
322.878	416.62
323.108	427.62
323.337	464.62
323.566	476.62
323.795	516.62
324.024	540.62
324.253	644.62
324.482	897.62
324.71	1326.62
324.939	1817.62
325.168	1541.62
325.397	832.62
325.626	574.62
325.855	538.62
326.084	492.62
326.313	468.62
326.542	490.62
326.77	533.62
326.999	608.62
327.228	790.62
327.457	1137.62
327.686	1327.62
327.914	907.62
328.143	623.62
328.372	573.62
328.6	536.62
328.829	511.62
329.058	519.62
329.287	512.62
329.515	480.62
329.744	455.62
329.972	489.62
330.201	476.62
330.43	505.62
330.658	531.62
330.887	548.62
331.115	538.62
331.344	478.62
331.572	457.62
331.801	446.62
332.03	437.62
332.258	418.62
332.486	428.62
332.715	422.62
332.943	406.62
333.172	439.62
333.4	445.62
333.629	421.62
333.857	435.62
334.085	456.62
334.314	463.62
334.542	477.62
334.771	487.62
334.999	451.62
335.227	445.62
335.455	444.62
335.684	423.62
335.912	439.62
336.14	437.62
336.369	426.62
336.597	431.62
336.825	430.62
337.053	427.62
337.281	413.62
337.51	407.62
337.738	407.62
337.966	429.62
338.194	439.62
338.422	424.62
338.65	406.62
338.878	402.62
339.106	406.62
339.334	414.62
339.562	389.62
339.79	412.62
340.018	404.62
340.246	410.62
340.474	412.62
340.702	388.62
340.93	395.62
341.158	411.62
341.386	415.62
341.614	406.62
341.842	367.62
342.07	425.62
342.298	393.62
342.526	399.62
342.754	408.62
342.981	385.62
343.209	368.62
343.437	393.62
343.665	410.62
343.893	393.62
344.12	411.62
344.348	409.62
344.576	432.62
344.804	405.62
345.031	420.62
345.259	418.62
345.487	401.62
345.714	387.62
345.942	395.62
346.17	397.62
346.397	403.62
346.625	399.62
346.853	391.62
347.08	381.62
347.308	378.62
347.535	393.62
347.763	401.62
347.99	385.62
348.218	400.62
348.445	390.62
348.673	391.62
348.9	391.62
349.128	390.62
349.355	360.62
349.583	364.62
349.81	345.62
350.037	383.62
350.265	385.62
350.492	384.62
350.72	373.62
350.947	385.62
351.174	376.62
351.402	391.62
351.629	391.62
351.856	400.62
352.083	380.62
352.311	389.62
352.538	380.62
352.765	390.62
352.992	382.62
353.22	384.62
353.447	396.62
353.674	367.62
353.901	391.62
354.128	356.62
354.355	368.62
354.583	365.62
354.81	353.62
355.037	360.62
355.264	349.62
355.491	342.62
355.718	356.62
355.945	339.62
356.172	357.62
356.399	367.62
356.626	347.62
356.853	373.62
357.08	362.62
357.307	352.62
357.534	356.62
357.761	364.62
357.988	340.62
358.215	356.62
358.441	362.62
358.668	355.62
358.895	354.62
359.122	332.62
359.349	372.62
359.576	375.62
359.802	373.62
360.029	381.62
360.256	413.62
360.483	411.62
360.709	379.62
360.936	359.62
361.163	390.62
361.39	398.62
361.616	356.62
361.843	355.62
362.07	384.62
362.296	366.62
362.523	384.62
362.749	375.62
362.976	377.62
363.203	368.62
363.429	348.62
363.656	355.62
363.882	346.62
364.109	336.62
364.335	359.62
364.562	373.62
364.788	359.62
365.015	354.62
365.241	363.62
365.468	371.62
365.694	358.62
365.92	365.62
366.147	382.62
366.373	354.62
366.599	369.62
366.826	341.62
367.052	349.62
367.278	369.62
367.505	340.62
367.731	336.62
367.957	363.62
368.184	352.62
368.41	364.62
368.636	368.62
368.862	362.62
369.089	375.62
369.315	362.62
369.541	363.62
369.767	359.62
369.993	352.62
370.219	346.62
370.445	341.62
370.672	347.62
370.898	350.62
371.124	354.62
371.35	367.62
371.576	351.62
371.802	349.62
372.028	359.62
372.254	335.62
372.48	343.62
372.706	350.62
372.932	360.62
373.158	355.62
373.384	368.62
373.61	354.62
373.835	371.62
374.061	366.62
374.287	343.62
374.513	343.62
374.739	359.62
374.965	351.62
375.191	356.62
375.416	359.62
375.642	374.62
375.868	348.62
376.094	349.62
376.319	348.62
376.545	348.62
376.771	346.62
376.997	346.62
377.222	363.62
377.448	359.62
377.674	329.62
377.899	355.62
378.125	349.62
378.35	337.62
378.576	326.62
378.802	319.62
379.027	352.62
379.253	341.62
379.478	347.62
379.704	328.62
379.929	334.62
380.155	345.62
380.38	323.62
380.606	357.62
380.831	360.62
381.057	337.62
381.282	358.62
381.507	359.62
381.733	336.62
381.958	338.62
382.184	337.62
382.409	361.62
382.634	352.62
382.86	359.62
383.085	359.62
383.31	348.62
383.535	361.62
383.761	365.62
383.986	360.62
384.211	377.62
384.436	364.62
384.662	357.62
384.887	348.62
385.112	372.62
385.337	378.62
385.562	364.62
385.787	355.62
386.013	379.62
386.238	377.62
386.463	375.62
386.688	376.62
386.913	379.62
387.138	378.62
387.363	356.62
387.588	349.62
387.813	361.62
388.038	367.62
388.263	359.62
388.488	368.62
388.713	381.62
388.938	375.62
389.163	359.62
389.387	374.62
389.612	353.62
389.837	375.62
390.062	372.62
390.287	360.62
390.512	382.62
390.736	360.62
390.961	368.62
391.186	380.62
391.411	375.62
391.636	352.62
391.86	363.62
392.085	373.62
392.31	373.62
392.534	364.62
392.759	345.62
392.984	364.62
393.208	395.62
393.433	383.62
393.658	374.62
393.882	357.62
394.107	362.62
394.331	364.62
394.556	383.62
394.78	367.62
395.005	352.62
395.229	369.62
395.454	348.62
395.678	392.62
395.903	387.62
396.127	402.62
396.352	388.62
396.576	384.62
396.801	382.62
397.025	382.62
397.249	387.62
397.474	380.62
397.698	377.62
397.922	389.62
398.147	395.62
398.371	411.62
398.595	394.62
398.82	394.62
399.044	398.62
399.268	416.62
399.492	431.62
399.717	468.62
399.941	452.62
400.165	506.62
400.389	484.62
400.613	469.62
400.837	432.62
401.062	418.62
401.286	413.62
401.51	412.62
401.734	409.62
401.958	429.62
402.182	393.62
402.406	413.62
402.63	397.62
402.854	407.62
403.078	416.62
403.302	427.62
403.526	399.62
403.75	404.62
403.974	422.62
404.198	427.62
404.422	413.62
404.645	427.62
404.869	428.62
405.093	438.62
405.317	476.62
405.541	487.62
405.765	454.62
405.988	454.62
406.212	444.62
406.436	457.62
406.66	460.62
406.883	448.62
407.107	472.62
407.331	477.62
407.555	551.62
407.778	543.62
408.002	522.62
408.226	465.62
408.449	458.62
408.673	470.62
408.896	454.62
409.12	500.62
409.344	471.62
409.567	428.62
409.791	434.62
410.014	416.62
410.238	401.62
410.461	411.62
410.685	414.62
410.908	425.62
411.132	447.62
411.355	483.62
411.578	477.62
411.802	457.62
412.025	421.62
412.249	417.62
412.472	439.62
412.695	457.62
412.919	431.62
413.142	414.62
413.365	401.62
413.589	409.62
413.812	405.62
414.035	399.62
414.258	374.62
414.482	389.62
414.705	392.62
414.928	406.62
415.151	402.62
415.374	389.62
415.597	401.62
415.821	379.62
416.044	390.62
416.267	409.62
416.49	383.62
416.713	387.62
416.936	396.62
417.159	388.62
417.382	392.62
417.605	403.62
417.828	380.62
418.051	416.62
418.274	398.62
418.497	395.62
418.72	396.62
418.943	375.62
419.166	405.62
419.389	408.62
419.611	397.62
419.834	408.62
420.057	437.62
420.28	407.62
420.503	408.62
420.726	408.62
420.948	415.62
421.171	445.62
421.394	455.62
421.617	423.62
421.839	398.62
422.062	416.62
422.285	449.62
422.507	488.62
422.73	534.62
422.953	507.62
423.175	437.62
423.398	441.62
423.621	422.62
423.843	441.62
424.066	445.62
424.288	435.62
424.511	430.62
424.733	466.62
424.956	563.62
425.178	557.62
425.401	541.62
425.623	519.62
425.846	454.62
426.068	447.62
426.291	443.62
426.513	438.62
426.735	449.62
426.958	490.62
427.18	521.62
427.402	635.62
427.625	684.62
427.847	598.62
428.069	525.62
428.292	453.62
428.514	443.62
428.736	438.62
428.958	425.62
429.181	428.62
429.403	402.62
429.625	414.62
429.847	436.62
430.069	500.62
430.292	475.62
430.514	402.62
430.736	425.62
430.958	401.62
431.18	381.62
431.402	360.62
431.624	383.62
431.846	359.62
432.068	379.62
432.29	383.62
432.512	385.62
432.734	399.62
432.956	395.62
433.178	389.62
433.4	395.62
433.622	400.62
433.844	384.62
434.066	389.62
434.287	386.62
434.509	375.62
434.731	390.62
434.953	391.62
435.175	406.62
435.397	407.62
435.618	431.62
435.84	480.62
436.062	544.62
436.284	595.62
436.505	476.62
436.727	442.62
436.949	421.62
437.17	402.62
437.392	390.62
437.614	411.62
437.835	445.62
438.057	489.62
438.278	608.62
438.5	581.62
438.721	620.62
438.943	608.62
439.165	496.62
439.386	471.62
439.608	451.62
439.829	464.62
440.05	460.62
440.272	466.62
440.493	457.62
440.715	406.62
440.936	407.62
441.158	420.62
441.379	411.62
441.6	432.62
441.822	414.62
442.043	460.62
442.264	551.62
442.486	541.62
442.707	473.62
442.928	446.62
443.149	436.62
443.371	461.62
443.592	508.62
443.813	590.62
444.034	603.62
444.255	517.62
444.476	446.62
444.698	455.62
444.919	443.62
445.14	567.62
445.361	491.62
445.582	482.62
445.803	516.62
446.024	590.62
446.245	613.62
446.466	565.62
446.687	475.62
446.908	447.62
447.129	436.62
447.35	411.62
447.571	391.62
447.792	395.62
448.013	394.62
448.234	448.62
448.455	457.62
448.675	530.62
448.896	636.62
449.117	542.62
449.338	494.62
449.559	602.62
449.779	615.62
450	549.62
450.221	430.62
450.442	425.62
450.662	398.62
450.883	378.62
451.104	408.62
451.324	389.62
451.545	377.62
451.766	380.62
451.986	384.62
452.207	359.62
452.428	345.62
452.648	355.62
452.869	360.62
453.089	367.62
453.31	371.62
453.53	356.62
453.751	377.62
453.971	353.62
454.192	365.62
454.412	360.62
454.633	363.62
454.853	350.62
455.073	358.62
455.294	384.62
455.514	439.62
455.734	415.62
455.955	374.62
456.175	325.62
456.395	343.62
456.616	340.62
456.836	341.62
457.056	350.62
457.276	347.62
457.497	343.62
457.717	343.62
457.937	355.62
458.157	362.62
458.377	371.62
458.598	377.62
458.818	427.62
459.038	461.62
459.258	480.62
459.478	413.62
459.698	383.62
459.918	391.62
460.138	381.62
460.358	379.62
460.578	376.62
460.798	371.62
461.018	389.62
461.238	375.62
461.458	366.62
461.678	376.62
461.898	393.62
462.118	390.62
462.338	384.62
462.558	375.62
462.777	380.62
462.997	416.62
463.217	414.62
463.437	427.62
463.657	405.62
463.876	391.62
464.096	396.62
464.316	389.62
464.536	400.62
464.755	396.62
464.975	405.62
465.195	439.62
465.414	479.62
465.634	424.62
465.854	402.62
466.073	365.62
466.293	360.62
466.512	379.62
466.732	371.62
466.951	364.62
467.171	355.62
467.391	352.62
467.61	364.62
467.829	360.62
468.049	379.62
468.268	375.62
468.488	360.62
468.707	368.62
468.927	360.62
469.146	368.62
469.365	351.62
469.585	356.62
469.804	364.62
470.023	392.62
470.243	383.62
470.462	377.62
470.681	401.62
470.901	387.62
471.12	380.62
471.339	365.62
471.558	366.62
471.777	379.62
471.997	379.62
472.216	372.62
472.435	385.62
472.654	407.62
472.873	375.62
473.092	363.62
473.311	383.62
473.53	386.62
473.749	376.62
473.968	432.62
474.187	527.62
474.406	503.62
474.625	411.62
474.844	388.62
475.063	387.62
475.282	380.62
475.501	354.62
475.72	353.62
475.939	370.62
476.158	385.62
476.377	391.62
476.596	379.62
476.814	384.62
477.033	382.62
477.252	396.62
477.471	388.62
477.69	388.62
477.908	411.62
478.127	403.62
478.346	405.62
478.564	405.62
478.783	397.62
479.002	417.62
479.22	412.62
479.439	432.62
479.658	437.62
479.876	414.62
480.095	458.62
480.313	463.62
480.532	454.62
480.751	453.62
480.969	463.62
481.188	500.62
481.406	490.62
481.624	456.62
481.843	440.62
482.061	461.62
482.28	444.62
482.498	421.62
482.717	417.62
482.935	425.62
483.153	428.62
483.372	439.62
483.59	449.62
483.808	420.62
484.027	428.62
484.245	439.62
484.463	441.62
484.681	442.62
484.9	454.62
485.118	436.62
485.336	446.62
485.554	438.62
485.772	416.62
485.99	445.62
486.209	441.62
486.427	442.62
486.645	440.62
486.863	454.62
487.081	473.62
487.299	453.62
487.517	451.62
487.735	459.62
487.953	486.62
488.171	453.62
488.389	459.62
488.607	452.62
488.825	456.62
489.043	463.62
489.261	453.62
489.479	478.62
489.696	478.62
489.914	469.62
490.132	482.62
490.35	486.62
490.568	478.62
490.786	497.62
491.003	484.62
491.221	509.62
491.439	525.62
491.657	505.62
491.874	527.62
492.092	533.62
492.31	538.62
492.527	525.62
492.745	539.62
492.963	536.62
493.18	547.62
493.398	539.62
493.615	536.62
493.833	551.62
494.05	551.62
494.268	561.62
494.485	530.62
494.703	533.62
494.92	528.62
495.138	530.62
495.355	558.62
495.573	532.62
495.79	563.62
496.008	540.62
496.225	525.62
496.442	543.62
496.66	570.62
496.877	563.62
497.094	553.62
497.312	541.62
497.529	553.62
497.746	575.62
497.963	567.62
498.181	597.62
498.398	599.62
498.615	592.62
498.832	589.62
499.049	596.62
499.267	624.62
499.484	640.62
499.701	670.62
499.918	656.62
500.135	708.62
500.352	706.62
500.569	728.62
500.786	730.62
501.003	733.62
501.22	724.62
501.437	672.62
501.654	664.62
501.871	634.62
502.088	640.62
