Data from 1971.PennyLincolnUp.Lamp.En5.5.200Scan.071719.P1._HRD10591_15-20-24-841.txt Node
Date: Thu Jul 18 15:20:24 EDT 2019
User: cochatt
Spectrometer: HR+D1059
Trigger mode: 1
Integration Time (sec): 1.000000E-1
Scans to average: 1
Electric dark correction enabled: true
Nonlinearity correction enabled: false
Boxcar width: 0
XAxis mode: Wavelengths
Number of Pixels in Spectrum: 2048
>>>>>Begin Spectral Data<<<<<
223.165	-19.88
223.4	-19.88
223.635	-19.88
223.869	-25.88
224.104	-14.88
224.338	-24.88
224.573	-9.88
224.808	-10.88
225.042	-10.88
225.277	-5.88
225.511	4.12
225.746	-2.88
225.98	11.12
226.215	24.12
226.449	11.12
226.683	15.12
226.918	22.12
227.152	38.12
227.387	54.12
227.621	26.12
227.856	35.12
228.09	43.12
228.324	60.12
228.559	60.12
228.793	57.12
229.027	89.12
229.262	94.12
229.496	117.12
229.73	123.12
229.964	138.12
230.199	106.12
230.433	108.12
230.667	124.12
230.901	123.12
231.136	97.12
231.37	115.12
231.604	108.12
231.838	119.12
232.072	107.12
232.306	105.12
232.541	128.12
232.775	108.12
233.009	97.12
233.243	117.12
233.477	107.12
233.711	122.12
233.945	129.12
234.179	115.12
234.413	109.12
234.647	124.12
234.881	100.12
235.115	105.12
235.349	118.12
235.583	105.12
235.817	106.12
236.051	115.12
236.285	131.12
236.519	108.12
236.753	123.12
236.987	158.12
237.221	174.12
237.455	212.12
237.689	177.12
237.922	146.12
238.156	143.12
238.39	131.12
238.624	127.12
238.858	122.12
239.091	122.12
239.325	130.12
239.559	125.12
239.793	115.12
240.027	136.12
240.26	121.12
240.494	149.12
240.728	138.12
240.961	140.12
241.195	143.12
241.429	136.12
241.662	125.12
241.896	134.12
242.13	113.12
242.363	129.12
242.597	128.12
242.83	152.12
243.064	136.12
243.298	145.12
243.531	144.12
243.765	149.12
243.998	138.12
244.232	137.12
244.465	147.12
244.699	141.12
244.932	147.12
245.166	156.12
245.399	132.12
245.633	154.12
245.866	135.12
246.099	154.12
246.333	140.12
246.566	152.12
246.8	145.12
247.033	150.12
247.266	141.12
247.5	161.12
247.733	171.12
247.966	171.12
248.2	160.12
248.433	158.12
248.666	195.12
248.899	195.12
249.133	209.12
249.366	216.12
249.599	190.12
249.832	180.12
250.066	185.12
250.299	188.12
250.532	193.12
250.765	219.12
250.998	230.12
251.231	220.12
251.465	201.12
251.698	201.12
251.931	182.12
252.164	209.12
252.397	199.12
252.63	195.12
252.863	221.12
253.096	219.12
253.329	213.12
253.562	245.12
253.795	231.12
254.028	211.12
254.261	227.12
254.494	228.12
254.727	259.12
254.96	272.12
255.193	283.12
255.426	259.12
255.659	236.12
255.892	226.12
256.124	226.12
256.357	234.12
256.59	223.12
256.823	228.12
257.056	233.12
257.289	230.12
257.521	228.12
257.754	215.12
257.987	211.12
258.22	205.12
258.452	227.12
258.685	214.12
258.918	219.12
259.151	214.12
259.383	213.12
259.616	227.12
259.849	233.12
260.081	244.12
260.314	263.12
260.547	274.12
260.779	250.12
261.012	239.12
261.244	247.12
261.477	238.12
261.71	230.12
261.942	232.12
262.175	233.12
262.407	225.12
262.64	221.12
262.872	220.12
263.105	213.12
263.337	210.12
263.57	225.12
263.802	212.12
264.035	219.12
264.267	201.12
264.499	205.12
264.732	204.12
264.964	230.12
265.197	218.12
265.429	218.12
265.661	217.12
265.894	219.12
266.126	232.12
266.358	217.12
266.591	235.12
266.823	235.12
267.055	221.12
267.287	229.12
267.52	228.12
267.752	228.12
267.984	217.12
268.216	227.12
268.448	229.12
268.681	234.12
268.913	236.12
269.145	265.12
269.377	266.12
269.609	261.12
269.841	270.12
270.073	275.12
270.306	299.12
270.538	315.12
270.77	316.12
271.002	310.12
271.234	305.12
271.466	302.12
271.698	319.12
271.93	311.12
272.162	326.12
272.394	310.12
272.626	312.12
272.858	308.12
273.09	297.12
273.322	296.12
273.553	270.12
273.785	271.12
274.017	265.12
274.249	276.12
274.481	277.12
274.713	270.12
274.945	271.12
275.176	260.12
275.408	267.12
275.64	275.12
275.872	286.12
276.104	284.12
276.335	298.12
276.567	267.12
276.799	291.12
277.031	305.12
277.262	345.12
277.494	333.12
277.726	317.12
277.957	294.12
278.189	279.12
278.421	277.12
278.652	278.12
278.884	274.12
279.115	274.12
279.347	266.12
279.579	275.12
279.81	272.12
280.042	274.12
280.273	282.12
280.505	281.12
280.736	287.12
280.968	276.12
281.199	261.12
281.431	281.12
281.662	274.12
281.894	263.12
282.125	274.12
282.356	283.12
282.588	313.12
282.819	307.12
283.051	280.12
283.282	276.12
283.513	293.12
283.745	294.12
283.976	289.12
284.207	291.12
284.439	290.12
284.67	281.12
284.901	290.12
285.132	297.12
285.364	301.12
285.595	278.12
285.826	294.12
286.057	291.12
286.288	286.12
286.52	293.12
286.751	298.12
286.982	284.12
287.213	279.12
287.444	298.12
287.675	298.12
287.906	291.12
288.138	311.12
288.369	281.12
288.6	309.12
288.831	319.12
289.062	298.12
289.293	302.12
289.524	301.12
289.755	298.12
289.986	291.12
290.217	287.12
290.448	305.12
290.679	300.12
290.91	310.12
291.141	292.12
291.371	283.12
291.602	291.12
291.833	297.12
292.064	296.12
292.295	285.12
292.526	290.12
292.757	293.12
292.987	297.12
293.218	297.12
293.449	301.12
293.68	296.12
293.91	292.12
294.141	287.12
294.372	299.12
294.603	308.12
294.833	308.12
295.064	272.12
295.295	298.12
295.525	282.12
295.756	299.12
295.987	313.12
296.217	307.12
296.448	340.12
296.679	287.12
296.909	309.12
297.14	289.12
297.37	311.12
297.601	305.12
297.831	292.12
298.062	286.12
298.292	316.12
298.523	302.12
298.753	321.12
298.984	308.12
299.214	306.12
299.445	310.12
299.675	305.12
299.905	326.12
300.136	309.12
300.366	305.12
300.597	329.12
300.827	308.12
301.057	327.12
301.288	333.12
301.518	349.12
301.748	323.12
301.979	328.12
302.209	311.12
302.439	305.12
302.669	333.12
302.9	318.12
303.13	317.12
303.36	350.12
303.59	337.12
303.82	330.12
304.051	338.12
304.281	332.12
304.511	313.12
304.741	327.12
304.971	328.12
305.201	335.12
305.431	333.12
305.661	326.12
305.891	321.12
306.121	329.12
306.352	339.12
306.582	347.12
306.812	331.12
307.042	342.12
307.272	344.12
307.502	341.12
307.731	337.12
307.961	333.12
308.191	327.12
308.421	345.12
308.651	341.12
308.881	332.12
309.111	353.12
309.341	374.12
309.571	347.12
309.8	348.12
310.03	364.12
310.26	382.12
310.49	371.12
310.72	396.12
310.949	396.12
311.179	389.12
311.409	390.12
311.639	387.12
311.868	373.12
312.098	405.12
312.328	393.12
312.557	399.12
312.787	394.12
313.017	394.12
313.246	377.12
313.476	376.12
313.706	385.12
313.935	387.12
314.165	389.12
314.394	397.12
314.624	402.12
314.853	399.12
315.083	379.12
315.312	371.12
315.542	389.12
315.771	381.12
316.001	367.12
316.23	364.12
316.46	384.12
316.689	370.12
316.919	385.12
317.148	405.12
317.377	393.12
317.607	396.12
317.836	365.12
318.065	361.12
318.295	393.12
318.524	388.12
318.753	369.12
318.983	372.12
319.212	399.12
319.441	401.12
319.67	396.12
319.9	385.12
320.129	382.12
320.358	382.12
320.587	393.12
320.816	393.12
321.046	397.12
321.275	388.12
321.504	415.12
321.733	413.12
321.962	411.12
322.191	411.12
322.42	462.12
322.649	445.12
322.878	452.12
323.108	459.12
323.337	488.12
323.566	484.12
323.795	532.12
324.024	586.12
324.253	699.12
324.482	996.12
324.71	1462.12
324.939	1994.12
325.168	1695.12
325.397	925.12
325.626	639.12
325.855	548.12
326.084	488.12
326.313	501.12
326.542	499.12
326.77	536.12
326.999	653.12
327.228	901.12
327.457	1274.12
327.686	1502.12
327.914	1011.12
328.143	705.12
328.372	633.12
328.6	580.12
328.829	552.12
329.058	574.12
329.287	559.12
329.515	561.12
329.744	497.12
329.972	504.12
330.201	531.12
330.43	550.12
330.658	573.12
330.887	592.12
331.115	577.12
331.344	519.12
331.572	513.12
331.801	488.12
332.03	482.12
332.258	443.12
332.486	434.12
332.715	454.12
332.943	461.12
333.172	472.12
333.4	442.12
333.629	471.12
333.857	455.12
334.085	464.12
334.314	485.12
334.542	479.12
334.771	500.12
334.999	481.12
335.227	441.12
335.455	450.12
335.684	440.12
335.912	441.12
336.14	446.12
336.369	428.12
336.597	426.12
336.825	441.12
337.053	421.12
337.281	414.12
337.51	449.12
337.738	455.12
337.966	425.12
338.194	420.12
338.422	429.12
338.65	408.12
338.878	430.12
339.106	407.12
339.334	421.12
339.562	411.12
339.79	403.12
340.018	405.12
340.246	421.12
340.474	411.12
340.702	435.12
340.93	422.12
341.158	416.12
341.386	420.12
341.614	406.12
341.842	427.12
342.07	407.12
342.298	406.12
342.526	387.12
342.754	405.12
342.981	398.12
343.209	389.12
343.437	412.12
343.665	403.12
343.893	408.12
344.12	417.12
344.348	424.12
344.576	414.12
344.804	426.12
345.031	419.12
345.259	421.12
345.487	442.12
345.714	406.12
345.942	421.12
346.17	412.12
346.397	400.12
346.625	411.12
346.853	411.12
347.08	414.12
347.308	405.12
347.535	412.12
347.763	391.12
347.99	409.12
348.218	394.12
348.445	409.12
348.673	409.12
348.9	415.12
349.128	393.12
349.355	410.12
349.583	380.12
349.81	380.12
350.037	388.12
350.265	387.12
350.492	395.12
350.72	380.12
350.947	386.12
351.174	401.12
351.402	409.12
351.629	403.12
351.856	402.12
352.083	378.12
352.311	407.12
352.538	414.12
352.765	412.12
352.992	406.12
353.22	392.12
353.447	393.12
353.674	379.12
353.901	382.12
354.128	373.12
354.355	381.12
354.583	390.12
354.81	381.12
355.037	378.12
355.264	355.12
355.491	373.12
355.718	358.12
355.945	336.12
356.172	357.12
356.399	350.12
356.626	350.12
356.853	353.12
357.08	356.12
357.307	358.12
357.534	352.12
357.761	375.12
357.988	371.12
358.215	357.12
358.441	359.12
358.668	342.12
358.895	375.12
359.122	374.12
359.349	358.12
359.576	395.12
359.802	411.12
360.029	441.12
360.256	413.12
360.483	403.12
360.709	390.12
360.936	378.12
361.163	380.12
361.39	403.12
361.616	381.12
361.843	385.12
362.07	381.12
362.296	377.12
362.523	369.12
362.749	375.12
362.976	366.12
363.203	361.12
363.429	363.12
363.656	378.12
363.882	374.12
364.109	371.12
364.335	351.12
364.562	364.12
364.788	350.12
365.015	373.12
365.241	355.12
365.468	373.12
365.694	371.12
365.92	373.12
366.147	377.12
366.373	342.12
366.599	366.12
366.826	346.12
367.052	359.12
367.278	351.12
367.505	364.12
367.731	351.12
367.957	350.12
368.184	377.12
368.41	359.12
368.636	381.12
368.862	407.12
369.089	357.12
369.315	379.12
369.541	357.12
369.767	365.12
369.993	363.12
370.219	353.12
370.445	358.12
370.672	362.12
370.898	356.12
371.124	346.12
371.35	371.12
371.576	356.12
371.802	361.12
372.028	376.12
372.254	360.12
372.48	359.12
372.706	334.12
372.932	356.12
373.158	353.12
373.384	377.12
373.61	345.12
373.835	340.12
374.061	362.12
374.287	358.12
374.513	346.12
374.739	359.12
374.965	359.12
375.191	374.12
375.416	357.12
375.642	362.12
375.868	358.12
376.094	361.12
376.319	342.12
376.545	345.12
376.771	355.12
376.997	346.12
377.222	358.12
377.448	336.12
377.674	339.12
377.899	341.12
378.125	343.12
378.35	361.12
378.576	343.12
378.802	340.12
379.027	336.12
379.253	350.12
379.478	351.12
379.704	348.12
379.929	332.12
380.155	351.12
380.38	350.12
380.606	341.12
380.831	349.12
381.057	348.12
381.282	360.12
381.507	354.12
381.733	361.12
381.958	352.12
382.184	353.12
382.409	362.12
382.634	352.12
382.86	359.12
383.085	356.12
383.31	351.12
383.535	353.12
383.761	356.12
383.986	362.12
384.211	342.12
384.436	366.12
384.662	366.12
384.887	379.12
385.112	373.12
385.337	374.12
385.562	374.12
385.787	358.12
386.013	396.12
386.238	379.12
386.463	369.12
386.688	381.12
386.913	366.12
387.138	354.12
387.363	354.12
387.588	381.12
387.813	379.12
388.038	385.12
388.263	377.12
388.488	365.12
388.713	381.12
388.938	383.12
389.163	379.12
389.387	367.12
389.612	359.12
389.837	355.12
390.062	360.12
390.287	357.12
390.512	353.12
390.736	365.12
390.961	373.12
391.186	357.12
391.411	371.12
391.636	377.12
391.86	369.12
392.085	363.12
392.31	355.12
392.534	361.12
392.759	376.12
392.984	375.12
393.208	361.12
393.433	368.12
393.658	376.12
393.882	366.12
394.107	373.12
394.331	371.12
394.556	361.12
394.78	391.12
395.005	363.12
395.229	385.12
395.454	375.12
395.678	386.12
395.903	378.12
396.127	400.12
396.352	411.12
396.576	412.12
396.801	379.12
397.025	381.12
397.249	366.12
397.474	357.12
397.698	382.12
397.922	399.12
398.147	411.12
398.371	396.12
398.595	382.12
398.82	420.12
399.044	439.12
399.268	433.12
399.492	423.12
399.717	448.12
399.941	481.12
400.165	506.12
400.389	504.12
400.613	464.12
400.837	424.12
401.062	429.12
401.286	406.12
401.51	416.12
401.734	420.12
401.958	430.12
402.182	398.12
402.406	415.12
402.63	419.12
402.854	411.12
403.078	393.12
403.302	420.12
403.526	418.12
403.75	428.12
403.974	411.12
404.198	424.12
404.422	421.12
404.645	426.12
404.869	442.12
405.093	459.12
405.317	479.12
405.541	513.12
405.765	481.12
405.988	443.12
406.212	447.12
406.436	468.12
406.66	447.12
406.883	473.12
407.107	470.12
407.331	498.12
407.555	561.12
407.778	549.12
408.002	512.12
408.226	483.12
408.449	473.12
408.673	459.12
408.896	487.12
409.12	526.12
409.344	458.12
409.567	445.12
409.791	426.12
410.014	416.12
410.238	419.12
410.461	424.12
410.685	450.12
410.908	429.12
411.132	465.12
411.355	526.12
411.578	463.12
411.802	413.12
412.025	428.12
412.249	420.12
412.472	444.12
412.695	474.12
412.919	458.12
413.142	420.12
413.365	425.12
413.589	416.12
413.812	413.12
414.035	384.12
414.258	396.12
414.482	369.12
414.705	399.12
414.928	400.12
415.151	393.12
415.374	382.12
415.597	387.12
415.821	389.12
416.044	409.12
416.267	400.12
416.49	403.12
416.713	383.12
416.936	381.12
417.159	388.12
417.382	401.12
417.605	411.12
417.828	404.12
418.051	434.12
418.274	406.12
418.497	407.12
418.72	406.12
418.943	409.12
419.166	390.12
419.389	437.12
419.611	411.12
419.834	413.12
420.057	429.12
420.28	396.12
420.503	438.12
420.726	421.12
420.948	418.12
421.171	455.12
421.394	485.12
421.617	429.12
421.839	426.12
422.062	426.12
422.285	450.12
422.507	479.12
422.73	536.12
422.953	481.12
423.175	467.12
423.398	448.12
423.621	421.12
423.843	440.12
424.066	461.12
424.288	456.12
424.511	460.12
424.733	521.12
424.956	571.12
425.178	553.12
425.401	544.12
425.623	562.12
425.846	494.12
426.068	443.12
426.291	452.12
426.513	451.12
426.735	464.12
426.958	495.12
427.18	553.12
427.402	638.12
427.625	707.12
427.847	636.12
428.069	562.12
428.292	521.12
428.514	444.12
428.736	422.12
428.958	430.12
429.181	434.12
429.403	429.12
429.625	406.12
429.847	458.12
430.069	510.12
430.292	494.12
430.514	448.12
430.736	412.12
430.958	407.12
431.18	393.12
431.402	399.12
431.624	381.12
431.846	379.12
432.068	397.12
432.29	378.12
432.512	391.12
432.734	391.12
432.956	399.12
433.178	394.12
433.4	380.12
433.622	409.12
433.844	379.12
434.066	376.12
434.287	387.12
434.509	411.12
434.731	382.12
434.953	399.12
435.175	419.12
435.397	440.12
435.618	446.12
435.84	505.12
436.062	540.12
436.284	591.12
436.505	484.12
436.727	455.12
436.949	438.12
437.17	419.12
437.392	410.12
437.614	444.12
437.835	480.12
438.057	545.12
438.278	606.12
438.5	629.12
438.721	665.12
438.943	628.12
439.165	509.12
439.386	462.12
439.608	454.12
439.829	466.12
440.05	496.12
440.272	499.12
440.493	482.12
440.715	439.12
440.936	433.12
441.158	425.12
441.379	413.12
441.6	437.12
441.822	430.12
442.043	473.12
442.264	565.12
442.486	574.12
442.707	492.12
442.928	465.12
443.149	477.12
443.371	478.12
443.592	517.12
443.813	585.12
444.034	627.12
444.255	537.12
444.476	477.12
444.698	476.12
444.919	439.12
445.14	540.12
445.361	513.12
445.582	491.12
445.803	533.12
446.024	617.12
446.245	603.12
446.466	570.12
446.687	502.12
446.908	445.12
447.129	412.12
447.35	419.12
447.571	423.12
447.792	406.12
448.013	446.12
448.234	453.12
448.455	447.12
448.675	573.12
448.896	627.12
449.117	562.12
449.338	539.12
449.559	630.12
449.779	675.12
450	538.12
450.221	461.12
450.442	411.12
450.662	396.12
450.883	413.12
451.104	418.12
451.324	413.12
451.545	406.12
451.766	385.12
451.986	359.12
452.207	345.12
452.428	375.12
452.648	387.12
452.869	380.12
453.089	391.12
453.31	381.12
453.53	367.12
453.751	373.12
453.971	372.12
454.192	383.12
454.412	357.12
454.633	354.12
454.853	391.12
455.073	391.12
455.294	402.12
455.514	462.12
455.734	429.12
455.955	374.12
456.175	353.12
456.395	357.12
456.616	353.12
456.836	327.12
457.056	349.12
457.276	345.12
457.497	341.12
457.717	349.12
457.937	367.12
458.157	348.12
458.377	363.12
458.598	383.12
458.818	419.12
459.038	468.12
459.258	480.12
459.478	422.12
459.698	400.12
459.918	377.12
460.138	359.12
460.358	381.12
460.578	369.12
460.798	367.12
461.018	377.12
461.238	411.12
461.458	380.12
461.678	376.12
461.898	397.12
462.118	375.12
462.338	392.12
462.558	401.12
462.777	403.12
462.997	406.12
463.217	421.12
463.437	392.12
463.657	400.12
463.876	393.12
464.096	420.12
464.316	408.12
464.536	422.12
464.755	444.12
464.975	395.12
465.195	455.12
465.414	494.12
465.634	445.12
465.854	411.12
466.073	410.12
466.293	399.12
466.512	375.12
466.732	390.12
466.951	353.12
467.171	374.12
467.391	372.12
467.61	378.12
467.829	381.12
468.049	375.12
468.268	382.12
468.488	387.12
468.707	381.12
468.927	366.12
469.146	355.12
469.365	371.12
469.585	362.12
469.804	369.12
470.023	385.12
470.243	390.12
470.462	399.12
470.681	393.12
470.901	381.12
471.12	379.12
471.339	379.12
471.558	380.12
471.777	376.12
471.997	370.12
472.216	375.12
472.435	385.12
472.654	407.12
472.873	379.12
473.092	369.12
473.311	380.12
473.53	394.12
473.749	397.12
473.968	441.12
474.187	510.12
474.406	525.12
474.625	448.12
474.844	398.12
475.063	373.12
475.282	382.12
475.501	374.12
475.72	386.12
475.939	405.12
476.158	394.12
476.377	371.12
476.596	396.12
476.814	392.12
477.033	397.12
477.252	395.12
477.471	386.12
477.69	391.12
477.908	390.12
478.127	396.12
478.346	416.12
478.564	451.12
478.783	437.12
479.002	428.12
479.22	437.12
479.439	435.12
479.658	430.12
479.876	445.12
480.095	452.12
480.313	467.12
480.532	462.12
480.751	430.12
480.969	443.12
481.188	515.12
481.406	498.12
481.624	463.12
481.843	457.12
482.061	435.12
482.28	443.12
482.498	437.12
482.717	447.12
482.935	444.12
483.153	439.12
483.372	431.12
483.59	430.12
483.808	443.12
484.027	430.12
484.245	459.12
484.463	447.12
484.681	469.12
484.9	446.12
485.118	443.12
485.336	452.12
485.554	439.12
485.772	455.12
485.99	444.12
486.209	466.12
486.427	446.12
486.645	475.12
486.863	472.12
487.081	473.12
487.299	455.12
487.517	453.12
487.735	456.12
487.953	483.12
488.171	480.12
488.389	474.12
488.607	484.12
488.825	475.12
489.043	489.12
489.261	454.12
489.479	481.12
489.696	470.12
489.914	503.12
490.132	477.12
490.35	504.12
490.568	487.12
490.786	496.12
491.003	507.12
491.221	510.12
491.439	542.12
491.657	521.12
491.874	549.12
492.092	541.12
492.31	557.12
492.527	555.12
492.745	572.12
492.963	555.12
493.18	556.12
493.398	558.12
493.615	563.12
493.833	555.12
494.05	558.12
494.268	567.12
494.485	545.12
494.703	566.12
494.92	555.12
495.138	558.12
495.355	567.12
495.573	563.12
495.79	567.12
496.008	574.12
496.225	568.12
496.442	547.12
496.66	551.12
496.877	555.12
497.094	563.12
497.312	567.12
497.529	574.12
497.746	573.12
497.963	572.12
498.181	577.12
498.398	597.12
498.615	598.12
498.832	615.12
499.049	619.12
499.267	623.12
499.484	639.12
499.701	643.12
499.918	685.12
500.135	701.12
500.352	730.12
500.569	718.12
500.786	724.12
501.003	735.12
501.22	722.12
501.437	680.12
501.654	692.12
501.871	663.12
