Data from 1971.PennyLincolnUp.Lamp.En5.5.200Scan.071719.P1._HRD10591_15-19-30-841.txt Node
Date: Thu Jul 18 15:19:30 EDT 2019
User: cochatt
Spectrometer: HR+D1059
Trigger mode: 1
Integration Time (sec): 1.000000E-1
Scans to average: 1
Electric dark correction enabled: true
Nonlinearity correction enabled: false
Boxcar width: 0
XAxis mode: Wavelengths
Number of Pixels in Spectrum: 2048
>>>>>Begin Spectral Data<<<<<
223.165	-16.12
223.4	-16.12
223.635	-16.12
223.869	-12.12
224.104	-7.12
224.338	-24.12
224.573	-17.12
224.808	-13.12
225.042	-15.12
225.277	-3.12
225.511	-13.12
225.746	3.88
225.98	5.88
226.215	16.88
226.449	16.88
226.683	19.88
226.918	26.88
227.152	30.88
227.387	33.88
227.621	26.88
227.856	44.88
228.09	33.88
228.324	43.88
228.559	54.88
228.793	60.88
229.027	93.88
229.262	90.88
229.496	107.88
229.73	112.88
229.964	146.88
230.199	119.88
230.433	111.88
230.667	113.88
230.901	108.88
231.136	112.88
231.37	103.88
231.604	103.88
231.838	112.88
232.072	100.88
232.306	114.88
232.541	106.88
232.775	108.88
233.009	109.88
233.243	107.88
233.477	111.88
233.711	110.88
233.945	103.88
234.179	101.88
234.413	118.88
234.647	108.88
234.881	121.88
235.115	98.88
235.349	119.88
235.583	104.88
235.817	110.88
236.051	122.88
236.285	135.88
236.519	124.88
236.753	122.88
236.987	129.88
237.221	167.88
237.455	216.88
237.689	172.88
237.922	132.88
238.156	125.88
238.39	132.88
238.624	144.88
238.858	129.88
239.091	140.88
239.325	112.88
239.559	114.88
239.793	135.88
240.027	130.88
240.26	130.88
240.494	139.88
240.728	147.88
240.961	139.88
241.195	141.88
241.429	123.88
241.662	142.88
241.896	139.88
242.13	128.88
242.363	140.88
242.597	138.88
242.83	144.88
243.064	128.88
243.298	138.88
243.531	128.88
243.765	127.88
243.998	123.88
244.232	134.88
244.465	143.88
244.699	136.88
244.932	152.88
245.166	139.88
245.399	128.88
245.633	145.88
245.866	131.88
246.099	133.88
246.333	148.88
246.566	151.88
246.8	140.88
247.033	144.88
247.266	155.88
247.5	156.88
247.733	160.88
247.966	174.88
248.2	165.88
248.433	165.88
248.666	186.88
248.899	185.88
249.133	198.88
249.366	203.88
249.599	199.88
249.832	192.88
250.066	186.88
250.299	187.88
250.532	184.88
250.765	202.88
250.998	229.88
251.231	232.88
251.465	221.88
251.698	213.88
251.931	200.88
252.164	211.88
252.397	174.88
252.63	200.88
252.863	206.88
253.096	204.88
253.329	216.88
253.562	221.88
253.795	239.88
254.028	214.88
254.261	228.88
254.494	236.88
254.727	245.88
254.96	280.88
255.193	272.88
255.426	241.88
255.659	223.88
255.892	235.88
256.124	246.88
256.357	239.88
256.59	224.88
256.823	216.88
257.056	213.88
257.289	212.88
257.521	211.88
257.754	215.88
257.987	205.88
258.22	221.88
258.452	221.88
258.685	210.88
258.918	210.88
259.151	219.88
259.383	237.88
259.616	209.88
259.849	224.88
260.081	218.88
260.314	268.88
260.547	254.88
260.779	246.88
261.012	243.88
261.244	229.88
261.477	216.88
261.71	216.88
261.942	230.88
262.175	236.88
262.407	240.88
262.64	217.88
262.872	223.88
263.105	230.88
263.337	212.88
263.57	209.88
263.802	212.88
264.035	221.88
264.267	201.88
264.499	209.88
264.732	219.88
264.964	211.88
265.197	211.88
265.429	226.88
265.661	228.88
265.894	228.88
266.126	210.88
266.358	210.88
266.591	207.88
266.823	227.88
267.055	230.88
267.287	235.88
267.52	261.88
267.752	223.88
267.984	239.88
268.216	225.88
268.448	233.88
268.681	264.88
268.913	253.88
269.145	265.88
269.377	276.88
269.609	279.88
269.841	287.88
270.073	281.88
270.306	286.88
270.538	306.88
270.77	350.88
271.002	340.88
271.234	288.88
271.466	294.88
271.698	294.88
271.93	323.88
272.162	320.88
272.394	331.88
272.626	294.88
272.858	303.88
273.09	279.88
273.322	272.88
273.553	285.88
273.785	261.88
274.017	269.88
274.249	259.88
274.481	272.88
274.713	276.88
274.945	277.88
275.176	270.88
275.408	273.88
275.64	277.88
275.872	283.88
276.104	272.88
276.335	263.88
276.567	279.88
276.799	294.88
277.031	323.88
277.262	318.88
277.494	316.88
277.726	294.88
277.957	313.88
278.189	270.88
278.421	296.88
278.652	288.88
278.884	263.88
279.115	271.88
279.347	281.88
279.579	268.88
279.81	264.88
280.042	278.88
280.273	269.88
280.505	279.88
280.736	277.88
280.968	283.88
281.199	279.88
281.431	274.88
281.662	263.88
281.894	280.88
282.125	274.88
282.356	290.88
282.588	296.88
282.819	307.88
283.051	278.88
283.282	263.88
283.513	277.88
283.745	270.88
283.976	292.88
284.207	295.88
284.439	282.88
284.67	300.88
284.901	292.88
285.132	292.88
285.364	269.88
285.595	277.88
285.826	278.88
286.057	294.88
286.288	286.88
286.52	292.88
286.751	289.88
286.982	308.88
287.213	274.88
287.444	288.88
287.675	307.88
287.906	291.88
288.138	296.88
288.369	305.88
288.6	323.88
288.831	321.88
289.062	303.88
289.293	278.88
289.524	283.88
289.755	293.88
289.986	291.88
290.217	293.88
290.448	284.88
290.679	282.88
290.91	303.88
291.141	298.88
291.371	296.88
291.602	298.88
291.833	287.88
292.064	288.88
292.295	315.88
292.526	295.88
292.757	296.88
292.987	295.88
293.218	290.88
293.449	306.88
293.68	310.88
293.91	295.88
294.141	299.88
294.372	294.88
294.603	299.88
294.833	304.88
295.064	302.88
295.295	302.88
295.525	300.88
295.756	307.88
295.987	313.88
296.217	315.88
296.448	347.88
296.679	304.88
296.909	296.88
297.14	303.88
297.37	318.88
297.601	299.88
297.831	307.88
298.062	309.88
298.292	309.88
298.523	312.88
298.753	326.88
298.984	311.88
299.214	318.88
299.445	305.88
299.675	319.88
299.905	331.88
300.136	316.88
300.366	337.88
300.597	320.88
300.827	322.88
301.057	327.88
301.288	329.88
301.518	324.88
301.748	339.88
301.979	316.88
302.209	330.88
302.439	344.88
302.669	331.88
302.9	322.88
303.13	316.88
303.36	337.88
303.59	329.88
303.82	341.88
304.051	319.88
304.281	331.88
304.511	338.88
304.741	312.88
304.971	336.88
305.201	342.88
305.431	327.88
305.661	332.88
305.891	348.88
306.121	328.88
306.352	342.88
306.582	336.88
306.812	338.88
307.042	369.88
307.272	349.88
307.502	334.88
307.731	373.88
307.961	339.88
308.191	347.88
308.421	339.88
308.651	341.88
308.881	346.88
309.111	359.88
309.341	344.88
309.571	374.88
309.8	372.88
310.03	356.88
310.26	382.88
310.49	366.88
310.72	371.88
310.949	384.88
311.179	402.88
311.409	390.88
311.639	375.88
311.868	369.88
312.098	386.88
312.328	378.88
312.557	402.88
312.787	390.88
313.017	392.88
313.246	405.88
313.476	371.88
313.706	390.88
313.935	391.88
314.165	407.88
314.394	383.88
314.624	379.88
314.853	379.88
315.083	381.88
315.312	394.88
315.542	374.88
315.771	376.88
316.001	363.88
316.23	390.88
316.46	387.88
316.689	384.88
316.919	382.88
317.148	410.88
317.377	394.88
317.607	378.88
317.836	401.88
318.065	395.88
318.295	386.88
318.524	387.88
318.753	391.88
318.983	386.88
319.212	396.88
319.441	390.88
319.67	402.88
319.9	396.88
320.129	375.88
320.358	388.88
320.587	388.88
320.816	410.88
321.046	411.88
321.275	408.88
321.504	391.88
321.733	398.88
321.962	414.88
322.191	398.88
322.42	432.88
322.649	428.88
322.878	444.88
323.108	448.88
323.337	459.88
323.566	494.88
323.795	517.88
324.024	584.88
324.253	718.88
324.482	983.88
324.71	1440.88
324.939	1957.88
325.168	1644.88
325.397	881.88
325.626	614.88
325.855	526.88
326.084	486.88
326.313	468.88
326.542	520.88
326.77	545.88
326.999	659.88
327.228	890.88
327.457	1269.88
327.686	1429.88
327.914	954.88
328.143	668.88
328.372	601.88
328.6	545.88
328.829	551.88
329.058	535.88
329.287	558.88
329.515	527.88
329.744	501.88
329.972	495.88
330.201	513.88
330.43	550.88
330.658	554.88
330.887	575.88
331.115	554.88
331.344	482.88
331.572	481.88
331.801	469.88
332.03	469.88
332.258	459.88
332.486	451.88
332.715	437.88
332.943	454.88
333.172	456.88
333.4	466.88
333.629	461.88
333.857	473.88
334.085	479.88
334.314	473.88
334.542	513.88
334.771	522.88
334.999	471.88
335.227	476.88
335.455	447.88
335.684	442.88
335.912	449.88
336.14	434.88
336.369	431.88
336.597	438.88
336.825	438.88
337.053	452.88
337.281	422.88
337.51	419.88
337.738	422.88
337.966	446.88
338.194	439.88
338.422	420.88
338.65	421.88
338.878	427.88
339.106	416.88
339.334	411.88
339.562	402.88
339.79	402.88
340.018	410.88
340.246	409.88
340.474	404.88
340.702	420.88
340.93	410.88
341.158	413.88
341.386	412.88
341.614	436.88
341.842	408.88
342.07	420.88
342.298	420.88
342.526	405.88
342.754	390.88
342.981	367.88
343.209	402.88
343.437	385.88
343.665	396.88
343.893	425.88
344.12	421.88
344.348	401.88
344.576	403.88
344.804	431.88
345.031	417.88
345.259	428.88
345.487	433.88
345.714	406.88
345.942	420.88
346.17	410.88
346.397	388.88
346.625	398.88
346.853	403.88
347.08	404.88
347.308	408.88
347.535	420.88
347.763	434.88
347.99	397.88
348.218	386.88
348.445	400.88
348.673	404.88
348.9	396.88
349.128	376.88
349.355	396.88
349.583	401.88
349.81	359.88
350.037	388.88
350.265	382.88
350.492	380.88
350.72	385.88
350.947	382.88
351.174	370.88
351.402	396.88
351.629	390.88
351.856	406.88
352.083	396.88
352.311	404.88
352.538	420.88
352.765	424.88
352.992	408.88
353.22	411.88
353.447	372.88
353.674	368.88
353.901	371.88
354.128	374.88
354.355	378.88
354.583	380.88
354.81	368.88
355.037	371.88
355.264	384.88
355.491	348.88
355.718	364.88
355.945	378.88
356.172	358.88
356.399	363.88
356.626	366.88
356.853	356.88
357.08	351.88
357.307	363.88
357.534	366.88
357.761	366.88
357.988	375.88
358.215	367.88
358.441	360.88
358.668	370.88
358.895	376.88
359.122	378.88
359.349	380.88
359.576	390.88
359.802	404.88
360.029	388.88
360.256	423.88
360.483	391.88
360.709	373.88
360.936	397.88
361.163	385.88
361.39	381.88
361.616	395.88
361.843	407.88
362.07	385.88
362.296	367.88
362.523	399.88
362.749	391.88
362.976	375.88
363.203	380.88
363.429	360.88
363.656	376.88
363.882	361.88
364.109	361.88
364.335	369.88
364.562	372.88
364.788	368.88
365.015	355.88
365.241	359.88
365.468	375.88
365.694	370.88
365.92	370.88
366.147	361.88
366.373	364.88
366.599	349.88
366.826	368.88
367.052	370.88
367.278	352.88
367.505	366.88
367.731	372.88
367.957	361.88
368.184	342.88
368.41	343.88
368.636	357.88
368.862	395.88
369.089	361.88
369.315	361.88
369.541	361.88
369.767	356.88
369.993	372.88
370.219	359.88
370.445	362.88
370.672	358.88
370.898	347.88
371.124	358.88
371.35	355.88
371.576	357.88
371.802	340.88
372.028	361.88
372.254	344.88
372.48	357.88
372.706	359.88
372.932	362.88
373.158	355.88
373.384	363.88
373.61	342.88
373.835	378.88
374.061	364.88
374.287	361.88
374.513	354.88
374.739	363.88
374.965	373.88
375.191	371.88
375.416	353.88
375.642	372.88
375.868	359.88
376.094	370.88
376.319	359.88
376.545	346.88
376.771	363.88
376.997	336.88
377.222	355.88
377.448	371.88
377.674	372.88
377.899	351.88
378.125	347.88
378.35	338.88
378.576	354.88
378.802	347.88
379.027	357.88
379.253	358.88
379.478	341.88
379.704	355.88
379.929	366.88
380.155	347.88
380.38	355.88
380.606	360.88
380.831	373.88
381.057	371.88
381.282	335.88
381.507	350.88
381.733	339.88
381.958	341.88
382.184	353.88
382.409	367.88
382.634	362.88
382.86	357.88
383.085	374.88
383.31	361.88
383.535	367.88
383.761	354.88
383.986	361.88
384.211	380.88
384.436	363.88
384.662	330.88
384.887	375.88
385.112	376.88
385.337	370.88
385.562	371.88
385.787	383.88
386.013	382.88
386.238	404.88
386.463	364.88
386.688	366.88
386.913	366.88
387.138	370.88
387.363	374.88
387.588	350.88
387.813	388.88
388.038	367.88
388.263	369.88
388.488	376.88
388.713	386.88
388.938	379.88
389.163	377.88
389.387	361.88
389.612	355.88
389.837	375.88
390.062	369.88
390.287	362.88
390.512	390.88
390.736	366.88
390.961	384.88
391.186	394.88
391.411	374.88
391.636	359.88
391.86	378.88
392.085	374.88
392.31	372.88
392.534	376.88
392.759	378.88
392.984	386.88
393.208	383.88
393.433	371.88
393.658	359.88
393.882	369.88
394.107	378.88
394.331	385.88
394.556	367.88
394.78	374.88
395.005	372.88
395.229	374.88
395.454	397.88
395.678	375.88
395.903	410.88
396.127	405.88
396.352	386.88
396.576	384.88
396.801	381.88
397.025	385.88
397.249	383.88
397.474	388.88
397.698	387.88
397.922	422.88
398.147	408.88
398.371	407.88
398.595	416.88
398.82	405.88
399.044	433.88
399.268	435.88
399.492	434.88
399.717	486.88
399.941	477.88
400.165	479.88
400.389	495.88
400.613	464.88
400.837	434.88
401.062	414.88
401.286	420.88
401.51	410.88
401.734	404.88
401.958	426.88
402.182	418.88
402.406	420.88
402.63	412.88
402.854	409.88
403.078	432.88
403.302	429.88
403.526	422.88
403.75	431.88
403.974	411.88
404.198	407.88
404.422	431.88
404.645	430.88
404.869	435.88
405.093	457.88
405.317	481.88
405.541	508.88
405.765	469.88
405.988	437.88
406.212	453.88
406.436	462.88
406.66	481.88
406.883	470.88
407.107	498.88
407.331	520.88
407.555	555.88
407.778	532.88
408.002	513.88
408.226	471.88
408.449	480.88
408.673	455.88
408.896	488.88
409.12	502.88
409.344	513.88
409.567	452.88
409.791	430.88
410.014	420.88
410.238	412.88
410.461	431.88
410.685	420.88
410.908	451.88
411.132	464.88
411.355	502.88
411.578	462.88
411.802	449.88
412.025	414.88
412.249	440.88
412.472	450.88
412.695	464.88
412.919	468.88
413.142	426.88
413.365	441.88
413.589	418.88
413.812	399.88
414.035	413.88
414.258	406.88
414.482	408.88
414.705	389.88
414.928	403.88
415.151	403.88
415.374	401.88
415.597	383.88
415.821	387.88
416.044	404.88
416.267	414.88
416.49	389.88
416.713	393.88
416.936	394.88
417.159	379.88
417.382	401.88
417.605	417.88
417.828	419.88
418.051	455.88
418.274	430.88
418.497	387.88
418.72	428.88
418.943	384.88
419.166	406.88
419.389	427.88
419.611	416.88
419.834	410.88
420.057	427.88
420.28	423.88
420.503	419.88
420.726	433.88
420.948	436.88
421.171	451.88
421.394	479.88
421.617	463.88
421.839	439.88
422.062	424.88
422.285	421.88
422.507	478.88
422.73	524.88
422.953	527.88
423.175	455.88
423.398	443.88
423.621	427.88
423.843	447.88
424.066	469.88
424.288	453.88
424.511	470.88
424.733	514.88
424.956	579.88
425.178	564.88
425.401	562.88
425.623	568.88
425.846	484.88
426.068	455.88
426.291	451.88
426.513	447.88
426.735	470.88
426.958	473.88
427.18	547.88
427.402	649.88
427.625	711.88
427.847	609.88
428.069	546.88
428.292	479.88
428.514	450.88
428.736	430.88
428.958	440.88
429.181	435.88
429.403	412.88
429.625	424.88
429.847	439.88
430.069	491.88
430.292	515.88
430.514	442.88
430.736	435.88
430.958	413.88
431.18	396.88
431.402	401.88
431.624	386.88
431.846	387.88
432.068	408.88
432.29	382.88
432.512	390.88
432.734	403.88
432.956	383.88
433.178	411.88
433.4	407.88
433.622	410.88
433.844	402.88
434.066	391.88
434.287	389.88
434.509	393.88
434.731	407.88
434.953	402.88
435.175	421.88
435.397	446.88
435.618	468.88
435.84	482.88
436.062	559.88
436.284	621.88
436.505	514.88
436.727	457.88
436.949	434.88
437.17	414.88
437.392	416.88
437.614	423.88
437.835	472.88
438.057	531.88
438.278	616.88
438.5	600.88
438.721	655.88
438.943	633.88
439.165	495.88
439.386	458.88
439.608	470.88
439.829	474.88
440.05	480.88
440.272	522.88
440.493	480.88
440.715	428.88
440.936	417.88
441.158	424.88
441.379	431.88
441.6	415.88
441.822	459.88
442.043	486.88
442.264	545.88
442.486	582.88
442.707	495.88
442.928	465.88
443.149	474.88
443.371	480.88
443.592	530.88
443.813	614.88
444.034	639.88
444.255	512.88
444.476	487.88
444.698	452.88
444.919	448.88
445.14	576.88
445.361	515.88
445.582	479.88
445.803	528.88
446.024	613.88
446.245	633.88
446.466	576.88
446.687	502.88
446.908	467.88
447.129	420.88
447.35	416.88
447.571	421.88
447.792	421.88
448.013	405.88
448.234	441.88
448.455	477.88
448.675	584.88
448.896	674.88
449.117	552.88
449.338	534.88
449.559	608.88
449.779	690.88
450	544.88
450.221	450.88
450.442	442.88
450.662	407.88
450.883	404.88
451.104	431.88
451.324	413.88
451.545	390.88
451.766	378.88
451.986	383.88
452.207	359.88
452.428	362.88
452.648	385.88
452.869	376.88
453.089	380.88
453.31	388.88
453.53	377.88
453.751	372.88
453.971	374.88
454.192	348.88
454.412	375.88
454.633	370.88
454.853	371.88
455.073	377.88
455.294	405.88
455.514	458.88
455.734	444.88
455.955	384.88
456.175	360.88
456.395	340.88
456.616	340.88
456.836	350.88
457.056	343.88
457.276	330.88
457.497	327.88
457.717	340.88
457.937	350.88
458.157	358.88
458.377	363.88
458.598	375.88
458.818	406.88
459.038	475.88
459.258	502.88
459.478	419.88
459.698	383.88
459.918	384.88
460.138	384.88
460.358	384.88
460.578	384.88
460.798	403.88
461.018	394.88
461.238	383.88
461.458	391.88
461.678	383.88
461.898	385.88
462.118	395.88
462.338	394.88
462.558	414.88
462.777	404.88
462.997	391.88
463.217	427.88
463.437	410.88
463.657	425.88
463.876	404.88
464.096	412.88
464.316	417.88
464.536	439.88
464.755	410.88
464.975	406.88
465.195	422.88
465.414	497.88
465.634	438.88
465.854	415.88
466.073	400.88
466.293	364.88
466.512	378.88
466.732	374.88
466.951	374.88
467.171	371.88
467.391	382.88
467.61	381.88
467.829	386.88
468.049	390.88
468.268	393.88
468.488	395.88
468.707	379.88
468.927	368.88
469.146	358.88
469.365	364.88
469.585	383.88
469.804	375.88
470.023	384.88
470.243	375.88
470.462	396.88
470.681	384.88
470.901	396.88
471.12	404.88
471.339	386.88
471.558	396.88
471.777	395.88
471.997	375.88
472.216	391.88
472.435	399.88
472.654	383.88
472.873	391.88
473.092	395.88
473.311	396.88
473.53	384.88
473.749	395.88
473.968	428.88
474.187	499.88
474.406	526.88
474.625	447.88
474.844	409.88
475.063	416.88
475.282	402.88
475.501	386.88
475.72	400.88
475.939	415.88
476.158	387.88
476.377	385.88
476.596	391.88
476.814	382.88
477.033	402.88
477.252	403.88
477.471	407.88
477.69	388.88
477.908	404.88
478.127	412.88
478.346	418.88
478.564	428.88
478.783	432.88
479.002	407.88
479.22	430.88
479.439	431.88
479.658	449.88
479.876	448.88
480.095	487.88
480.313	478.88
480.532	441.88
480.751	436.88
480.969	464.88
481.188	524.88
481.406	503.88
481.624	469.88
481.843	457.88
482.061	443.88
482.28	456.88
482.498	443.88
482.717	427.88
482.935	441.88
483.153	428.88
483.372	454.88
483.59	438.88
483.808	437.88
484.027	457.88
484.245	455.88
484.463	424.88
484.681	469.88
484.9	458.88
485.118	463.88
485.336	454.88
485.554	446.88
485.772	454.88
485.99	445.88
486.209	453.88
486.427	455.88
486.645	473.88
486.863	484.88
487.081	482.88
487.299	459.88
487.517	460.88
487.735	464.88
487.953	497.88
488.171	479.88
488.389	482.88
488.607	473.88
488.825	463.88
489.043	472.88
489.261	487.88
489.479	504.88
489.696	499.88
489.914	473.88
490.132	499.88
490.35	514.88
490.568	484.88
490.786	506.88
491.003	522.88
491.221	530.88
491.439	535.88
491.657	563.88
491.874	551.88
492.092	537.88
492.31	559.88
492.527	568.88
492.745	555.88
492.963	548.88
493.18	554.88
493.398	572.88
493.615	571.88
493.833	554.88
494.05	548.88
494.268	536.88
494.485	559.88
494.703	552.88
494.92	551.88
495.138	563.88
495.355	556.88
495.573	569.88
495.79	561.88
496.008	578.88
496.225	562.88
496.442	567.88
496.66	577.88
496.877	570.88
497.094	555.88
497.312	571.88
497.529	579.88
497.746	585.88
497.963	592.88
498.181	603.88
498.398	596.88
498.615	602.88
498.832	615.88
499.049	643.88
499.267	656.88
499.484	672.88
499.701	675.88
499.918	705.88
500.135	703.88
500.352	738.88
500.569	757.88
500.786	754.88
501.003	745.88
501.22	706.88
501.437	690.88
501.654	691.88
501.871	703.88
