Data from 1971.PennyLincolnUp.Lamp.En5.5.200Scan.071719.P1._HRD10591_15-20-11-847.txt Node
Date: Thu Jul 18 15:20:11 EDT 2019
User: cochatt
Spectrometer: HR+D1059
Trigger mode: 1
Integration Time (sec): 1.000000E-1
Scans to average: 1
Electric dark correction enabled: true
Nonlinearity correction enabled: false
Boxcar width: 0
XAxis mode: Wavelengths
Number of Pixels in Spectrum: 2048
>>>>>Begin Spectral Data<<<<<
223.165	-12.19
223.4	-12.19
223.635	-12.19
223.869	-7.19
224.104	-16.19
224.338	-25.19
224.573	-13.19
224.808	-13.19
225.042	-8.19
225.277	-15.19
225.511	2.81
225.746	3.81
225.98	-0.19
226.215	20.81
226.449	14.81
226.683	26.81
226.918	19.81
227.152	21.81
227.387	29.81
227.621	40.81
227.856	31.81
228.09	53.81
228.324	57.81
228.559	53.81
228.793	70.81
229.027	99.81
229.262	103.81
229.496	105.81
229.73	109.81
229.964	130.81
230.199	128.81
230.433	119.81
230.667	109.81
230.901	120.81
231.136	102.81
231.37	118.81
231.604	117.81
231.838	112.81
232.072	107.81
232.306	104.81
232.541	106.81
232.775	98.81
233.009	113.81
233.243	122.81
233.477	120.81
233.711	116.81
233.945	103.81
234.179	124.81
234.413	105.81
234.647	121.81
234.881	134.81
235.115	124.81
235.349	109.81
235.583	117.81
235.817	125.81
236.051	126.81
236.285	134.81
236.519	101.81
236.753	124.81
236.987	149.81
237.221	160.81
237.455	211.81
237.689	164.81
237.922	142.81
238.156	128.81
238.39	127.81
238.624	132.81
238.858	115.81
239.091	107.81
239.325	116.81
239.559	132.81
239.793	124.81
240.027	142.81
240.26	154.81
240.494	158.81
240.728	147.81
240.961	144.81
241.195	140.81
241.429	135.81
241.662	145.81
241.896	139.81
242.13	142.81
242.363	129.81
242.597	131.81
242.83	126.81
243.064	138.81
243.298	147.81
243.531	145.81
243.765	142.81
243.998	132.81
244.232	136.81
244.465	128.81
244.699	138.81
244.932	152.81
245.166	138.81
245.399	150.81
245.633	149.81
245.866	158.81
246.099	156.81
246.333	151.81
246.566	166.81
246.8	158.81
247.033	145.81
247.266	167.81
247.5	164.81
247.733	170.81
247.966	179.81
248.2	186.81
248.433	169.81
248.666	173.81
248.899	201.81
249.133	189.81
249.366	195.81
249.599	200.81
249.832	194.81
250.066	178.81
250.299	184.81
250.532	198.81
250.765	212.81
250.998	226.81
251.231	227.81
251.465	198.81
251.698	210.81
251.931	203.81
252.164	206.81
252.397	195.81
252.63	198.81
252.863	216.81
253.096	236.81
253.329	226.81
253.562	222.81
253.795	229.81
254.028	223.81
254.261	220.81
254.494	223.81
254.727	267.81
254.96	289.81
255.193	275.81
255.426	240.81
255.659	244.81
255.892	230.81
256.124	223.81
256.357	245.81
256.59	232.81
256.823	216.81
257.056	224.81
257.289	226.81
257.521	221.81
257.754	221.81
257.987	202.81
258.22	207.81
258.452	204.81
258.685	212.81
258.918	202.81
259.151	207.81
259.383	206.81
259.616	231.81
259.849	232.81
260.081	243.81
260.314	245.81
260.547	270.81
260.779	265.81
261.012	251.81
261.244	256.81
261.477	227.81
261.71	223.81
261.942	227.81
262.175	243.81
262.407	216.81
262.64	226.81
262.872	222.81
263.105	228.81
263.337	246.81
263.57	233.81
263.802	233.81
264.035	226.81
264.267	223.81
264.499	230.81
264.732	208.81
264.964	215.81
265.197	228.81
265.429	235.81
265.661	234.81
265.894	214.81
266.126	223.81
266.358	225.81
266.591	213.81
266.823	239.81
267.055	233.81
267.287	246.81
267.52	228.81
267.752	242.81
267.984	246.81
268.216	258.81
268.448	229.81
268.681	239.81
268.913	277.81
269.145	268.81
269.377	278.81
269.609	271.81
269.841	268.81
270.073	280.81
270.306	286.81
270.538	321.81
270.77	308.81
271.002	313.81
271.234	286.81
271.466	301.81
271.698	310.81
271.93	317.81
272.162	326.81
272.394	319.81
272.626	310.81
272.858	306.81
273.09	276.81
273.322	278.81
273.553	275.81
273.785	299.81
274.017	303.81
274.249	279.81
274.481	276.81
274.713	294.81
274.945	284.81
275.176	275.81
275.408	255.81
275.64	278.81
275.872	277.81
276.104	282.81
276.335	270.81
276.567	276.81
276.799	308.81
277.031	309.81
277.262	313.81
277.494	318.81
277.726	321.81
277.957	306.81
278.189	293.81
278.421	289.81
278.652	278.81
278.884	294.81
279.115	281.81
279.347	283.81
279.579	281.81
279.81	278.81
280.042	293.81
280.273	283.81
280.505	272.81
280.736	249.81
280.968	280.81
281.199	282.81
281.431	299.81
281.662	280.81
281.894	280.81
282.125	282.81
282.356	294.81
282.588	295.81
282.819	316.81
283.051	298.81
283.282	278.81
283.513	289.81
283.745	298.81
283.976	289.81
284.207	295.81
284.439	299.81
284.67	284.81
284.901	294.81
285.132	294.81
285.364	297.81
285.595	295.81
285.826	299.81
286.057	303.81
286.288	295.81
286.52	293.81
286.751	294.81
286.982	288.81
287.213	298.81
287.444	300.81
287.675	327.81
287.906	303.81
288.138	302.81
288.369	317.81
288.6	310.81
288.831	295.81
289.062	279.81
289.293	302.81
289.524	314.81
289.755	300.81
289.986	281.81
290.217	312.81
290.448	293.81
290.679	295.81
290.91	293.81
291.141	294.81
291.371	312.81
291.602	302.81
291.833	302.81
292.064	311.81
292.295	293.81
292.526	320.81
292.757	305.81
292.987	311.81
293.218	300.81
293.449	300.81
293.68	299.81
293.91	286.81
294.141	287.81
294.372	292.81
294.603	304.81
294.833	307.81
295.064	294.81
295.295	301.81
295.525	319.81
295.756	318.81
295.987	323.81
296.217	337.81
296.448	343.81
296.679	324.81
296.909	298.81
297.14	298.81
297.37	304.81
297.601	307.81
297.831	315.81
298.062	324.81
298.292	299.81
298.523	331.81
298.753	328.81
298.984	306.81
299.214	327.81
299.445	315.81
299.675	314.81
299.905	336.81
300.136	324.81
300.366	322.81
300.597	326.81
300.827	313.81
301.057	332.81
301.288	337.81
301.518	331.81
301.748	337.81
301.979	324.81
302.209	353.81
302.439	335.81
302.669	332.81
302.9	347.81
303.13	333.81
303.36	349.81
303.59	346.81
303.82	349.81
304.051	365.81
304.281	347.81
304.511	343.81
304.741	342.81
304.971	348.81
305.201	359.81
305.431	343.81
305.661	339.81
305.891	327.81
306.121	344.81
306.352	332.81
306.582	360.81
306.812	329.81
307.042	339.81
307.272	356.81
307.502	343.81
307.731	347.81
307.961	333.81
308.191	344.81
308.421	330.81
308.651	343.81
308.881	361.81
309.111	355.81
309.341	366.81
309.571	368.81
309.8	361.81
310.03	380.81
310.26	382.81
310.49	383.81
310.72	390.81
310.949	399.81
311.179	390.81
311.409	377.81
311.639	384.81
311.868	382.81
312.098	391.81
312.328	383.81
312.557	398.81
312.787	417.81
313.017	410.81
313.246	399.81
313.476	355.81
313.706	397.81
313.935	399.81
314.165	386.81
314.394	422.81
314.624	379.81
314.853	400.81
315.083	391.81
315.312	377.81
315.542	367.81
315.771	382.81
316.001	381.81
316.23	383.81
316.46	363.81
316.689	406.81
316.919	410.81
317.148	399.81
317.377	407.81
317.607	403.81
317.836	394.81
318.065	404.81
318.295	376.81
318.524	392.81
318.753	389.81
318.983	405.81
319.212	379.81
319.441	388.81
319.67	378.81
319.9	388.81
320.129	378.81
320.358	390.81
320.587	414.81
320.816	398.81
321.046	412.81
321.275	408.81
321.504	408.81
321.733	415.81
321.962	416.81
322.191	429.81
322.42	446.81
322.649	442.81
322.878	462.81
323.108	454.81
323.337	485.81
323.566	511.81
323.795	542.81
324.024	581.81
324.253	675.81
324.482	971.81
324.71	1483.81
324.939	1994.81
325.168	1665.81
325.397	916.81
325.626	630.81
325.855	546.81
326.084	496.81
326.313	509.81
326.542	489.81
326.77	567.81
326.999	675.81
327.228	895.81
327.457	1261.81
327.686	1474.81
327.914	988.81
328.143	677.81
328.372	601.81
328.6	554.81
328.829	549.81
329.058	565.81
329.287	564.81
329.515	520.81
329.744	492.81
329.972	507.81
330.201	523.81
330.43	541.81
330.658	550.81
330.887	589.81
331.115	586.81
331.344	472.81
331.572	498.81
331.801	462.81
332.03	485.81
332.258	471.81
332.486	453.81
332.715	452.81
332.943	469.81
333.172	441.81
333.4	460.81
333.629	464.81
333.857	490.81
334.085	502.81
334.314	495.81
334.542	528.81
334.771	527.81
334.999	462.81
335.227	480.81
335.455	454.81
335.684	455.81
335.912	447.81
336.14	427.81
336.369	451.81
336.597	476.81
336.825	458.81
337.053	437.81
337.281	424.81
337.51	425.81
337.738	454.81
337.966	415.81
338.194	427.81
338.422	443.81
338.65	428.81
338.878	434.81
339.106	414.81
339.334	432.81
339.562	411.81
339.79	404.81
340.018	400.81
340.246	424.81
340.474	451.81
340.702	410.81
340.93	418.81
341.158	443.81
341.386	444.81
341.614	420.81
341.842	418.81
342.07	395.81
342.298	426.81
342.526	406.81
342.754	398.81
342.981	399.81
343.209	404.81
343.437	420.81
343.665	425.81
343.893	440.81
344.12	441.81
344.348	408.81
344.576	444.81
344.804	431.81
345.031	424.81
345.259	430.81
345.487	430.81
345.714	453.81
345.942	403.81
346.17	409.81
346.397	401.81
346.625	415.81
346.853	409.81
347.08	413.81
347.308	408.81
347.535	407.81
347.763	409.81
347.99	394.81
348.218	406.81
348.445	421.81
348.673	421.81
348.9	393.81
349.128	404.81
349.355	419.81
349.583	391.81
349.81	404.81
350.037	385.81
350.265	404.81
350.492	399.81
350.72	397.81
350.947	404.81
351.174	416.81
351.402	405.81
351.629	417.81
351.856	387.81
352.083	412.81
352.311	411.81
352.538	390.81
352.765	412.81
352.992	420.81
353.22	405.81
353.447	399.81
353.674	384.81
353.901	382.81
354.128	383.81
354.355	382.81
354.583	394.81
354.81	382.81
355.037	382.81
355.264	371.81
355.491	360.81
355.718	363.81
355.945	345.81
356.172	370.81
356.399	354.81
356.626	365.81
356.853	377.81
357.08	356.81
357.307	356.81
357.534	374.81
357.761	378.81
357.988	369.81
358.215	374.81
358.441	371.81
358.668	382.81
358.895	384.81
359.122	378.81
359.349	381.81
359.576	396.81
359.802	415.81
360.029	425.81
360.256	417.81
360.483	441.81
360.709	403.81
360.936	385.81
361.163	380.81
361.39	395.81
361.616	388.81
361.843	388.81
362.07	402.81
362.296	376.81
362.523	390.81
362.749	406.81
362.976	387.81
363.203	383.81
363.429	361.81
363.656	388.81
363.882	404.81
364.109	380.81
364.335	368.81
364.562	359.81
364.788	352.81
365.015	386.81
365.241	363.81
365.468	370.81
365.694	377.81
365.92	374.81
366.147	366.81
366.373	368.81
366.599	363.81
366.826	356.81
367.052	359.81
367.278	377.81
367.505	363.81
367.731	358.81
367.957	354.81
368.184	371.81
368.41	386.81
368.636	382.81
368.862	396.81
369.089	383.81
369.315	368.81
369.541	362.81
369.767	378.81
369.993	365.81
370.219	342.81
370.445	355.81
370.672	354.81
370.898	353.81
371.124	359.81
371.35	372.81
371.576	355.81
371.802	359.81
372.028	344.81
372.254	382.81
372.48	359.81
372.706	346.81
372.932	378.81
373.158	374.81
373.384	374.81
373.61	371.81
373.835	358.81
374.061	367.81
374.287	357.81
374.513	363.81
374.739	375.81
374.965	359.81
375.191	372.81
375.416	387.81
375.642	367.81
375.868	367.81
376.094	368.81
376.319	359.81
376.545	365.81
376.771	344.81
376.997	355.81
377.222	343.81
377.448	356.81
377.674	367.81
377.899	354.81
378.125	357.81
378.35	362.81
378.576	372.81
378.802	370.81
379.027	360.81
379.253	349.81
379.478	357.81
379.704	366.81
379.929	344.81
380.155	352.81
380.38	353.81
380.606	344.81
380.831	355.81
381.057	361.81
381.282	331.81
381.507	343.81
381.733	364.81
381.958	365.81
382.184	353.81
382.409	374.81
382.634	359.81
382.86	365.81
383.085	367.81
383.31	356.81
383.535	372.81
383.761	380.81
383.986	372.81
384.211	381.81
384.436	357.81
384.662	366.81
384.887	382.81
385.112	373.81
385.337	378.81
385.562	358.81
385.787	370.81
386.013	378.81
386.238	397.81
386.463	390.81
386.688	396.81
386.913	382.81
387.138	370.81
387.363	394.81
387.588	380.81
387.813	366.81
388.038	366.81
388.263	359.81
388.488	372.81
388.713	383.81
388.938	373.81
389.163	386.81
389.387	381.81
389.612	373.81
389.837	356.81
390.062	368.81
390.287	388.81
390.512	375.81
390.736	369.81
390.961	378.81
391.186	365.81
391.411	367.81
391.636	381.81
391.86	392.81
392.085	390.81
392.31	394.81
392.534	382.81
392.759	391.81
392.984	380.81
393.208	365.81
393.433	374.81
393.658	390.81
393.882	376.81
394.107	363.81
394.331	376.81
394.556	377.81
394.78	355.81
395.005	374.81
395.229	376.81
395.454	396.81
395.678	390.81
395.903	396.81
396.127	420.81
396.352	398.81
396.576	394.81
396.801	389.81
397.025	385.81
397.249	397.81
397.474	422.81
397.698	414.81
397.922	407.81
398.147	422.81
398.371	422.81
398.595	425.81
398.82	410.81
399.044	429.81
399.268	437.81
399.492	442.81
399.717	482.81
399.941	476.81
400.165	520.81
400.389	525.81
400.613	462.81
400.837	448.81
401.062	422.81
401.286	419.81
401.51	430.81
401.734	439.81
401.958	424.81
402.182	429.81
402.406	418.81
402.63	413.81
402.854	414.81
403.078	426.81
403.302	418.81
403.526	448.81
403.75	423.81
403.974	432.81
404.198	428.81
404.422	445.81
404.645	440.81
404.869	425.81
405.093	459.81
405.317	466.81
405.541	536.81
405.765	476.81
405.988	455.81
406.212	451.81
406.436	471.81
406.66	471.81
406.883	482.81
407.107	483.81
407.331	513.81
407.555	575.81
407.778	586.81
408.002	525.81
408.226	510.81
408.449	466.81
408.673	475.81
408.896	530.81
409.12	524.81
409.344	504.81
409.567	470.81
409.791	440.81
410.014	449.81
410.238	425.81
410.461	430.81
410.685	428.81
410.908	427.81
411.132	462.81
411.355	491.81
411.578	483.81
411.802	435.81
412.025	436.81
412.249	432.81
412.472	462.81
412.695	471.81
412.919	482.81
413.142	438.81
413.365	428.81
413.589	421.81
413.812	406.81
414.035	406.81
414.258	379.81
414.482	436.81
414.705	432.81
414.928	398.81
415.151	406.81
415.374	400.81
415.597	406.81
415.821	392.81
416.044	387.81
416.267	393.81
416.49	401.81
416.713	408.81
416.936	418.81
417.159	400.81
417.382	398.81
417.605	407.81
417.828	406.81
418.051	419.81
418.274	423.81
418.497	426.81
418.72	398.81
418.943	399.81
419.166	420.81
419.389	438.81
419.611	454.81
419.834	410.81
420.057	412.81
420.28	424.81
420.503	427.81
420.726	426.81
420.948	462.81
421.171	471.81
421.394	492.81
421.617	453.81
421.839	436.81
422.062	431.81
422.285	429.81
422.507	484.81
422.73	534.81
422.953	540.81
423.175	452.81
423.398	442.81
423.621	443.81
423.843	470.81
424.066	452.81
424.288	457.81
424.511	468.81
424.733	519.81
424.956	596.81
425.178	588.81
425.401	560.81
425.623	564.81
425.846	502.81
426.068	472.81
426.291	479.81
426.513	455.81
426.735	455.81
426.958	490.81
427.18	565.81
427.402	666.81
427.625	707.81
427.847	631.81
428.069	548.81
428.292	476.81
428.514	452.81
428.736	444.81
428.958	455.81
429.181	408.81
429.403	408.81
429.625	435.81
429.847	457.81
430.069	537.81
430.292	502.81
430.514	457.81
430.736	441.81
430.958	406.81
431.18	408.81
431.402	404.81
431.624	384.81
431.846	399.81
432.068	383.81
432.29	395.81
432.512	397.81
432.734	394.81
432.956	403.81
433.178	396.81
433.4	422.81
433.622	408.81
433.844	400.81
434.066	399.81
434.287	399.81
434.509	380.81
434.731	381.81
434.953	420.81
435.175	417.81
435.397	442.81
435.618	439.81
435.84	490.81
436.062	543.81
436.284	615.81
436.505	519.81
436.727	477.81
436.949	436.81
437.17	419.81
437.392	411.81
437.614	439.81
437.835	483.81
438.057	533.81
438.278	606.81
438.5	602.81
438.721	688.81
438.943	628.81
439.165	522.81
439.386	463.81
439.608	468.81
439.829	476.81
440.05	485.81
440.272	523.81
440.493	499.81
440.715	441.81
440.936	444.81
441.158	432.81
441.379	424.81
441.6	468.81
441.822	460.81
442.043	500.81
442.264	545.81
442.486	571.81
442.707	494.81
442.928	463.81
443.149	458.81
443.371	493.81
443.592	509.81
443.813	621.81
444.034	623.81
444.255	532.81
444.476	477.81
444.698	463.81
444.919	434.81
445.14	564.81
445.361	517.81
445.582	513.81
445.803	520.81
446.024	614.81
446.245	607.81
446.466	579.81
446.687	526.81
446.908	459.81
447.129	427.81
447.35	426.81
447.571	416.81
447.792	430.81
448.013	423.81
448.234	420.81
448.455	466.81
448.675	568.81
448.896	660.81
449.117	555.81
449.338	523.81
449.559	615.81
449.779	681.81
450	578.81
450.221	463.81
450.442	446.81
450.662	395.81
450.883	392.81
451.104	426.81
451.324	404.81
451.545	411.81
451.766	404.81
451.986	381.81
452.207	374.81
452.428	375.81
452.648	378.81
452.869	400.81
453.089	387.81
453.31	368.81
453.53	385.81
453.751	384.81
453.971	378.81
454.192	396.81
454.412	391.81
454.633	376.81
454.853	363.81
455.073	374.81
455.294	398.81
455.514	451.81
455.734	433.81
455.955	371.81
456.175	346.81
456.395	335.81
456.616	337.81
456.836	346.81
457.056	349.81
457.276	363.81
457.497	340.81
457.717	347.81
457.937	357.81
458.157	360.81
458.377	364.81
458.598	388.81
458.818	446.81
459.038	484.81
459.258	479.81
459.478	440.81
459.698	390.81
459.918	388.81
460.138	383.81
460.358	362.81
460.578	390.81
460.798	384.81
461.018	396.81
461.238	392.81
461.458	376.81
461.678	374.81
461.898	386.81
462.118	382.81
462.338	402.81
462.558	408.81
462.777	391.81
462.997	415.81
463.217	392.81
463.437	421.81
463.657	408.81
463.876	400.81
464.096	427.81
464.316	413.81
464.536	419.81
464.755	412.81
464.975	421.81
465.195	447.81
465.414	468.81
465.634	438.81
465.854	407.81
466.073	394.81
466.293	382.81
466.512	394.81
466.732	394.81
466.951	380.81
467.171	391.81
467.391	386.81
467.61	392.81
467.829	403.81
468.049	382.81
468.268	408.81
468.488	359.81
468.707	380.81
468.927	386.81
469.146	370.81
469.365	386.81
469.585	366.81
469.804	371.81
470.023	376.81
470.243	381.81
470.462	358.81
470.681	404.81
470.901	402.81
471.12	377.81
471.339	386.81
471.558	402.81
471.777	405.81
471.997	394.81
472.216	390.81
472.435	387.81
472.654	388.81
472.873	379.81
473.092	394.81
473.311	391.81
473.53	412.81
473.749	404.81
473.968	432.81
474.187	500.81
474.406	529.81
474.625	430.81
474.844	410.81
475.063	405.81
475.282	381.81
475.501	394.81
475.72	398.81
475.939	391.81
476.158	385.81
476.377	410.81
476.596	378.81
476.814	405.81
477.033	409.81
477.252	395.81
477.471	390.81
477.69	395.81
477.908	415.81
478.127	397.81
478.346	415.81
478.564	428.81
478.783	420.81
479.002	411.81
479.22	442.81
479.439	459.81
479.658	445.81
479.876	473.81
480.095	476.81
480.313	475.81
480.532	468.81
480.751	464.81
480.969	482.81
481.188	514.81
481.406	511.81
481.624	477.81
481.843	472.81
482.061	436.81
482.28	451.81
482.498	452.81
482.717	443.81
482.935	451.81
483.153	439.81
483.372	448.81
483.59	445.81
483.808	450.81
484.027	436.81
484.245	456.81
484.463	428.81
484.681	438.81
484.9	445.81
485.118	445.81
485.336	473.81
485.554	450.81
485.772	472.81
485.99	474.81
486.209	453.81
486.427	459.81
486.645	460.81
486.863	485.81
487.081	471.81
487.299	475.81
487.517	471.81
487.735	473.81
487.953	468.81
488.171	493.81
488.389	491.81
488.607	486.81
488.825	478.81
489.043	491.81
489.261	490.81
489.479	500.81
489.696	498.81
489.914	508.81
490.132	488.81
490.35	485.81
490.568	505.81
490.786	521.81
491.003	502.81
491.221	516.81
491.439	544.81
491.657	566.81
491.874	570.81
492.092	557.81
492.31	565.81
492.527	550.81
492.745	539.81
492.963	584.81
493.18	574.81
493.398	560.81
493.615	565.81
493.833	544.81
494.05	555.81
494.268	563.81
494.485	571.81
494.703	576.81
494.92	544.81
495.138	571.81
495.355	578.81
495.573	558.81
495.79	567.81
496.008	581.81
496.225	563.81
496.442	578.81
496.66	565.81
496.877	555.81
497.094	571.81
497.312	580.81
497.529	593.81
497.746	588.81
497.963	592.81
498.181	599.81
498.398	614.81
498.615	589.81
498.832	606.81
499.049	631.81
499.267	652.81
499.484	674.81
499.701	692.81
499.918	722.81
500.135	719.81
500.352	771.81
500.569	735.81
500.786	770.81
501.003	731.81
501.22	743.81
501.437	720.81
501.654	692.81
501.871	680.81
