Data from 1971.PennyLincolnUp.Lamp.En5.5.200Scan.071719.P1.Scan 2. Changed Angle._HRD10591_15-22-47-842.txt Node
Date: Thu Jul 18 15:22:47 EDT 2019
User: cochatt
Spectrometer: HR+D1059
Trigger mode: 1
Integration Time (sec): 1.000000E-1
Scans to average: 1
Electric dark correction enabled: true
Nonlinearity correction enabled: false
Boxcar width: 0
XAxis mode: Wavelengths
Number of Pixels in Spectrum: 2048
>>>>>Begin Spectral Data<<<<<
223.165	-32.5
223.4	-32.5
223.635	-32.5
223.869	-9.5
224.104	-12.5
224.338	-23.5
224.573	-17.5
224.808	-18.5
225.042	4.5
225.277	-2.5
225.511	-0.5
225.746	-1.5
225.98	12.5
226.215	15.5
226.449	28.5
226.683	19.5
226.918	20.5
227.152	17.5
227.387	34.5
227.621	35.5
227.856	55.5
228.09	37.5
228.324	59.5
228.559	61.5
228.793	67.5
229.027	94.5
229.262	108.5
229.496	116.5
229.73	125.5
229.964	146.5
230.199	139.5
230.433	121.5
230.667	116.5
230.901	102.5
231.136	128.5
231.37	104.5
231.604	105.5
231.838	129.5
232.072	110.5
232.306	102.5
232.541	124.5
232.775	114.5
233.009	119.5
233.243	121.5
233.477	119.5
233.711	110.5
233.945	117.5
234.179	131.5
234.413	114.5
234.647	118.5
234.881	112.5
235.115	125.5
235.349	125.5
235.583	112.5
235.817	149.5
236.051	130.5
236.285	105.5
236.519	133.5
236.753	137.5
236.987	135.5
237.221	190.5
237.455	230.5
237.689	199.5
237.922	148.5
238.156	135.5
238.39	142.5
238.624	124.5
238.858	125.5
239.091	130.5
239.325	132.5
239.559	130.5
239.793	122.5
240.027	129.5
240.26	124.5
240.494	151.5
240.728	152.5
240.961	161.5
241.195	155.5
241.429	130.5
241.662	128.5
241.896	120.5
242.13	129.5
242.363	127.5
242.597	136.5
242.83	139.5
243.064	140.5
243.298	154.5
243.531	140.5
243.765	125.5
243.998	135.5
244.232	144.5
244.465	142.5
244.699	152.5
244.932	151.5
245.166	132.5
245.399	145.5
245.633	140.5
245.866	151.5
246.099	141.5
246.333	152.5
246.566	127.5
246.8	132.5
247.033	149.5
247.266	167.5
247.5	147.5
247.733	177.5
247.966	178.5
248.2	166.5
248.433	183.5
248.666	203.5
248.899	190.5
249.133	197.5
249.366	198.5
249.599	212.5
249.832	171.5
250.066	183.5
250.299	176.5
250.532	193.5
250.765	198.5
250.998	200.5
251.231	216.5
251.465	218.5
251.698	205.5
251.931	220.5
252.164	209.5
252.397	198.5
252.63	199.5
252.863	212.5
253.096	219.5
253.329	234.5
253.562	235.5
253.795	214.5
254.028	203.5
254.261	219.5
254.494	226.5
254.727	251.5
254.96	265.5
255.193	257.5
255.426	233.5
255.659	219.5
255.892	234.5
256.124	244.5
256.357	234.5
256.59	220.5
256.823	206.5
257.056	218.5
257.289	207.5
257.521	197.5
257.754	205.5
257.987	198.5
258.22	201.5
258.452	205.5
258.685	189.5
258.918	187.5
259.151	204.5
259.383	216.5
259.616	217.5
259.849	202.5
260.081	221.5
260.314	244.5
260.547	262.5
260.779	231.5
261.012	231.5
261.244	223.5
261.477	220.5
261.71	202.5
261.942	203.5
262.175	221.5
262.407	226.5
262.64	186.5
262.872	199.5
263.105	204.5
263.337	204.5
263.57	195.5
263.802	199.5
264.035	204.5
264.267	206.5
264.499	203.5
264.732	184.5
264.964	191.5
265.197	211.5
265.429	201.5
265.661	208.5
265.894	207.5
266.126	212.5
266.358	192.5
266.591	202.5
266.823	231.5
267.055	205.5
267.287	214.5
267.52	220.5
267.752	205.5
267.984	213.5
268.216	216.5
268.448	200.5
268.681	204.5
268.913	216.5
269.145	243.5
269.377	251.5
269.609	246.5
269.841	232.5
270.073	249.5
270.306	275.5
270.538	286.5
270.77	281.5
271.002	282.5
271.234	270.5
271.466	276.5
271.698	283.5
271.93	294.5
272.162	301.5
272.394	300.5
272.626	284.5
272.858	261.5
273.09	244.5
273.322	257.5
273.553	238.5
273.785	251.5
274.017	228.5
274.249	241.5
274.481	243.5
274.713	239.5
274.945	222.5
275.176	228.5
275.408	243.5
275.64	218.5
275.872	222.5
276.104	234.5
276.335	220.5
276.567	229.5
276.799	250.5
277.031	288.5
277.262	293.5
277.494	277.5
277.726	258.5
277.957	278.5
278.189	239.5
278.421	253.5
278.652	251.5
278.884	257.5
279.115	256.5
279.347	243.5
279.579	246.5
279.81	240.5
280.042	235.5
280.273	239.5
280.505	226.5
280.736	232.5
280.968	212.5
281.199	244.5
281.431	252.5
281.662	229.5
281.894	242.5
282.125	232.5
282.356	235.5
282.588	272.5
282.819	273.5
283.051	252.5
283.282	232.5
283.513	253.5
283.745	240.5
283.976	231.5
284.207	233.5
284.439	249.5
284.67	257.5
284.901	246.5
285.132	261.5
285.364	262.5
285.595	249.5
285.826	233.5
286.057	250.5
286.288	240.5
286.52	247.5
286.751	240.5
286.982	233.5
287.213	240.5
287.444	234.5
287.675	249.5
287.906	259.5
288.138	249.5
288.369	261.5
288.6	284.5
288.831	254.5
289.062	268.5
289.293	252.5
289.524	252.5
289.755	245.5
289.986	238.5
290.217	239.5
290.448	256.5
290.679	247.5
290.91	239.5
291.141	239.5
291.371	267.5
291.602	239.5
291.833	251.5
292.064	249.5
292.295	269.5
292.526	245.5
292.757	244.5
292.987	251.5
293.218	239.5
293.449	243.5
293.68	246.5
293.91	247.5
294.141	246.5
294.372	228.5
294.603	237.5
294.833	251.5
295.064	265.5
295.295	249.5
295.525	248.5
295.756	256.5
295.987	275.5
296.217	277.5
296.448	271.5
296.679	263.5
296.909	264.5
297.14	243.5
297.37	257.5
297.601	263.5
297.831	249.5
298.062	251.5
298.292	268.5
298.523	256.5
298.753	249.5
298.984	263.5
299.214	261.5
299.445	257.5
299.675	279.5
299.905	268.5
300.136	280.5
300.366	262.5
300.597	273.5
300.827	271.5
301.057	275.5
301.288	288.5
301.518	289.5
301.748	291.5
301.979	267.5
302.209	275.5
302.439	277.5
302.669	270.5
302.9	279.5
303.13	283.5
303.36	282.5
303.59	278.5
303.82	270.5
304.051	286.5
304.281	286.5
304.511	290.5
304.741	267.5
304.971	267.5
305.201	276.5
305.431	280.5
305.661	288.5
305.891	293.5
306.121	278.5
306.352	284.5
306.582	296.5
306.812	291.5
307.042	292.5
307.272	290.5
307.502	296.5
307.731	283.5
307.961	267.5
308.191	285.5
308.421	295.5
308.651	299.5
308.881	301.5
309.111	305.5
309.341	309.5
309.571	316.5
309.8	287.5
310.03	320.5
310.26	328.5
310.49	331.5
310.72	344.5
310.949	349.5
311.179	355.5
311.409	324.5
311.639	318.5
311.868	327.5
312.098	309.5
312.328	341.5
312.557	356.5
312.787	369.5
313.017	362.5
313.246	341.5
313.476	309.5
313.706	345.5
313.935	334.5
314.165	337.5
314.394	343.5
314.624	362.5
314.853	332.5
315.083	341.5
315.312	316.5
315.542	328.5
315.771	332.5
316.001	330.5
316.23	322.5
316.46	325.5
316.689	326.5
316.919	341.5
317.148	330.5
317.377	339.5
317.607	331.5
317.836	348.5
318.065	332.5
318.295	328.5
318.524	314.5
318.753	291.5
318.983	328.5
319.212	345.5
319.441	345.5
319.67	344.5
319.9	321.5
320.129	335.5
320.358	338.5
320.587	321.5
320.816	346.5
321.046	355.5
321.275	339.5
321.504	347.5
321.733	361.5
321.962	355.5
322.191	380.5
322.42	391.5
322.649	413.5
322.878	399.5
323.108	395.5
323.337	442.5
323.566	478.5
323.795	517.5
324.024	543.5
324.253	638.5
324.482	948.5
324.71	1452.5
324.939	2099.5
325.168	1794.5
325.397	957.5
325.626	614.5
325.855	522.5
326.084	474.5
326.313	440.5
326.542	461.5
326.77	475.5
326.999	612.5
327.228	814.5
327.457	1257.5
327.686	1543.5
327.914	1040.5
328.143	677.5
328.372	581.5
328.6	549.5
328.829	521.5
329.058	509.5
329.287	546.5
329.515	495.5
329.744	486.5
329.972	464.5
330.201	465.5
330.43	500.5
330.658	521.5
330.887	576.5
331.115	564.5
331.344	460.5
331.572	435.5
331.801	427.5
332.03	415.5
332.258	419.5
332.486	413.5
332.715	396.5
332.943	402.5
333.172	381.5
333.4	391.5
333.629	401.5
333.857	424.5
334.085	425.5
334.314	414.5
334.542	440.5
334.771	474.5
334.999	415.5
335.227	387.5
335.455	384.5
335.684	385.5
335.912	385.5
336.14	379.5
336.369	373.5
336.597	387.5
336.825	387.5
337.053	379.5
337.281	381.5
337.51	381.5
337.738	386.5
337.966	380.5
338.194	387.5
338.422	379.5
338.65	371.5
338.878	377.5
339.106	364.5
339.334	365.5
339.562	362.5
339.79	367.5
340.018	377.5
340.246	386.5
340.474	411.5
340.702	363.5
340.93	365.5
341.158	383.5
341.386	373.5
341.614	373.5
341.842	379.5
342.07	383.5
342.298	388.5
342.526	368.5
342.754	355.5
342.981	364.5
343.209	372.5
343.437	359.5
343.665	363.5
343.893	366.5
344.12	365.5
344.348	376.5
344.576	364.5
344.804	387.5
345.031	376.5
345.259	404.5
345.487	399.5
345.714	383.5
345.942	356.5
346.17	369.5
346.397	381.5
346.625	381.5
346.853	357.5
347.08	347.5
347.308	384.5
347.535	389.5
347.763	383.5
347.99	407.5
348.218	383.5
348.445	391.5
348.673	377.5
348.9	375.5
349.128	361.5
349.355	356.5
349.583	345.5
349.81	348.5
350.037	363.5
350.265	368.5
350.492	351.5
350.72	379.5
350.947	379.5
351.174	368.5
351.402	379.5
351.629	363.5
351.856	381.5
352.083	375.5
352.311	398.5
352.538	379.5
352.765	392.5
352.992	389.5
353.22	363.5
353.447	367.5
353.674	379.5
353.901	375.5
354.128	385.5
354.355	354.5
354.583	351.5
354.81	357.5
355.037	346.5
355.264	339.5
355.491	363.5
355.718	351.5
355.945	332.5
356.172	364.5
356.399	366.5
356.626	343.5
356.853	345.5
357.08	349.5
357.307	332.5
357.534	343.5
357.761	337.5
357.988	343.5
358.215	340.5
358.441	350.5
358.668	374.5
358.895	370.5
359.122	358.5
359.349	360.5
359.576	366.5
359.802	414.5
360.029	442.5
360.256	447.5
360.483	400.5
360.709	399.5
360.936	384.5
361.163	384.5
361.39	390.5
361.616	393.5
361.843	395.5
362.07	374.5
362.296	390.5
362.523	372.5
362.749	376.5
362.976	364.5
363.203	361.5
363.429	362.5
363.656	364.5
363.882	360.5
364.109	338.5
364.335	398.5
364.562	356.5
364.788	351.5
365.015	352.5
365.241	380.5
365.468	365.5
365.694	369.5
365.92	367.5
366.147	394.5
366.373	372.5
366.599	371.5
366.826	376.5
367.052	358.5
367.278	364.5
367.505	363.5
367.731	388.5
367.957	365.5
368.184	387.5
368.41	379.5
368.636	376.5
368.862	391.5
369.089	391.5
369.315	366.5
369.541	377.5
369.767	367.5
369.993	381.5
370.219	369.5
370.445	357.5
370.672	348.5
370.898	367.5
371.124	344.5
371.35	366.5
371.576	373.5
371.802	357.5
372.028	383.5
372.254	366.5
372.48	355.5
372.706	373.5
372.932	352.5
373.158	351.5
373.384	358.5
373.61	378.5
373.835	353.5
374.061	379.5
374.287	359.5
374.513	377.5
374.739	357.5
374.965	386.5
375.191	373.5
375.416	389.5
375.642	376.5
375.868	367.5
376.094	375.5
376.319	373.5
376.545	368.5
376.771	365.5
376.997	388.5
377.222	366.5
377.448	374.5
377.674	373.5
377.899	347.5
378.125	359.5
378.35	347.5
378.576	373.5
378.802	361.5
379.027	391.5
379.253	369.5
379.478	359.5
379.704	371.5
379.929	362.5
380.155	362.5
380.38	387.5
380.606	366.5
380.831	364.5
381.057	390.5
381.282	364.5
381.507	374.5
381.733	383.5
381.958	362.5
382.184	372.5
382.409	372.5
382.634	372.5
382.86	365.5
383.085	411.5
383.31	402.5
383.535	370.5
383.761	389.5
383.986	369.5
384.211	393.5
384.436	382.5
384.662	374.5
384.887	387.5
385.112	385.5
385.337	387.5
385.562	377.5
385.787	421.5
386.013	411.5
386.238	407.5
386.463	413.5
386.688	399.5
386.913	394.5
387.138	394.5
387.363	391.5
387.588	416.5
387.813	373.5
388.038	387.5
388.263	398.5
388.488	398.5
388.713	416.5
388.938	402.5
389.163	390.5
389.387	387.5
389.612	395.5
389.837	408.5
390.062	396.5
390.287	401.5
390.512	384.5
390.736	406.5
390.961	399.5
391.186	405.5
391.411	388.5
391.636	396.5
391.86	414.5
392.085	402.5
392.31	409.5
392.534	414.5
392.759	414.5
392.984	420.5
393.208	395.5
393.433	411.5
393.658	438.5
393.882	421.5
394.107	398.5
394.331	397.5
394.556	388.5
394.78	396.5
395.005	401.5
395.229	404.5
395.454	410.5
395.678	419.5
395.903	423.5
396.127	457.5
396.352	420.5
396.576	440.5
396.801	426.5
397.025	445.5
397.249	431.5
397.474	419.5
397.698	431.5
397.922	446.5
398.147	448.5
398.371	462.5
398.595	446.5
398.82	449.5
399.044	441.5
399.268	457.5
399.492	496.5
399.717	488.5
399.941	524.5
400.165	543.5
400.389	545.5
400.613	515.5
400.837	487.5
401.062	454.5
401.286	456.5
401.51	453.5
401.734	442.5
401.958	461.5
402.182	467.5
402.406	483.5
402.63	473.5
402.854	468.5
403.078	469.5
403.302	479.5
403.526	461.5
403.75	482.5
403.974	473.5
404.198	475.5
404.422	474.5
404.645	489.5
404.869	483.5
405.093	503.5
405.317	532.5
405.541	596.5
405.765	547.5
405.988	511.5
406.212	514.5
406.436	524.5
406.66	553.5
406.883	545.5
407.107	542.5
407.331	576.5
407.555	647.5
407.778	631.5
408.002	561.5
408.226	539.5
408.449	534.5
408.673	519.5
408.896	563.5
409.12	588.5
409.344	574.5
409.567	503.5
409.791	491.5
410.014	479.5
410.238	510.5
410.461	487.5
410.685	473.5
410.908	499.5
411.132	544.5
411.355	558.5
411.578	542.5
411.802	487.5
412.025	485.5
412.249	471.5
412.472	489.5
412.695	536.5
412.919	517.5
413.142	479.5
413.365	495.5
413.589	465.5
413.812	452.5
414.035	482.5
414.258	465.5
414.482	469.5
414.705	445.5
414.928	455.5
415.151	454.5
415.374	445.5
415.597	453.5
415.821	444.5
416.044	467.5
416.267	461.5
416.49	449.5
416.713	439.5
416.936	455.5
417.159	470.5
417.382	462.5
417.605	469.5
417.828	481.5
418.051	487.5
418.274	487.5
418.497	473.5
418.72	462.5
418.943	451.5
419.166	493.5
419.389	486.5
419.611	486.5
419.834	481.5
420.057	496.5
420.28	505.5
420.503	482.5
420.726	483.5
420.948	516.5
421.171	519.5
421.394	572.5
421.617	519.5
421.839	497.5
422.062	496.5
422.285	501.5
422.507	567.5
422.73	648.5
422.953	608.5
423.175	533.5
423.398	510.5
423.621	531.5
423.843	539.5
424.066	539.5
424.288	517.5
424.511	557.5
424.733	621.5
424.956	680.5
425.178	661.5
425.401	640.5
425.623	686.5
425.846	580.5
426.068	550.5
426.291	517.5
426.513	554.5
426.735	549.5
426.958	609.5
427.18	644.5
427.402	803.5
427.625	872.5
427.847	793.5
428.069	660.5
428.292	612.5
428.514	547.5
428.736	532.5
428.958	500.5
429.181	492.5
429.403	526.5
429.625	531.5
429.847	553.5
430.069	621.5
430.292	601.5
430.514	528.5
430.736	499.5
430.958	496.5
431.18	473.5
431.402	485.5
431.624	465.5
431.846	454.5
432.068	450.5
432.29	477.5
432.512	469.5
432.734	470.5
432.956	499.5
433.178	512.5
433.4	507.5
433.622	493.5
433.844	478.5
434.066	450.5
434.287	466.5
434.509	466.5
434.731	483.5
434.953	481.5
435.175	495.5
435.397	529.5
435.618	553.5
435.84	581.5
436.062	665.5
436.284	733.5
436.505	632.5
436.727	569.5
436.949	536.5
437.17	509.5
437.392	509.5
437.614	509.5
437.835	541.5
438.057	663.5
438.278	757.5
438.5	748.5
438.721	819.5
438.943	795.5
439.165	625.5
439.386	571.5
439.608	561.5
439.829	564.5
440.05	591.5
440.272	628.5
440.493	595.5
440.715	551.5
440.936	545.5
441.158	505.5
441.379	513.5
441.6	514.5
441.822	555.5
442.043	567.5
442.264	651.5
442.486	723.5
442.707	606.5
442.928	575.5
443.149	600.5
443.371	597.5
443.592	628.5
443.813	726.5
444.034	800.5
444.255	680.5
444.476	578.5
444.698	563.5
444.919	566.5
445.14	677.5
445.361	588.5
445.582	585.5
445.803	651.5
446.024	758.5
446.245	779.5
446.466	691.5
446.687	591.5
446.908	558.5
447.129	504.5
447.35	523.5
447.571	516.5
447.792	507.5
448.013	533.5
448.234	550.5
448.455	595.5
448.675	685.5
448.896	803.5
449.117	699.5
449.338	673.5
449.559	755.5
449.779	839.5
450	680.5
450.221	571.5
450.442	501.5
450.662	533.5
450.883	506.5
451.104	541.5
451.324	513.5
451.545	490.5
451.766	470.5
451.986	469.5
452.207	438.5
452.428	445.5
452.648	452.5
452.869	453.5
453.089	480.5
453.31	486.5
453.53	463.5
453.751	463.5
453.971	472.5
454.192	506.5
454.412	475.5
454.633	469.5
454.853	449.5
455.073	457.5
455.294	477.5
455.514	545.5
455.734	529.5
455.955	441.5
456.175	435.5
456.395	404.5
456.616	436.5
456.836	408.5
457.056	427.5
457.276	427.5
457.497	429.5
457.717	434.5
457.937	437.5
458.157	452.5
458.377	441.5
458.598	475.5
458.818	510.5
459.038	591.5
459.258	632.5
459.478	535.5
459.698	492.5
459.918	470.5
460.138	459.5
460.358	456.5
460.578	456.5
460.798	482.5
461.018	462.5
461.238	464.5
461.458	456.5
461.678	483.5
461.898	469.5
462.118	460.5
462.338	469.5
462.558	483.5
462.777	488.5
462.997	500.5
463.217	485.5
463.437	514.5
463.657	491.5
463.876	500.5
464.096	509.5
464.316	484.5
464.536	487.5
464.755	497.5
464.975	505.5
465.195	568.5
465.414	631.5
465.634	561.5
465.854	531.5
466.073	492.5
466.293	493.5
466.512	484.5
466.732	456.5
466.951	472.5
467.171	473.5
467.391	481.5
467.61	451.5
467.829	484.5
468.049	487.5
468.268	447.5
468.488	478.5
468.707	455.5
468.927	462.5
469.146	448.5
469.365	448.5
469.585	427.5
469.804	461.5
470.023	486.5
470.243	479.5
470.462	474.5
470.681	498.5
470.901	507.5
471.12	469.5
471.339	461.5
471.558	459.5
471.777	469.5
471.997	477.5
472.216	484.5
472.435	489.5
472.654	500.5
472.873	458.5
473.092	459.5
473.311	473.5
473.53	470.5
473.749	465.5
473.968	506.5
474.187	627.5
474.406	648.5
474.625	533.5
474.844	493.5
475.063	490.5
475.282	463.5
475.501	480.5
475.72	485.5
475.939	491.5
476.158	475.5
476.377	480.5
476.596	480.5
476.814	511.5
477.033	502.5
477.252	504.5
477.471	527.5
477.69	493.5
477.908	478.5
478.127	501.5
478.346	516.5
478.564	537.5
478.783	519.5
479.002	544.5
479.22	565.5
479.439	551.5
479.658	569.5
479.876	563.5
480.095	567.5
480.313	593.5
480.532	581.5
480.751	575.5
480.969	575.5
481.188	609.5
481.406	675.5
481.624	593.5
481.843	587.5
482.061	579.5
482.28	575.5
482.498	549.5
482.717	580.5
482.935	571.5
483.153	556.5
483.372	549.5
483.59	572.5
483.808	539.5
484.027	549.5
484.245	553.5
484.463	558.5
484.681	567.5
484.9	570.5
485.118	565.5
485.336	587.5
485.554	563.5
485.772	575.5
485.99	561.5
486.209	592.5
486.427	608.5
486.645	601.5
486.863	632.5
487.081	635.5
487.299	611.5
487.517	611.5
487.735	607.5
487.953	607.5
488.171	612.5
488.389	620.5
488.607	632.5
488.825	610.5
489.043	592.5
489.261	631.5
489.479	621.5
489.696	622.5
489.914	630.5
490.132	632.5
490.35	628.5
490.568	668.5
490.786	655.5
491.003	664.5
491.221	653.5
491.439	693.5
491.657	731.5
491.874	708.5
492.092	712.5
492.31	744.5
492.527	747.5
492.745	711.5
492.963	719.5
493.18	733.5
493.398	722.5
493.615	723.5
493.833	742.5
494.05	752.5
494.268	746.5
494.485	759.5
494.703	721.5
494.92	727.5
495.138	749.5
495.355	739.5
495.573	751.5
495.79	747.5
496.008	755.5
496.225	731.5
496.442	744.5
496.66	737.5
496.877	716.5
497.094	726.5
497.312	739.5
497.529	731.5
497.746	739.5
497.963	750.5
498.181	792.5
498.398	785.5
498.615	793.5
498.832	813.5
499.049	783.5
499.267	823.5
499.484	829.5
499.701	849.5
499.918	871.5
500.135	868.5
500.352	904.5
500.569	904.5
500.786	929.5
501.003	921.5
501.22	889.5
501.437	895.5
501.654	911.5
501.871	896.5
502.088	857.5
502.305	852.5
502.522	804.5
502.739	799.5
502.956	771.5
503.172	771.5
503.389	759.5
503.606	765.5
503.823	792.5
504.04	763.5
504.256	745.5
504.473	748.5
504.69	731.5
504.907	719.5
505.123	710.5
505.34	706.5
505.557	697.5
505.773	707.5
505.99	709.5
506.207	677.5
506.423	693.5
506.64	697.5
506.856	676.5
507.073	677.5
507.289	686.5
507.506	669.5
507.722	705.5
507.939	725.5
508.155	710.5
508.372	678.5
508.588	701.5
508.805	682.5
509.021	682.5
509.238	701.5
509.454	694.5
509.67	679.5
509.887	671.5
510.103	680.5
510.319	707.5
510.536	787.5
510.752	1311.5
510.968	1079.5
511.184	720.5
511.401	695.5
511.617	696.5
511.833	647.5
512.049	633.5
512.265	612.5
512.481	598.5
512.698	603.5
512.914	630.5
513.13	643.5
513.346	622.5
513.562	643.5
513.778	629.5
513.994	656.5
514.21	678.5
514.426	679.5
514.642	752.5
514.858	775.5
515.074	807.5
515.29	971.5
515.506	1469.5
515.721	1182.5
515.937	805.5
516.153	717.5
516.369	687.5
516.585	658.5
516.801	631.5
517.016	648.5
517.232	637.5
517.448	649.5
517.664	642.5
517.879	653.5
518.095	657.5
518.311	666.5
518.527	630.5
518.742	624.5
518.958	622.5
519.173	639.5
519.389	620.5
