Data from 1971.PennyLincolnUp.Lamp.En5.5.200Scan.071719.P1.Scan 2. Changed Angle._HRD10591_15-24-55-843.txt Node
Date: Thu Jul 18 15:24:55 EDT 2019
User: cochatt
Spectrometer: HR+D1059
Trigger mode: 1
Integration Time (sec): 1.000000E-1
Scans to average: 1
Electric dark correction enabled: true
Nonlinearity correction enabled: false
Boxcar width: 0
XAxis mode: Wavelengths
Number of Pixels in Spectrum: 2048
>>>>>Begin Spectral Data<<<<<
223.165	-18.06
223.4	-18.06
223.635	-18.06
223.869	-9.06
224.104	-19.06
224.338	-6.06
224.573	-16.06
224.808	-24.06
225.042	-8.06
225.277	-7.06
225.511	2.94
225.746	8.94
225.98	4.94
226.215	7.94
226.449	20.94
226.683	12.94
226.918	21.94
227.152	26.94
227.387	32.94
227.621	39.94
227.856	34.94
228.09	59.94
228.324	53.94
228.559	39.94
228.793	61.94
229.027	112.94
229.262	115.94
229.496	130.94
229.73	137.94
229.964	167.94
230.199	157.94
230.433	127.94
230.667	140.94
230.901	125.94
231.136	123.94
231.37	140.94
231.604	122.94
231.838	119.94
232.072	119.94
232.306	116.94
232.541	106.94
232.775	102.94
233.009	131.94
233.243	113.94
233.477	137.94
233.711	133.94
233.945	129.94
234.179	126.94
234.413	127.94
234.647	111.94
234.881	131.94
235.115	143.94
235.349	133.94
235.583	130.94
235.817	131.94
236.051	146.94
236.285	126.94
236.519	141.94
236.753	155.94
236.987	172.94
237.221	225.94
237.455	269.94
237.689	213.94
237.922	171.94
238.156	149.94
238.39	148.94
238.624	151.94
238.858	132.94
239.091	147.94
239.325	133.94
239.559	126.94
239.793	138.94
240.027	147.94
240.26	162.94
240.494	167.94
240.728	179.94
240.961	162.94
241.195	163.94
241.429	159.94
241.662	141.94
241.896	139.94
242.13	147.94
242.363	142.94
242.597	124.94
242.83	149.94
243.064	141.94
243.298	139.94
243.531	147.94
243.765	158.94
243.998	149.94
244.232	151.94
244.465	168.94
244.699	169.94
244.932	143.94
245.166	141.94
245.399	145.94
245.633	157.94
245.866	146.94
246.099	168.94
246.333	143.94
246.566	164.94
246.8	163.94
247.033	149.94
247.266	161.94
247.5	182.94
247.733	182.94
247.966	180.94
248.2	200.94
248.433	203.94
248.666	192.94
248.899	204.94
249.133	222.94
249.366	234.94
249.599	231.94
249.832	203.94
250.066	202.94
250.299	202.94
250.532	205.94
250.765	245.94
250.998	248.94
251.231	277.94
251.465	242.94
251.698	226.94
251.931	216.94
252.164	211.94
252.397	224.94
252.63	202.94
252.863	235.94
253.096	239.94
253.329	258.94
253.562	275.94
253.795	248.94
254.028	223.94
254.261	237.94
254.494	253.94
254.727	296.94
254.96	310.94
255.193	335.94
255.426	290.94
255.659	262.94
255.892	271.94
256.124	275.94
256.357	263.94
256.59	267.94
256.823	234.94
257.056	230.94
257.289	224.94
257.521	244.94
257.754	221.94
257.987	243.94
258.22	217.94
258.452	216.94
258.685	202.94
258.918	222.94
259.151	215.94
259.383	260.94
259.616	241.94
259.849	259.94
260.081	255.94
260.314	268.94
260.547	287.94
260.779	279.94
261.012	261.94
261.244	261.94
261.477	231.94
261.71	242.94
261.942	272.94
262.175	269.94
262.407	261.94
262.64	223.94
262.872	207.94
263.105	256.94
263.337	229.94
263.57	236.94
263.802	230.94
264.035	218.94
264.267	227.94
264.499	218.94
264.732	222.94
264.964	218.94
265.197	197.94
265.429	217.94
265.661	226.94
265.894	234.94
266.126	216.94
266.358	231.94
266.591	230.94
266.823	216.94
267.055	245.94
267.287	248.94
267.52	241.94
267.752	233.94
267.984	233.94
268.216	237.94
268.448	249.94
268.681	253.94
268.913	274.94
269.145	279.94
269.377	290.94
269.609	300.94
269.841	289.94
270.073	299.94
270.306	326.94
270.538	339.94
270.77	361.94
271.002	334.94
271.234	323.94
271.466	319.94
271.698	337.94
271.93	348.94
272.162	334.94
272.394	358.94
272.626	341.94
272.858	330.94
273.09	305.94
273.322	297.94
273.553	318.94
273.785	265.94
274.017	305.94
274.249	273.94
274.481	286.94
274.713	297.94
274.945	293.94
275.176	290.94
275.408	278.94
275.64	286.94
275.872	284.94
276.104	251.94
276.335	273.94
276.567	297.94
276.799	315.94
277.031	324.94
277.262	332.94
277.494	357.94
277.726	325.94
277.957	310.94
278.189	295.94
278.421	291.94
278.652	284.94
278.884	297.94
279.115	267.94
279.347	273.94
279.579	265.94
279.81	278.94
280.042	272.94
280.273	277.94
280.505	279.94
280.736	265.94
280.968	284.94
281.199	261.94
281.431	271.94
281.662	265.94
281.894	283.94
282.125	281.94
282.356	295.94
282.588	328.94
282.819	332.94
283.051	292.94
283.282	266.94
283.513	278.94
283.745	275.94
283.976	288.94
284.207	298.94
284.439	291.94
284.67	279.94
284.901	293.94
285.132	260.94
285.364	289.94
285.595	295.94
285.826	283.94
286.057	278.94
286.288	266.94
286.52	285.94
286.751	273.94
286.982	290.94
287.213	286.94
287.444	292.94
287.675	289.94
287.906	299.94
288.138	306.94
288.369	315.94
288.6	309.94
288.831	305.94
289.062	296.94
289.293	296.94
289.524	299.94
289.755	290.94
289.986	263.94
290.217	265.94
290.448	288.94
290.679	311.94
290.91	257.94
291.141	269.94
291.371	289.94
291.602	296.94
291.833	286.94
292.064	297.94
292.295	299.94
292.526	307.94
292.757	289.94
292.987	273.94
293.218	282.94
293.449	298.94
293.68	294.94
293.91	281.94
294.141	287.94
294.372	285.94
294.603	291.94
294.833	275.94
295.064	293.94
295.295	301.94
295.525	287.94
295.756	285.94
295.987	299.94
296.217	360.94
296.448	353.94
296.679	307.94
296.909	301.94
297.14	295.94
297.37	298.94
297.601	320.94
297.831	280.94
298.062	300.94
298.292	295.94
298.523	304.94
298.753	296.94
298.984	303.94
299.214	301.94
299.445	299.94
299.675	306.94
299.905	311.94
300.136	309.94
300.366	285.94
300.597	305.94
300.827	312.94
301.057	317.94
301.288	348.94
301.518	319.94
301.748	320.94
301.979	332.94
302.209	325.94
302.439	332.94
302.669	339.94
302.9	333.94
303.13	331.94
303.36	318.94
303.59	329.94
303.82	351.94
304.051	324.94
304.281	333.94
304.511	333.94
304.741	324.94
304.971	309.94
305.201	327.94
305.431	328.94
305.661	327.94
305.891	338.94
306.121	334.94
306.352	339.94
306.582	335.94
306.812	343.94
307.042	338.94
307.272	336.94
307.502	339.94
307.731	325.94
307.961	330.94
308.191	313.94
308.421	332.94
308.651	335.94
308.881	341.94
309.111	339.94
309.341	350.94
309.571	385.94
309.8	364.94
310.03	361.94
310.26	380.94
310.49	394.94
310.72	398.94
310.949	441.94
311.179	437.94
311.409	403.94
311.639	394.94
311.868	382.94
312.098	409.94
312.328	413.94
312.557	422.94
312.787	461.94
313.017	441.94
313.246	403.94
313.476	381.94
313.706	410.94
313.935	412.94
314.165	416.94
314.394	419.94
314.624	428.94
314.853	412.94
315.083	413.94
315.312	392.94
315.542	374.94
315.771	380.94
316.001	385.94
316.23	369.94
316.46	385.94
316.689	390.94
316.919	397.94
317.148	400.94
317.377	422.94
317.607	407.94
317.836	405.94
318.065	385.94
318.295	378.94
318.524	367.94
318.753	403.94
318.983	385.94
319.212	379.94
319.441	400.94
319.67	386.94
319.9	405.94
320.129	403.94
320.358	403.94
320.587	415.94
320.816	425.94
321.046	412.94
321.275	427.94
321.504	416.94
321.733	436.94
321.962	442.94
322.191	440.94
322.42	454.94
322.649	502.94
322.878	485.94
323.108	509.94
323.337	556.94
323.566	563.94
323.795	627.94
324.024	689.94
324.253	855.94
324.482	1239.94
324.71	1987.94
324.939	2884.94
325.168	2466.94
325.397	1273.94
325.626	831.94
325.855	659.94
326.084	605.94
326.313	598.94
326.542	578.94
326.77	649.94
326.999	775.94
327.228	1114.94
327.457	1761.94
327.686	2147.94
327.914	1455.94
328.143	911.94
328.372	796.94
328.6	740.94
328.829	686.94
329.058	679.94
329.287	709.94
329.515	646.94
329.744	592.94
329.972	583.94
330.201	622.94
330.43	659.94
330.658	691.94
330.887	741.94
331.115	705.94
331.344	615.94
331.572	553.94
331.801	548.94
332.03	569.94
332.258	519.94
332.486	511.94
332.715	471.94
332.943	467.94
333.172	487.94
333.4	467.94
333.629	478.94
333.857	499.94
334.085	515.94
334.314	531.94
334.542	570.94
334.771	599.94
334.999	547.94
335.227	515.94
335.455	501.94
335.684	493.94
335.912	467.94
336.14	452.94
336.369	455.94
336.597	471.94
336.825	475.94
337.053	463.94
337.281	446.94
337.51	460.94
337.738	478.94
337.966	452.94
338.194	498.94
338.422	475.94
338.65	468.94
338.878	452.94
339.106	449.94
339.334	439.94
339.562	435.94
339.79	438.94
340.018	450.94
340.246	454.94
340.474	467.94
340.702	443.94
340.93	440.94
341.158	444.94
341.386	453.94
341.614	455.94
341.842	459.94
342.07	465.94
342.298	426.94
342.526	444.94
342.754	428.94
342.981	444.94
343.209	423.94
343.437	442.94
343.665	426.94
343.893	445.94
344.12	443.94
344.348	453.94
344.576	444.94
344.804	445.94
345.031	469.94
345.259	472.94
345.487	472.94
345.714	458.94
345.942	442.94
346.17	460.94
346.397	439.94
346.625	480.94
346.853	449.94
347.08	460.94
347.308	429.94
347.535	472.94
347.763	465.94
347.99	451.94
348.218	462.94
348.445	472.94
348.673	456.94
348.9	428.94
349.128	434.94
349.355	419.94
349.583	415.94
349.81	445.94
350.037	440.94
350.265	428.94
350.492	447.94
350.72	423.94
350.947	448.94
351.174	455.94
351.402	466.94
351.629	461.94
351.856	481.94
352.083	461.94
352.311	476.94
352.538	475.94
352.765	473.94
352.992	481.94
353.22	458.94
353.447	469.94
353.674	441.94
353.901	408.94
354.128	427.94
354.355	428.94
354.583	416.94
354.81	421.94
355.037	436.94
355.264	402.94
355.491	400.94
355.718	388.94
355.945	378.94
356.172	407.94
356.399	399.94
356.626	393.94
356.853	409.94
357.08	410.94
357.307	414.94
357.534	435.94
357.761	423.94
357.988	395.94
358.215	406.94
358.441	406.94
358.668	420.94
358.895	422.94
359.122	422.94
359.349	441.94
359.576	464.94
359.802	473.94
360.029	545.94
360.256	541.94
360.483	514.94
360.709	495.94
360.936	454.94
361.163	445.94
361.39	475.94
361.616	464.94
361.843	440.94
362.07	452.94
362.296	460.94
362.523	455.94
362.749	456.94
362.976	450.94
363.203	463.94
363.429	426.94
363.656	430.94
363.882	420.94
364.109	422.94
364.335	429.94
364.562	423.94
364.788	425.94
365.015	428.94
365.241	446.94
365.468	443.94
365.694	453.94
365.92	447.94
366.147	429.94
366.373	421.94
366.599	457.94
366.826	437.94
367.052	436.94
367.278	418.94
367.505	429.94
367.731	442.94
367.957	433.94
368.184	426.94
368.41	465.94
368.636	461.94
368.862	444.94
369.089	455.94
369.315	427.94
369.541	428.94
369.767	449.94
369.993	428.94
370.219	421.94
370.445	420.94
370.672	418.94
370.898	431.94
371.124	427.94
371.35	415.94
371.576	412.94
371.802	441.94
372.028	403.94
372.254	437.94
372.48	411.94
372.706	433.94
372.932	437.94
373.158	410.94
373.384	433.94
373.61	428.94
373.835	426.94
374.061	418.94
374.287	428.94
374.513	399.94
374.739	412.94
374.965	447.94
375.191	445.94
375.416	437.94
375.642	437.94
375.868	430.94
376.094	439.94
376.319	415.94
376.545	399.94
376.771	411.94
376.997	429.94
377.222	448.94
377.448	430.94
377.674	444.94
377.899	413.94
378.125	425.94
378.35	421.94
378.576	403.94
378.802	386.94
379.027	422.94
379.253	411.94
379.478	389.94
379.704	419.94
379.929	405.94
380.155	429.94
380.38	441.94
380.606	411.94
380.831	423.94
381.057	455.94
381.282	430.94
381.507	413.94
381.733	426.94
381.958	437.94
382.184	435.94
382.409	428.94
382.634	415.94
382.86	411.94
383.085	423.94
383.31	435.94
383.535	439.94
383.761	413.94
383.986	436.94
384.211	429.94
384.436	427.94
384.662	450.94
384.887	464.94
385.112	443.94
385.337	434.94
385.562	441.94
385.787	454.94
386.013	466.94
386.238	470.94
386.463	446.94
386.688	472.94
386.913	456.94
387.138	458.94
387.363	459.94
387.588	447.94
387.813	455.94
388.038	475.94
388.263	464.94
388.488	435.94
388.713	457.94
388.938	457.94
389.163	478.94
389.387	445.94
389.612	437.94
389.837	461.94
390.062	441.94
390.287	459.94
390.512	441.94
390.736	446.94
390.961	451.94
391.186	454.94
391.411	459.94
391.636	473.94
391.86	462.94
392.085	450.94
392.31	472.94
392.534	462.94
392.759	461.94
392.984	475.94
393.208	461.94
393.433	455.94
393.658	446.94
393.882	466.94
394.107	467.94
394.331	462.94
394.556	458.94
394.78	463.94
395.005	457.94
395.229	459.94
395.454	456.94
395.678	483.94
395.903	475.94
396.127	509.94
396.352	520.94
396.576	490.94
396.801	462.94
397.025	479.94
397.249	477.94
397.474	492.94
397.698	502.94
397.922	504.94
398.147	527.94
398.371	547.94
398.595	503.94
398.82	531.94
399.044	513.94
399.268	539.94
399.492	567.94
399.717	577.94
399.941	588.94
400.165	614.94
400.389	627.94
400.613	636.94
400.837	565.94
401.062	539.94
401.286	529.94
401.51	516.94
401.734	528.94
401.958	540.94
402.182	544.94
402.406	572.94
402.63	550.94
402.854	535.94
403.078	556.94
403.302	548.94
403.526	569.94
403.75	574.94
403.974	523.94
404.198	552.94
404.422	535.94
404.645	556.94
404.869	558.94
405.093	614.94
405.317	654.94
405.541	697.94
405.765	625.94
405.988	615.94
406.212	601.94
406.436	633.94
406.66	645.94
406.883	635.94
407.107	657.94
407.331	683.94
407.555	747.94
407.778	746.94
408.002	667.94
408.226	646.94
408.449	622.94
408.673	604.94
408.896	644.94
409.12	705.94
409.344	649.94
409.567	614.94
409.791	595.94
410.014	569.94
410.238	570.94
410.461	545.94
410.685	587.94
410.908	604.94
411.132	615.94
411.355	669.94
411.578	650.94
411.802	564.94
412.025	565.94
412.249	574.94
412.472	617.94
412.695	663.94
412.919	606.94
413.142	588.94
413.365	550.94
413.589	560.94
413.812	540.94
414.035	556.94
414.258	537.94
414.482	521.94
414.705	542.94
414.928	498.94
415.151	522.94
415.374	514.94
415.597	520.94
415.821	524.94
416.044	531.94
416.267	573.94
416.49	529.94
416.713	527.94
416.936	517.94
417.159	542.94
417.382	541.94
417.605	539.94
417.828	538.94
418.051	565.94
418.274	557.94
418.497	555.94
418.72	550.94
418.943	537.94
419.166	569.94
419.389	578.94
419.611	552.94
419.834	567.94
420.057	561.94
420.28	569.94
420.503	561.94
420.726	573.94
420.948	596.94
421.171	650.94
421.394	665.94
421.617	607.94
421.839	573.94
422.062	547.94
422.285	607.94
422.507	660.94
422.73	769.94
422.953	706.94
423.175	647.94
423.398	607.94
423.621	588.94
423.843	646.94
424.066	617.94
424.288	621.94
424.511	678.94
424.733	724.94
424.956	810.94
425.178	783.94
425.401	799.94
425.623	787.94
425.846	685.94
426.068	653.94
426.291	634.94
426.513	632.94
426.735	617.94
426.958	697.94
427.18	787.94
427.402	965.94
427.625	1054.94
427.847	951.94
428.069	807.94
428.292	753.94
428.514	674.94
428.736	639.94
428.958	620.94
429.181	589.94
429.403	587.94
429.625	606.94
429.847	651.94
430.069	719.94
430.292	741.94
430.514	627.94
430.736	593.94
430.958	586.94
431.18	557.94
431.402	577.94
431.624	534.94
431.846	522.94
432.068	529.94
432.29	566.94
432.512	565.94
432.734	558.94
432.956	549.94
433.178	576.94
433.4	587.94
433.622	561.94
433.844	559.94
434.066	547.94
434.287	564.94
434.509	564.94
434.731	543.94
434.953	565.94
435.175	585.94
435.397	635.94
435.618	648.94
435.84	689.94
436.062	805.94
436.284	875.94
436.505	746.94
436.727	665.94
436.949	623.94
437.17	626.94
437.392	591.94
437.614	625.94
437.835	657.94
438.057	787.94
438.278	917.94
438.5	900.94
438.721	960.94
438.943	900.94
439.165	750.94
439.386	679.94
439.608	669.94
439.829	673.94
440.05	708.94
440.272	733.94
440.493	713.94
440.715	643.94
440.936	614.94
441.158	609.94
441.379	607.94
441.6	615.94
441.822	656.94
442.043	701.94
442.264	807.94
442.486	821.94
442.707	728.94
442.928	695.94
443.149	667.94
443.371	703.94
443.592	764.94
443.813	845.94
444.034	926.94
444.255	771.94
444.476	667.94
444.698	669.94
444.919	617.94
445.14	771.94
445.361	729.94
445.582	712.94
445.803	777.94
446.024	919.94
446.245	906.94
446.466	831.94
446.687	709.94
446.908	655.94
447.129	638.94
447.35	600.94
447.571	621.94
447.792	590.94
448.013	600.94
448.234	663.94
448.455	708.94
448.675	805.94
448.896	972.94
449.117	796.94
449.338	777.94
449.559	887.94
449.779	980.94
450	788.94
450.221	677.94
450.442	606.94
450.662	611.94
450.883	620.94
451.104	641.94
451.324	615.94
451.545	584.94
451.766	554.94
451.986	550.94
452.207	535.94
452.428	549.94
452.648	535.94
452.869	537.94
453.089	537.94
453.31	570.94
453.53	555.94
453.751	542.94
453.971	546.94
454.192	573.94
454.412	555.94
454.633	549.94
454.853	533.94
455.073	538.94
455.294	549.94
455.514	634.94
455.734	643.94
455.955	543.94
456.175	517.94
456.395	489.94
456.616	485.94
456.836	494.94
457.056	499.94
457.276	481.94
457.497	509.94
457.717	500.94
457.937	510.94
458.157	522.94
458.377	515.94
458.598	559.94
458.818	612.94
459.038	747.94
459.258	758.94
459.478	629.94
459.698	559.94
459.918	557.94
460.138	547.94
460.358	542.94
460.578	540.94
460.798	558.94
461.018	571.94
461.238	559.94
461.458	541.94
461.678	549.94
461.898	537.94
462.118	526.94
462.338	541.94
462.558	566.94
462.777	561.94
462.997	584.94
463.217	590.94
463.437	585.94
463.657	564.94
463.876	569.94
464.096	585.94
464.316	559.94
464.536	575.94
464.755	593.94
464.975	609.94
465.195	669.94
465.414	802.94
465.634	693.94
465.854	607.94
466.073	597.94
466.293	572.94
466.512	555.94
466.732	526.94
466.951	539.94
467.171	531.94
467.391	543.94
467.61	573.94
467.829	571.94
468.049	573.94
468.268	566.94
468.488	532.94
468.707	551.94
468.927	533.94
469.146	541.94
469.365	543.94
469.585	529.94
469.804	535.94
470.023	567.94
470.243	545.94
470.462	548.94
470.681	600.94
470.901	579.94
471.12	555.94
471.339	544.94
471.558	540.94
471.777	547.94
471.997	554.94
472.216	564.94
472.435	598.94
472.654	613.94
472.873	559.94
473.092	558.94
473.311	556.94
473.53	563.94
473.749	569.94
473.968	604.94
474.187	771.94
474.406	779.94
474.625	633.94
474.844	598.94
475.063	568.94
475.282	545.94
475.501	541.94
475.72	579.94
475.939	580.94
476.158	574.94
476.377	557.94
476.596	559.94
476.814	598.94
477.033	609.94
477.252	595.94
477.471	613.94
477.69	606.94
477.908	614.94
478.127	585.94
478.346	587.94
478.564	596.94
478.783	627.94
479.002	635.94
479.22	627.94
479.439	651.94
479.658	655.94
479.876	631.94
480.095	667.94
480.313	708.94
480.532	669.94
480.751	653.94
480.969	676.94
481.188	751.94
481.406	836.94
481.624	724.94
481.843	679.94
482.061	676.94
482.28	664.94
482.498	650.94
482.717	662.94
482.935	652.94
483.153	661.94
483.372	667.94
483.59	660.94
483.808	669.94
484.027	651.94
484.245	667.94
484.463	669.94
484.681	676.94
484.9	661.94
485.118	693.94
485.336	686.94
485.554	681.94
485.772	675.94
485.99	675.94
486.209	685.94
486.427	693.94
486.645	702.94
486.863	723.94
487.081	723.94
487.299	725.94
487.517	711.94
487.735	712.94
487.953	726.94
488.171	707.94
488.389	711.94
488.607	709.94
488.825	714.94
489.043	706.94
489.261	696.94
489.479	715.94
489.696	742.94
489.914	730.94
490.132	769.94
490.35	761.94
490.568	751.94
490.786	779.94
491.003	778.94
491.221	778.94
491.439	796.94
491.657	809.94
491.874	811.94
492.092	817.94
492.31	847.94
492.527	840.94
492.745	834.94
492.963	883.94
493.18	871.94
493.398	869.94
493.615	867.94
493.833	878.94
494.05	886.94
494.268	872.94
494.485	865.94
494.703	846.94
494.92	865.94
495.138	868.94
495.355	884.94
495.573	845.94
495.79	868.94
496.008	874.94
496.225	859.94
496.442	845.94
496.66	862.94
496.877	876.94
497.094	869.94
497.312	870.94
497.529	881.94
497.746	874.94
497.963	909.94
498.181	892.94
498.398	899.94
498.615	911.94
498.832	937.94
499.049	933.94
499.267	965.94
499.484	950.94
499.701	979.94
499.918	988.94
500.135	1030.94
500.352	1057.94
500.569	1068.94
500.786	1078.94
501.003	1056.94
501.22	1061.94
501.437	1060.94
