Data from 1971.PennyLincolnUp.Lamp.En5.5.200Scan.071719.P1.Scan 2. Changed Angle._HRD10591_15-24-30-843.txt Node
Date: Thu Jul 18 15:24:30 EDT 2019
User: cochatt
Spectrometer: HR+D1059
Trigger mode: 1
Integration Time (sec): 1.000000E-1
Scans to average: 1
Electric dark correction enabled: true
Nonlinearity correction enabled: false
Boxcar width: 0
XAxis mode: Wavelengths
Number of Pixels in Spectrum: 2048
>>>>>Begin Spectral Data<<<<<
223.165	-11.62
223.4	-11.62
223.635	-11.62
223.869	-7.62
224.104	-24.62
224.338	-6.62
224.573	-15.62
224.808	-19.62
225.042	-14.62
225.277	-16.62
225.511	-8.62
225.746	2.38
225.98	11.38
226.215	11.38
226.449	20.38
226.683	30.38
226.918	24.38
227.152	25.38
227.387	41.38
227.621	25.38
227.856	49.38
228.09	44.38
228.324	42.38
228.559	60.38
228.793	72.38
229.027	88.38
229.262	112.38
229.496	127.38
229.73	147.38
229.964	169.38
230.199	134.38
230.433	131.38
230.667	121.38
230.901	130.38
231.136	105.38
231.37	117.38
231.604	119.38
231.838	119.38
232.072	131.38
232.306	128.38
232.541	122.38
232.775	124.38
233.009	104.38
233.243	115.38
233.477	123.38
233.711	126.38
233.945	104.38
234.179	101.38
234.413	114.38
234.647	121.38
234.881	124.38
235.115	132.38
235.349	129.38
235.583	139.38
235.817	129.38
236.051	133.38
236.285	127.38
236.519	124.38
236.753	142.38
236.987	154.38
237.221	208.38
237.455	281.38
237.689	217.38
237.922	152.38
238.156	137.38
238.39	121.38
238.624	142.38
238.858	121.38
239.091	129.38
239.325	132.38
239.559	141.38
239.793	159.38
240.027	147.38
240.26	157.38
240.494	165.38
240.728	165.38
240.961	154.38
241.195	158.38
241.429	141.38
241.662	148.38
241.896	149.38
242.13	144.38
242.363	139.38
242.597	138.38
242.83	142.38
243.064	150.38
243.298	138.38
243.531	167.38
243.765	153.38
243.998	142.38
244.232	152.38
244.465	151.38
244.699	158.38
244.932	145.38
245.166	157.38
245.399	159.38
245.633	163.38
245.866	132.38
246.099	153.38
246.333	153.38
246.566	144.38
246.8	158.38
247.033	157.38
247.266	155.38
247.5	164.38
247.733	193.38
247.966	181.38
248.2	186.38
248.433	180.38
248.666	182.38
248.899	211.38
249.133	214.38
249.366	221.38
249.599	219.38
249.832	217.38
250.066	213.38
250.299	202.38
250.532	205.38
250.765	230.38
250.998	240.38
251.231	255.38
251.465	248.38
251.698	226.38
251.931	221.38
252.164	215.38
252.397	201.38
252.63	228.38
252.863	230.38
253.096	241.38
253.329	244.38
253.562	253.38
253.795	251.38
254.028	233.38
254.261	246.38
254.494	234.38
254.727	287.38
254.96	335.38
255.193	296.38
255.426	293.38
255.659	285.38
255.892	265.38
256.124	263.38
256.357	247.38
256.59	245.38
256.823	246.38
257.056	235.38
257.289	241.38
257.521	227.38
257.754	223.38
257.987	227.38
258.22	230.38
258.452	230.38
258.685	236.38
258.918	233.38
259.151	253.38
259.383	245.38
259.616	256.38
259.849	262.38
260.081	262.38
260.314	280.38
260.547	273.38
260.779	282.38
261.012	241.38
261.244	241.38
261.477	244.38
261.71	234.38
261.942	227.38
262.175	257.38
262.407	260.38
262.64	220.38
262.872	233.38
263.105	213.38
263.337	212.38
263.57	219.38
263.802	200.38
264.035	228.38
264.267	207.38
264.499	217.38
264.732	230.38
264.964	219.38
265.197	236.38
265.429	225.38
265.661	207.38
265.894	219.38
266.126	227.38
266.358	218.38
266.591	238.38
266.823	229.38
267.055	225.38
267.287	226.38
267.52	235.38
267.752	242.38
267.984	241.38
268.216	223.38
268.448	249.38
268.681	243.38
268.913	247.38
269.145	285.38
269.377	306.38
269.609	300.38
269.841	280.38
270.073	281.38
270.306	326.38
270.538	348.38
270.77	345.38
271.002	333.38
271.234	340.38
271.466	323.38
271.698	346.38
271.93	347.38
272.162	352.38
272.394	331.38
272.626	327.38
272.858	319.38
273.09	308.38
273.322	276.38
273.553	274.38
273.785	283.38
274.017	282.38
274.249	287.38
274.481	277.38
274.713	272.38
274.945	281.38
275.176	280.38
275.408	284.38
275.64	272.38
275.872	273.38
276.104	267.38
276.335	276.38
276.567	284.38
276.799	288.38
277.031	314.38
277.262	345.38
277.494	335.38
277.726	323.38
277.957	290.38
278.189	304.38
278.421	283.38
278.652	275.38
278.884	268.38
279.115	260.38
279.347	282.38
279.579	266.38
279.81	252.38
280.042	265.38
280.273	269.38
280.505	261.38
280.736	270.38
280.968	255.38
281.199	266.38
281.431	298.38
281.662	271.38
281.894	267.38
282.125	261.38
282.356	290.38
282.588	306.38
282.819	310.38
283.051	293.38
283.282	290.38
283.513	276.38
283.745	278.38
283.976	276.38
284.207	288.38
284.439	280.38
284.67	282.38
284.901	265.38
285.132	285.38
285.364	281.38
285.595	275.38
285.826	267.38
286.057	265.38
286.288	265.38
286.52	281.38
286.751	288.38
286.982	273.38
287.213	259.38
287.444	294.38
287.675	280.38
287.906	285.38
288.138	300.38
288.369	309.38
288.6	321.38
288.831	309.38
289.062	294.38
289.293	298.38
289.524	294.38
289.755	308.38
289.986	288.38
290.217	274.38
290.448	269.38
290.679	290.38
290.91	277.38
291.141	280.38
291.371	282.38
291.602	278.38
291.833	280.38
292.064	277.38
292.295	277.38
292.526	275.38
292.757	291.38
292.987	275.38
293.218	288.38
293.449	291.38
293.68	254.38
293.91	291.38
294.141	297.38
294.372	290.38
294.603	285.38
294.833	287.38
295.064	276.38
295.295	293.38
295.525	270.38
295.756	296.38
295.987	307.38
296.217	333.38
296.448	344.38
296.679	303.38
296.909	308.38
297.14	287.38
297.37	309.38
297.601	293.38
297.831	296.38
298.062	278.38
298.292	295.38
298.523	315.38
298.753	298.38
298.984	287.38
299.214	288.38
299.445	295.38
299.675	295.38
299.905	303.38
300.136	303.38
300.366	295.38
300.597	297.38
300.827	287.38
301.057	313.38
301.288	315.38
301.518	308.38
301.748	315.38
301.979	300.38
302.209	332.38
302.439	307.38
302.669	313.38
302.9	303.38
303.13	297.38
303.36	335.38
303.59	332.38
303.82	324.38
304.051	349.38
304.281	318.38
304.511	307.38
304.741	314.38
304.971	309.38
305.201	312.38
305.431	299.38
305.661	316.38
305.891	327.38
306.121	316.38
306.352	326.38
306.582	350.38
306.812	341.38
307.042	331.38
307.272	323.38
307.502	329.38
307.731	334.38
307.961	329.38
308.191	336.38
308.421	334.38
308.651	344.38
308.881	328.38
309.111	347.38
309.341	353.38
309.571	377.38
309.8	350.38
310.03	383.38
310.26	391.38
310.49	376.38
310.72	401.38
310.949	408.38
311.179	432.38
311.409	394.38
311.639	379.38
311.868	387.38
312.098	397.38
312.328	393.38
312.557	417.38
312.787	420.38
313.017	453.38
313.246	401.38
313.476	391.38
313.706	384.38
313.935	375.38
314.165	428.38
314.394	419.38
314.624	420.38
314.853	393.38
315.083	396.38
315.312	387.38
315.542	382.38
315.771	361.38
316.001	371.38
316.23	356.38
316.46	390.38
316.689	378.38
316.919	387.38
317.148	411.38
317.377	422.38
317.607	389.38
317.836	387.38
318.065	392.38
318.295	393.38
318.524	377.38
318.753	389.38
318.983	372.38
319.212	370.38
319.441	393.38
319.67	398.38
319.9	381.38
320.129	392.38
320.358	380.38
320.587	391.38
320.816	428.38
321.046	422.38
321.275	398.38
321.504	421.38
321.733	434.38
321.962	420.38
322.191	429.38
322.42	471.38
322.649	481.38
322.878	495.38
323.108	494.38
323.337	559.38
323.566	562.38
323.795	592.38
324.024	666.38
324.253	829.38
324.482	1264.38
324.71	1980.38
324.939	2864.38
325.168	2317.38
325.397	1221.38
325.626	789.38
325.855	639.38
326.084	572.38
326.313	563.38
326.542	595.38
326.77	664.38
326.999	773.38
327.228	1099.38
327.457	1704.38
327.686	2087.38
327.914	1375.38
328.143	905.38
328.372	767.38
328.6	693.38
328.829	668.38
329.058	673.38
329.287	672.38
329.515	649.38
329.744	569.38
329.972	572.38
330.201	600.38
330.43	645.38
330.658	690.38
330.887	722.38
331.115	703.38
331.344	610.38
331.572	525.38
331.801	530.38
332.03	541.38
332.258	503.38
332.486	471.38
332.715	471.38
332.943	447.38
333.172	463.38
333.4	460.38
333.629	477.38
333.857	496.38
334.085	490.38
334.314	519.38
334.542	553.38
334.771	589.38
334.999	524.38
335.227	490.38
335.455	469.38
335.684	490.38
335.912	465.38
336.14	461.38
336.369	445.38
336.597	485.38
336.825	464.38
337.053	463.38
337.281	458.38
337.51	421.38
337.738	459.38
337.966	461.38
338.194	461.38
338.422	461.38
338.65	453.38
338.878	440.38
339.106	446.38
339.334	452.38
339.562	431.38
339.79	433.38
340.018	434.38
340.246	465.38
340.474	464.38
340.702	457.38
340.93	447.38
341.158	426.38
341.386	451.38
341.614	452.38
341.842	418.38
342.07	432.38
342.298	426.38
342.526	410.38
342.754	435.38
342.981	428.38
343.209	415.38
343.437	410.38
343.665	428.38
343.893	431.38
344.12	430.38
344.348	453.38
344.576	466.38
344.804	470.38
345.031	461.38
345.259	487.38
345.487	457.38
345.714	440.38
345.942	456.38
346.17	446.38
346.397	434.38
346.625	445.38
346.853	440.38
347.08	439.38
347.308	468.38
347.535	436.38
347.763	465.38
347.99	446.38
348.218	462.38
348.445	474.38
348.673	471.38
348.9	450.38
349.128	435.38
349.355	411.38
349.583	407.38
349.81	410.38
350.037	429.38
350.265	402.38
350.492	419.38
350.72	432.38
350.947	431.38
351.174	442.38
351.402	458.38
351.629	428.38
351.856	425.38
352.083	437.38
352.311	467.38
352.538	483.38
352.765	466.38
352.992	448.38
353.22	458.38
353.447	438.38
353.674	437.38
353.901	436.38
354.128	421.38
354.355	395.38
354.583	409.38
354.81	411.38
355.037	423.38
355.264	395.38
355.491	413.38
355.718	394.38
355.945	385.38
356.172	407.38
356.399	394.38
356.626	384.38
356.853	388.38
357.08	392.38
357.307	396.38
357.534	377.38
357.761	403.38
357.988	405.38
358.215	402.38
358.441	389.38
358.668	411.38
358.895	405.38
359.122	416.38
359.349	443.38
359.576	434.38
359.802	465.38
360.029	511.38
360.256	538.38
360.483	523.38
360.709	471.38
360.936	447.38
361.163	451.38
361.39	449.38
361.616	468.38
361.843	457.38
362.07	457.38
362.296	438.38
362.523	437.38
362.749	443.38
362.976	435.38
363.203	426.38
363.429	405.38
363.656	418.38
363.882	430.38
364.109	409.38
364.335	409.38
364.562	412.38
364.788	393.38
365.015	438.38
365.241	417.38
365.468	434.38
365.694	449.38
365.92	431.38
366.147	418.38
366.373	403.38
366.599	407.38
366.826	425.38
367.052	395.38
367.278	409.38
367.505	420.38
367.731	410.38
367.957	418.38
368.184	430.38
368.41	415.38
368.636	447.38
368.862	449.38
369.089	435.38
369.315	431.38
369.541	427.38
369.767	433.38
369.993	402.38
370.219	423.38
370.445	415.38
370.672	411.38
370.898	407.38
371.124	400.38
371.35	406.38
371.576	408.38
371.802	403.38
372.028	409.38
372.254	395.38
372.48	423.38
372.706	401.38
372.932	416.38
373.158	409.38
373.384	417.38
373.61	421.38
373.835	423.38
374.061	429.38
374.287	425.38
374.513	399.38
374.739	421.38
374.965	405.38
375.191	421.38
375.416	413.38
375.642	391.38
375.868	412.38
376.094	398.38
376.319	412.38
376.545	402.38
376.771	426.38
376.997	416.38
377.222	413.38
377.448	406.38
377.674	417.38
377.899	396.38
378.125	415.38
378.35	434.38
378.576	426.38
378.802	406.38
379.027	410.38
379.253	401.38
379.478	385.38
379.704	405.38
379.929	398.38
380.155	405.38
380.38	396.38
380.606	421.38
380.831	423.38
381.057	412.38
381.282	417.38
381.507	413.38
381.733	410.38
381.958	394.38
382.184	432.38
382.409	410.38
382.634	448.38
382.86	403.38
383.085	421.38
383.31	425.38
383.535	437.38
383.761	409.38
383.986	415.38
384.211	407.38
384.436	435.38
384.662	457.38
384.887	439.38
385.112	441.38
385.337	431.38
385.562	437.38
385.787	455.38
386.013	445.38
386.238	471.38
386.463	458.38
386.688	443.38
386.913	413.38
387.138	425.38
387.363	409.38
387.588	439.38
387.813	426.38
388.038	429.38
388.263	450.38
388.488	446.38
388.713	460.38
388.938	457.38
389.163	458.38
389.387	455.38
389.612	467.38
389.837	433.38
390.062	450.38
390.287	427.38
390.512	435.38
390.736	455.38
390.961	454.38
391.186	451.38
391.411	434.38
391.636	445.38
391.86	436.38
392.085	465.38
392.31	435.38
392.534	457.38
392.759	476.38
392.984	443.38
393.208	466.38
393.433	448.38
393.658	452.38
393.882	450.38
394.107	445.38
394.331	461.38
394.556	442.38
394.78	429.38
395.005	449.38
395.229	449.38
395.454	458.38
395.678	466.38
395.903	483.38
396.127	488.38
396.352	515.38
396.576	489.38
396.801	461.38
397.025	466.38
397.249	451.38
397.474	452.38
397.698	483.38
397.922	490.38
398.147	508.38
398.371	495.38
398.595	489.38
398.82	498.38
399.044	503.38
399.268	520.38
399.492	522.38
399.717	575.38
399.941	607.38
400.165	624.38
400.389	641.38
400.613	577.38
400.837	534.38
401.062	539.38
401.286	527.38
401.51	530.38
401.734	535.38
401.958	514.38
402.182	499.38
402.406	534.38
402.63	551.38
402.854	534.38
403.078	530.38
403.302	530.38
403.526	539.38
403.75	545.38
403.974	539.38
404.198	511.38
404.422	555.38
404.645	548.38
404.869	558.38
405.093	595.38
405.317	656.38
405.541	667.38
405.765	610.38
405.988	580.38
406.212	601.38
406.436	620.38
406.66	631.38
406.883	587.38
407.107	631.38
407.331	649.38
407.555	737.38
407.778	717.38
408.002	665.38
408.226	641.38
408.449	584.38
408.673	601.38
408.896	614.38
409.12	674.38
409.344	636.38
409.567	593.38
409.791	583.38
410.014	552.38
410.238	546.38
410.461	554.38
410.685	582.38
410.908	561.38
411.132	628.38
411.355	653.38
411.578	644.38
411.802	579.38
412.025	542.38
412.249	549.38
412.472	588.38
412.695	658.38
412.919	619.38
413.142	576.38
413.365	565.38
413.589	551.38
413.812	516.38
414.035	531.38
414.258	513.38
414.482	517.38
414.705	508.38
414.928	520.38
415.151	521.38
415.374	532.38
415.597	506.38
415.821	500.38
416.044	519.38
416.267	496.38
416.49	521.38
416.713	520.38
416.936	502.38
417.159	520.38
417.382	538.38
417.605	517.38
417.828	566.38
418.051	555.38
418.274	555.38
418.497	536.38
418.72	517.38
418.943	510.38
419.166	528.38
419.389	579.38
419.611	569.38
419.834	533.38
420.057	559.38
420.28	559.38
420.503	551.38
420.726	541.38
420.948	569.38
421.171	643.38
421.394	662.38
421.617	575.38
421.839	531.38
422.062	561.38
422.285	566.38
422.507	631.38
422.73	712.38
422.953	686.38
423.175	609.38
423.398	564.38
423.621	589.38
423.843	605.38
424.066	611.38
424.288	624.38
424.511	641.38
424.733	691.38
424.956	797.38
425.178	731.38
425.401	754.38
425.623	773.38
425.846	679.38
426.068	624.38
426.291	611.38
426.513	612.38
426.735	631.38
426.958	705.38
427.18	784.38
427.402	891.38
427.625	1015.38
427.847	925.38
428.069	783.38
428.292	695.38
428.514	629.38
428.736	620.38
428.958	601.38
429.181	595.38
429.403	593.38
429.625	582.38
429.847	644.38
430.069	714.38
430.292	705.38
430.514	624.38
430.736	590.38
430.958	570.38
431.18	556.38
431.402	548.38
431.624	529.38
431.846	522.38
432.068	535.38
432.29	542.38
432.512	514.38
432.734	546.38
432.956	549.38
433.178	552.38
433.4	570.38
433.622	543.38
433.844	531.38
434.066	529.38
434.287	529.38
434.509	521.38
434.731	525.38
434.953	553.38
435.175	554.38
435.397	582.38
435.618	633.38
435.84	662.38
436.062	801.38
436.284	873.38
436.505	717.38
436.727	650.38
436.949	615.38
437.17	598.38
437.392	600.38
437.614	611.38
437.835	649.38
438.057	781.38
438.278	892.38
438.5	886.38
438.721	950.38
438.943	880.38
439.165	721.38
439.386	671.38
439.608	651.38
439.829	661.38
440.05	710.38
440.272	740.38
440.493	700.38
440.715	643.38
440.936	602.38
441.158	588.38
441.379	583.38
441.6	578.38
441.822	630.38
442.043	674.38
442.264	744.38
442.486	819.38
442.707	697.38
442.928	652.38
443.149	644.38
443.371	689.38
443.592	733.38
443.813	845.38
444.034	857.38
444.255	722.38
444.476	661.38
444.698	650.38
444.919	623.38
445.14	767.38
445.361	686.38
445.582	684.38
445.803	793.38
446.024	895.38
446.245	887.38
446.466	819.38
446.687	716.38
446.908	652.38
447.129	612.38
447.35	600.38
447.571	601.38
447.792	586.38
448.013	567.38
448.234	599.38
448.455	663.38
448.675	796.38
448.896	903.38
449.117	812.38
449.338	759.38
449.559	864.38
449.779	964.38
450	790.38
450.221	650.38
450.442	597.38
450.662	609.38
450.883	584.38
451.104	618.38
451.324	590.38
451.545	563.38
451.766	531.38
451.986	546.38
452.207	523.38
452.428	520.38
452.648	519.38
452.869	533.38
453.089	537.38
453.31	573.38
453.53	551.38
453.751	516.38
453.971	555.38
454.192	564.38
454.412	540.38
454.633	536.38
454.853	543.38
455.073	536.38
455.294	552.38
455.514	658.38
455.734	611.38
455.955	529.38
456.175	499.38
456.395	477.38
456.616	493.38
456.836	476.38
457.056	454.38
457.276	456.38
457.497	464.38
457.717	471.38
457.937	485.38
458.157	486.38
458.377	517.38
458.598	523.38
458.818	628.38
459.038	737.38
459.258	720.38
459.478	619.38
459.698	581.38
459.918	555.38
460.138	526.38
460.358	529.38
460.578	525.38
460.798	536.38
461.018	535.38
461.238	538.38
461.458	549.38
461.678	509.38
461.898	512.38
462.118	517.38
462.338	529.38
462.558	557.38
462.777	540.38
462.997	547.38
463.217	556.38
463.437	556.38
463.657	551.38
463.876	552.38
464.096	561.38
464.316	547.38
464.536	575.38
464.755	543.38
464.975	571.38
465.195	654.38
465.414	769.38
465.634	648.38
465.854	625.38
466.073	575.38
466.293	542.38
466.512	540.38
466.732	525.38
466.951	504.38
467.171	560.38
467.391	516.38
467.61	560.38
467.829	553.38
468.049	556.38
468.268	533.38
468.488	538.38
468.707	533.38
468.927	517.38
469.146	515.38
469.365	525.38
469.585	483.38
469.804	529.38
470.023	546.38
470.243	523.38
470.462	558.38
470.681	572.38
470.901	592.38
471.12	540.38
471.339	544.38
471.558	540.38
471.777	560.38
471.997	531.38
472.216	555.38
472.435	575.38
472.654	547.38
472.873	544.38
473.092	523.38
473.311	542.38
473.53	538.38
473.749	537.38
473.968	599.38
474.187	732.38
474.406	757.38
474.625	621.38
474.844	555.38
475.063	540.38
475.282	540.38
475.501	541.38
475.72	571.38
475.939	578.38
476.158	557.38
476.377	555.38
476.596	557.38
476.814	568.38
477.033	552.38
477.252	565.38
477.471	567.38
477.69	592.38
477.908	597.38
478.127	593.38
478.346	581.38
478.564	591.38
478.783	574.38
479.002	618.38
479.22	614.38
479.439	624.38
479.658	659.38
479.876	660.38
480.095	650.38
480.313	679.38
480.532	657.38
480.751	644.38
480.969	659.38
481.188	728.38
481.406	806.38
481.624	728.38
481.843	677.38
482.061	635.38
482.28	644.38
482.498	650.38
482.717	623.38
482.935	631.38
483.153	623.38
483.372	649.38
483.59	649.38
483.808	641.38
484.027	643.38
484.245	644.38
484.463	635.38
484.681	653.38
484.9	654.38
485.118	658.38
485.336	660.38
485.554	656.38
485.772	669.38
485.99	667.38
486.209	694.38
486.427	664.38
486.645	698.38
486.863	710.38
487.081	732.38
487.299	707.38
487.517	700.38
487.735	702.38
487.953	713.38
488.171	685.38
488.389	704.38
488.607	718.38
488.825	704.38
489.043	693.38
489.261	716.38
489.479	694.38
489.696	706.38
489.914	697.38
490.132	717.38
490.35	714.38
490.568	727.38
490.786	765.38
491.003	755.38
491.221	797.38
491.439	796.38
491.657	796.38
491.874	820.38
492.092	844.38
492.31	811.38
492.527	820.38
492.745	837.38
492.963	840.38
493.18	852.38
493.398	844.38
493.615	834.38
493.833	850.38
494.05	856.38
494.268	856.38
494.485	861.38
494.703	826.38
494.92	863.38
495.138	847.38
495.355	846.38
495.573	870.38
495.79	844.38
496.008	869.38
496.225	851.38
496.442	853.38
496.66	848.38
496.877	833.38
497.094	833.38
497.312	853.38
497.529	880.38
497.746	867.38
497.963	870.38
498.181	903.38
498.398	891.38
498.615	913.38
498.832	941.38
499.049	929.38
499.267	914.38
499.484	929.38
499.701	952.38
499.918	982.38
500.135	963.38
500.352	999.38
500.569	1001.38
500.786	1028.38
501.003	1020.38
501.22	1019.38
501.437	1004.38
