Data from 1971.PennyLincolnUp.Lamp.En5.5.200Scan.071719.P1.Scan 2. Changed Angle._HRD10591_15-25-28-843.txt Node
Date: Thu Jul 18 15:25:28 EDT 2019
User: cochatt
Spectrometer: HR+D1059
Trigger mode: 1
Integration Time (sec): 1.000000E-1
Scans to average: 1
Electric dark correction enabled: true
Nonlinearity correction enabled: false
Boxcar width: 0
XAxis mode: Wavelengths
Number of Pixels in Spectrum: 2048
>>>>>Begin Spectral Data<<<<<
223.165	-23.38
223.4	-23.38
223.635	-23.38
223.869	-24.38
224.104	-8.38
224.338	-10.38
224.573	-14.38
224.808	-15.38
225.042	-7.38
225.277	-18.38
225.511	-1.38
225.746	11.62
225.98	10.62
226.215	16.62
226.449	15.62
226.683	20.62
226.918	25.62
227.152	22.62
227.387	29.62
227.621	40.62
227.856	40.62
228.09	57.62
228.324	43.62
228.559	54.62
228.793	74.62
229.027	115.62
229.262	129.62
229.496	134.62
229.73	149.62
229.964	185.62
230.199	153.62
230.433	128.62
230.667	115.62
230.901	119.62
231.136	128.62
231.37	121.62
231.604	120.62
231.838	122.62
232.072	107.62
232.306	127.62
232.541	120.62
232.775	110.62
233.009	118.62
233.243	119.62
233.477	106.62
233.711	114.62
233.945	113.62
234.179	129.62
234.413	125.62
234.647	125.62
234.881	136.62
235.115	107.62
235.349	127.62
235.583	118.62
235.817	132.62
236.051	140.62
236.285	139.62
236.519	127.62
236.753	147.62
236.987	161.62
237.221	226.62
237.455	284.62
237.689	216.62
237.922	152.62
238.156	150.62
238.39	152.62
238.624	134.62
238.858	143.62
239.091	126.62
239.325	130.62
239.559	136.62
239.793	125.62
240.027	156.62
240.26	173.62
240.494	187.62
240.728	170.62
240.961	167.62
241.195	151.62
241.429	160.62
241.662	154.62
241.896	142.62
242.13	138.62
242.363	145.62
242.597	162.62
242.83	158.62
243.064	139.62
243.298	151.62
243.531	160.62
243.765	144.62
243.998	142.62
244.232	144.62
244.465	154.62
244.699	151.62
244.932	160.62
245.166	174.62
245.399	162.62
245.633	170.62
245.866	141.62
246.099	150.62
246.333	156.62
246.566	158.62
246.8	152.62
247.033	159.62
247.266	169.62
247.5	181.62
247.733	190.62
247.966	184.62
248.2	196.62
248.433	210.62
248.666	190.62
248.899	225.62
249.133	212.62
249.366	243.62
249.599	209.62
249.832	220.62
250.066	191.62
250.299	226.62
250.532	214.62
250.765	225.62
250.998	240.62
251.231	273.62
251.465	266.62
251.698	242.62
251.931	224.62
252.164	229.62
252.397	217.62
252.63	218.62
252.863	228.62
253.096	235.62
253.329	242.62
253.562	262.62
253.795	247.62
254.028	242.62
254.261	260.62
254.494	267.62
254.727	312.62
254.96	335.62
255.193	344.62
255.426	296.62
255.659	276.62
255.892	253.62
256.124	276.62
256.357	270.62
256.59	262.62
256.823	272.62
257.056	256.62
257.289	232.62
257.521	230.62
257.754	230.62
257.987	235.62
258.22	237.62
258.452	210.62
258.685	237.62
258.918	240.62
259.151	238.62
259.383	232.62
259.616	249.62
259.849	248.62
260.081	269.62
260.314	301.62
260.547	293.62
260.779	270.62
261.012	277.62
261.244	263.62
261.477	258.62
261.71	257.62
261.942	259.62
262.175	273.62
262.407	276.62
262.64	223.62
262.872	242.62
263.105	228.62
263.337	229.62
263.57	216.62
263.802	233.62
264.035	220.62
264.267	224.62
264.499	217.62
264.732	225.62
264.964	215.62
265.197	219.62
265.429	216.62
265.661	217.62
265.894	221.62
266.126	230.62
266.358	228.62
266.591	226.62
266.823	242.62
267.055	256.62
267.287	235.62
267.52	259.62
267.752	226.62
267.984	222.62
268.216	238.62
268.448	241.62
268.681	228.62
268.913	276.62
269.145	286.62
269.377	308.62
269.609	307.62
269.841	301.62
270.073	300.62
270.306	328.62
270.538	357.62
270.77	373.62
271.002	334.62
271.234	318.62
271.466	323.62
271.698	357.62
271.93	340.62
272.162	364.62
272.394	346.62
272.626	343.62
272.858	334.62
273.09	311.62
273.322	283.62
273.553	293.62
273.785	298.62
274.017	284.62
274.249	284.62
274.481	273.62
274.713	283.62
274.945	277.62
275.176	287.62
275.408	284.62
275.64	278.62
275.872	294.62
276.104	293.62
276.335	274.62
276.567	306.62
276.799	322.62
277.031	338.62
277.262	349.62
277.494	348.62
277.726	329.62
277.957	314.62
278.189	315.62
278.421	283.62
278.652	294.62
278.884	312.62
279.115	284.62
279.347	275.62
279.579	269.62
279.81	278.62
280.042	284.62
280.273	277.62
280.505	274.62
280.736	274.62
280.968	281.62
281.199	284.62
281.431	280.62
281.662	284.62
281.894	277.62
282.125	289.62
282.356	306.62
282.588	345.62
282.819	319.62
283.051	276.62
283.282	260.62
283.513	297.62
283.745	272.62
283.976	296.62
284.207	297.62
284.439	275.62
284.67	286.62
284.901	282.62
285.132	280.62
285.364	277.62
285.595	310.62
285.826	293.62
286.057	283.62
286.288	282.62
286.52	298.62
286.751	291.62
286.982	298.62
287.213	282.62
287.444	292.62
287.675	291.62
287.906	295.62
288.138	308.62
288.369	320.62
288.6	316.62
288.831	292.62
289.062	295.62
289.293	310.62
289.524	319.62
289.755	291.62
289.986	298.62
290.217	292.62
290.448	291.62
290.679	299.62
290.91	292.62
291.141	301.62
291.371	294.62
291.602	285.62
291.833	288.62
292.064	299.62
292.295	282.62
292.526	295.62
292.757	292.62
292.987	280.62
293.218	291.62
293.449	295.62
293.68	282.62
293.91	295.62
294.141	305.62
294.372	295.62
294.603	295.62
294.833	312.62
295.064	310.62
295.295	313.62
295.525	312.62
295.756	299.62
295.987	326.62
296.217	346.62
296.448	347.62
296.679	340.62
296.909	300.62
297.14	310.62
297.37	298.62
297.601	309.62
297.831	290.62
298.062	312.62
298.292	309.62
298.523	310.62
298.753	313.62
298.984	310.62
299.214	302.62
299.445	297.62
299.675	320.62
299.905	322.62
300.136	331.62
300.366	294.62
300.597	323.62
300.827	330.62
301.057	338.62
301.288	343.62
301.518	331.62
301.748	315.62
301.979	322.62
302.209	331.62
302.439	346.62
302.669	348.62
302.9	325.62
303.13	334.62
303.36	329.62
303.59	327.62
303.82	354.62
304.051	360.62
304.281	320.62
304.511	320.62
304.741	320.62
304.971	320.62
305.201	326.62
305.431	332.62
305.661	322.62
305.891	342.62
306.121	343.62
306.352	333.62
306.582	357.62
306.812	341.62
307.042	339.62
307.272	359.62
307.502	342.62
307.731	342.62
307.961	342.62
308.191	340.62
308.421	345.62
308.651	338.62
308.881	342.62
309.111	365.62
309.341	365.62
309.571	362.62
309.8	369.62
310.03	399.62
310.26	411.62
310.49	419.62
310.72	420.62
310.949	445.62
311.179	449.62
311.409	436.62
311.639	402.62
311.868	394.62
312.098	404.62
312.328	422.62
312.557	447.62
312.787	462.62
313.017	426.62
313.246	432.62
313.476	385.62
313.706	406.62
313.935	410.62
314.165	433.62
314.394	429.62
314.624	433.62
314.853	413.62
315.083	413.62
315.312	403.62
315.542	395.62
315.771	402.62
316.001	384.62
316.23	377.62
316.46	404.62
316.689	394.62
316.919	429.62
317.148	427.62
317.377	403.62
317.607	430.62
317.836	411.62
318.065	405.62
318.295	402.62
318.524	408.62
318.753	392.62
318.983	395.62
319.212	387.62
319.441	401.62
319.67	433.62
319.9	422.62
320.129	410.62
320.358	412.62
320.587	414.62
320.816	416.62
321.046	435.62
321.275	427.62
321.504	440.62
321.733	448.62
321.962	443.62
322.191	441.62
322.42	461.62
322.649	493.62
322.878	521.62
323.108	525.62
323.337	573.62
323.566	586.62
323.795	668.62
324.024	692.62
324.253	893.62
324.482	1304.62
324.71	2081.62
324.939	2978.62
325.168	2527.62
325.397	1332.62
325.626	857.62
325.855	674.62
326.084	634.62
326.313	595.62
326.542	604.62
326.77	668.62
326.999	793.62
327.228	1165.62
327.457	1778.62
327.686	2260.62
327.914	1464.62
328.143	944.62
328.372	811.62
328.6	743.62
328.829	712.62
329.058	709.62
329.287	713.62
329.515	650.62
329.744	606.62
329.972	610.62
330.201	627.62
330.43	683.62
330.658	716.62
330.887	749.62
331.115	764.62
331.344	618.62
331.572	577.62
331.801	553.62
332.03	552.62
332.258	520.62
332.486	512.62
332.715	492.62
332.943	479.62
333.172	468.62
333.4	474.62
333.629	496.62
333.857	503.62
334.085	525.62
334.314	545.62
334.542	617.62
334.771	613.62
334.999	556.62
335.227	515.62
335.455	498.62
335.684	486.62
335.912	471.62
336.14	476.62
336.369	462.62
336.597	498.62
336.825	469.62
337.053	467.62
337.281	453.62
337.51	453.62
337.738	471.62
337.966	472.62
338.194	467.62
338.422	475.62
338.65	476.62
338.878	483.62
339.106	469.62
339.334	471.62
339.562	445.62
339.79	437.62
340.018	439.62
340.246	463.62
340.474	467.62
340.702	468.62
340.93	454.62
341.158	446.62
341.386	458.62
341.614	461.62
341.842	465.62
342.07	447.62
342.298	447.62
342.526	448.62
342.754	435.62
342.981	436.62
343.209	429.62
343.437	454.62
343.665	456.62
343.893	429.62
344.12	443.62
344.348	475.62
344.576	442.62
344.804	460.62
345.031	476.62
345.259	475.62
345.487	484.62
345.714	482.62
345.942	456.62
346.17	461.62
346.397	443.62
346.625	440.62
346.853	447.62
347.08	436.62
347.308	462.62
347.535	478.62
347.763	470.62
347.99	481.62
348.218	460.62
348.445	469.62
348.673	485.62
348.9	454.62
349.128	434.62
349.355	430.62
349.583	452.62
349.81	445.62
350.037	418.62
350.265	424.62
350.492	449.62
350.72	450.62
350.947	449.62
351.174	467.62
351.402	478.62
351.629	438.62
351.856	459.62
352.083	453.62
352.311	482.62
352.538	487.62
352.765	514.62
352.992	466.62
353.22	480.62
353.447	462.62
353.674	472.62
353.901	452.62
354.128	436.62
354.355	414.62
354.583	423.62
354.81	437.62
355.037	432.62
355.264	420.62
355.491	420.62
355.718	425.62
355.945	413.62
356.172	433.62
356.399	411.62
356.626	406.62
356.853	417.62
357.08	418.62
357.307	426.62
357.534	415.62
357.761	411.62
357.988	410.62
358.215	418.62
358.441	423.62
358.668	419.62
358.895	422.62
359.122	422.62
359.349	460.62
359.576	469.62
359.802	496.62
360.029	538.62
360.256	583.62
360.483	520.62
360.709	475.62
360.936	462.62
361.163	466.62
361.39	473.62
361.616	468.62
361.843	474.62
362.07	467.62
362.296	468.62
362.523	456.62
362.749	461.62
362.976	458.62
363.203	432.62
363.429	441.62
363.656	470.62
363.882	417.62
364.109	417.62
364.335	446.62
364.562	442.62
364.788	435.62
365.015	436.62
365.241	432.62
365.468	431.62
365.694	456.62
365.92	438.62
366.147	442.62
366.373	442.62
366.599	433.62
366.826	444.62
367.052	426.62
367.278	432.62
367.505	436.62
367.731	442.62
367.957	442.62
368.184	433.62
368.41	442.62
368.636	471.62
368.862	468.62
369.089	452.62
369.315	441.62
369.541	462.62
369.767	429.62
369.993	445.62
370.219	449.62
370.445	448.62
370.672	438.62
370.898	419.62
371.124	413.62
371.35	433.62
371.576	456.62
371.802	424.62
372.028	428.62
372.254	428.62
372.48	423.62
372.706	412.62
372.932	419.62
373.158	429.62
373.384	429.62
373.61	442.62
373.835	434.62
374.061	442.62
374.287	426.62
374.513	437.62
374.739	437.62
374.965	428.62
375.191	437.62
375.416	453.62
375.642	421.62
375.868	427.62
376.094	431.62
376.319	412.62
376.545	418.62
376.771	436.62
376.997	420.62
377.222	431.62
377.448	428.62
377.674	429.62
377.899	445.62
378.125	434.62
378.35	421.62
378.576	408.62
378.802	407.62
379.027	432.62
379.253	442.62
379.478	429.62
379.704	406.62
379.929	428.62
380.155	429.62
380.38	428.62
380.606	439.62
380.831	425.62
381.057	442.62
381.282	436.62
381.507	430.62
381.733	446.62
381.958	414.62
382.184	434.62
382.409	435.62
382.634	438.62
382.86	422.62
383.085	437.62
383.31	445.62
383.535	439.62
383.761	425.62
383.986	449.62
384.211	423.62
384.436	436.62
384.662	448.62
384.887	432.62
385.112	459.62
385.337	442.62
385.562	451.62
385.787	435.62
386.013	473.62
386.238	476.62
386.463	479.62
386.688	446.62
386.913	443.62
387.138	437.62
387.363	458.62
387.588	445.62
387.813	465.62
388.038	455.62
388.263	457.62
388.488	458.62
388.713	460.62
388.938	462.62
389.163	480.62
389.387	467.62
389.612	452.62
389.837	469.62
390.062	453.62
390.287	462.62
390.512	466.62
390.736	469.62
390.961	449.62
391.186	459.62
391.411	457.62
391.636	468.62
391.86	460.62
392.085	462.62
392.31	469.62
392.534	461.62
392.759	461.62
392.984	455.62
393.208	460.62
393.433	451.62
393.658	464.62
393.882	444.62
394.107	452.62
394.331	461.62
394.556	472.62
394.78	460.62
395.005	480.62
395.229	474.62
395.454	478.62
395.678	504.62
395.903	490.62
396.127	510.62
396.352	529.62
396.576	493.62
396.801	472.62
397.025	459.62
397.249	499.62
397.474	482.62
397.698	498.62
397.922	521.62
398.147	534.62
398.371	528.62
398.595	521.62
398.82	500.62
399.044	530.62
399.268	546.62
399.492	575.62
399.717	595.62
399.941	622.62
400.165	651.62
400.389	670.62
400.613	603.62
400.837	545.62
401.062	548.62
401.286	547.62
401.51	512.62
401.734	543.62
401.958	520.62
402.182	549.62
402.406	553.62
402.63	553.62
402.854	554.62
403.078	540.62
403.302	549.62
403.526	536.62
403.75	560.62
403.974	536.62
404.198	555.62
404.422	552.62
404.645	577.62
404.869	571.62
405.093	605.62
405.317	660.62
405.541	704.62
405.765	632.62
405.988	602.62
406.212	611.62
406.436	618.62
406.66	638.62
406.883	632.62
407.107	657.62
407.331	697.62
407.555	749.62
407.778	782.62
408.002	704.62
408.226	635.62
408.449	611.62
408.673	622.62
408.896	658.62
409.12	705.62
409.344	658.62
409.567	604.62
409.791	578.62
410.014	581.62
410.238	558.62
410.461	561.62
410.685	565.62
410.908	598.62
411.132	644.62
411.355	709.62
411.578	634.62
411.802	571.62
412.025	582.62
412.249	604.62
412.472	627.62
412.695	669.62
412.919	647.62
413.142	580.62
413.365	567.62
413.589	562.62
413.812	546.62
414.035	541.62
414.258	540.62
414.482	560.62
414.705	524.62
414.928	527.62
415.151	518.62
415.374	524.62
415.597	542.62
415.821	546.62
416.044	538.62
416.267	557.62
416.49	546.62
416.713	540.62
416.936	548.62
417.159	523.62
417.382	550.62
417.605	569.62
417.828	560.62
418.051	566.62
418.274	577.62
418.497	545.62
418.72	545.62
418.943	549.62
419.166	570.62
419.389	595.62
419.611	571.62
419.834	581.62
420.057	591.62
420.28	569.62
420.503	583.62
420.726	593.62
420.948	607.62
421.171	656.62
421.394	670.62
421.617	600.62
421.839	592.62
422.062	581.62
422.285	612.62
422.507	662.62
422.73	743.62
422.953	746.62
423.175	616.62
423.398	613.62
423.621	615.62
423.843	628.62
424.066	620.62
424.288	625.62
424.511	666.62
424.733	721.62
424.956	832.62
425.178	792.62
425.401	764.62
425.623	790.62
425.846	729.62
426.068	641.62
426.291	646.62
426.513	632.62
426.735	672.62
426.958	694.62
427.18	780.62
427.402	953.62
427.625	1058.62
427.847	951.62
428.069	820.62
428.292	740.62
428.514	672.62
428.736	636.62
428.958	613.62
429.181	596.62
429.403	571.62
429.625	587.62
429.847	677.62
430.069	726.62
430.292	724.62
430.514	613.62
430.736	612.62
430.958	560.62
431.18	586.62
431.402	563.62
431.624	552.62
431.846	555.62
432.068	537.62
432.29	544.62
432.512	567.62
432.734	555.62
432.956	572.62
433.178	598.62
433.4	574.62
433.622	565.62
433.844	561.62
434.066	546.62
434.287	556.62
434.509	542.62
434.731	555.62
434.953	570.62
435.175	604.62
435.397	654.62
435.618	646.62
435.84	698.62
436.062	821.62
436.284	893.62
436.505	768.62
436.727	662.62
436.949	644.62
437.17	594.62
437.392	586.62
437.614	633.62
437.835	648.62
438.057	792.62
438.278	928.62
438.5	917.62
438.721	991.62
438.943	922.62
439.165	760.62
439.386	692.62
439.608	664.62
439.829	678.62
440.05	714.62
440.272	768.62
440.493	730.62
440.715	645.62
440.936	639.62
441.158	612.62
441.379	619.62
441.6	626.62
441.822	642.62
442.043	699.62
442.264	816.62
442.486	859.62
442.707	755.62
442.928	668.62
443.149	688.62
443.371	710.62
443.592	730.62
443.813	868.62
444.034	954.62
444.255	774.62
444.476	666.62
444.698	661.62
444.919	635.62
445.14	722.62
445.361	716.62
445.582	715.62
445.803	796.62
446.024	930.62
446.245	930.62
446.466	829.62
446.687	724.62
446.908	666.62
447.129	637.62
447.35	640.62
447.571	629.62
447.792	603.62
448.013	632.62
448.234	633.62
448.455	724.62
448.675	833.62
448.896	938.62
449.117	837.62
449.338	790.62
449.559	905.62
449.779	1011.62
450	824.62
450.221	682.62
450.442	635.62
450.662	619.62
450.883	620.62
451.104	638.62
451.324	634.62
451.545	582.62
451.766	573.62
451.986	544.62
452.207	551.62
452.428	570.62
452.648	554.62
452.869	537.62
453.089	564.62
453.31	562.62
453.53	553.62
453.751	534.62
453.971	537.62
454.192	588.62
454.412	576.62
454.633	562.62
454.853	532.62
455.073	549.62
455.294	580.62
455.514	654.62
455.734	662.62
455.955	566.62
456.175	508.62
456.395	524.62
456.616	507.62
456.836	499.62
457.056	486.62
457.276	504.62
457.497	494.62
457.717	489.62
457.937	482.62
458.157	518.62
458.377	514.62
458.598	542.62
458.818	630.62
459.038	771.62
459.258	728.62
459.478	621.62
459.698	560.62
459.918	555.62
460.138	553.62
460.358	550.62
460.578	554.62
460.798	562.62
461.018	552.62
461.238	541.62
461.458	542.62
461.678	525.62
461.898	539.62
462.118	533.62
462.338	552.62
462.558	568.62
462.777	558.62
462.997	544.62
463.217	573.62
463.437	560.62
463.657	568.62
463.876	577.62
464.096	572.62
464.316	581.62
464.536	581.62
464.755	583.62
464.975	596.62
465.195	695.62
465.414	818.62
465.634	686.62
465.854	598.62
466.073	565.62
466.293	563.62
466.512	559.62
466.732	572.62
466.951	553.62
467.171	555.62
467.391	531.62
467.61	563.62
467.829	581.62
468.049	598.62
468.268	582.62
468.488	533.62
468.707	537.62
468.927	531.62
469.146	517.62
469.365	540.62
469.585	561.62
469.804	540.62
470.023	548.62
470.243	548.62
470.462	573.62
470.681	585.62
470.901	605.62
471.12	534.62
471.339	570.62
471.558	552.62
471.777	579.62
471.997	550.62
472.216	556.62
472.435	620.62
472.654	596.62
472.873	545.62
473.092	572.62
473.311	552.62
473.53	551.62
473.749	589.62
473.968	624.62
474.187	744.62
474.406	788.62
474.625	637.62
474.844	599.62
475.063	575.62
475.282	573.62
475.501	573.62
475.72	569.62
475.939	559.62
476.158	585.62
476.377	599.62
476.596	585.62
476.814	572.62
477.033	589.62
477.252	617.62
477.471	577.62
477.69	598.62
477.908	590.62
478.127	636.62
478.346	600.62
478.564	614.62
478.783	624.62
479.002	629.62
479.22	620.62
479.439	638.62
479.658	666.62
479.876	677.62
480.095	656.62
480.313	703.62
480.532	680.62
480.751	647.62
480.969	675.62
481.188	802.62
481.406	849.62
481.624	746.62
481.843	704.62
482.061	677.62
482.28	649.62
482.498	666.62
482.717	664.62
482.935	655.62
483.153	670.62
483.372	685.62
483.59	693.62
483.808	653.62
484.027	658.62
484.245	676.62
484.463	700.62
484.681	670.62
484.9	649.62
485.118	682.62
485.336	691.62
485.554	679.62
485.772	682.62
485.99	697.62
486.209	696.62
486.427	699.62
486.645	724.62
486.863	744.62
487.081	769.62
487.299	736.62
487.517	718.62
487.735	707.62
487.953	748.62
488.171	725.62
488.389	724.62
488.607	748.62
488.825	738.62
489.043	741.62
489.261	726.62
489.479	756.62
489.696	756.62
489.914	760.62
490.132	773.62
490.35	796.62
490.568	762.62
490.786	794.62
491.003	796.62
491.221	827.62
491.439	829.62
491.657	830.62
491.874	851.62
492.092	864.62
492.31	860.62
492.527	875.62
492.745	850.62
492.963	842.62
493.18	874.62
493.398	893.62
493.615	895.62
493.833	928.62
494.05	891.62
494.268	856.62
494.485	880.62
494.703	861.62
494.92	880.62
495.138	889.62
495.355	906.62
495.573	902.62
495.79	929.62
496.008	896.62
496.225	884.62
496.442	887.62
496.66	859.62
496.877	886.62
497.094	889.62
497.312	888.62
497.529	924.62
497.746	891.62
497.963	869.62
498.181	924.62
498.398	938.62
498.615	927.62
498.832	934.62
499.049	963.62
499.267	972.62
499.484	976.62
499.701	971.62
499.918	1013.62
500.135	1052.62
500.352	1070.62
500.569	1072.62
500.786	1079.62
501.003	1052.62
501.22	1057.62
501.437	1036.62
