Data from 1971.PennyLincolnUp.Lamp.En5.5.200Scan.071719.P1._HRD10591_15-17-48-841.txt Node
Date: Thu Jul 18 15:17:48 EDT 2019
User: cochatt
Spectrometer: HR+D1059
Trigger mode: 1
Integration Time (sec): 1.000000E-1
Scans to average: 1
Electric dark correction enabled: true
Nonlinearity correction enabled: false
Boxcar width: 0
XAxis mode: Wavelengths
Number of Pixels in Spectrum: 2048
>>>>>Begin Spectral Data<<<<<
223.165	-12.38
223.4	-12.38
223.635	-12.38
223.869	-21.38
224.104	-13.38
224.338	-17.38
224.573	-6.38
224.808	-12.38
225.042	-7.38
225.277	-13.38
225.511	-21.38
225.746	6.62
225.98	27.62
226.215	3.62
226.449	1.62
226.683	27.62
226.918	26.62
227.152	31.62
227.387	22.62
227.621	25.62
227.856	48.62
228.09	39.62
228.324	33.62
228.559	67.62
228.793	69.62
229.027	81.62
229.262	101.62
229.496	104.62
229.73	104.62
229.964	115.62
230.199	98.62
230.433	84.62
230.667	89.62
230.901	102.62
231.136	119.62
231.37	105.62
231.604	93.62
231.838	86.62
232.072	106.62
232.306	107.62
232.541	108.62
232.775	89.62
233.009	96.62
233.243	96.62
233.477	102.62
233.711	100.62
233.945	109.62
234.179	108.62
234.413	94.62
234.647	115.62
234.881	108.62
235.115	109.62
235.349	108.62
235.583	116.62
235.817	103.62
236.051	107.62
236.285	99.62
236.519	104.62
236.753	109.62
236.987	120.62
237.221	140.62
237.455	161.62
237.689	138.62
237.922	127.62
238.156	114.62
238.39	108.62
238.624	109.62
238.858	118.62
239.091	104.62
239.325	110.62
239.559	116.62
239.793	112.62
240.027	116.62
240.26	127.62
240.494	132.62
240.728	112.62
240.961	119.62
241.195	121.62
241.429	99.62
241.662	116.62
241.896	117.62
242.13	104.62
242.363	107.62
242.597	129.62
242.83	124.62
243.064	128.62
243.298	129.62
243.531	143.62
243.765	107.62
243.998	125.62
244.232	118.62
244.465	121.62
244.699	132.62
244.932	126.62
245.166	131.62
245.399	122.62
245.633	130.62
245.866	136.62
246.099	136.62
246.333	140.62
246.566	123.62
246.8	124.62
247.033	132.62
247.266	136.62
247.5	147.62
247.733	120.62
247.966	148.62
248.2	142.62
248.433	149.62
248.666	155.62
248.899	148.62
249.133	158.62
249.366	174.62
249.599	160.62
249.832	146.62
250.066	152.62
250.299	162.62
250.532	154.62
250.765	170.62
250.998	175.62
251.231	170.62
251.465	173.62
251.698	185.62
251.931	177.62
252.164	173.62
252.397	163.62
252.63	169.62
252.863	185.62
253.096	171.62
253.329	182.62
253.562	169.62
253.795	183.62
254.028	174.62
254.261	184.62
254.494	182.62
254.727	198.62
254.96	208.62
255.193	195.62
255.426	196.62
255.659	188.62
255.892	174.62
256.124	186.62
256.357	211.62
256.59	178.62
256.823	166.62
257.056	182.62
257.289	180.62
257.521	169.62
257.754	181.62
257.987	187.62
258.22	182.62
258.452	173.62
258.685	176.62
258.918	181.62
259.151	183.62
259.383	185.62
259.616	217.62
259.849	184.62
260.081	195.62
260.314	212.62
260.547	198.62
260.779	201.62
261.012	185.62
261.244	178.62
261.477	200.62
261.71	182.62
261.942	203.62
262.175	199.62
262.407	186.62
262.64	177.62
262.872	171.62
263.105	172.62
263.337	194.62
263.57	174.62
263.802	178.62
264.035	193.62
264.267	193.62
264.499	173.62
264.732	182.62
264.964	168.62
265.197	179.62
265.429	199.62
265.661	188.62
265.894	170.62
266.126	192.62
266.358	197.62
266.591	187.62
266.823	182.62
267.055	189.62
267.287	188.62
267.52	183.62
267.752	187.62
267.984	193.62
268.216	205.62
268.448	217.62
268.681	183.62
268.913	208.62
269.145	204.62
269.377	230.62
269.609	208.62
269.841	208.62
270.073	229.62
270.306	234.62
270.538	245.62
270.77	256.62
271.002	247.62
271.234	266.62
271.466	232.62
271.698	230.62
271.93	233.62
272.162	234.62
272.394	248.62
272.626	230.62
272.858	229.62
273.09	223.62
273.322	227.62
273.553	218.62
273.785	217.62
274.017	224.62
274.249	215.62
274.481	220.62
274.713	237.62
274.945	225.62
275.176	207.62
275.408	218.62
275.64	192.62
275.872	221.62
276.104	212.62
276.335	215.62
276.567	224.62
276.799	217.62
277.031	239.62
277.262	245.62
277.494	258.62
277.726	237.62
277.957	225.62
278.189	233.62
278.421	224.62
278.652	218.62
278.884	240.62
279.115	219.62
279.347	202.62
279.579	229.62
279.81	215.62
280.042	215.62
280.273	217.62
280.505	226.62
280.736	211.62
280.968	217.62
281.199	210.62
281.431	222.62
281.662	217.62
281.894	226.62
282.125	223.62
282.356	212.62
282.588	236.62
282.819	228.62
283.051	221.62
283.282	223.62
283.513	240.62
283.745	233.62
283.976	231.62
284.207	258.62
284.439	239.62
284.67	233.62
284.901	235.62
285.132	233.62
285.364	240.62
285.595	232.62
285.826	227.62
286.057	231.62
286.288	250.62
286.52	242.62
286.751	224.62
286.982	236.62
287.213	238.62
287.444	253.62
287.675	243.62
287.906	230.62
288.138	248.62
288.369	234.62
288.6	251.62
288.831	258.62
289.062	262.62
289.293	235.62
289.524	243.62
289.755	254.62
289.986	251.62
290.217	229.62
290.448	237.62
290.679	254.62
290.91	242.62
291.141	248.62
291.371	236.62
291.602	252.62
291.833	240.62
292.064	272.62
292.295	241.62
292.526	246.62
292.757	245.62
292.987	232.62
293.218	244.62
293.449	243.62
293.68	246.62
293.91	228.62
294.141	242.62
294.372	235.62
294.603	238.62
294.833	234.62
295.064	241.62
295.295	235.62
295.525	266.62
295.756	250.62
295.987	258.62
296.217	258.62
296.448	261.62
296.679	249.62
296.909	241.62
297.14	233.62
297.37	235.62
297.601	243.62
297.831	253.62
298.062	242.62
298.292	234.62
298.523	246.62
298.753	269.62
298.984	258.62
299.214	257.62
299.445	249.62
299.675	248.62
299.905	273.62
300.136	256.62
300.366	264.62
300.597	258.62
300.827	259.62
301.057	256.62
301.288	275.62
301.518	267.62
301.748	267.62
301.979	276.62
302.209	268.62
302.439	273.62
302.669	276.62
302.9	260.62
303.13	264.62
303.36	269.62
303.59	246.62
303.82	273.62
304.051	281.62
304.281	281.62
304.511	284.62
304.741	289.62
304.971	270.62
305.201	285.62
305.431	258.62
305.661	283.62
305.891	255.62
306.121	282.62
306.352	271.62
306.582	294.62
306.812	283.62
307.042	272.62
307.272	270.62
307.502	277.62
307.731	270.62
307.961	264.62
308.191	284.62
308.421	271.62
308.651	269.62
308.881	283.62
309.111	279.62
309.341	284.62
309.571	277.62
309.8	278.62
310.03	296.62
310.26	276.62
310.49	300.62
310.72	302.62
310.949	319.62
311.179	290.62
311.409	274.62
311.639	274.62
311.868	290.62
312.098	296.62
312.328	299.62
312.557	307.62
312.787	300.62
313.017	292.62
313.246	320.62
313.476	296.62
313.706	312.62
313.935	278.62
314.165	285.62
314.394	316.62
314.624	305.62
314.853	306.62
315.083	299.62
315.312	306.62
315.542	300.62
315.771	315.62
316.001	306.62
316.23	300.62
316.46	286.62
316.689	293.62
316.919	306.62
317.148	313.62
317.377	317.62
317.607	304.62
317.836	308.62
318.065	294.62
318.295	304.62
318.524	299.62
318.753	284.62
318.983	287.62
319.212	278.62
319.441	316.62
319.67	292.62
319.9	302.62
320.129	318.62
320.358	316.62
320.587	296.62
320.816	318.62
321.046	321.62
321.275	324.62
321.504	328.62
321.733	316.62
321.962	306.62
322.191	308.62
322.42	323.62
322.649	324.62
322.878	344.62
323.108	341.62
323.337	353.62
323.566	358.62
323.795	360.62
324.024	391.62
324.253	446.62
324.482	635.62
324.71	891.62
324.939	1190.62
325.168	1019.62
325.397	570.62
325.626	420.62
325.855	369.62
326.084	347.62
326.313	358.62
326.542	362.62
326.77	375.62
326.999	449.62
327.228	564.62
327.457	794.62
327.686	908.62
327.914	622.62
328.143	443.62
328.372	396.62
328.6	373.62
328.829	365.62
329.058	394.62
329.287	396.62
329.515	377.62
329.744	365.62
329.972	363.62
330.201	363.62
330.43	380.62
330.658	380.62
330.887	386.62
331.115	405.62
331.344	353.62
331.572	366.62
331.801	365.62
332.03	351.62
332.258	340.62
332.486	350.62
332.715	329.62
332.943	330.62
333.172	338.62
333.4	353.62
333.629	348.62
333.857	359.62
334.085	355.62
334.314	374.62
334.542	366.62
334.771	371.62
334.999	359.62
335.227	359.62
335.455	362.62
335.684	347.62
335.912	346.62
336.14	351.62
336.369	332.62
336.597	332.62
336.825	337.62
337.053	347.62
337.281	352.62
337.51	358.62
337.738	340.62
337.966	354.62
338.194	325.62
338.422	333.62
338.65	341.62
338.878	341.62
339.106	334.62
339.334	334.62
339.562	336.62
339.79	324.62
340.018	333.62
340.246	338.62
340.474	333.62
340.702	326.62
340.93	332.62
341.158	324.62
341.386	326.62
341.614	337.62
341.842	343.62
342.07	346.62
342.298	349.62
342.526	330.62
342.754	331.62
342.981	316.62
343.209	337.62
343.437	324.62
343.665	348.62
343.893	345.62
344.12	323.62
344.348	350.62
344.576	322.62
344.804	345.62
345.031	314.62
345.259	349.62
345.487	333.62
345.714	337.62
345.942	322.62
346.17	324.62
346.397	316.62
346.625	311.62
346.853	300.62
347.08	308.62
347.308	329.62
347.535	307.62
347.763	326.62
347.99	330.62
348.218	329.62
348.445	324.62
348.673	318.62
348.9	316.62
349.128	315.62
349.355	314.62
349.583	313.62
349.81	313.62
350.037	323.62
350.265	306.62
350.492	306.62
350.72	313.62
350.947	316.62
351.174	309.62
351.402	323.62
351.629	321.62
351.856	312.62
352.083	335.62
352.311	303.62
352.538	317.62
352.765	316.62
352.992	329.62
353.22	316.62
353.447	290.62
353.674	297.62
353.901	300.62
354.128	297.62
354.355	284.62
354.583	319.62
354.81	299.62
355.037	297.62
355.264	300.62
355.491	293.62
355.718	293.62
355.945	292.62
356.172	300.62
356.399	290.62
356.626	293.62
356.853	315.62
357.08	290.62
357.307	293.62
357.534	291.62
357.761	306.62
357.988	322.62
358.215	292.62
358.441	305.62
358.668	306.62
358.895	323.62
359.122	302.62
359.349	304.62
359.576	312.62
359.802	311.62
360.029	309.62
360.256	317.62
360.483	311.62
360.709	325.62
360.936	309.62
361.163	306.62
361.39	321.62
361.616	308.62
361.843	315.62
362.07	287.62
362.296	287.62
362.523	308.62
362.749	295.62
362.976	286.62
363.203	295.62
363.429	310.62
363.656	286.62
363.882	300.62
364.109	300.62
364.335	294.62
364.562	311.62
364.788	288.62
365.015	315.62
365.241	306.62
365.468	306.62
365.694	290.62
365.92	301.62
366.147	301.62
366.373	296.62
366.599	301.62
366.826	299.62
367.052	298.62
367.278	308.62
367.505	316.62
367.731	290.62
367.957	287.62
368.184	282.62
368.41	304.62
368.636	301.62
368.862	300.62
369.089	312.62
369.315	281.62
369.541	294.62
369.767	305.62
369.993	299.62
370.219	291.62
370.445	293.62
370.672	285.62
370.898	304.62
371.124	300.62
371.35	329.62
371.576	310.62
371.802	277.62
372.028	315.62
372.254	300.62
372.48	309.62
372.706	295.62
372.932	301.62
373.158	296.62
373.384	312.62
373.61	313.62
373.835	312.62
374.061	283.62
374.287	308.62
374.513	305.62
374.739	296.62
374.965	308.62
375.191	306.62
375.416	311.62
375.642	310.62
375.868	323.62
376.094	299.62
376.319	292.62
376.545	298.62
376.771	285.62
376.997	310.62
377.222	294.62
377.448	281.62
377.674	261.62
377.899	294.62
378.125	291.62
378.35	270.62
378.576	292.62
378.802	299.62
379.027	299.62
379.253	304.62
379.478	283.62
379.704	304.62
379.929	312.62
380.155	296.62
380.38	290.62
380.606	311.62
380.831	315.62
381.057	288.62
381.282	310.62
381.507	296.62
381.733	314.62
381.958	292.62
382.184	313.62
382.409	294.62
382.634	315.62
382.86	288.62
383.085	303.62
383.31	305.62
383.535	292.62
383.761	306.62
383.986	314.62
384.211	298.62
384.436	313.62
384.662	300.62
384.887	318.62
385.112	308.62
385.337	309.62
385.562	314.62
385.787	318.62
386.013	336.62
386.238	310.62
386.463	325.62
386.688	321.62
386.913	319.62
387.138	330.62
387.363	322.62
387.588	329.62
387.813	319.62
388.038	308.62
388.263	319.62
388.488	332.62
388.713	317.62
388.938	292.62
389.163	311.62
389.387	320.62
389.612	310.62
389.837	320.62
390.062	327.62
390.287	330.62
390.512	314.62
390.736	302.62
390.961	312.62
391.186	314.62
391.411	305.62
391.636	322.62
391.86	320.62
392.085	330.62
392.31	329.62
392.534	336.62
392.759	315.62
392.984	322.62
393.208	335.62
393.433	345.62
393.658	352.62
393.882	322.62
394.107	332.62
394.331	309.62
394.556	321.62
394.78	321.62
395.005	317.62
395.229	297.62
395.454	324.62
395.678	328.62
395.903	330.62
396.127	342.62
396.352	335.62
396.576	336.62
396.801	316.62
397.025	339.62
397.249	344.62
397.474	337.62
397.698	335.62
397.922	324.62
398.147	348.62
398.371	354.62
398.595	333.62
398.82	353.62
399.044	350.62
399.268	355.62
399.492	380.62
399.717	393.62
399.941	407.62
400.165	411.62
400.389	413.62
400.613	396.62
400.837	349.62
401.062	344.62
401.286	340.62
401.51	344.62
401.734	351.62
401.958	338.62
402.182	356.62
402.406	353.62
402.63	366.62
402.854	323.62
403.078	342.62
403.302	331.62
403.526	350.62
403.75	352.62
403.974	349.62
404.198	339.62
404.422	359.62
404.645	359.62
404.869	358.62
405.093	368.62
405.317	402.62
405.541	404.62
405.765	383.62
405.988	386.62
406.212	373.62
406.436	378.62
406.66	390.62
406.883	380.62
407.107	376.62
407.331	418.62
407.555	448.62
407.778	466.62
408.002	392.62
408.226	378.62
408.449	365.62
408.673	390.62
408.896	402.62
409.12	434.62
409.344	410.62
409.567	380.62
409.791	362.62
410.014	373.62
410.238	393.62
410.461	370.62
410.685	371.62
410.908	344.62
411.132	374.62
411.355	393.62
411.578	372.62
411.802	360.62
412.025	350.62
412.249	356.62
412.472	372.62
412.695	395.62
412.919	352.62
413.142	353.62
413.365	344.62
413.589	362.62
413.812	342.62
414.035	336.62
414.258	334.62
414.482	324.62
414.705	371.62
414.928	336.62
415.151	314.62
415.374	344.62
415.597	332.62
415.821	336.62
416.044	349.62
416.267	352.62
416.49	318.62
416.713	329.62
416.936	330.62
417.159	324.62
417.382	329.62
417.605	336.62
417.828	334.62
418.051	368.62
418.274	332.62
418.497	331.62
418.72	326.62
418.943	328.62
419.166	354.62
419.389	356.62
419.611	355.62
419.834	348.62
420.057	348.62
420.28	335.62
420.503	350.62
420.726	330.62
420.948	356.62
421.171	366.62
421.394	398.62
421.617	377.62
421.839	336.62
422.062	349.62
422.285	347.62
422.507	389.62
422.73	416.62
422.953	432.62
423.175	344.62
423.398	337.62
423.621	341.62
423.843	374.62
424.066	348.62
424.288	351.62
424.511	374.62
424.733	394.62
424.956	453.62
425.178	435.62
425.401	445.62
425.623	454.62
425.846	381.62
426.068	370.62
426.291	370.62
426.513	354.62
426.735	373.62
426.958	399.62
427.18	448.62
427.402	498.62
427.625	562.62
427.847	477.62
428.069	408.62
428.292	373.62
428.514	374.62
428.736	347.62
428.958	362.62
429.181	319.62
429.403	334.62
429.625	364.62
429.847	371.62
430.069	394.62
430.292	388.62
430.514	341.62
430.736	344.62
430.958	337.62
431.18	330.62
431.402	323.62
431.624	324.62
431.846	304.62
432.068	316.62
432.29	328.62
432.512	324.62
432.734	338.62
432.956	319.62
433.178	326.62
433.4	331.62
433.622	325.62
433.844	313.62
434.066	322.62
434.287	322.62
434.509	326.62
434.731	324.62
434.953	330.62
435.175	359.62
435.397	360.62
435.618	372.62
435.84	388.62
436.062	460.62
436.284	484.62
436.505	418.62
436.727	365.62
436.949	348.62
437.17	338.62
437.392	333.62
437.614	347.62
437.835	361.62
438.057	421.62
438.278	483.62
438.5	468.62
438.721	532.62
438.943	521.62
439.165	390.62
439.386	384.62
439.608	371.62
439.829	385.62
440.05	372.62
440.272	411.62
440.493	390.62
440.715	335.62
440.936	338.62
441.158	342.62
441.379	351.62
441.6	343.62
441.822	346.62
442.043	375.62
442.264	429.62
442.486	452.62
442.707	386.62
442.928	366.62
443.149	378.62
443.371	394.62
443.592	387.62
443.813	465.62
444.034	501.62
444.255	432.62
444.476	365.62
444.698	389.62
444.919	373.62
445.14	491.62
445.361	402.62
445.582	384.62
445.803	432.62
446.024	477.62
446.245	486.62
446.466	456.62
446.687	384.62
446.908	392.62
447.129	338.62
447.35	338.62
447.571	333.62
447.792	344.62
448.013	338.62
448.234	355.62
448.455	392.62
448.675	440.62
448.896	489.62
449.117	446.62
449.338	418.62
449.559	485.62
449.779	566.62
450	412.62
450.221	350.62
450.442	330.62
450.662	326.62
450.883	328.62
451.104	329.62
451.324	312.62
451.545	308.62
451.766	312.62
451.986	300.62
452.207	321.62
452.428	316.62
452.648	311.62
452.869	310.62
453.089	288.62
453.31	314.62
453.53	306.62
453.751	304.62
453.971	306.62
454.192	322.62
454.412	302.62
454.633	292.62
454.853	294.62
455.073	293.62
455.294	346.62
455.514	338.62
455.734	329.62
455.955	293.62
456.175	274.62
456.395	294.62
456.616	281.62
456.836	283.62
457.056	289.62
457.276	294.62
457.497	293.62
457.717	288.62
457.937	290.62
458.157	285.62
458.377	308.62
458.598	270.62
458.818	334.62
459.038	357.62
459.258	367.62
459.478	338.62
459.698	314.62
459.918	315.62
460.138	317.62
460.358	319.62
460.578	307.62
460.798	330.62
461.018	336.62
461.238	332.62
461.458	328.62
461.678	323.62
461.898	325.62
462.118	333.62
462.338	339.62
462.558	350.62
462.777	346.62
462.997	338.62
463.217	350.62
463.437	364.62
463.657	345.62
463.876	337.62
464.096	354.62
464.316	332.62
464.536	333.62
464.755	352.62
464.975	346.62
465.195	342.62
465.414	373.62
465.634	346.62
465.854	324.62
466.073	308.62
466.293	320.62
466.512	308.62
466.732	316.62
466.951	328.62
467.171	317.62
467.391	320.62
467.61	332.62
467.829	296.62
468.049	309.62
468.268	310.62
468.488	314.62
468.707	308.62
468.927	301.62
469.146	311.62
469.365	334.62
469.585	317.62
469.804	314.62
470.023	315.62
470.243	317.62
470.462	320.62
470.681	322.62
470.901	337.62
471.12	319.62
471.339	326.62
471.558	310.62
471.777	326.62
471.997	325.62
472.216	309.62
472.435	331.62
472.654	293.62
472.873	304.62
473.092	304.62
473.311	328.62
473.53	326.62
473.749	332.62
473.968	333.62
474.187	408.62
474.406	395.62
474.625	357.62
474.844	335.62
475.063	328.62
475.282	320.62
475.501	314.62
475.72	324.62
475.939	327.62
476.158	349.62
476.377	329.62
476.596	318.62
476.814	336.62
477.033	333.62
477.252	336.62
477.471	316.62
477.69	327.62
477.908	334.62
478.127	352.62
478.346	351.62
478.564	348.62
478.783	352.62
479.002	331.62
479.22	341.62
479.439	374.62
479.658	366.62
479.876	367.62
480.095	390.62
480.313	392.62
480.532	380.62
480.751	387.62
480.969	380.62
481.188	376.62
481.406	395.62
481.624	356.62
481.843	370.62
482.061	364.62
482.28	356.62
482.498	354.62
482.717	359.62
482.935	359.62
483.153	357.62
483.372	365.62
483.59	380.62
483.808	364.62
484.027	362.62
484.245	379.62
484.463	356.62
484.681	357.62
484.9	381.62
485.118	385.62
485.336	356.62
485.554	375.62
485.772	373.62
485.99	370.62
486.209	366.62
486.427	370.62
486.645	390.62
486.863	382.62
487.081	401.62
487.299	386.62
487.517	379.62
487.735	398.62
487.953	410.62
488.171	410.62
488.389	401.62
488.607	397.62
488.825	382.62
489.043	376.62
489.261	389.62
489.479	390.62
489.696	397.62
489.914	405.62
490.132	413.62
490.35	387.62
490.568	401.62
490.786	409.62
491.003	429.62
491.221	420.62
491.439	439.62
491.657	422.62
491.874	424.62
492.092	449.62
492.31	454.62
492.527	443.62
492.745	437.62
492.963	438.62
493.18	450.62
493.398	461.62
493.615	463.62
493.833	458.62
494.05	439.62
494.268	451.62
494.485	455.62
494.703	473.62
494.92	458.62
495.138	452.62
495.355	448.62
495.573	458.62
495.79	447.62
496.008	461.62
496.225	462.62
496.442	463.62
496.66	459.62
496.877	442.62
497.094	464.62
497.312	465.62
497.529	472.62
497.746	482.62
497.963	468.62
498.181	490.62
498.398	480.62
498.615	485.62
498.832	516.62
499.049	505.62
499.267	523.62
499.484	538.62
499.701	563.62
499.918	564.62
500.135	584.62
500.352	585.62
500.569	631.62
500.786	642.62
501.003	635.62
501.22	578.62
501.437	595.62
501.654	587.62
501.871	577.62
502.088	513.62
