Data from 1971.PennyLincolnUp.Lamp.En5.5.200Scan.071719.P1._HRD10591_15-18-19-841.txt Node
Date: Thu Jul 18 15:18:19 EDT 2019
User: cochatt
Spectrometer: HR+D1059
Trigger mode: 1
Integration Time (sec): 1.000000E-1
Scans to average: 1
Electric dark correction enabled: true
Nonlinearity correction enabled: false
Boxcar width: 0
XAxis mode: Wavelengths
Number of Pixels in Spectrum: 2048
>>>>>Begin Spectral Data<<<<<
223.165	-33.06
223.4	-33.06
223.635	-33.06
223.869	-10.06
224.104	-18.06
224.338	1.94
224.573	0.94
224.808	-5.06
225.042	-29.06
225.277	-11.06
225.511	-0.06
225.746	-7.06
225.98	7.94
226.215	11.94
226.449	22.94
226.683	5.94
226.918	31.94
227.152	29.94
227.387	37.94
227.621	41.94
227.856	56.94
228.09	50.94
228.324	44.94
228.559	57.94
228.793	76.94
229.027	95.94
229.262	83.94
229.496	97.94
229.73	109.94
229.964	130.94
230.199	123.94
230.433	105.94
230.667	109.94
230.901	92.94
231.136	113.94
231.37	109.94
231.604	109.94
231.838	115.94
232.072	110.94
232.306	126.94
232.541	103.94
232.775	105.94
233.009	109.94
233.243	102.94
233.477	99.94
233.711	104.94
233.945	102.94
234.179	105.94
234.413	105.94
234.647	116.94
234.881	114.94
235.115	107.94
235.349	113.94
235.583	110.94
235.817	101.94
236.051	114.94
236.285	130.94
236.519	118.94
236.753	127.94
236.987	126.94
237.221	154.94
237.455	198.94
237.689	161.94
237.922	134.94
238.156	123.94
238.39	131.94
238.624	114.94
238.858	115.94
239.091	121.94
239.325	113.94
239.559	116.94
239.793	115.94
240.027	133.94
240.26	122.94
240.494	129.94
240.728	142.94
240.961	136.94
241.195	128.94
241.429	133.94
241.662	139.94
241.896	125.94
242.13	131.94
242.363	128.94
242.597	123.94
242.83	138.94
243.064	131.94
243.298	139.94
243.531	137.94
243.765	131.94
243.998	132.94
244.232	131.94
244.465	129.94
244.699	136.94
244.932	141.94
245.166	136.94
245.399	158.94
245.633	136.94
245.866	128.94
246.099	144.94
246.333	153.94
246.566	131.94
246.8	155.94
247.033	141.94
247.266	152.94
247.5	162.94
247.733	164.94
247.966	177.94
248.2	149.94
248.433	162.94
248.666	151.94
248.899	184.94
249.133	203.94
249.366	209.94
249.599	172.94
249.832	175.94
250.066	188.94
250.299	187.94
250.532	192.94
250.765	196.94
250.998	197.94
251.231	204.94
251.465	203.94
251.698	197.94
251.931	198.94
252.164	188.94
252.397	194.94
252.63	202.94
252.863	197.94
253.096	211.94
253.329	211.94
253.562	206.94
253.795	209.94
254.028	207.94
254.261	195.94
254.494	215.94
254.727	242.94
254.96	255.94
255.193	253.94
255.426	239.94
255.659	207.94
255.892	213.94
256.124	215.94
256.357	207.94
256.59	212.94
256.823	199.94
257.056	215.94
257.289	202.94
257.521	206.94
257.754	207.94
257.987	201.94
258.22	204.94
258.452	207.94
258.685	199.94
258.918	186.94
259.151	202.94
259.383	212.94
259.616	209.94
259.849	219.94
260.081	219.94
260.314	234.94
260.547	233.94
260.779	236.94
261.012	201.94
261.244	216.94
261.477	226.94
261.71	218.94
261.942	233.94
262.175	235.94
262.407	198.94
262.64	209.94
262.872	208.94
263.105	203.94
263.337	229.94
263.57	211.94
263.802	201.94
264.035	207.94
264.267	207.94
264.499	202.94
264.732	210.94
264.964	210.94
265.197	220.94
265.429	215.94
265.661	206.94
265.894	201.94
266.126	224.94
266.358	218.94
266.591	224.94
266.823	211.94
267.055	210.94
267.287	234.94
267.52	206.94
267.752	204.94
267.984	221.94
268.216	218.94
268.448	251.94
268.681	226.94
268.913	243.94
269.145	258.94
269.377	248.94
269.609	273.94
269.841	265.94
270.073	244.94
270.306	278.94
270.538	277.94
270.77	295.94
271.002	274.94
271.234	275.94
271.466	291.94
271.698	282.94
271.93	308.94
272.162	306.94
272.394	278.94
272.626	281.94
272.858	265.94
273.09	244.94
273.322	270.94
273.553	256.94
273.785	254.94
274.017	252.94
274.249	233.94
274.481	235.94
274.713	253.94
274.945	259.94
275.176	265.94
275.408	243.94
275.64	259.94
275.872	251.94
276.104	262.94
276.335	271.94
276.567	283.94
276.799	261.94
277.031	263.94
277.262	297.94
277.494	274.94
277.726	285.94
277.957	277.94
278.189	262.94
278.421	251.94
278.652	269.94
278.884	259.94
279.115	270.94
279.347	264.94
279.579	256.94
279.81	263.94
280.042	267.94
280.273	262.94
280.505	265.94
280.736	249.94
280.968	249.94
281.199	238.94
281.431	244.94
281.662	257.94
281.894	256.94
282.125	257.94
282.356	267.94
282.588	271.94
282.819	283.94
283.051	266.94
283.282	262.94
283.513	243.94
283.745	266.94
283.976	284.94
284.207	265.94
284.439	255.94
284.67	275.94
284.901	271.94
285.132	265.94
285.364	283.94
285.595	276.94
285.826	279.94
286.057	263.94
286.288	277.94
286.52	290.94
286.751	282.94
286.982	289.94
287.213	275.94
287.444	269.94
287.675	266.94
287.906	297.94
288.138	305.94
288.369	281.94
288.6	286.94
288.831	278.94
289.062	284.94
289.293	274.94
289.524	298.94
289.755	284.94
289.986	283.94
290.217	290.94
290.448	271.94
290.679	271.94
290.91	271.94
291.141	276.94
291.371	274.94
291.602	287.94
291.833	267.94
292.064	265.94
292.295	266.94
292.526	275.94
292.757	267.94
292.987	278.94
293.218	279.94
293.449	279.94
293.68	277.94
293.91	286.94
294.141	270.94
294.372	264.94
294.603	261.94
294.833	281.94
295.064	272.94
295.295	295.94
295.525	279.94
295.756	286.94
295.987	294.94
296.217	302.94
296.448	314.94
296.679	281.94
296.909	291.94
297.14	291.94
297.37	278.94
297.601	297.94
297.831	271.94
298.062	289.94
298.292	290.94
298.523	297.94
298.753	297.94
298.984	301.94
299.214	287.94
299.445	285.94
299.675	271.94
299.905	298.94
300.136	292.94
300.366	313.94
300.597	305.94
300.827	320.94
301.057	299.94
301.288	304.94
301.518	305.94
301.748	309.94
301.979	297.94
302.209	307.94
302.439	305.94
302.669	299.94
302.9	314.94
303.13	305.94
303.36	322.94
303.59	326.94
303.82	305.94
304.051	316.94
304.281	317.94
304.511	325.94
304.741	325.94
304.971	308.94
305.201	317.94
305.431	311.94
305.661	308.94
305.891	308.94
306.121	328.94
306.352	320.94
306.582	328.94
306.812	306.94
307.042	307.94
307.272	330.94
307.502	306.94
307.731	310.94
307.961	318.94
308.191	332.94
308.421	321.94
308.651	317.94
308.881	323.94
309.111	337.94
309.341	315.94
309.571	336.94
309.8	353.94
310.03	359.94
310.26	340.94
310.49	350.94
310.72	351.94
310.949	371.94
311.179	372.94
311.409	341.94
311.639	358.94
311.868	350.94
312.098	365.94
312.328	364.94
312.557	384.94
312.787	381.94
313.017	366.94
313.246	358.94
313.476	360.94
313.706	350.94
313.935	368.94
314.165	365.94
314.394	373.94
314.624	362.94
314.853	370.94
315.083	364.94
315.312	358.94
315.542	360.94
315.771	357.94
316.001	335.94
316.23	321.94
316.46	350.94
316.689	357.94
316.919	375.94
317.148	387.94
317.377	382.94
317.607	375.94
317.836	353.94
318.065	340.94
318.295	348.94
318.524	378.94
318.753	332.94
318.983	364.94
319.212	348.94
319.441	354.94
319.67	366.94
319.9	363.94
320.129	373.94
320.358	364.94
320.587	357.94
320.816	372.94
321.046	393.94
321.275	350.94
321.504	373.94
321.733	355.94
321.962	374.94
322.191	376.94
322.42	379.94
322.649	396.94
322.878	416.94
323.108	411.94
323.337	431.94
323.566	459.94
323.795	465.94
324.024	505.94
324.253	587.94
324.482	839.94
324.71	1201.94
324.939	1629.94
325.168	1392.94
325.397	758.94
325.626	553.94
325.855	484.94
326.084	439.94
326.313	444.94
326.542	451.94
326.77	479.94
326.999	561.94
327.228	741.94
327.457	1037.94
327.686	1209.94
327.914	827.94
328.143	586.94
328.372	536.94
328.6	511.94
328.829	486.94
329.058	489.94
329.287	486.94
329.515	455.94
329.744	435.94
329.972	466.94
330.201	461.94
330.43	470.94
330.658	513.94
330.887	507.94
331.115	497.94
331.344	455.94
331.572	448.94
331.801	435.94
332.03	451.94
332.258	415.94
332.486	409.94
332.715	391.94
332.943	411.94
333.172	413.94
333.4	416.94
333.629	431.94
333.857	417.94
334.085	419.94
334.314	441.94
334.542	447.94
334.771	449.94
334.999	449.94
335.227	421.94
335.455	431.94
335.684	391.94
335.912	412.94
336.14	413.94
336.369	400.94
336.597	381.94
336.825	403.94
337.053	403.94
337.281	418.94
337.51	391.94
337.738	399.94
337.966	410.94
338.194	397.94
338.422	405.94
338.65	382.94
338.878	385.94
339.106	375.94
339.334	409.94
339.562	410.94
339.79	394.94
340.018	395.94
340.246	399.94
340.474	418.94
340.702	365.94
340.93	391.94
341.158	391.94
341.386	397.94
341.614	389.94
341.842	407.94
342.07	387.94
342.298	383.94
342.526	371.94
342.754	380.94
342.981	382.94
343.209	364.94
343.437	373.94
343.665	401.94
343.893	403.94
344.12	395.94
344.348	401.94
344.576	391.94
344.804	385.94
345.031	380.94
345.259	404.94
345.487	383.94
345.714	395.94
345.942	386.94
346.17	393.94
346.397	376.94
346.625	378.94
346.853	363.94
347.08	356.94
347.308	375.94
347.535	386.94
347.763	395.94
347.99	367.94
348.218	367.94
348.445	372.94
348.673	385.94
348.9	369.94
349.128	389.94
349.355	371.94
349.583	357.94
349.81	356.94
350.037	355.94
350.265	355.94
350.492	378.94
350.72	358.94
350.947	348.94
351.174	383.94
351.402	391.94
351.629	367.94
351.856	358.94
352.083	361.94
352.311	357.94
352.538	386.94
352.765	375.94
352.992	362.94
353.22	360.94
353.447	345.94
353.674	349.94
353.901	353.94
354.128	360.94
354.355	347.94
354.583	345.94
354.81	355.94
355.037	362.94
355.264	361.94
355.491	348.94
355.718	341.94
355.945	333.94
356.172	317.94
356.399	334.94
356.626	334.94
356.853	342.94
357.08	344.94
357.307	342.94
357.534	374.94
357.761	339.94
357.988	355.94
358.215	355.94
358.441	328.94
358.668	345.94
358.895	358.94
359.122	352.94
359.349	341.94
359.576	369.94
359.802	356.94
360.029	385.94
360.256	397.94
360.483	390.94
360.709	378.94
360.936	361.94
361.163	364.94
361.39	346.94
361.616	370.94
361.843	369.94
362.07	368.94
362.296	360.94
362.523	351.94
362.749	357.94
362.976	338.94
363.203	348.94
363.429	348.94
363.656	346.94
363.882	343.94
364.109	355.94
364.335	364.94
364.562	331.94
364.788	363.94
365.015	359.94
365.241	347.94
365.468	341.94
365.694	347.94
365.92	342.94
366.147	336.94
366.373	338.94
366.599	342.94
366.826	331.94
367.052	329.94
367.278	347.94
367.505	329.94
367.731	353.94
367.957	349.94
368.184	351.94
368.41	338.94
368.636	369.94
368.862	351.94
369.089	341.94
369.315	348.94
369.541	353.94
369.767	352.94
369.993	355.94
370.219	350.94
370.445	350.94
370.672	343.94
370.898	347.94
371.124	327.94
371.35	340.94
371.576	347.94
371.802	360.94
372.028	344.94
372.254	330.94
372.48	340.94
372.706	332.94
372.932	345.94
373.158	336.94
373.384	355.94
373.61	345.94
373.835	362.94
374.061	357.94
374.287	349.94
374.513	335.94
374.739	348.94
374.965	339.94
375.191	352.94
375.416	343.94
375.642	343.94
375.868	340.94
376.094	327.94
376.319	345.94
376.545	350.94
376.771	338.94
376.997	331.94
377.222	337.94
377.448	329.94
377.674	353.94
377.899	324.94
378.125	359.94
378.35	343.94
378.576	342.94
378.802	338.94
379.027	341.94
379.253	331.94
379.478	317.94
379.704	339.94
379.929	347.94
380.155	340.94
380.38	321.94
380.606	339.94
380.831	315.94
381.057	344.94
381.282	353.94
381.507	349.94
381.733	333.94
381.958	323.94
382.184	328.94
382.409	345.94
382.634	341.94
382.86	339.94
383.085	351.94
383.31	343.94
383.535	325.94
383.761	333.94
383.986	351.94
384.211	340.94
384.436	339.94
384.662	346.94
384.887	336.94
385.112	325.94
385.337	327.94
385.562	343.94
385.787	371.94
386.013	348.94
386.238	338.94
386.463	362.94
386.688	370.94
386.913	362.94
387.138	335.94
387.363	364.94
387.588	367.94
387.813	350.94
388.038	371.94
388.263	365.94
388.488	373.94
388.713	340.94
388.938	348.94
389.163	344.94
389.387	364.94
389.612	351.94
389.837	347.94
390.062	352.94
390.287	365.94
390.512	349.94
390.736	344.94
390.961	352.94
391.186	346.94
391.411	346.94
391.636	354.94
391.86	357.94
392.085	355.94
392.31	354.94
392.534	350.94
392.759	345.94
392.984	350.94
393.208	352.94
393.433	391.94
393.658	369.94
393.882	359.94
394.107	366.94
394.331	374.94
394.556	357.94
394.78	351.94
395.005	358.94
395.229	376.94
395.454	375.94
395.678	354.94
395.903	358.94
396.127	398.94
396.352	389.94
396.576	356.94
396.801	382.94
397.025	380.94
397.249	369.94
397.474	367.94
397.698	375.94
397.922	361.94
398.147	407.94
398.371	403.94
398.595	399.94
398.82	366.94
399.044	399.94
399.268	395.94
399.492	421.94
399.717	433.94
399.941	463.94
400.165	482.94
400.389	480.94
400.613	445.94
400.837	413.94
401.062	405.94
401.286	402.94
401.51	378.94
401.734	372.94
401.958	371.94
402.182	391.94
402.406	396.94
402.63	393.94
402.854	390.94
403.078	391.94
403.302	384.94
403.526	402.94
403.75	405.94
403.974	392.94
404.198	395.94
404.422	395.94
404.645	416.94
404.869	418.94
405.093	435.94
405.317	436.94
405.541	483.94
405.765	426.94
405.988	428.94
406.212	442.94
406.436	424.94
406.66	444.94
406.883	417.94
407.107	453.94
407.331	476.94
407.555	541.94
407.778	511.94
408.002	490.94
408.226	447.94
408.449	441.94
408.673	441.94
408.896	462.94
409.12	486.94
409.344	480.94
409.567	418.94
409.791	394.94
410.014	414.94
410.238	407.94
410.461	391.94
410.685	400.94
410.908	406.94
411.132	446.94
411.355	446.94
411.578	457.94
411.802	396.94
412.025	410.94
412.249	398.94
412.472	411.94
412.695	450.94
412.919	424.94
413.142	409.94
413.365	389.94
413.589	393.94
413.812	394.94
414.035	394.94
414.258	362.94
414.482	377.94
414.705	378.94
414.928	375.94
415.151	363.94
415.374	373.94
415.597	379.94
415.821	374.94
416.044	389.94
416.267	393.94
416.49	374.94
416.713	366.94
416.936	389.94
417.159	364.94
417.382	381.94
417.605	375.94
417.828	389.94
418.051	398.94
418.274	397.94
418.497	366.94
418.72	395.94
418.943	387.94
419.166	382.94
419.389	405.94
419.611	404.94
419.834	404.94
420.057	382.94
420.28	395.94
420.503	400.94
420.726	397.94
420.948	415.94
421.171	430.94
421.394	455.94
421.617	411.94
421.839	400.94
422.062	400.94
422.285	428.94
422.507	458.94
422.73	513.94
422.953	479.94
423.175	417.94
423.398	419.94
423.621	428.94
423.843	414.94
424.066	427.94
424.288	430.94
424.511	428.94
424.733	481.94
424.956	541.94
425.178	510.94
425.401	488.94
425.623	523.94
425.846	463.94
426.068	439.94
426.291	418.94
426.513	417.94
426.735	428.94
426.958	467.94
427.18	509.94
427.402	600.94
427.625	668.94
427.847	561.94
428.069	499.94
428.292	447.94
428.514	429.94
428.736	401.94
428.958	388.94
429.181	382.94
429.403	391.94
429.625	396.94
429.847	429.94
430.069	474.94
430.292	452.94
430.514	409.94
430.736	401.94
430.958	358.94
431.18	377.94
431.402	375.94
431.624	374.94
431.846	371.94
432.068	336.94
432.29	353.94
432.512	356.94
432.734	372.94
432.956	382.94
433.178	377.94
433.4	384.94
433.622	381.94
433.844	388.94
434.066	378.94
434.287	383.94
434.509	374.94
434.731	376.94
434.953	395.94
435.175	404.94
435.397	409.94
435.618	447.94
435.84	441.94
436.062	508.94
436.284	554.94
436.505	456.94
436.727	440.94
436.949	406.94
437.17	386.94
437.392	392.94
437.614	401.94
437.835	423.94
438.057	489.94
438.278	567.94
438.5	566.94
438.721	585.94
438.943	575.94
439.165	494.94
439.386	446.94
439.608	430.94
439.829	416.94
440.05	446.94
440.272	460.94
440.493	445.94
440.715	417.94
440.936	394.94
441.158	405.94
441.379	381.94
441.6	389.94
441.822	409.94
442.043	429.94
442.264	498.94
442.486	539.94
442.707	469.94
442.928	415.94
443.149	438.94
443.371	453.94
443.592	470.94
443.813	550.94
444.034	564.94
444.255	481.94
444.476	448.94
444.698	440.94
444.919	431.94
445.14	565.94
445.361	484.94
445.582	448.94
445.803	485.94
446.024	548.94
446.245	573.94
446.466	521.94
446.687	453.94
446.908	435.94
447.129	402.94
447.35	395.94
447.571	385.94
447.792	386.94
448.013	389.94
448.234	393.94
448.455	438.94
448.675	509.94
448.896	575.94
449.117	516.94
449.338	486.94
449.559	577.94
449.779	600.94
450	513.94
450.221	435.94
450.442	406.94
450.662	383.94
450.883	379.94
451.104	408.94
451.324	384.94
451.545	380.94
451.766	346.94
451.986	362.94
452.207	353.94
452.428	337.94
452.648	333.94
452.869	361.94
453.089	335.94
453.31	358.94
453.53	343.94
453.751	354.94
453.971	341.94
454.192	350.94
454.412	364.94
454.633	341.94
454.853	349.94
455.073	352.94
455.294	356.94
455.514	412.94
455.734	405.94
455.955	350.94
456.175	312.94
456.395	321.94
456.616	317.94
456.836	322.94
457.056	332.94
457.276	322.94
457.497	337.94
457.717	340.94
457.937	351.94
458.157	347.94
458.377	332.94
458.598	366.94
458.818	385.94
459.038	433.94
459.258	434.94
459.478	377.94
459.698	364.94
459.918	363.94
460.138	362.94
460.358	363.94
460.578	380.94
460.798	364.94
461.018	366.94
461.238	359.94
461.458	360.94
461.678	351.94
461.898	363.94
462.118	364.94
462.338	389.94
462.558	379.94
462.777	372.94
462.997	387.94
463.217	383.94
463.437	387.94
463.657	399.94
463.876	399.94
464.096	399.94
464.316	390.94
464.536	404.94
464.755	380.94
464.975	399.94
465.195	408.94
465.414	421.94
465.634	387.94
465.854	376.94
466.073	371.94
466.293	364.94
466.512	343.94
466.732	378.94
466.951	353.94
467.171	360.94
467.391	356.94
467.61	351.94
467.829	348.94
468.049	375.94
468.268	341.94
468.488	333.94
468.707	351.94
468.927	339.94
469.146	345.94
469.365	333.94
469.585	335.94
469.804	347.94
470.023	378.94
470.243	360.94
470.462	359.94
470.681	380.94
470.901	371.94
471.12	343.94
471.339	329.94
471.558	363.94
471.777	361.94
471.997	355.94
472.216	344.94
472.435	363.94
472.654	373.94
472.873	373.94
473.092	340.94
473.311	342.94
473.53	348.94
473.749	364.94
473.968	395.94
474.187	467.94
474.406	484.94
474.625	412.94
474.844	363.94
475.063	358.94
475.282	351.94
475.501	359.94
475.72	365.94
475.939	363.94
476.158	368.94
476.377	373.94
476.596	366.94
476.814	381.94
477.033	399.94
477.252	381.94
477.471	391.94
477.69	389.94
477.908	370.94
478.127	399.94
478.346	397.94
478.564	386.94
478.783	406.94
479.002	415.94
479.22	420.94
479.439	412.94
479.658	433.94
479.876	414.94
480.095	427.94
480.313	456.94
480.532	417.94
480.751	428.94
480.969	444.94
481.188	448.94
481.406	458.94
481.624	419.94
481.843	429.94
482.061	406.94
482.28	415.94
482.498	411.94
482.717	410.94
482.935	407.94
483.153	423.94
483.372	413.94
483.59	428.94
483.808	403.94
484.027	439.94
484.245	394.94
484.463	407.94
484.681	423.94
484.9	419.94
485.118	438.94
485.336	417.94
485.554	426.94
485.772	427.94
485.99	450.94
486.209	424.94
486.427	403.94
486.645	449.94
486.863	450.94
487.081	460.94
487.299	433.94
487.517	451.94
487.735	438.94
487.953	462.94
488.171	476.94
488.389	454.94
488.607	461.94
488.825	463.94
489.043	440.94
489.261	458.94
489.479	450.94
489.696	453.94
489.914	472.94
490.132	471.94
490.35	459.94
490.568	463.94
490.786	482.94
491.003	498.94
491.221	487.94
491.439	507.94
491.657	525.94
491.874	485.94
492.092	522.94
492.31	535.94
492.527	511.94
492.745	503.94
492.963	521.94
493.18	522.94
493.398	511.94
493.615	520.94
493.833	533.94
494.05	533.94
494.268	506.94
494.485	518.94
494.703	536.94
494.92	489.94
495.138	561.94
495.355	536.94
495.573	525.94
495.79	517.94
496.008	556.94
496.225	551.94
496.442	527.94
496.66	501.94
496.877	522.94
497.094	543.94
497.312	517.94
497.529	557.94
497.746	546.94
497.963	567.94
498.181	554.94
498.398	557.94
498.615	549.94
498.832	586.94
499.049	580.94
499.267	604.94
499.484	616.94
499.701	646.94
499.918	655.94
500.135	669.94
500.352	670.94
500.569	702.94
500.786	712.94
501.003	673.94
501.22	691.94
501.437	643.94
501.654	661.94
501.871	657.94
502.088	618.94
