Data from 1971.PennyLincolnUp.Lamp.En5.5.200Scan.071719.P1._HRD10591_15-19-09-841.txt Node
Date: Thu Jul 18 15:19:09 EDT 2019
User: cochatt
Spectrometer: HR+D1059
Trigger mode: 1
Integration Time (sec): 1.000000E-1
Scans to average: 1
Electric dark correction enabled: true
Nonlinearity correction enabled: false
Boxcar width: 0
XAxis mode: Wavelengths
Number of Pixels in Spectrum: 2048
>>>>>Begin Spectral Data<<<<<
223.165	-13.31
223.4	-13.31
223.635	-13.31
223.869	-15.31
224.104	-19.31
224.338	-19.31
224.573	-7.31
224.808	-22.31
225.042	-15.31
225.277	-11.31
225.511	-5.31
225.746	6.69
225.98	-3.31
226.215	14.69
226.449	17.69
226.683	24.69
226.918	34.69
227.152	33.69
227.387	48.69
227.621	25.69
227.856	36.69
228.09	42.69
228.324	51.69
228.559	55.69
228.793	72.69
229.027	90.69
229.262	103.69
229.496	99.69
229.73	119.69
229.964	138.69
230.199	118.69
230.433	101.69
230.667	111.69
230.901	109.69
231.136	109.69
231.37	108.69
231.604	119.69
231.838	109.69
232.072	122.69
232.306	101.69
232.541	111.69
232.775	120.69
233.009	115.69
233.243	115.69
233.477	109.69
233.711	107.69
233.945	104.69
234.179	121.69
234.413	105.69
234.647	121.69
234.881	119.69
235.115	119.69
235.349	111.69
235.583	111.69
235.817	116.69
236.051	123.69
236.285	126.69
236.519	124.69
236.753	120.69
236.987	134.69
237.221	165.69
237.455	208.69
237.689	186.69
237.922	127.69
238.156	135.69
238.39	126.69
238.624	117.69
238.858	122.69
239.091	123.69
239.325	123.69
239.559	110.69
239.793	135.69
240.027	141.69
240.26	143.69
240.494	152.69
240.728	141.69
240.961	129.69
241.195	151.69
241.429	142.69
241.662	130.69
241.896	135.69
242.13	128.69
242.363	131.69
242.597	139.69
242.83	132.69
243.064	134.69
243.298	137.69
243.531	138.69
243.765	121.69
243.998	130.69
244.232	131.69
244.465	136.69
244.699	139.69
244.932	147.69
245.166	136.69
245.399	144.69
245.633	143.69
245.866	155.69
246.099	134.69
246.333	144.69
246.566	148.69
246.8	144.69
247.033	145.69
247.266	172.69
247.5	165.69
247.733	168.69
247.966	171.69
248.2	173.69
248.433	179.69
248.666	175.69
248.899	185.69
249.133	195.69
249.366	191.69
249.599	195.69
249.832	201.69
250.066	180.69
250.299	189.69
250.532	196.69
250.765	204.69
250.998	215.69
251.231	221.69
251.465	203.69
251.698	204.69
251.931	181.69
252.164	196.69
252.397	203.69
252.63	204.69
252.863	207.69
253.096	220.69
253.329	224.69
253.562	217.69
253.795	207.69
254.028	208.69
254.261	213.69
254.494	243.69
254.727	260.69
254.96	280.69
255.193	265.69
255.426	256.69
255.659	227.69
255.892	248.69
256.124	222.69
256.357	231.69
256.59	216.69
256.823	213.69
257.056	216.69
257.289	209.69
257.521	212.69
257.754	213.69
257.987	208.69
258.22	207.69
258.452	207.69
258.685	214.69
258.918	203.69
259.151	214.69
259.383	209.69
259.616	224.69
259.849	237.69
260.081	236.69
260.314	239.69
260.547	245.69
260.779	251.69
261.012	229.69
261.244	213.69
261.477	226.69
261.71	215.69
261.942	219.69
262.175	225.69
262.407	223.69
262.64	221.69
262.872	200.69
263.105	211.69
263.337	215.69
263.57	221.69
263.802	208.69
264.035	217.69
264.267	213.69
264.499	226.69
264.732	205.69
264.964	215.69
265.197	214.69
265.429	216.69
265.661	219.69
265.894	203.69
266.126	222.69
266.358	212.69
266.591	231.69
266.823	224.69
267.055	230.69
267.287	219.69
267.52	225.69
267.752	233.69
267.984	234.69
268.216	243.69
268.448	227.69
268.681	259.69
268.913	239.69
269.145	275.69
269.377	285.69
269.609	263.69
269.841	294.69
270.073	272.69
270.306	296.69
270.538	325.69
270.77	315.69
271.002	287.69
271.234	297.69
271.466	296.69
271.698	300.69
271.93	323.69
272.162	318.69
272.394	328.69
272.626	294.69
272.858	314.69
273.09	288.69
273.322	286.69
273.553	252.69
273.785	263.69
274.017	275.69
274.249	287.69
274.481	271.69
274.713	272.69
274.945	270.69
275.176	285.69
275.408	282.69
275.64	247.69
275.872	249.69
276.104	258.69
276.335	273.69
276.567	261.69
276.799	287.69
277.031	298.69
277.262	328.69
277.494	316.69
277.726	302.69
277.957	282.69
278.189	302.69
278.421	274.69
278.652	278.69
278.884	276.69
279.115	270.69
279.347	264.69
279.579	273.69
279.81	261.69
280.042	273.69
280.273	284.69
280.505	268.69
280.736	279.69
280.968	293.69
281.199	281.69
281.431	253.69
281.662	281.69
281.894	271.69
282.125	287.69
282.356	305.69
282.588	297.69
282.819	304.69
283.051	292.69
283.282	267.69
283.513	256.69
283.745	270.69
283.976	297.69
284.207	292.69
284.439	291.69
284.67	286.69
284.901	297.69
285.132	286.69
285.364	287.69
285.595	277.69
285.826	268.69
286.057	284.69
286.288	285.69
286.52	268.69
286.751	274.69
286.982	282.69
287.213	300.69
287.444	302.69
287.675	285.69
287.906	303.69
288.138	290.69
288.369	307.69
288.6	296.69
288.831	291.69
289.062	297.69
289.293	293.69
289.524	289.69
289.755	281.69
289.986	285.69
290.217	297.69
290.448	303.69
290.679	324.69
290.91	288.69
291.141	304.69
291.371	293.69
291.602	298.69
291.833	295.69
292.064	292.69
292.295	307.69
292.526	293.69
292.757	279.69
292.987	298.69
293.218	315.69
293.449	293.69
293.68	298.69
293.91	285.69
294.141	288.69
294.372	292.69
294.603	301.69
294.833	278.69
295.064	304.69
295.295	283.69
295.525	297.69
295.756	301.69
295.987	303.69
296.217	312.69
296.448	307.69
296.679	303.69
296.909	289.69
297.14	295.69
297.37	309.69
297.601	320.69
297.831	297.69
298.062	308.69
298.292	319.69
298.523	297.69
298.753	311.69
298.984	311.69
299.214	313.69
299.445	317.69
299.675	324.69
299.905	303.69
300.136	305.69
300.366	323.69
300.597	322.69
300.827	323.69
301.057	332.69
301.288	328.69
301.518	355.69
301.748	341.69
301.979	346.69
302.209	302.69
302.439	350.69
302.669	326.69
302.9	363.69
303.13	340.69
303.36	321.69
303.59	326.69
303.82	331.69
304.051	325.69
304.281	330.69
304.511	342.69
304.741	332.69
304.971	330.69
305.201	320.69
305.431	333.69
305.661	333.69
305.891	346.69
306.121	336.69
306.352	322.69
306.582	335.69
306.812	321.69
307.042	355.69
307.272	328.69
307.502	317.69
307.731	336.69
307.961	338.69
308.191	333.69
308.421	331.69
308.651	331.69
308.881	350.69
309.111	327.69
309.341	336.69
309.571	362.69
309.8	363.69
310.03	368.69
310.26	353.69
310.49	377.69
310.72	399.69
310.949	379.69
311.179	408.69
311.409	373.69
311.639	362.69
311.868	354.69
312.098	377.69
312.328	391.69
312.557	407.69
312.787	393.69
313.017	387.69
313.246	390.69
313.476	387.69
313.706	385.69
313.935	389.69
314.165	396.69
314.394	382.69
314.624	377.69
314.853	374.69
315.083	373.69
315.312	380.69
315.542	383.69
315.771	376.69
316.001	377.69
316.23	378.69
316.46	376.69
316.689	376.69
316.919	387.69
317.148	389.69
317.377	390.69
317.607	395.69
317.836	397.69
318.065	390.69
318.295	385.69
318.524	364.69
318.753	380.69
318.983	381.69
319.212	368.69
319.441	385.69
319.67	386.69
319.9	389.69
320.129	390.69
320.358	403.69
320.587	365.69
320.816	401.69
321.046	399.69
321.275	399.69
321.504	383.69
321.733	404.69
321.962	392.69
322.191	421.69
322.42	400.69
322.649	413.69
322.878	435.69
323.108	450.69
323.337	468.69
323.566	484.69
323.795	501.69
324.024	519.69
324.253	644.69
324.482	919.69
324.71	1396.69
324.939	1809.69
325.168	1560.69
325.397	855.69
325.626	586.69
325.855	532.69
326.084	509.69
326.313	467.69
326.542	490.69
326.77	552.69
326.999	606.69
327.228	827.69
327.457	1181.69
327.686	1392.69
327.914	943.69
328.143	641.69
328.372	561.69
328.6	530.69
328.829	537.69
329.058	510.69
329.287	535.69
329.515	487.69
329.744	495.69
329.972	475.69
330.201	485.69
330.43	518.69
330.658	555.69
330.887	553.69
331.115	526.69
331.344	495.69
331.572	478.69
331.801	471.69
332.03	443.69
332.258	441.69
332.486	429.69
332.715	447.69
332.943	436.69
333.172	430.69
333.4	429.69
333.629	456.69
333.857	459.69
334.085	491.69
334.314	480.69
334.542	483.69
334.771	484.69
334.999	471.69
335.227	450.69
335.455	435.69
335.684	417.69
335.912	423.69
336.14	431.69
336.369	427.69
336.597	450.69
336.825	439.69
337.053	449.69
337.281	425.69
337.51	417.69
337.738	420.69
337.966	419.69
338.194	438.69
338.422	421.69
338.65	421.69
338.878	432.69
339.106	428.69
339.334	420.69
339.562	413.69
339.79	408.69
340.018	402.69
340.246	401.69
340.474	418.69
340.702	424.69
340.93	418.69
341.158	427.69
341.386	415.69
341.614	413.69
341.842	416.69
342.07	401.69
342.298	411.69
342.526	398.69
342.754	396.69
342.981	396.69
343.209	407.69
343.437	409.69
343.665	390.69
343.893	419.69
344.12	419.69
344.348	396.69
344.576	424.69
344.804	428.69
345.031	409.69
345.259	403.69
345.487	407.69
345.714	408.69
345.942	396.69
346.17	393.69
346.397	403.69
346.625	393.69
346.853	393.69
347.08	375.69
347.308	409.69
347.535	394.69
347.763	405.69
347.99	376.69
348.218	398.69
348.445	408.69
348.673	408.69
348.9	402.69
349.128	378.69
349.355	379.69
349.583	389.69
349.81	396.69
350.037	380.69
350.265	366.69
350.492	395.69
350.72	389.69
350.947	399.69
351.174	414.69
351.402	384.69
351.629	383.69
351.856	399.69
352.083	395.69
352.311	399.69
352.538	400.69
352.765	412.69
352.992	377.69
353.22	393.69
353.447	401.69
353.674	384.69
353.901	374.69
354.128	383.69
354.355	358.69
354.583	372.69
354.81	367.69
355.037	367.69
355.264	359.69
355.491	363.69
355.718	372.69
355.945	351.69
356.172	353.69
356.399	360.69
356.626	359.69
356.853	369.69
357.08	362.69
357.307	364.69
357.534	356.69
357.761	349.69
357.988	355.69
358.215	362.69
358.441	376.69
358.668	360.69
358.895	362.69
359.122	359.69
359.349	377.69
359.576	395.69
359.802	424.69
360.029	420.69
360.256	417.69
360.483	399.69
360.709	389.69
360.936	377.69
361.163	379.69
361.39	387.69
361.616	396.69
361.843	375.69
362.07	373.69
362.296	361.69
362.523	379.69
362.749	383.69
362.976	381.69
363.203	387.69
363.429	376.69
363.656	386.69
363.882	338.69
364.109	357.69
364.335	351.69
364.562	354.69
364.788	347.69
365.015	359.69
365.241	375.69
365.468	366.69
365.694	371.69
365.92	386.69
366.147	372.69
366.373	361.69
366.599	361.69
366.826	358.69
367.052	344.69
367.278	355.69
367.505	339.69
367.731	393.69
367.957	375.69
368.184	364.69
368.41	370.69
368.636	376.69
368.862	377.69
369.089	360.69
369.315	354.69
369.541	353.69
369.767	360.69
369.993	355.69
370.219	357.69
370.445	368.69
370.672	355.69
370.898	377.69
371.124	358.69
371.35	341.69
371.576	374.69
371.802	363.69
372.028	371.69
372.254	351.69
372.48	359.69
372.706	379.69
372.932	345.69
373.158	353.69
373.384	353.69
373.61	372.69
373.835	362.69
374.061	333.69
374.287	358.69
374.513	359.69
374.739	351.69
374.965	331.69
375.191	358.69
375.416	374.69
375.642	365.69
375.868	359.69
376.094	357.69
376.319	363.69
376.545	340.69
376.771	351.69
376.997	346.69
377.222	363.69
377.448	352.69
377.674	344.69
377.899	357.69
378.125	349.69
378.35	354.69
378.576	360.69
378.802	353.69
379.027	337.69
379.253	356.69
379.478	333.69
379.704	358.69
379.929	350.69
380.155	359.69
380.38	349.69
380.606	353.69
380.831	355.69
381.057	352.69
381.282	335.69
381.507	363.69
381.733	367.69
381.958	341.69
382.184	341.69
382.409	363.69
382.634	355.69
382.86	347.69
383.085	344.69
383.31	371.69
383.535	363.69
383.761	347.69
383.986	366.69
384.211	365.69
384.436	355.69
384.662	363.69
384.887	341.69
385.112	382.69
385.337	376.69
385.562	350.69
385.787	383.69
386.013	380.69
386.238	389.69
386.463	368.69
386.688	377.69
386.913	365.69
387.138	387.69
387.363	367.69
387.588	371.69
387.813	349.69
388.038	375.69
388.263	375.69
388.488	366.69
388.713	391.69
388.938	379.69
389.163	388.69
389.387	367.69
389.612	375.69
389.837	365.69
390.062	367.69
390.287	346.69
390.512	379.69
390.736	367.69
390.961	363.69
391.186	374.69
391.411	389.69
391.636	388.69
391.86	389.69
392.085	377.69
392.31	366.69
392.534	391.69
392.759	384.69
392.984	367.69
393.208	365.69
393.433	376.69
393.658	382.69
393.882	370.69
394.107	358.69
394.331	381.69
394.556	387.69
394.78	364.69
395.005	383.69
395.229	372.69
395.454	373.69
395.678	374.69
395.903	392.69
396.127	395.69
396.352	387.69
396.576	374.69
396.801	379.69
397.025	381.69
397.249	386.69
397.474	380.69
397.698	390.69
397.922	406.69
398.147	400.69
398.371	422.69
398.595	403.69
398.82	398.69
399.044	429.69
399.268	437.69
399.492	441.69
399.717	472.69
399.941	502.69
400.165	510.69
400.389	496.69
400.613	476.69
400.837	439.69
401.062	421.69
401.286	405.69
401.51	429.69
401.734	430.69
401.958	407.69
402.182	415.69
402.406	415.69
402.63	411.69
402.854	420.69
403.078	416.69
403.302	422.69
403.526	427.69
403.75	416.69
403.974	428.69
404.198	425.69
404.422	421.69
404.645	412.69
404.869	440.69
405.093	437.69
405.317	490.69
405.541	512.69
405.765	483.69
405.988	459.69
406.212	424.69
406.436	460.69
406.66	474.69
406.883	457.69
407.107	488.69
407.331	517.69
407.555	573.69
407.778	549.69
408.002	527.69
408.226	472.69
408.449	465.69
408.673	453.69
408.896	494.69
409.12	531.69
409.344	490.69
409.567	434.69
409.791	449.69
410.014	438.69
410.238	419.69
410.461	429.69
410.685	426.69
410.908	429.69
411.132	471.69
411.355	475.69
411.578	457.69
411.802	446.69
412.025	421.69
412.249	427.69
412.472	446.69
412.695	481.69
412.919	475.69
413.142	430.69
413.365	420.69
413.589	400.69
413.812	397.69
414.035	410.69
414.258	395.69
414.482	410.69
414.705	401.69
414.928	406.69
415.151	383.69
415.374	388.69
415.597	377.69
415.821	392.69
416.044	420.69
416.267	413.69
416.49	390.69
416.713	426.69
416.936	408.69
417.159	399.69
417.382	399.69
417.605	412.69
417.828	393.69
418.051	441.69
418.274	399.69
418.497	393.69
418.72	412.69
418.943	413.69
419.166	424.69
419.389	421.69
419.611	420.69
419.834	428.69
420.057	407.69
420.28	427.69
420.503	409.69
420.726	421.69
420.948	425.69
421.171	459.69
421.394	471.69
421.617	417.69
421.839	412.69
422.062	425.69
422.285	431.69
422.507	468.69
422.73	535.69
422.953	514.69
423.175	443.69
423.398	417.69
423.621	429.69
423.843	452.69
424.066	454.69
424.288	449.69
424.511	467.69
424.733	504.69
424.956	567.69
425.178	537.69
425.401	537.69
425.623	543.69
425.846	467.69
426.068	456.69
426.291	425.69
426.513	451.69
426.735	460.69
426.958	486.69
427.18	558.69
427.402	663.69
427.625	703.69
427.847	611.69
428.069	546.69
428.292	474.69
428.514	440.69
428.736	424.69
428.958	431.69
429.181	420.69
429.403	419.69
429.625	423.69
429.847	441.69
430.069	465.69
430.292	469.69
430.514	433.69
430.736	407.69
430.958	409.69
431.18	378.69
431.402	391.69
431.624	403.69
431.846	391.69
432.068	383.69
432.29	384.69
432.512	387.69
432.734	412.69
432.956	400.69
433.178	396.69
433.4	408.69
433.622	393.69
433.844	387.69
434.066	399.69
434.287	352.69
434.509	367.69
434.731	377.69
434.953	410.69
435.175	416.69
435.397	437.69
435.618	456.69
435.84	492.69
436.062	551.69
436.284	611.69
436.505	520.69
436.727	447.69
436.949	423.69
437.17	433.69
437.392	414.69
437.614	430.69
437.835	446.69
438.057	543.69
438.278	615.69
438.5	587.69
438.721	663.69
438.943	619.69
439.165	479.69
439.386	460.69
439.608	462.69
439.829	451.69
440.05	489.69
440.272	493.69
440.493	487.69
440.715	455.69
440.936	445.69
441.158	424.69
441.379	411.69
441.6	419.69
441.822	419.69
442.043	479.69
442.264	540.69
442.486	584.69
442.707	486.69
442.928	465.69
443.149	480.69
443.371	477.69
443.592	521.69
443.813	593.69
444.034	608.69
444.255	530.69
444.476	461.69
444.698	451.69
444.919	460.69
445.14	571.69
445.361	499.69
445.582	479.69
445.803	545.69
446.024	601.69
446.245	608.69
446.466	565.69
446.687	486.69
446.908	469.69
447.129	406.69
447.35	416.69
447.571	417.69
447.792	413.69
448.013	404.69
448.234	454.69
448.455	459.69
448.675	570.69
448.896	631.69
449.117	557.69
449.338	527.69
449.559	597.69
449.779	675.69
450	541.69
450.221	461.69
450.442	425.69
450.662	414.69
450.883	417.69
451.104	407.69
451.324	398.69
451.545	371.69
451.766	387.69
451.986	372.69
452.207	363.69
452.428	368.69
452.648	376.69
452.869	368.69
453.089	397.69
453.31	387.69
453.53	371.69
453.751	377.69
453.971	383.69
454.192	366.69
454.412	375.69
454.633	368.69
454.853	371.69
455.073	371.69
455.294	379.69
455.514	439.69
455.734	411.69
455.955	371.69
456.175	362.69
456.395	355.69
456.616	338.69
456.836	348.69
457.056	336.69
457.276	350.69
457.497	333.69
457.717	361.69
457.937	352.69
458.157	353.69
458.377	348.69
458.598	363.69
458.818	399.69
459.038	471.69
459.258	475.69
459.478	415.69
459.698	378.69
459.918	366.69
460.138	385.69
460.358	377.69
460.578	363.69
460.798	371.69
461.018	397.69
461.238	386.69
461.458	390.69
461.678	376.69
461.898	406.69
462.118	391.69
462.338	402.69
462.558	398.69
462.777	411.69
462.997	423.69
463.217	429.69
463.437	426.69
463.657	410.69
463.876	422.69
464.096	410.69
464.316	400.69
464.536	432.69
464.755	395.69
464.975	404.69
465.195	443.69
465.414	468.69
465.634	428.69
465.854	396.69
466.073	400.69
466.293	389.69
466.512	375.69
466.732	352.69
466.951	359.69
467.171	366.69
467.391	350.69
467.61	374.69
467.829	395.69
468.049	376.69
468.268	375.69
468.488	366.69
468.707	363.69
468.927	363.69
469.146	362.69
469.365	362.69
469.585	373.69
469.804	380.69
470.023	363.69
470.243	378.69
470.462	394.69
470.681	378.69
470.901	402.69
471.12	371.69
471.339	389.69
471.558	402.69
471.777	362.69
471.997	365.69
472.216	371.69
472.435	413.69
472.654	393.69
472.873	384.69
473.092	381.69
473.311	382.69
473.53	395.69
473.749	371.69
473.968	422.69
474.187	481.69
474.406	508.69
474.625	425.69
474.844	400.69
475.063	382.69
475.282	365.69
475.501	381.69
475.72	398.69
475.939	405.69
476.158	393.69
476.377	401.69
476.596	380.69
476.814	387.69
477.033	379.69
477.252	388.69
477.471	381.69
477.69	413.69
477.908	405.69
478.127	392.69
478.346	418.69
478.564	417.69
478.783	414.69
479.002	416.69
479.22	425.69
479.439	428.69
479.658	433.69
479.876	445.69
480.095	471.69
480.313	453.69
480.532	452.69
480.751	445.69
480.969	458.69
481.188	493.69
481.406	503.69
481.624	467.69
481.843	459.69
482.061	454.69
482.28	455.69
482.498	432.69
482.717	431.69
482.935	436.69
483.153	431.69
483.372	448.69
483.59	447.69
483.808	439.69
484.027	435.69
484.245	431.69
484.463	434.69
484.681	443.69
484.9	433.69
485.118	443.69
485.336	459.69
485.554	443.69
485.772	435.69
485.99	446.69
486.209	431.69
486.427	460.69
486.645	460.69
486.863	482.69
487.081	462.69
487.299	452.69
487.517	469.69
487.735	462.69
487.953	465.69
488.171	465.69
488.389	488.69
488.607	497.69
488.825	487.69
489.043	477.69
489.261	493.69
489.479	473.69
489.696	470.69
489.914	468.69
490.132	472.69
490.35	480.69
490.568	493.69
490.786	506.69
491.003	496.69
491.221	511.69
491.439	529.69
491.657	518.69
491.874	547.69
492.092	558.69
492.31	528.69
492.527	541.69
492.745	529.69
492.963	558.69
493.18	552.69
493.398	548.69
493.615	548.69
493.833	545.69
494.05	558.69
494.268	579.69
494.485	548.69
494.703	557.69
494.92	540.69
495.138	546.69
495.355	566.69
495.573	547.69
495.79	558.69
496.008	580.69
496.225	538.69
496.442	561.69
496.66	575.69
496.877	558.69
497.094	552.69
497.312	555.69
497.529	559.69
497.746	569.69
497.963	599.69
498.181	567.69
498.398	611.69
498.615	611.69
498.832	597.69
499.049	619.69
499.267	625.69
499.484	634.69
499.701	647.69
499.918	674.69
500.135	713.69
500.352	763.69
500.569	744.69
500.786	756.69
501.003	741.69
501.22	731.69
501.437	687.69
501.654	652.69
501.871	673.69
