Data from 1971.PennyLincolnUp.Lamp.En5.5.200Scan.071719.P1._HRD10591_15-19-53-841.txt Node
Date: Thu Jul 18 15:19:53 EDT 2019
User: cochatt
Spectrometer: HR+D1059
Trigger mode: 1
Integration Time (sec): 1.000000E-1
Scans to average: 1
Electric dark correction enabled: true
Nonlinearity correction enabled: false
Boxcar width: 0
XAxis mode: Wavelengths
Number of Pixels in Spectrum: 2048
>>>>>Begin Spectral Data<<<<<
223.165	-4.88
223.4	-4.88
223.635	-4.88
223.869	-19.88
224.104	-11.88
224.338	-12.88
224.573	-28.88
224.808	-17.88
225.042	-0.88
225.277	-2.88
225.511	6.12
225.746	-1.88
225.98	10.12
226.215	11.12
226.449	12.12
226.683	23.12
226.918	21.12
227.152	18.12
227.387	34.12
227.621	31.12
227.856	42.12
228.09	33.12
228.324	49.12
228.559	57.12
228.793	60.12
229.027	107.12
229.262	90.12
229.496	119.12
229.73	129.12
229.964	144.12
230.199	125.12
230.433	122.12
230.667	124.12
230.901	113.12
231.136	123.12
231.37	107.12
231.604	119.12
231.838	119.12
232.072	111.12
232.306	121.12
232.541	118.12
232.775	123.12
233.009	123.12
233.243	124.12
233.477	121.12
233.711	120.12
233.945	123.12
234.179	110.12
234.413	129.12
234.647	108.12
234.881	131.12
235.115	116.12
235.349	122.12
235.583	129.12
235.817	104.12
236.051	136.12
236.285	125.12
236.519	112.12
236.753	150.12
236.987	143.12
237.221	175.12
237.455	222.12
237.689	172.12
237.922	124.12
238.156	136.12
238.39	134.12
238.624	131.12
238.858	142.12
239.091	123.12
239.325	118.12
239.559	128.12
239.793	148.12
240.027	133.12
240.26	153.12
240.494	150.12
240.728	147.12
240.961	150.12
241.195	134.12
241.429	138.12
241.662	146.12
241.896	129.12
242.13	146.12
242.363	136.12
242.597	140.12
242.83	145.12
243.064	156.12
243.298	148.12
243.531	154.12
243.765	157.12
243.998	148.12
244.232	163.12
244.465	162.12
244.699	148.12
244.932	157.12
245.166	162.12
245.399	147.12
245.633	154.12
245.866	145.12
246.099	156.12
246.333	167.12
246.566	162.12
246.8	156.12
247.033	167.12
247.266	166.12
247.5	166.12
247.733	171.12
247.966	173.12
248.2	168.12
248.433	182.12
248.666	201.12
248.899	203.12
249.133	215.12
249.366	203.12
249.599	218.12
249.832	204.12
250.066	193.12
250.299	209.12
250.532	196.12
250.765	217.12
250.998	238.12
251.231	237.12
251.465	225.12
251.698	209.12
251.931	210.12
252.164	212.12
252.397	214.12
252.63	211.12
252.863	220.12
253.096	224.12
253.329	245.12
253.562	237.12
253.795	231.12
254.028	239.12
254.261	246.12
254.494	258.12
254.727	275.12
254.96	282.12
255.193	304.12
255.426	262.12
255.659	241.12
255.892	235.12
256.124	250.12
256.357	258.12
256.59	236.12
256.823	238.12
257.056	234.12
257.289	235.12
257.521	227.12
257.754	228.12
257.987	219.12
258.22	225.12
258.452	230.12
258.685	230.12
258.918	230.12
259.151	234.12
259.383	233.12
259.616	239.12
259.849	262.12
260.081	246.12
260.314	260.12
260.547	271.12
260.779	266.12
261.012	236.12
261.244	253.12
261.477	242.12
261.71	246.12
261.942	237.12
262.175	247.12
262.407	257.12
262.64	230.12
262.872	238.12
263.105	214.12
263.337	227.12
263.57	211.12
263.802	222.12
264.035	215.12
264.267	223.12
264.499	237.12
264.732	231.12
264.964	229.12
265.197	224.12
265.429	222.12
265.661	241.12
265.894	231.12
266.126	241.12
266.358	230.12
266.591	233.12
266.823	242.12
267.055	233.12
267.287	236.12
267.52	252.12
267.752	233.12
267.984	240.12
268.216	262.12
268.448	266.12
268.681	266.12
268.913	250.12
269.145	287.12
269.377	294.12
269.609	300.12
269.841	294.12
270.073	304.12
270.306	328.12
270.538	331.12
270.77	343.12
271.002	323.12
271.234	303.12
271.466	313.12
271.698	334.12
271.93	344.12
272.162	339.12
272.394	333.12
272.626	318.12
272.858	311.12
273.09	299.12
273.322	303.12
273.553	296.12
273.785	295.12
274.017	274.12
274.249	270.12
274.481	290.12
274.713	284.12
274.945	276.12
275.176	287.12
275.408	292.12
275.64	284.12
275.872	269.12
276.104	286.12
276.335	294.12
276.567	285.12
276.799	297.12
277.031	308.12
277.262	340.12
277.494	343.12
277.726	331.12
277.957	318.12
278.189	295.12
278.421	303.12
278.652	289.12
278.884	301.12
279.115	302.12
279.347	290.12
279.579	293.12
279.81	291.12
280.042	289.12
280.273	300.12
280.505	292.12
280.736	289.12
280.968	284.12
281.199	300.12
281.431	281.12
281.662	282.12
281.894	255.12
282.125	292.12
282.356	296.12
282.588	333.12
282.819	331.12
283.051	303.12
283.282	313.12
283.513	293.12
283.745	295.12
283.976	311.12
284.207	310.12
284.439	317.12
284.67	306.12
284.901	312.12
285.132	306.12
285.364	296.12
285.595	306.12
285.826	286.12
286.057	307.12
286.288	307.12
286.52	299.12
286.751	318.12
286.982	315.12
287.213	299.12
287.444	275.12
287.675	305.12
287.906	311.12
288.138	336.12
288.369	336.12
288.6	328.12
288.831	314.12
289.062	314.12
289.293	322.12
289.524	318.12
289.755	294.12
289.986	307.12
290.217	319.12
290.448	303.12
290.679	291.12
290.91	330.12
291.141	304.12
291.371	303.12
291.602	312.12
291.833	317.12
292.064	310.12
292.295	299.12
292.526	321.12
292.757	327.12
292.987	304.12
293.218	314.12
293.449	303.12
293.68	300.12
293.91	312.12
294.141	308.12
294.372	298.12
294.603	328.12
294.833	308.12
295.064	316.12
295.295	307.12
295.525	340.12
295.756	328.12
295.987	324.12
296.217	342.12
296.448	339.12
296.679	348.12
296.909	300.12
297.14	327.12
297.37	329.12
297.601	331.12
297.831	318.12
298.062	340.12
298.292	330.12
298.523	340.12
298.753	339.12
298.984	318.12
299.214	313.12
299.445	334.12
299.675	309.12
299.905	327.12
300.136	346.12
300.366	333.12
300.597	330.12
300.827	335.12
301.057	331.12
301.288	346.12
301.518	357.12
301.748	356.12
301.979	359.12
302.209	358.12
302.439	354.12
302.669	341.12
302.9	348.12
303.13	355.12
303.36	356.12
303.59	363.12
303.82	357.12
304.051	357.12
304.281	370.12
304.511	346.12
304.741	350.12
304.971	347.12
305.201	341.12
305.431	364.12
305.661	348.12
305.891	343.12
306.121	354.12
306.352	348.12
306.582	363.12
306.812	358.12
307.042	366.12
307.272	353.12
307.502	346.12
307.731	371.12
307.961	350.12
308.191	363.12
308.421	355.12
308.651	359.12
308.881	391.12
309.111	380.12
309.341	366.12
309.571	370.12
309.8	391.12
310.03	393.12
310.26	403.12
310.49	406.12
310.72	398.12
310.949	412.12
311.179	428.12
311.409	397.12
311.639	399.12
311.868	410.12
312.098	392.12
312.328	417.12
312.557	408.12
312.787	434.12
313.017	400.12
313.246	404.12
313.476	397.12
313.706	387.12
313.935	411.12
314.165	431.12
314.394	418.12
314.624	426.12
314.853	410.12
315.083	388.12
315.312	398.12
315.542	407.12
315.771	381.12
316.001	385.12
316.23	392.12
316.46	369.12
316.689	378.12
316.919	396.12
317.148	412.12
317.377	435.12
317.607	403.12
317.836	416.12
318.065	404.12
318.295	386.12
318.524	410.12
318.753	403.12
318.983	392.12
319.212	408.12
319.441	418.12
319.67	414.12
319.9	404.12
320.129	406.12
320.358	410.12
320.587	409.12
320.816	412.12
321.046	419.12
321.275	432.12
321.504	426.12
321.733	430.12
321.962	417.12
322.191	433.12
322.42	456.12
322.649	464.12
322.878	468.12
323.108	476.12
323.337	499.12
323.566	520.12
323.795	550.12
324.024	596.12
324.253	721.12
324.482	1018.12
324.71	1562.12
324.939	2067.12
325.168	1711.12
325.397	932.12
325.626	641.12
325.855	560.12
326.084	526.12
326.313	506.12
326.542	512.12
326.77	564.12
326.999	682.12
327.228	904.12
327.457	1322.12
327.686	1509.12
327.914	1056.12
328.143	714.12
328.372	643.12
328.6	596.12
328.829	570.12
329.058	582.12
329.287	557.12
329.515	549.12
329.744	548.12
329.972	513.12
330.201	553.12
330.43	568.12
330.658	594.12
330.887	619.12
331.115	584.12
331.344	538.12
331.572	497.12
331.801	499.12
332.03	509.12
332.258	498.12
332.486	490.12
332.715	463.12
332.943	469.12
333.172	471.12
333.4	466.12
333.629	475.12
333.857	478.12
334.085	480.12
334.314	500.12
334.542	521.12
334.771	539.12
334.999	516.12
335.227	483.12
335.455	484.12
335.684	463.12
335.912	443.12
336.14	462.12
336.369	454.12
336.597	485.12
336.825	482.12
337.053	463.12
337.281	447.12
337.51	462.12
337.738	452.12
337.966	457.12
338.194	463.12
338.422	454.12
338.65	456.12
338.878	466.12
339.106	432.12
339.334	432.12
339.562	435.12
339.79	426.12
340.018	418.12
340.246	433.12
340.474	450.12
340.702	417.12
340.93	430.12
341.158	449.12
341.386	431.12
341.614	445.12
341.842	446.12
342.07	443.12
342.298	432.12
342.526	410.12
342.754	426.12
342.981	420.12
343.209	432.12
343.437	433.12
343.665	454.12
343.893	433.12
344.12	440.12
344.348	455.12
344.576	436.12
344.804	438.12
345.031	454.12
345.259	439.12
345.487	432.12
345.714	414.12
345.942	417.12
346.17	436.12
346.397	422.12
346.625	418.12
346.853	429.12
347.08	426.12
347.308	417.12
347.535	442.12
347.763	422.12
347.99	442.12
348.218	449.12
348.445	428.12
348.673	417.12
348.9	414.12
349.128	391.12
349.355	405.12
349.583	404.12
349.81	388.12
350.037	420.12
350.265	392.12
350.492	394.12
350.72	405.12
350.947	406.12
351.174	425.12
351.402	412.12
351.629	418.12
351.856	415.12
352.083	427.12
352.311	455.12
352.538	423.12
352.765	433.12
352.992	424.12
353.22	420.12
353.447	412.12
353.674	392.12
353.901	390.12
354.128	414.12
354.355	387.12
354.583	398.12
354.81	370.12
355.037	378.12
355.264	380.12
355.491	375.12
355.718	356.12
355.945	382.12
356.172	390.12
356.399	381.12
356.626	366.12
356.853	382.12
357.08	390.12
357.307	379.12
357.534	405.12
357.761	356.12
357.988	386.12
358.215	383.12
358.441	390.12
358.668	374.12
358.895	386.12
359.122	411.12
359.349	409.12
359.576	402.12
359.802	422.12
360.029	460.12
360.256	468.12
360.483	439.12
360.709	412.12
360.936	413.12
361.163	414.12
361.39	405.12
361.616	400.12
361.843	387.12
362.07	397.12
362.296	408.12
362.523	408.12
362.749	413.12
362.976	394.12
363.203	387.12
363.429	382.12
363.656	398.12
363.882	378.12
364.109	384.12
364.335	381.12
364.562	386.12
364.788	400.12
365.015	376.12
365.241	394.12
365.468	400.12
365.694	370.12
365.92	378.12
366.147	378.12
366.373	386.12
366.599	381.12
366.826	369.12
367.052	368.12
367.278	378.12
367.505	369.12
367.731	381.12
367.957	380.12
368.184	378.12
368.41	376.12
368.636	403.12
368.862	403.12
369.089	390.12
369.315	377.12
369.541	394.12
369.767	394.12
369.993	361.12
370.219	378.12
370.445	373.12
370.672	377.12
370.898	361.12
371.124	367.12
371.35	363.12
371.576	385.12
371.802	366.12
372.028	371.12
372.254	374.12
372.48	366.12
372.706	348.12
372.932	369.12
373.158	382.12
373.384	392.12
373.61	383.12
373.835	389.12
374.061	378.12
374.287	367.12
374.513	398.12
374.739	377.12
374.965	391.12
375.191	378.12
375.416	373.12
375.642	383.12
375.868	367.12
376.094	382.12
376.319	354.12
376.545	385.12
376.771	379.12
376.997	387.12
377.222	370.12
377.448	363.12
377.674	363.12
377.899	356.12
378.125	356.12
378.35	359.12
378.576	355.12
378.802	359.12
379.027	360.12
379.253	379.12
379.478	372.12
379.704	379.12
379.929	383.12
380.155	370.12
380.38	363.12
380.606	371.12
380.831	374.12
381.057	369.12
381.282	361.12
381.507	375.12
381.733	364.12
381.958	371.12
382.184	370.12
382.409	368.12
382.634	378.12
382.86	386.12
383.085	368.12
383.31	382.12
383.535	370.12
383.761	378.12
383.986	382.12
384.211	379.12
384.436	382.12
384.662	370.12
384.887	380.12
385.112	390.12
385.337	400.12
385.562	380.12
385.787	395.12
386.013	386.12
386.238	380.12
386.463	410.12
386.688	404.12
386.913	378.12
387.138	392.12
387.363	404.12
387.588	410.12
387.813	402.12
388.038	376.12
388.263	398.12
388.488	394.12
388.713	382.12
388.938	366.12
389.163	374.12
389.387	399.12
389.612	411.12
389.837	383.12
390.062	406.12
390.287	364.12
390.512	372.12
390.736	390.12
390.961	377.12
391.186	392.12
391.411	402.12
391.636	391.12
391.86	388.12
392.085	399.12
392.31	396.12
392.534	417.12
392.759	369.12
392.984	412.12
393.208	401.12
393.433	378.12
393.658	402.12
393.882	380.12
394.107	382.12
394.331	387.12
394.556	382.12
394.78	392.12
395.005	394.12
395.229	380.12
395.454	411.12
395.678	404.12
395.903	398.12
396.127	420.12
396.352	431.12
396.576	414.12
396.801	408.12
397.025	391.12
397.249	398.12
397.474	398.12
397.698	409.12
397.922	425.12
398.147	441.12
398.371	438.12
398.595	435.12
398.82	429.12
399.044	451.12
399.268	450.12
399.492	474.12
399.717	487.12
399.941	509.12
400.165	519.12
400.389	559.12
400.613	492.12
400.837	454.12
401.062	453.12
401.286	443.12
401.51	432.12
401.734	444.12
401.958	418.12
402.182	463.12
402.406	441.12
402.63	459.12
402.854	435.12
403.078	424.12
403.302	447.12
403.526	468.12
403.75	464.12
403.974	449.12
404.198	444.12
404.422	464.12
404.645	450.12
404.869	436.12
405.093	466.12
405.317	512.12
405.541	534.12
405.765	496.12
405.988	473.12
406.212	469.12
406.436	493.12
406.66	496.12
406.883	474.12
407.107	491.12
407.331	542.12
407.555	587.12
407.778	579.12
408.002	536.12
408.226	489.12
408.449	485.12
408.673	491.12
408.896	509.12
409.12	530.12
409.344	505.12
409.567	470.12
409.791	461.12
410.014	463.12
410.238	454.12
410.461	451.12
410.685	448.12
410.908	471.12
411.132	505.12
411.355	505.12
411.578	504.12
411.802	443.12
412.025	456.12
412.249	442.12
412.472	478.12
412.695	489.12
412.919	498.12
413.142	439.12
413.365	440.12
413.589	427.12
413.812	414.12
414.035	416.12
414.258	424.12
414.482	414.12
414.705	420.12
414.928	420.12
415.151	419.12
415.374	418.12
415.597	440.12
415.821	409.12
416.044	411.12
416.267	423.12
416.49	414.12
416.713	427.12
416.936	410.12
417.159	419.12
417.382	418.12
417.605	432.12
417.828	429.12
418.051	445.12
418.274	434.12
418.497	410.12
418.72	439.12
418.943	414.12
419.166	433.12
419.389	459.12
419.611	442.12
419.834	440.12
420.057	446.12
420.28	432.12
420.503	444.12
420.726	452.12
420.948	443.12
421.171	492.12
421.394	511.12
421.617	448.12
421.839	436.12
422.062	454.12
422.285	438.12
422.507	478.12
422.73	554.12
422.953	546.12
423.175	472.12
423.398	452.12
423.621	460.12
423.843	453.12
424.066	470.12
424.288	498.12
424.511	486.12
424.733	527.12
424.956	605.12
425.178	547.12
425.401	595.12
425.623	562.12
425.846	533.12
426.068	476.12
426.291	470.12
426.513	492.12
426.735	474.12
426.958	537.12
427.18	595.12
427.402	711.12
427.625	747.12
427.847	667.12
428.069	568.12
428.292	502.12
428.514	450.12
428.736	455.12
428.958	442.12
429.181	430.12
429.403	440.12
429.625	450.12
429.847	475.12
430.069	536.12
430.292	528.12
430.514	433.12
430.736	448.12
430.958	426.12
431.18	410.12
431.402	422.12
431.624	416.12
431.846	427.12
432.068	392.12
432.29	428.12
432.512	410.12
432.734	418.12
432.956	440.12
433.178	407.12
433.4	438.12
433.622	415.12
433.844	416.12
434.066	392.12
434.287	420.12
434.509	406.12
434.731	417.12
434.953	422.12
435.175	438.12
435.397	480.12
435.618	477.12
435.84	483.12
436.062	611.12
436.284	648.12
436.505	522.12
436.727	492.12
436.949	436.12
437.17	436.12
437.392	449.12
437.614	448.12
437.835	483.12
438.057	566.12
438.278	636.12
438.5	638.12
438.721	727.12
438.943	659.12
439.165	559.12
439.386	501.12
439.608	494.12
439.829	482.12
440.05	513.12
440.272	536.12
440.493	514.12
440.715	464.12
440.936	463.12
441.158	442.12
441.379	444.12
441.6	456.12
441.822	452.12
442.043	502.12
442.264	569.12
442.486	610.12
442.707	524.12
442.928	478.12
443.149	486.12
443.371	512.12
443.592	545.12
443.813	635.12
444.034	668.12
444.255	564.12
444.476	495.12
444.698	454.12
444.919	467.12
445.14	560.12
445.361	548.12
445.582	523.12
445.803	583.12
446.024	657.12
446.245	667.12
446.466	606.12
446.687	528.12
446.908	482.12
447.129	459.12
447.35	453.12
447.571	448.12
447.792	431.12
448.013	434.12
448.234	465.12
448.455	498.12
448.675	593.12
448.896	671.12
449.117	585.12
449.338	555.12
449.559	650.12
449.779	719.12
450	572.12
450.221	487.12
450.442	460.12
450.662	432.12
450.883	425.12
451.104	432.12
451.324	430.12
451.545	412.12
451.766	411.12
451.986	382.12
452.207	382.12
452.428	369.12
452.648	381.12
452.869	374.12
453.089	396.12
453.31	415.12
453.53	401.12
453.751	389.12
453.971	400.12
454.192	396.12
454.412	392.12
454.633	367.12
454.853	395.12
455.073	380.12
455.294	406.12
455.514	457.12
455.734	453.12
455.955	384.12
456.175	363.12
456.395	351.12
456.616	382.12
456.836	360.12
457.056	366.12
457.276	360.12
457.497	375.12
457.717	362.12
457.937	364.12
458.157	364.12
458.377	375.12
458.598	401.12
458.818	432.12
459.038	514.12
459.258	482.12
459.478	448.12
459.698	417.12
459.918	411.12
460.138	400.12
460.358	392.12
460.578	394.12
460.798	424.12
461.018	410.12
461.238	401.12
461.458	392.12
461.678	415.12
461.898	405.12
462.118	405.12
462.338	411.12
462.558	397.12
462.777	444.12
462.997	426.12
463.217	426.12
463.437	428.12
463.657	439.12
463.876	430.12
464.096	451.12
464.316	433.12
464.536	432.12
464.755	435.12
464.975	447.12
465.195	461.12
465.414	509.12
465.634	442.12
465.854	434.12
466.073	424.12
466.293	387.12
466.512	382.12
466.732	370.12
466.951	369.12
467.171	395.12
467.391	400.12
467.61	402.12
467.829	423.12
468.049	422.12
468.268	392.12
468.488	370.12
468.707	379.12
468.927	386.12
469.146	370.12
469.365	381.12
469.585	388.12
469.804	385.12
470.023	420.12
470.243	407.12
470.462	430.12
470.681	399.12
470.901	411.12
471.12	400.12
471.339	440.12
471.558	413.12
471.777	382.12
471.997	398.12
472.216	426.12
472.435	417.12
472.654	418.12
472.873	399.12
473.092	385.12
473.311	382.12
473.53	396.12
473.749	408.12
473.968	467.12
474.187	541.12
474.406	558.12
474.625	467.12
474.844	400.12
475.063	411.12
475.282	383.12
475.501	423.12
475.72	422.12
475.939	408.12
476.158	410.12
476.377	414.12
476.596	414.12
476.814	424.12
477.033	435.12
477.252	421.12
477.471	427.12
477.69	418.12
477.908	432.12
478.127	450.12
478.346	433.12
478.564	431.12
478.783	430.12
479.002	442.12
479.22	451.12
479.439	475.12
479.658	475.12
479.876	461.12
480.095	477.12
480.313	499.12
480.532	476.12
480.751	451.12
480.969	468.12
481.188	486.12
481.406	552.12
481.624	488.12
481.843	491.12
482.061	465.12
482.28	467.12
482.498	478.12
482.717	438.12
482.935	463.12
483.153	446.12
483.372	468.12
483.59	450.12
483.808	454.12
484.027	476.12
484.245	458.12
484.463	456.12
484.681	473.12
484.9	471.12
485.118	455.12
485.336	467.12
485.554	461.12
485.772	443.12
485.99	449.12
486.209	476.12
486.427	486.12
486.645	482.12
486.863	495.12
487.081	508.12
487.299	496.12
487.517	491.12
487.735	506.12
487.953	492.12
488.171	514.12
488.389	495.12
488.607	488.12
488.825	503.12
489.043	478.12
489.261	512.12
489.479	506.12
489.696	505.12
489.914	499.12
490.132	512.12
490.35	502.12
490.568	522.12
490.786	542.12
491.003	544.12
491.221	562.12
491.439	550.12
491.657	558.12
491.874	569.12
492.092	568.12
492.31	595.12
492.527	574.12
492.745	578.12
492.963	578.12
493.18	558.12
493.398	571.12
493.615	574.12
493.833	584.12
494.05	588.12
494.268	588.12
494.485	590.12
494.703	566.12
494.92	594.12
495.138	582.12
495.355	588.12
495.573	569.12
495.79	588.12
496.008	569.12
496.225	605.12
496.442	581.12
496.66	575.12
496.877	615.12
497.094	613.12
497.312	578.12
497.529	587.12
497.746	596.12
497.963	602.12
498.181	630.12
498.398	611.12
498.615	618.12
498.832	637.12
499.049	650.12
499.267	670.12
499.484	687.12
499.701	681.12
499.918	698.12
500.135	736.12
500.352	776.12
500.569	786.12
500.786	788.12
501.003	768.12
501.22	753.12
501.437	747.12
501.654	730.12
501.871	715.12
