Data from 1971.PennyLincolnUp.Lamp.En5.5.200Scan.071719.P1._HRD10591_15-21-02-843.txt Node
Date: Thu Jul 18 15:21:02 EDT 2019
User: cochatt
Spectrometer: HR+D1059
Trigger mode: 1
Integration Time (sec): 1.000000E-1
Scans to average: 1
Electric dark correction enabled: true
Nonlinearity correction enabled: false
Boxcar width: 0
XAxis mode: Wavelengths
Number of Pixels in Spectrum: 2048
>>>>>Begin Spectral Data<<<<<
223.165	-24.88
223.4	-24.88
223.635	-24.88
223.869	-17.88
224.104	-3.88
224.338	-19.88
224.573	-20.88
224.808	-9.88
225.042	-2.88
225.277	3.12
225.511	1.12
225.746	11.12
225.98	1.12
226.215	-2.88
226.449	28.12
226.683	19.12
226.918	21.12
227.152	18.12
227.387	39.12
227.621	35.12
227.856	54.12
228.09	31.12
228.324	43.12
228.559	42.12
228.793	66.12
229.027	89.12
229.262	109.12
229.496	108.12
229.73	127.12
229.964	142.12
230.199	120.12
230.433	103.12
230.667	107.12
230.901	100.12
231.136	110.12
231.37	125.12
231.604	119.12
231.838	126.12
232.072	117.12
232.306	126.12
232.541	121.12
232.775	124.12
233.009	105.12
233.243	114.12
233.477	117.12
233.711	109.12
233.945	101.12
234.179	107.12
234.413	133.12
234.647	117.12
234.881	105.12
235.115	126.12
235.349	128.12
235.583	110.12
235.817	117.12
236.051	136.12
236.285	138.12
236.519	128.12
236.753	140.12
236.987	153.12
237.221	173.12
237.455	208.12
237.689	172.12
237.922	148.12
238.156	134.12
238.39	131.12
238.624	125.12
238.858	129.12
239.091	131.12
239.325	130.12
239.559	119.12
239.793	129.12
240.027	148.12
240.26	137.12
240.494	145.12
240.728	166.12
240.961	148.12
241.195	132.12
241.429	137.12
241.662	129.12
241.896	130.12
242.13	142.12
242.363	128.12
242.597	145.12
242.83	136.12
243.064	135.12
243.298	129.12
243.531	133.12
243.765	130.12
243.998	141.12
244.232	142.12
244.465	135.12
244.699	142.12
244.932	144.12
245.166	136.12
245.399	152.12
245.633	158.12
245.866	153.12
246.099	141.12
246.333	147.12
246.566	138.12
246.8	149.12
247.033	157.12
247.266	159.12
247.5	177.12
247.733	158.12
247.966	171.12
248.2	167.12
248.433	174.12
248.666	165.12
248.899	187.12
249.133	195.12
249.366	212.12
249.599	179.12
249.832	174.12
250.066	191.12
250.299	195.12
250.532	194.12
250.765	214.12
250.998	223.12
251.231	224.12
251.465	232.12
251.698	196.12
251.931	205.12
252.164	215.12
252.397	207.12
252.63	211.12
252.863	201.12
253.096	219.12
253.329	228.12
253.562	216.12
253.795	227.12
254.028	232.12
254.261	235.12
254.494	229.12
254.727	268.12
254.96	288.12
255.193	295.12
255.426	255.12
255.659	216.12
255.892	233.12
256.124	231.12
256.357	227.12
256.59	212.12
256.823	244.12
257.056	220.12
257.289	223.12
257.521	223.12
257.754	232.12
257.987	223.12
258.22	207.12
258.452	193.12
258.685	224.12
258.918	217.12
259.151	216.12
259.383	221.12
259.616	235.12
259.849	237.12
260.081	234.12
260.314	257.12
260.547	261.12
260.779	261.12
261.012	238.12
261.244	226.12
261.477	232.12
261.71	225.12
261.942	230.12
262.175	250.12
262.407	239.12
262.64	213.12
262.872	212.12
263.105	225.12
263.337	224.12
263.57	225.12
263.802	205.12
264.035	227.12
264.267	239.12
264.499	229.12
264.732	237.12
264.964	237.12
265.197	217.12
265.429	219.12
265.661	227.12
265.894	211.12
266.126	216.12
266.358	218.12
266.591	229.12
266.823	243.12
267.055	223.12
267.287	238.12
267.52	253.12
267.752	233.12
267.984	235.12
268.216	219.12
268.448	244.12
268.681	277.12
268.913	236.12
269.145	276.12
269.377	297.12
269.609	279.12
269.841	278.12
270.073	272.12
270.306	308.12
270.538	328.12
270.77	337.12
271.002	315.12
271.234	311.12
271.466	330.12
271.698	316.12
271.93	318.12
272.162	327.12
272.394	332.12
272.626	318.12
272.858	308.12
273.09	289.12
273.322	296.12
273.553	279.12
273.785	285.12
274.017	293.12
274.249	284.12
274.481	287.12
274.713	273.12
274.945	271.12
275.176	289.12
275.408	280.12
275.64	270.12
275.872	274.12
276.104	294.12
276.335	285.12
276.567	291.12
276.799	295.12
277.031	319.12
277.262	320.12
277.494	323.12
277.726	304.12
277.957	318.12
278.189	296.12
278.421	283.12
278.652	279.12
278.884	300.12
279.115	296.12
279.347	283.12
279.579	267.12
279.81	285.12
280.042	286.12
280.273	275.12
280.505	281.12
280.736	284.12
280.968	272.12
281.199	282.12
281.431	279.12
281.662	287.12
281.894	283.12
282.125	301.12
282.356	314.12
282.588	311.12
282.819	307.12
283.051	285.12
283.282	288.12
283.513	305.12
283.745	288.12
283.976	280.12
284.207	291.12
284.439	287.12
284.67	267.12
284.901	296.12
285.132	292.12
285.364	284.12
285.595	299.12
285.826	309.12
286.057	294.12
286.288	277.12
286.52	292.12
286.751	312.12
286.982	295.12
287.213	312.12
287.444	305.12
287.675	311.12
287.906	314.12
288.138	316.12
288.369	332.12
288.6	316.12
288.831	320.12
289.062	311.12
289.293	308.12
289.524	309.12
289.755	305.12
289.986	314.12
290.217	304.12
290.448	302.12
290.679	303.12
290.91	314.12
291.141	305.12
291.371	319.12
291.602	307.12
291.833	281.12
292.064	291.12
292.295	301.12
292.526	298.12
292.757	295.12
292.987	292.12
293.218	297.12
293.449	305.12
293.68	315.12
293.91	318.12
294.141	308.12
294.372	313.12
294.603	317.12
294.833	305.12
295.064	307.12
295.295	312.12
295.525	306.12
295.756	312.12
295.987	316.12
296.217	327.12
296.448	324.12
296.679	337.12
296.909	296.12
297.14	305.12
297.37	320.12
297.601	318.12
297.831	334.12
298.062	309.12
298.292	304.12
298.523	307.12
298.753	326.12
298.984	311.12
299.214	309.12
299.445	334.12
299.675	327.12
299.905	315.12
300.136	341.12
300.366	313.12
300.597	330.12
300.827	324.12
301.057	336.12
301.288	332.12
301.518	338.12
301.748	321.12
301.979	332.12
302.209	330.12
302.439	339.12
302.669	347.12
302.9	354.12
303.13	330.12
303.36	347.12
303.59	346.12
303.82	364.12
304.051	356.12
304.281	342.12
304.511	339.12
304.741	345.12
304.971	334.12
305.201	327.12
305.431	348.12
305.661	333.12
305.891	343.12
306.121	327.12
306.352	335.12
306.582	347.12
306.812	332.12
307.042	345.12
307.272	348.12
307.502	342.12
307.731	341.12
307.961	359.12
308.191	356.12
308.421	367.12
308.651	351.12
308.881	359.12
309.111	359.12
309.341	353.12
309.571	371.12
309.8	373.12
310.03	395.12
310.26	368.12
310.49	405.12
310.72	387.12
310.949	385.12
311.179	383.12
311.409	397.12
311.639	393.12
311.868	399.12
312.098	387.12
312.328	388.12
312.557	420.12
312.787	424.12
313.017	403.12
313.246	414.12
313.476	395.12
313.706	398.12
313.935	386.12
314.165	387.12
314.394	408.12
314.624	417.12
314.853	392.12
315.083	400.12
315.312	384.12
315.542	391.12
315.771	390.12
316.001	401.12
316.23	381.12
316.46	377.12
316.689	389.12
316.919	399.12
317.148	398.12
317.377	412.12
317.607	395.12
317.836	372.12
318.065	394.12
318.295	381.12
318.524	391.12
318.753	380.12
318.983	376.12
319.212	398.12
319.441	406.12
319.67	400.12
319.9	393.12
320.129	395.12
320.358	399.12
320.587	384.12
320.816	393.12
321.046	399.12
321.275	416.12
321.504	415.12
321.733	407.12
321.962	418.12
322.191	431.12
322.42	441.12
322.649	443.12
322.878	447.12
323.108	465.12
323.337	490.12
323.566	514.12
323.795	523.12
324.024	601.12
324.253	695.12
324.482	998.12
324.71	1463.12
324.939	1991.12
325.168	1675.12
325.397	876.12
325.626	643.12
325.855	507.12
326.084	519.12
326.313	503.12
326.542	521.12
326.77	567.12
326.999	647.12
327.228	891.12
327.457	1275.12
327.686	1487.12
327.914	983.12
328.143	692.12
328.372	614.12
328.6	585.12
328.829	567.12
329.058	572.12
329.287	560.12
329.515	518.12
329.744	504.12
329.972	495.12
330.201	529.12
330.43	544.12
330.658	580.12
330.887	590.12
331.115	583.12
331.344	527.12
331.572	494.12
331.801	499.12
332.03	490.12
332.258	447.12
332.486	478.12
332.715	451.12
332.943	430.12
333.172	457.12
333.4	459.12
333.629	463.12
333.857	472.12
334.085	478.12
334.314	506.12
334.542	536.12
334.771	525.12
334.999	500.12
335.227	471.12
335.455	447.12
335.684	438.12
335.912	448.12
336.14	466.12
336.369	461.12
336.597	462.12
336.825	447.12
337.053	465.12
337.281	457.12
337.51	455.12
337.738	446.12
337.966	439.12
338.194	436.12
338.422	433.12
338.65	435.12
338.878	432.12
339.106	439.12
339.334	407.12
339.562	421.12
339.79	411.12
340.018	431.12
340.246	415.12
340.474	417.12
340.702	438.12
340.93	430.12
341.158	434.12
341.386	428.12
341.614	437.12
341.842	416.12
342.07	404.12
342.298	432.12
342.526	419.12
342.754	405.12
342.981	409.12
343.209	424.12
343.437	407.12
343.665	419.12
343.893	438.12
344.12	451.12
344.348	432.12
344.576	437.12
344.804	438.12
345.031	415.12
345.259	420.12
345.487	446.12
345.714	411.12
345.942	407.12
346.17	430.12
346.397	428.12
346.625	422.12
346.853	397.12
347.08	403.12
347.308	408.12
347.535	413.12
347.763	396.12
347.99	420.12
348.218	410.12
348.445	427.12
348.673	430.12
348.9	427.12
349.128	406.12
349.355	389.12
349.583	406.12
349.81	389.12
350.037	385.12
350.265	387.12
350.492	401.12
350.72	414.12
350.947	390.12
351.174	387.12
351.402	393.12
351.629	412.12
351.856	417.12
352.083	402.12
352.311	404.12
352.538	406.12
352.765	430.12
352.992	409.12
353.22	400.12
353.447	378.12
353.674	400.12
353.901	386.12
354.128	395.12
354.355	381.12
354.583	378.12
354.81	373.12
355.037	380.12
355.264	377.12
355.491	381.12
355.718	369.12
355.945	380.12
356.172	367.12
356.399	359.12
356.626	364.12
356.853	376.12
357.08	387.12
357.307	382.12
357.534	385.12
357.761	365.12
357.988	369.12
358.215	381.12
358.441	381.12
358.668	376.12
358.895	394.12
359.122	385.12
359.349	398.12
359.576	391.12
359.802	411.12
360.029	425.12
360.256	427.12
360.483	413.12
360.709	380.12
360.936	401.12
361.163	389.12
361.39	397.12
361.616	388.12
361.843	388.12
362.07	372.12
362.296	383.12
362.523	388.12
362.749	383.12
362.976	386.12
363.203	383.12
363.429	371.12
363.656	377.12
363.882	375.12
364.109	364.12
364.335	379.12
364.562	389.12
364.788	404.12
365.015	385.12
365.241	375.12
365.468	376.12
365.694	380.12
365.92	353.12
366.147	374.12
366.373	366.12
366.599	369.12
366.826	377.12
367.052	369.12
367.278	362.12
367.505	378.12
367.731	357.12
367.957	359.12
368.184	376.12
368.41	387.12
368.636	387.12
368.862	387.12
369.089	390.12
369.315	385.12
369.541	368.12
369.767	379.12
369.993	359.12
370.219	366.12
370.445	371.12
370.672	381.12
370.898	356.12
371.124	376.12
371.35	362.12
371.576	356.12
371.802	380.12
372.028	363.12
372.254	345.12
372.48	378.12
372.706	352.12
372.932	377.12
373.158	377.12
373.384	366.12
373.61	373.12
373.835	362.12
374.061	357.12
374.287	380.12
374.513	365.12
374.739	368.12
374.965	378.12
375.191	359.12
375.416	363.12
375.642	365.12
375.868	364.12
376.094	343.12
376.319	351.12
376.545	347.12
376.771	350.12
376.997	360.12
377.222	353.12
377.448	352.12
377.674	372.12
377.899	349.12
378.125	343.12
378.35	362.12
378.576	350.12
378.802	357.12
379.027	360.12
379.253	359.12
379.478	358.12
379.704	351.12
379.929	353.12
380.155	364.12
380.38	358.12
380.606	368.12
380.831	356.12
381.057	355.12
381.282	366.12
381.507	360.12
381.733	373.12
381.958	367.12
382.184	363.12
382.409	371.12
382.634	352.12
382.86	356.12
383.085	348.12
383.31	377.12
383.535	361.12
383.761	350.12
383.986	345.12
384.211	380.12
384.436	345.12
384.662	368.12
384.887	387.12
385.112	360.12
385.337	386.12
385.562	386.12
385.787	376.12
386.013	395.12
386.238	388.12
386.463	387.12
386.688	363.12
386.913	387.12
387.138	385.12
387.363	389.12
387.588	368.12
387.813	377.12
388.038	385.12
388.263	389.12
388.488	380.12
388.713	386.12
388.938	401.12
389.163	385.12
389.387	394.12
389.612	384.12
389.837	381.12
390.062	386.12
390.287	381.12
390.512	378.12
390.736	390.12
390.961	399.12
391.186	370.12
391.411	383.12
391.636	390.12
391.86	374.12
392.085	381.12
392.31	388.12
392.534	393.12
392.759	381.12
392.984	406.12
393.208	379.12
393.433	387.12
393.658	371.12
393.882	381.12
394.107	383.12
394.331	382.12
394.556	379.12
394.78	368.12
395.005	379.12
395.229	383.12
395.454	367.12
395.678	395.12
395.903	405.12
396.127	433.12
396.352	398.12
396.576	391.12
396.801	383.12
397.025	389.12
397.249	391.12
397.474	399.12
397.698	390.12
397.922	397.12
398.147	428.12
398.371	419.12
398.595	410.12
398.82	409.12
399.044	405.12
399.268	442.12
399.492	463.12
399.717	479.12
399.941	521.12
400.165	498.12
400.389	528.12
400.613	456.12
400.837	421.12
401.062	435.12
401.286	387.12
401.51	417.12
401.734	407.12
401.958	440.12
402.182	439.12
402.406	426.12
402.63	441.12
402.854	415.12
403.078	415.12
403.302	428.12
403.526	459.12
403.75	459.12
403.974	468.12
404.198	427.12
404.422	467.12
404.645	444.12
404.869	442.12
405.093	477.12
405.317	498.12
405.541	514.12
405.765	463.12
405.988	458.12
406.212	472.12
406.436	471.12
406.66	484.12
406.883	473.12
407.107	488.12
407.331	552.12
407.555	578.12
407.778	549.12
408.002	505.12
408.226	488.12
408.449	469.12
408.673	476.12
408.896	505.12
409.12	547.12
409.344	504.12
409.567	455.12
409.791	422.12
410.014	430.12
410.238	428.12
410.461	428.12
410.685	431.12
410.908	447.12
411.132	454.12
411.355	519.12
411.578	489.12
411.802	442.12
412.025	422.12
412.249	431.12
412.472	451.12
412.695	489.12
412.919	472.12
413.142	428.12
413.365	435.12
413.589	442.12
413.812	408.12
414.035	413.12
414.258	415.12
414.482	399.12
414.705	398.12
414.928	413.12
415.151	426.12
415.374	397.12
415.597	419.12
415.821	388.12
416.044	392.12
416.267	413.12
416.49	392.12
416.713	396.12
416.936	400.12
417.159	406.12
417.382	417.12
417.605	417.12
417.828	412.12
418.051	430.12
418.274	422.12
418.497	405.12
418.72	398.12
418.943	396.12
419.166	424.12
419.389	440.12
419.611	429.12
419.834	435.12
420.057	447.12
420.28	460.12
420.503	414.12
420.726	428.12
420.948	434.12
421.171	483.12
421.394	497.12
421.617	446.12
421.839	438.12
422.062	437.12
422.285	455.12
422.507	499.12
422.73	535.12
422.953	534.12
423.175	470.12
423.398	444.12
423.621	446.12
423.843	453.12
424.066	466.12
424.288	459.12
424.511	488.12
424.733	519.12
424.956	582.12
425.178	563.12
425.401	549.12
425.623	557.12
425.846	497.12
426.068	473.12
426.291	442.12
426.513	472.12
426.735	477.12
426.958	504.12
427.18	565.12
427.402	676.12
427.625	720.12
427.847	636.12
428.069	553.12
428.292	498.12
428.514	440.12
428.736	445.12
428.958	449.12
429.181	457.12
429.403	412.12
429.625	424.12
429.847	470.12
430.069	496.12
430.292	515.12
430.514	409.12
430.736	437.12
430.958	419.12
431.18	437.12
431.402	403.12
431.624	397.12
431.846	381.12
432.068	371.12
432.29	389.12
432.512	415.12
432.734	414.12
432.956	411.12
433.178	409.12
433.4	409.12
433.622	397.12
433.844	382.12
434.066	379.12
434.287	396.12
434.509	398.12
434.731	411.12
434.953	429.12
435.175	433.12
435.397	447.12
435.618	466.12
435.84	493.12
436.062	561.12
436.284	598.12
436.505	529.12
436.727	455.12
436.949	423.12
437.17	428.12
437.392	406.12
437.614	426.12
437.835	475.12
438.057	515.12
438.278	621.12
438.5	607.12
438.721	663.12
438.943	635.12
439.165	496.12
439.386	482.12
439.608	477.12
439.829	468.12
440.05	496.12
440.272	501.12
440.493	500.12
440.715	471.12
440.936	452.12
441.158	437.12
441.379	415.12
441.6	447.12
441.822	441.12
442.043	501.12
442.264	542.12
442.486	558.12
442.707	514.12
442.928	480.12
443.149	488.12
443.371	485.12
443.592	515.12
443.813	595.12
444.034	646.12
444.255	533.12
444.476	479.12
444.698	449.12
444.919	477.12
445.14	547.12
445.361	499.12
445.582	500.12
445.803	533.12
446.024	621.12
446.245	654.12
446.466	563.12
446.687	496.12
446.908	486.12
447.129	447.12
447.35	424.12
447.571	432.12
447.792	407.12
448.013	440.12
448.234	445.12
448.455	472.12
448.675	575.12
448.896	661.12
449.117	579.12
449.338	541.12
449.559	614.12
449.779	699.12
450	551.12
450.221	472.12
450.442	460.12
450.662	419.12
450.883	421.12
451.104	423.12
451.324	424.12
451.545	390.12
451.766	386.12
451.986	406.12
452.207	367.12
452.428	379.12
452.648	375.12
452.869	379.12
453.089	385.12
453.31	402.12
453.53	376.12
453.751	368.12
453.971	367.12
454.192	375.12
454.412	369.12
454.633	352.12
454.853	375.12
455.073	373.12
455.294	396.12
455.514	454.12
455.734	456.12
455.955	402.12
456.175	363.12
456.395	356.12
456.616	350.12
456.836	354.12
457.056	356.12
457.276	350.12
457.497	347.12
457.717	345.12
457.937	356.12
458.157	367.12
458.377	352.12
458.598	391.12
458.818	432.12
459.038	476.12
459.258	505.12
459.478	440.12
459.698	409.12
459.918	403.12
460.138	391.12
460.358	382.12
460.578	390.12
460.798	404.12
461.018	401.12
461.238	411.12
461.458	400.12
461.678	401.12
461.898	386.12
462.118	385.12
462.338	396.12
462.558	395.12
462.777	408.12
462.997	445.12
463.217	421.12
463.437	416.12
463.657	412.12
463.876	422.12
464.096	418.12
464.316	426.12
464.536	407.12
464.755	423.12
464.975	419.12
465.195	455.12
465.414	489.12
465.634	439.12
465.854	398.12
466.073	405.12
466.293	399.12
466.512	390.12
466.732	375.12
466.951	383.12
467.171	400.12
467.391	393.12
467.61	378.12
467.829	408.12
468.049	388.12
468.268	395.12
468.488	391.12
468.707	372.12
468.927	382.12
469.146	371.12
469.365	382.12
469.585	400.12
469.804	366.12
470.023	380.12
470.243	409.12
470.462	389.12
470.681	391.12
470.901	400.12
471.12	384.12
471.339	385.12
471.558	377.12
471.777	394.12
471.997	371.12
472.216	391.12
472.435	403.12
472.654	386.12
472.873	388.12
473.092	383.12
473.311	413.12
473.53	401.12
473.749	410.12
473.968	445.12
474.187	494.12
474.406	532.12
474.625	457.12
474.844	416.12
475.063	383.12
475.282	419.12
475.501	396.12
475.72	407.12
475.939	381.12
476.158	406.12
476.377	388.12
476.596	396.12
476.814	395.12
477.033	403.12
477.252	415.12
477.471	421.12
477.69	409.12
477.908	429.12
478.127	413.12
478.346	443.12
478.564	427.12
478.783	418.12
479.002	435.12
479.22	443.12
479.439	446.12
479.658	445.12
479.876	456.12
480.095	463.12
480.313	490.12
480.532	465.12
480.751	461.12
480.969	467.12
481.188	493.12
481.406	535.12
481.624	480.12
481.843	452.12
482.061	460.12
482.28	470.12
482.498	444.12
482.717	452.12
482.935	442.12
483.153	461.12
483.372	468.12
483.59	439.12
483.808	472.12
484.027	453.12
484.245	448.12
484.463	435.12
484.681	488.12
484.9	462.12
485.118	461.12
485.336	442.12
485.554	463.12
485.772	468.12
485.99	476.12
486.209	459.12
486.427	471.12
486.645	463.12
486.863	466.12
487.081	491.12
487.299	481.12
487.517	481.12
487.735	468.12
487.953	496.12
488.171	476.12
488.389	479.12
488.607	478.12
488.825	476.12
489.043	471.12
489.261	476.12
489.479	491.12
489.696	521.12
489.914	488.12
490.132	490.12
490.35	494.12
490.568	516.12
490.786	499.12
491.003	520.12
491.221	530.12
491.439	544.12
491.657	557.12
491.874	564.12
492.092	565.12
492.31	570.12
492.527	554.12
492.745	563.12
492.963	572.12
493.18	565.12
493.398	582.12
493.615	559.12
493.833	591.12
494.05	585.12
494.268	567.12
494.485	536.12
494.703	554.12
494.92	567.12
495.138	570.12
495.355	571.12
495.573	573.12
495.79	563.12
496.008	572.12
496.225	586.12
496.442	573.12
496.66	561.12
496.877	586.12
497.094	575.12
497.312	585.12
497.529	583.12
497.746	604.12
497.963	623.12
498.181	627.12
498.398	614.12
498.615	615.12
498.832	617.12
499.049	619.12
499.267	667.12
499.484	652.12
499.701	636.12
499.918	695.12
500.135	743.12
500.352	737.12
500.569	773.12
500.786	749.12
501.003	760.12
501.22	748.12
501.437	697.12
501.654	721.12
501.871	705.12
