Data from 1971.PennyLincolnUp.Lamp.En5.5.200Scan.071719.P1.Scan 2. Changed Angle._HRD10591_15-22-50-842.txt Node
Date: Thu Jul 18 15:22:50 EDT 2019
User: cochatt
Spectrometer: HR+D1059
Trigger mode: 1
Integration Time (sec): 1.000000E-1
Scans to average: 1
Electric dark correction enabled: true
Nonlinearity correction enabled: false
Boxcar width: 0
XAxis mode: Wavelengths
Number of Pixels in Spectrum: 2048
>>>>>Begin Spectral Data<<<<<
223.165	-10.69
223.4	-10.69
223.635	-10.69
223.869	-29.69
224.104	-15.69
224.338	-10.69
224.573	-15.69
224.808	-6.69
225.042	-5.69
225.277	-11.69
225.511	-10.69
225.746	1.31
225.98	7.31
226.215	23.31
226.449	19.31
226.683	15.31
226.918	32.31
227.152	18.31
227.387	45.31
227.621	51.31
227.856	48.31
228.09	47.31
228.324	45.31
228.559	68.31
228.793	71.31
229.027	104.31
229.262	98.31
229.496	120.31
229.73	151.31
229.964	159.31
230.199	134.31
230.433	116.31
230.667	120.31
230.901	109.31
231.136	117.31
231.37	122.31
231.604	128.31
231.838	106.31
232.072	99.31
232.306	114.31
232.541	125.31
232.775	110.31
233.009	106.31
233.243	109.31
233.477	121.31
233.711	120.31
233.945	104.31
234.179	122.31
234.413	113.31
234.647	115.31
234.881	114.31
235.115	122.31
235.349	110.31
235.583	128.31
235.817	108.31
236.051	108.31
236.285	133.31
236.519	118.31
236.753	125.31
236.987	135.31
237.221	184.31
237.455	223.31
237.689	197.31
237.922	145.31
238.156	139.31
238.39	148.31
238.624	121.31
238.858	126.31
239.091	130.31
239.325	121.31
239.559	127.31
239.793	130.31
240.027	130.31
240.26	140.31
240.494	171.31
240.728	149.31
240.961	149.31
241.195	153.31
241.429	123.31
241.662	137.31
241.896	137.31
242.13	135.31
242.363	141.31
242.597	149.31
242.83	146.31
243.064	132.31
243.298	142.31
243.531	138.31
243.765	156.31
243.998	147.31
244.232	145.31
244.465	142.31
244.699	138.31
244.932	143.31
245.166	155.31
245.399	140.31
245.633	147.31
245.866	139.31
246.099	143.31
246.333	154.31
246.566	154.31
246.8	146.31
247.033	155.31
247.266	160.31
247.5	174.31
247.733	164.31
247.966	150.31
248.2	170.31
248.433	167.31
248.666	172.31
248.899	194.31
249.133	198.31
249.366	200.31
249.599	188.31
249.832	182.31
250.066	179.31
250.299	195.31
250.532	192.31
250.765	194.31
250.998	217.31
251.231	229.31
251.465	212.31
251.698	222.31
251.931	200.31
252.164	215.31
252.397	210.31
252.63	204.31
252.863	208.31
253.096	233.31
253.329	238.31
253.562	207.31
253.795	226.31
254.028	214.31
254.261	219.31
254.494	240.31
254.727	262.31
254.96	275.31
255.193	270.31
255.426	261.31
255.659	228.31
255.892	244.31
256.124	223.31
256.357	238.31
256.59	206.31
256.823	218.31
257.056	207.31
257.289	212.31
257.521	202.31
257.754	204.31
257.987	197.31
258.22	200.31
258.452	200.31
258.685	203.31
258.918	205.31
259.151	198.31
259.383	212.31
259.616	221.31
259.849	215.31
260.081	235.31
260.314	234.31
260.547	235.31
260.779	250.31
261.012	230.31
261.244	223.31
261.477	230.31
261.71	208.31
261.942	226.31
262.175	238.31
262.407	231.31
262.64	222.31
262.872	207.31
263.105	214.31
263.337	214.31
263.57	189.31
263.802	194.31
264.035	206.31
264.267	217.31
264.499	207.31
264.732	205.31
264.964	214.31
265.197	205.31
265.429	206.31
265.661	198.31
265.894	188.31
266.126	214.31
266.358	212.31
266.591	211.31
266.823	190.31
267.055	214.31
267.287	211.31
267.52	209.31
267.752	217.31
267.984	218.31
268.216	220.31
268.448	229.31
268.681	193.31
268.913	243.31
269.145	258.31
269.377	253.31
269.609	266.31
269.841	264.31
270.073	253.31
270.306	264.31
270.538	290.31
270.77	281.31
271.002	281.31
271.234	266.31
271.466	285.31
271.698	304.31
271.93	296.31
272.162	295.31
272.394	309.31
272.626	294.31
272.858	266.31
273.09	259.31
273.322	260.31
273.553	259.31
273.785	244.31
274.017	238.31
274.249	234.31
274.481	234.31
274.713	239.31
274.945	247.31
275.176	240.31
275.408	238.31
275.64	233.31
275.872	244.31
276.104	248.31
276.335	242.31
276.567	251.31
276.799	246.31
277.031	287.31
277.262	298.31
277.494	322.31
277.726	296.31
277.957	260.31
278.189	275.31
278.421	251.31
278.652	250.31
278.884	243.31
279.115	259.31
279.347	262.31
279.579	240.31
279.81	234.31
280.042	236.31
280.273	232.31
280.505	225.31
280.736	239.31
280.968	254.31
281.199	232.31
281.431	231.31
281.662	232.31
281.894	237.31
282.125	235.31
282.356	235.31
282.588	286.31
282.819	272.31
283.051	259.31
283.282	249.31
283.513	236.31
283.745	258.31
283.976	248.31
284.207	260.31
284.439	248.31
284.67	245.31
284.901	237.31
285.132	237.31
285.364	237.31
285.595	257.31
285.826	263.31
286.057	270.31
286.288	247.31
286.52	260.31
286.751	242.31
286.982	242.31
287.213	238.31
287.444	255.31
287.675	279.31
287.906	266.31
288.138	269.31
288.369	276.31
288.6	278.31
288.831	259.31
289.062	262.31
289.293	244.31
289.524	264.31
289.755	264.31
289.986	264.31
290.217	253.31
290.448	252.31
290.679	266.31
290.91	271.31
291.141	232.31
291.371	244.31
291.602	251.31
291.833	250.31
292.064	262.31
292.295	257.31
292.526	270.31
292.757	251.31
292.987	275.31
293.218	247.31
293.449	260.31
293.68	264.31
293.91	246.31
294.141	259.31
294.372	248.31
294.603	261.31
294.833	247.31
295.064	264.31
295.295	262.31
295.525	248.31
295.756	264.31
295.987	271.31
296.217	314.31
296.448	297.31
296.679	273.31
296.909	268.31
297.14	269.31
297.37	260.31
297.601	252.31
297.831	276.31
298.062	277.31
298.292	270.31
298.523	262.31
298.753	255.31
298.984	267.31
299.214	272.31
299.445	263.31
299.675	285.31
299.905	290.31
300.136	276.31
300.366	261.31
300.597	270.31
300.827	282.31
301.057	280.31
301.288	278.31
301.518	285.31
301.748	278.31
301.979	290.31
302.209	291.31
302.439	286.31
302.669	300.31
302.9	284.31
303.13	287.31
303.36	292.31
303.59	296.31
303.82	284.31
304.051	296.31
304.281	286.31
304.511	295.31
304.741	280.31
304.971	285.31
305.201	275.31
305.431	289.31
305.661	301.31
305.891	297.31
306.121	283.31
306.352	291.31
306.582	300.31
306.812	293.31
307.042	311.31
307.272	286.31
307.502	302.31
307.731	286.31
307.961	290.31
308.191	302.31
308.421	295.31
308.651	314.31
308.881	301.31
309.111	306.31
309.341	317.31
309.571	329.31
309.8	326.31
310.03	338.31
310.26	354.31
310.49	344.31
310.72	351.31
310.949	351.31
311.179	359.31
311.409	346.31
311.639	334.31
311.868	321.31
312.098	342.31
312.328	362.31
312.557	348.31
312.787	363.31
313.017	378.31
313.246	335.31
313.476	340.31
313.706	353.31
313.935	358.31
314.165	351.31
314.394	363.31
314.624	362.31
314.853	355.31
315.083	352.31
315.312	355.31
315.542	350.31
315.771	322.31
316.001	340.31
316.23	330.31
316.46	347.31
316.689	334.31
316.919	349.31
317.148	348.31
317.377	362.31
317.607	335.31
317.836	359.31
318.065	318.31
318.295	348.31
318.524	334.31
318.753	334.31
318.983	343.31
319.212	345.31
319.441	358.31
319.67	333.31
319.9	356.31
320.129	339.31
320.358	328.31
320.587	361.31
320.816	355.31
321.046	365.31
321.275	361.31
321.504	354.31
321.733	363.31
321.962	376.31
322.191	404.31
322.42	397.31
322.649	420.31
322.878	428.31
323.108	444.31
323.337	435.31
323.566	465.31
323.795	513.31
324.024	546.31
324.253	676.31
324.482	948.31
324.71	1495.31
324.939	2098.31
325.168	1853.31
325.397	956.31
325.626	644.31
325.855	533.31
326.084	479.31
326.313	482.31
326.542	491.31
326.77	527.31
326.999	632.31
327.228	866.31
327.457	1342.31
327.686	1595.31
327.914	1093.31
328.143	709.31
328.372	616.31
328.6	585.31
328.829	540.31
329.058	570.31
329.287	581.31
329.515	524.31
329.744	498.31
329.972	466.31
330.201	465.31
330.43	502.31
330.658	546.31
330.887	586.31
331.115	556.31
331.344	521.31
331.572	462.31
331.801	446.31
332.03	455.31
332.258	436.31
332.486	420.31
332.715	405.31
332.943	426.31
333.172	405.31
333.4	401.31
333.629	431.31
333.857	458.31
334.085	426.31
334.314	438.31
334.542	479.31
334.771	472.31
334.999	428.31
335.227	419.31
335.455	411.31
335.684	418.31
335.912	408.31
336.14	404.31
336.369	396.31
336.597	417.31
336.825	404.31
337.053	388.31
337.281	374.31
337.51	373.31
337.738	384.31
337.966	398.31
338.194	426.31
338.422	392.31
338.65	403.31
338.878	400.31
339.106	390.31
339.334	391.31
339.562	377.31
339.79	389.31
340.018	390.31
340.246	378.31
340.474	404.31
340.702	406.31
340.93	383.31
341.158	400.31
341.386	401.31
341.614	392.31
341.842	404.31
342.07	366.31
342.298	389.31
342.526	391.31
342.754	395.31
342.981	378.31
343.209	383.31
343.437	398.31
343.665	418.31
343.893	385.31
344.12	405.31
344.348	388.31
344.576	375.31
344.804	390.31
345.031	396.31
345.259	404.31
345.487	409.31
345.714	396.31
345.942	378.31
346.17	387.31
346.397	380.31
346.625	390.31
346.853	393.31
347.08	387.31
347.308	396.31
347.535	402.31
347.763	399.31
347.99	414.31
348.218	396.31
348.445	418.31
348.673	396.31
348.9	403.31
349.128	398.31
349.355	400.31
349.583	389.31
349.81	368.31
350.037	364.31
350.265	363.31
350.492	365.31
350.72	369.31
350.947	386.31
351.174	393.31
351.402	397.31
351.629	408.31
351.856	405.31
352.083	405.31
352.311	424.31
352.538	398.31
352.765	400.31
352.992	400.31
353.22	402.31
353.447	367.31
353.674	390.31
353.901	379.31
354.128	371.31
354.355	378.31
354.583	373.31
354.81	366.31
355.037	354.31
355.264	347.31
355.491	366.31
355.718	370.31
355.945	374.31
356.172	357.31
356.399	369.31
356.626	362.31
356.853	364.31
357.08	349.31
357.307	361.31
357.534	366.31
357.761	357.31
357.988	358.31
358.215	339.31
358.441	351.31
358.668	365.31
358.895	375.31
359.122	380.31
359.349	410.31
359.576	406.31
359.802	431.31
360.029	443.31
360.256	439.31
360.483	426.31
360.709	390.31
360.936	372.31
361.163	406.31
361.39	400.31
361.616	400.31
361.843	409.31
362.07	401.31
362.296	394.31
362.523	406.31
362.749	378.31
362.976	380.31
363.203	400.31
363.429	387.31
363.656	397.31
363.882	383.31
364.109	379.31
364.335	375.31
364.562	396.31
364.788	388.31
365.015	373.31
365.241	376.31
365.468	384.31
365.694	388.31
365.92	416.31
366.147	362.31
366.373	379.31
366.599	369.31
366.826	378.31
367.052	378.31
367.278	381.31
367.505	389.31
367.731	399.31
367.957	372.31
368.184	386.31
368.41	406.31
368.636	409.31
368.862	399.31
369.089	390.31
369.315	393.31
369.541	387.31
369.767	382.31
369.993	398.31
370.219	379.31
370.445	390.31
370.672	388.31
370.898	388.31
371.124	385.31
371.35	391.31
371.576	373.31
371.802	379.31
372.028	392.31
372.254	378.31
372.48	361.31
372.706	373.31
372.932	395.31
373.158	368.31
373.384	386.31
373.61	396.31
373.835	381.31
374.061	378.31
374.287	399.31
374.513	387.31
374.739	378.31
374.965	391.31
375.191	376.31
375.416	383.31
375.642	398.31
375.868	383.31
376.094	375.31
376.319	396.31
376.545	381.31
376.771	380.31
376.997	393.31
377.222	379.31
377.448	380.31
377.674	382.31
377.899	385.31
378.125	390.31
378.35	380.31
378.576	379.31
378.802	373.31
379.027	357.31
379.253	361.31
379.478	373.31
379.704	380.31
379.929	385.31
380.155	383.31
380.38	373.31
380.606	396.31
380.831	382.31
381.057	379.31
381.282	400.31
381.507	388.31
381.733	363.31
381.958	371.31
382.184	376.31
382.409	386.31
382.634	395.31
382.86	386.31
383.085	390.31
383.31	399.31
383.535	400.31
383.761	392.31
383.986	425.31
384.211	386.31
384.436	408.31
384.662	415.31
384.887	398.31
385.112	404.31
385.337	395.31
385.562	418.31
385.787	419.31
386.013	418.31
386.238	432.31
386.463	406.31
386.688	413.31
386.913	411.31
387.138	405.31
387.363	406.31
387.588	424.31
387.813	409.31
388.038	406.31
388.263	421.31
388.488	414.31
388.713	401.31
388.938	418.31
389.163	417.31
389.387	413.31
389.612	388.31
389.837	426.31
390.062	384.31
390.287	407.31
390.512	418.31
390.736	404.31
390.961	416.31
391.186	424.31
391.411	406.31
391.636	389.31
391.86	422.31
392.085	421.31
392.31	438.31
392.534	419.31
392.759	436.31
392.984	425.31
393.208	444.31
393.433	461.31
393.658	447.31
393.882	423.31
394.107	407.31
394.331	423.31
394.556	414.31
394.78	419.31
395.005	438.31
395.229	430.31
395.454	435.31
395.678	440.31
395.903	448.31
396.127	446.31
396.352	478.31
396.576	447.31
396.801	424.31
397.025	458.31
397.249	443.31
397.474	462.31
397.698	446.31
397.922	461.31
398.147	483.31
398.371	483.31
398.595	483.31
398.82	460.31
399.044	455.31
399.268	470.31
399.492	508.31
399.717	538.31
399.941	550.31
400.165	553.31
400.389	581.31
400.613	559.31
400.837	505.31
401.062	454.31
401.286	494.31
401.51	484.31
401.734	472.31
401.958	467.31
402.182	485.31
402.406	497.31
402.63	508.31
402.854	490.31
403.078	480.31
403.302	469.31
403.526	504.31
403.75	498.31
403.974	503.31
404.198	487.31
404.422	499.31
404.645	512.31
404.869	508.31
405.093	564.31
405.317	550.31
405.541	563.31
405.765	551.31
405.988	534.31
406.212	531.31
406.436	558.31
406.66	570.31
406.883	548.31
407.107	548.31
407.331	611.31
407.555	668.31
407.778	692.31
408.002	596.31
408.226	565.31
408.449	554.31
408.673	546.31
408.896	577.31
409.12	626.31
409.344	586.31
409.567	518.31
409.791	516.31
410.014	520.31
410.238	511.31
410.461	515.31
410.685	546.31
410.908	538.31
411.132	550.31
411.355	600.31
411.578	568.31
411.802	542.31
412.025	512.31
412.249	521.31
412.472	529.31
412.695	570.31
412.919	549.31
413.142	512.31
413.365	504.31
413.589	499.31
413.812	474.31
414.035	479.31
414.258	472.31
414.482	470.31
414.705	500.31
414.928	459.31
415.151	491.31
415.374	476.31
415.597	476.31
415.821	469.31
416.044	503.31
416.267	475.31
416.49	468.31
416.713	484.31
416.936	480.31
417.159	484.31
417.382	491.31
417.605	478.31
417.828	501.31
418.051	507.31
418.274	512.31
418.497	481.31
418.72	505.31
418.943	472.31
419.166	508.31
419.389	503.31
419.611	526.31
419.834	511.31
420.057	506.31
420.28	493.31
420.503	514.31
420.726	504.31
420.948	507.31
421.171	549.31
421.394	611.31
421.617	520.31
421.839	483.31
422.062	495.31
422.285	494.31
422.507	589.31
422.73	646.31
422.953	644.31
423.175	567.31
423.398	529.31
423.621	515.31
423.843	556.31
424.066	555.31
424.288	558.31
424.511	579.31
424.733	628.31
424.956	722.31
425.178	695.31
425.401	681.31
425.623	711.31
425.846	609.31
426.068	577.31
426.291	570.31
426.513	557.31
426.735	571.31
426.958	628.31
427.18	682.31
427.402	791.31
427.625	919.31
427.847	802.31
428.069	692.31
428.292	635.31
428.514	572.31
428.736	525.31
428.958	532.31
429.181	516.31
429.403	501.31
429.625	510.31
429.847	584.31
430.069	627.31
430.292	616.31
430.514	534.31
430.736	517.31
430.958	505.31
431.18	491.31
431.402	487.31
431.624	479.31
431.846	475.31
432.068	467.31
432.29	494.31
432.512	490.31
432.734	484.31
432.956	491.31
433.178	504.31
433.4	486.31
433.622	485.31
433.844	491.31
434.066	498.31
434.287	483.31
434.509	492.31
434.731	486.31
434.953	507.31
435.175	524.31
435.397	550.31
435.618	557.31
435.84	594.31
436.062	702.31
436.284	747.31
436.505	614.31
436.727	576.31
436.949	563.31
437.17	560.31
437.392	534.31
437.614	540.31
437.835	567.31
438.057	671.31
438.278	774.31
438.5	782.31
438.721	861.31
438.943	788.31
439.165	672.31
439.386	603.31
439.608	579.31
439.829	595.31
440.05	603.31
440.272	660.31
440.493	635.31
440.715	579.31
440.936	522.31
441.158	532.31
441.379	540.31
441.6	567.31
441.822	570.31
442.043	622.31
442.264	668.31
442.486	730.31
442.707	637.31
442.928	596.31
443.149	610.31
443.371	598.31
443.592	670.31
443.813	737.31
444.034	804.31
444.255	654.31
444.476	579.31
444.698	565.31
444.919	568.31
445.14	699.31
445.361	642.31
445.582	619.31
445.803	680.31
446.024	791.31
446.245	767.31
446.466	711.31
446.687	609.31
446.908	591.31
447.129	543.31
447.35	526.31
447.571	515.31
447.792	527.31
448.013	542.31
448.234	557.31
448.455	598.31
448.675	728.31
448.896	799.31
449.117	733.31
449.338	651.31
449.559	771.31
449.779	886.31
450	704.31
450.221	604.31
450.442	536.31
450.662	530.31
450.883	530.31
451.104	528.31
451.324	543.31
451.545	524.31
451.766	498.31
451.986	478.31
452.207	472.31
452.428	479.31
452.648	475.31
452.869	479.31
453.089	480.31
453.31	505.31
453.53	490.31
453.751	459.31
453.971	485.31
454.192	508.31
454.412	510.31
454.633	458.31
454.853	454.31
455.073	456.31
455.294	506.31
455.514	566.31
455.734	537.31
455.955	485.31
456.175	434.31
456.395	455.31
456.616	454.31
456.836	423.31
457.056	444.31
457.276	428.31
457.497	464.31
457.717	459.31
457.937	458.31
458.157	465.31
458.377	463.31
458.598	480.31
458.818	570.31
459.038	613.31
459.258	638.31
459.478	544.31
459.698	500.31
459.918	491.31
460.138	490.31
460.358	475.31
460.578	477.31
460.798	511.31
461.018	490.31
461.238	494.31
461.458	477.31
461.678	475.31
461.898	489.31
462.118	476.31
462.338	482.31
462.558	510.31
462.777	492.31
462.997	516.31
463.217	520.31
463.437	528.31
463.657	526.31
463.876	510.31
464.096	513.31
464.316	516.31
464.536	526.31
464.755	536.31
464.975	534.31
465.195	588.31
465.414	682.31
465.634	590.31
465.854	550.31
466.073	523.31
466.293	502.31
466.512	500.31
466.732	494.31
466.951	486.31
467.171	481.31
467.391	486.31
467.61	485.31
467.829	512.31
468.049	485.31
468.268	476.31
468.488	490.31
468.707	458.31
468.927	469.31
469.146	476.31
469.365	474.31
469.585	486.31
469.804	495.31
470.023	491.31
470.243	501.31
470.462	486.31
470.681	514.31
470.901	501.31
471.12	490.31
471.339	488.31
471.558	495.31
471.777	495.31
471.997	460.31
472.216	486.31
472.435	524.31
472.654	529.31
472.873	472.31
473.092	479.31
473.311	467.31
473.53	477.31
473.749	502.31
473.968	541.31
474.187	646.31
474.406	662.31
474.625	539.31
474.844	510.31
475.063	499.31
475.282	493.31
475.501	491.31
475.72	500.31
475.939	487.31
476.158	500.31
476.377	520.31
476.596	491.31
476.814	529.31
477.033	534.31
477.252	507.31
477.471	522.31
477.69	532.31
477.908	536.31
478.127	527.31
478.346	541.31
478.564	541.31
478.783	548.31
479.002	550.31
479.22	572.31
479.439	588.31
479.658	587.31
479.876	566.31
480.095	593.31
480.313	622.31
480.532	612.31
480.751	603.31
480.969	604.31
481.188	656.31
481.406	725.31
481.624	605.31
481.843	603.31
482.061	601.31
482.28	592.31
482.498	594.31
482.717	584.31
482.935	584.31
483.153	593.31
483.372	594.31
483.59	582.31
483.808	586.31
484.027	600.31
484.245	587.31
484.463	579.31
484.681	596.31
484.9	600.31
485.118	614.31
485.336	601.31
485.554	607.31
485.772	592.31
485.99	607.31
486.209	617.31
486.427	602.31
486.645	615.31
486.863	639.31
487.081	636.31
487.299	607.31
487.517	650.31
487.735	619.31
487.953	638.31
488.171	638.31
488.389	661.31
488.607	611.31
488.825	640.31
489.043	632.31
489.261	662.31
489.479	635.31
489.696	661.31
489.914	635.31
490.132	641.31
490.35	654.31
490.568	661.31
490.786	683.31
491.003	689.31
491.221	686.31
491.439	718.31
491.657	735.31
491.874	710.31
492.092	736.31
492.31	727.31
492.527	714.31
492.745	739.31
492.963	741.31
493.18	746.31
493.398	773.31
493.615	771.31
493.833	774.31
494.05	732.31
494.268	764.31
494.485	758.31
494.703	746.31
494.92	754.31
495.138	781.31
495.355	758.31
495.573	743.31
495.79	778.31
496.008	781.31
496.225	754.31
496.442	742.31
496.66	773.31
496.877	741.31
497.094	764.31
497.312	796.31
497.529	794.31
497.746	764.31
497.963	778.31
498.181	807.31
498.398	816.31
498.615	821.31
498.832	836.31
499.049	833.31
499.267	839.31
499.484	849.31
499.701	908.31
499.918	874.31
500.135	930.31
500.352	946.31
500.569	946.31
500.786	964.31
501.003	967.31
501.22	948.31
501.437	936.31
501.654	887.31
