Data from 1971.PennyLincolnUp.Lamp.En5.5.200Scan.071719.P1._HRD10591_15-17-46-842.txt Node
Date: Thu Jul 18 15:17:46 EDT 2019
User: cochatt
Spectrometer: HR+D1059
Trigger mode: 1
Integration Time (sec): 1.000000E-1
Scans to average: 1
Electric dark correction enabled: true
Nonlinearity correction enabled: false
Boxcar width: 0
XAxis mode: Wavelengths
Number of Pixels in Spectrum: 2048
>>>>>Begin Spectral Data<<<<<
223.165	-16.5
223.4	-16.5
223.635	-16.5
223.869	-9.5
224.104	-25.5
224.338	-15.5
224.573	-9.5
224.808	-18.5
225.042	-14.5
225.277	-7.5
225.511	-0.5
225.746	-2.5
225.98	23.5
226.215	15.5
226.449	26.5
226.683	9.5
226.918	22.5
227.152	22.5
227.387	41.5
227.621	35.5
227.856	41.5
228.09	44.5
228.324	43.5
228.559	61.5
228.793	70.5
229.027	84.5
229.262	74.5
229.496	100.5
229.73	107.5
229.964	117.5
230.199	105.5
230.433	97.5
230.667	103.5
230.901	86.5
231.136	107.5
231.37	99.5
231.604	107.5
231.838	106.5
232.072	110.5
232.306	123.5
232.541	119.5
232.775	110.5
233.009	96.5
233.243	103.5
233.477	102.5
233.711	100.5
233.945	107.5
234.179	126.5
234.413	96.5
234.647	109.5
234.881	111.5
235.115	108.5
235.349	102.5
235.583	120.5
235.817	103.5
236.051	107.5
236.285	106.5
236.519	102.5
236.753	128.5
236.987	134.5
237.221	137.5
237.455	169.5
237.689	155.5
237.922	116.5
238.156	121.5
238.39	104.5
238.624	111.5
238.858	104.5
239.091	126.5
239.325	113.5
239.559	118.5
239.793	103.5
240.027	102.5
240.26	102.5
240.494	130.5
240.728	126.5
240.961	102.5
241.195	121.5
241.429	120.5
241.662	129.5
241.896	114.5
242.13	111.5
242.363	112.5
242.597	129.5
242.83	124.5
243.064	115.5
243.298	116.5
243.531	120.5
243.765	121.5
243.998	123.5
244.232	117.5
244.465	127.5
244.699	128.5
244.932	132.5
245.166	130.5
245.399	133.5
245.633	127.5
245.866	121.5
246.099	120.5
246.333	125.5
246.566	130.5
246.8	126.5
247.033	124.5
247.266	141.5
247.5	152.5
247.733	141.5
247.966	158.5
248.2	142.5
248.433	154.5
248.666	142.5
248.899	154.5
249.133	165.5
249.366	170.5
249.599	154.5
249.832	148.5
250.066	160.5
250.299	150.5
250.532	162.5
250.765	188.5
250.998	195.5
251.231	172.5
251.465	162.5
251.698	155.5
251.931	159.5
252.164	170.5
252.397	170.5
252.63	175.5
252.863	172.5
253.096	176.5
253.329	196.5
253.562	181.5
253.795	186.5
254.028	184.5
254.261	171.5
254.494	170.5
254.727	187.5
254.96	206.5
255.193	199.5
255.426	197.5
255.659	184.5
255.892	189.5
256.124	178.5
256.357	186.5
256.59	201.5
256.823	188.5
257.056	168.5
257.289	166.5
257.521	177.5
257.754	178.5
257.987	177.5
258.22	186.5
258.452	166.5
258.685	178.5
258.918	175.5
259.151	182.5
259.383	192.5
259.616	190.5
259.849	182.5
260.081	217.5
260.314	199.5
260.547	210.5
260.779	201.5
261.012	201.5
261.244	195.5
261.477	190.5
261.71	197.5
261.942	200.5
262.175	199.5
262.407	167.5
262.64	184.5
262.872	182.5
263.105	206.5
263.337	188.5
263.57	167.5
263.802	156.5
264.035	164.5
264.267	171.5
264.499	174.5
264.732	179.5
264.964	191.5
265.197	189.5
265.429	179.5
265.661	182.5
265.894	189.5
266.126	186.5
266.358	170.5
266.591	181.5
266.823	172.5
267.055	208.5
267.287	183.5
267.52	194.5
267.752	182.5
267.984	191.5
268.216	199.5
268.448	199.5
268.681	212.5
268.913	200.5
269.145	217.5
269.377	215.5
269.609	220.5
269.841	207.5
270.073	214.5
270.306	223.5
270.538	222.5
270.77	234.5
271.002	237.5
271.234	228.5
271.466	240.5
271.698	228.5
271.93	235.5
272.162	236.5
272.394	236.5
272.626	239.5
272.858	217.5
273.09	215.5
273.322	219.5
273.553	221.5
273.785	208.5
274.017	206.5
274.249	216.5
274.481	199.5
274.713	218.5
274.945	230.5
275.176	212.5
275.408	221.5
275.64	217.5
275.872	204.5
276.104	210.5
276.335	211.5
276.567	231.5
276.799	217.5
277.031	226.5
277.262	230.5
277.494	237.5
277.726	231.5
277.957	224.5
278.189	224.5
278.421	216.5
278.652	227.5
278.884	215.5
279.115	226.5
279.347	217.5
279.579	234.5
279.81	226.5
280.042	215.5
280.273	221.5
280.505	226.5
280.736	223.5
280.968	224.5
281.199	214.5
281.431	221.5
281.662	225.5
281.894	222.5
282.125	217.5
282.356	226.5
282.588	219.5
282.819	250.5
283.051	231.5
283.282	224.5
283.513	241.5
283.745	244.5
283.976	231.5
284.207	228.5
284.439	229.5
284.67	230.5
284.901	243.5
285.132	238.5
285.364	228.5
285.595	230.5
285.826	222.5
286.057	238.5
286.288	231.5
286.52	222.5
286.751	243.5
286.982	230.5
287.213	244.5
287.444	242.5
287.675	245.5
287.906	241.5
288.138	247.5
288.369	247.5
288.6	239.5
288.831	264.5
289.062	236.5
289.293	227.5
289.524	245.5
289.755	233.5
289.986	242.5
290.217	250.5
290.448	240.5
290.679	233.5
290.91	260.5
291.141	246.5
291.371	255.5
291.602	264.5
291.833	221.5
292.064	251.5
292.295	248.5
292.526	242.5
292.757	233.5
292.987	251.5
293.218	249.5
293.449	242.5
293.68	235.5
293.91	262.5
294.141	258.5
294.372	246.5
294.603	234.5
294.833	248.5
295.064	251.5
295.295	253.5
295.525	239.5
295.756	238.5
295.987	259.5
296.217	258.5
296.448	247.5
296.679	262.5
296.909	250.5
297.14	252.5
297.37	237.5
297.601	243.5
297.831	242.5
298.062	253.5
298.292	260.5
298.523	244.5
298.753	266.5
298.984	263.5
299.214	260.5
299.445	240.5
299.675	241.5
299.905	274.5
300.136	254.5
300.366	266.5
300.597	245.5
300.827	271.5
301.057	255.5
301.288	258.5
301.518	263.5
301.748	264.5
301.979	289.5
302.209	262.5
302.439	295.5
302.669	284.5
302.9	277.5
303.13	250.5
303.36	270.5
303.59	279.5
303.82	270.5
304.051	267.5
304.281	254.5
304.511	275.5
304.741	279.5
304.971	263.5
305.201	270.5
305.431	291.5
305.661	267.5
305.891	267.5
306.121	269.5
306.352	282.5
306.582	266.5
306.812	272.5
307.042	281.5
307.272	246.5
307.502	283.5
307.731	272.5
307.961	278.5
308.191	285.5
308.421	252.5
308.651	270.5
308.881	278.5
309.111	266.5
309.341	275.5
309.571	269.5
309.8	284.5
310.03	283.5
310.26	271.5
310.49	274.5
310.72	277.5
310.949	286.5
311.179	289.5
311.409	295.5
311.639	294.5
311.868	288.5
312.098	286.5
312.328	304.5
312.557	308.5
312.787	311.5
313.017	312.5
313.246	310.5
313.476	276.5
313.706	294.5
313.935	293.5
314.165	303.5
314.394	309.5
314.624	308.5
314.853	290.5
315.083	298.5
315.312	287.5
315.542	311.5
315.771	304.5
316.001	314.5
316.23	309.5
316.46	316.5
316.689	295.5
316.919	306.5
317.148	314.5
317.377	323.5
317.607	296.5
317.836	300.5
318.065	318.5
318.295	308.5
318.524	304.5
318.753	308.5
318.983	310.5
319.212	300.5
319.441	310.5
319.67	312.5
319.9	285.5
320.129	305.5
320.358	297.5
320.587	305.5
320.816	306.5
321.046	302.5
321.275	331.5
321.504	306.5
321.733	312.5
321.962	318.5
322.191	341.5
322.42	341.5
322.649	342.5
322.878	350.5
323.108	341.5
323.337	339.5
323.566	361.5
323.795	363.5
324.024	379.5
324.253	445.5
324.482	543.5
324.71	843.5
324.939	1154.5
325.168	984.5
325.397	551.5
325.626	399.5
325.855	385.5
326.084	348.5
326.313	353.5
326.542	360.5
326.77	374.5
326.999	432.5
327.228	561.5
327.457	754.5
327.686	887.5
327.914	636.5
328.143	440.5
328.372	409.5
328.6	366.5
328.829	375.5
329.058	408.5
329.287	400.5
329.515	380.5
329.744	365.5
329.972	348.5
330.201	356.5
330.43	374.5
330.658	378.5
330.887	392.5
331.115	399.5
331.344	363.5
331.572	370.5
331.801	366.5
332.03	382.5
332.258	363.5
332.486	326.5
332.715	346.5
332.943	364.5
333.172	334.5
333.4	346.5
333.629	354.5
333.857	352.5
334.085	357.5
334.314	372.5
334.542	345.5
334.771	375.5
334.999	367.5
335.227	344.5
335.455	354.5
335.684	338.5
335.912	342.5
336.14	345.5
336.369	366.5
336.597	346.5
336.825	353.5
337.053	341.5
337.281	359.5
337.51	341.5
337.738	336.5
337.966	337.5
338.194	343.5
338.422	347.5
338.65	330.5
338.878	354.5
339.106	331.5
339.334	345.5
339.562	319.5
339.79	325.5
340.018	337.5
340.246	336.5
340.474	332.5
340.702	336.5
340.93	316.5
341.158	303.5
341.386	341.5
341.614	349.5
341.842	323.5
342.07	322.5
342.298	326.5
342.526	339.5
342.754	310.5
342.981	321.5
343.209	334.5
343.437	331.5
343.665	326.5
343.893	341.5
344.12	351.5
344.348	360.5
344.576	330.5
344.804	345.5
345.031	350.5
345.259	342.5
345.487	346.5
345.714	323.5
345.942	319.5
346.17	306.5
346.397	306.5
346.625	319.5
346.853	311.5
347.08	293.5
347.308	310.5
347.535	329.5
347.763	320.5
347.99	322.5
348.218	332.5
348.445	327.5
348.673	305.5
348.9	320.5
349.128	305.5
349.355	316.5
349.583	302.5
349.81	316.5
350.037	320.5
350.265	316.5
350.492	305.5
350.72	291.5
350.947	301.5
351.174	313.5
351.402	292.5
351.629	313.5
351.856	326.5
352.083	313.5
352.311	327.5
352.538	319.5
352.765	329.5
352.992	325.5
353.22	327.5
353.447	314.5
353.674	312.5
353.901	306.5
354.128	286.5
354.355	303.5
354.583	317.5
354.81	292.5
355.037	301.5
355.264	287.5
355.491	312.5
355.718	313.5
355.945	308.5
356.172	303.5
356.399	296.5
356.626	300.5
356.853	305.5
357.08	299.5
357.307	306.5
357.534	298.5
357.761	291.5
357.988	309.5
358.215	302.5
358.441	304.5
358.668	289.5
358.895	317.5
359.122	296.5
359.349	299.5
359.576	307.5
359.802	314.5
360.029	336.5
360.256	335.5
360.483	303.5
360.709	308.5
360.936	317.5
361.163	309.5
361.39	313.5
361.616	313.5
361.843	302.5
362.07	307.5
362.296	310.5
362.523	291.5
362.749	310.5
362.976	306.5
363.203	319.5
363.429	306.5
363.656	310.5
363.882	296.5
364.109	295.5
364.335	307.5
364.562	289.5
364.788	295.5
365.015	285.5
365.241	303.5
365.468	301.5
365.694	307.5
365.92	316.5
366.147	300.5
366.373	300.5
366.599	295.5
366.826	286.5
367.052	294.5
367.278	303.5
367.505	304.5
367.731	302.5
367.957	300.5
368.184	302.5
368.41	310.5
368.636	319.5
368.862	306.5
369.089	306.5
369.315	325.5
369.541	308.5
369.767	294.5
369.993	301.5
370.219	306.5
370.445	290.5
370.672	317.5
370.898	296.5
371.124	280.5
371.35	308.5
371.576	303.5
371.802	314.5
372.028	308.5
372.254	285.5
372.48	301.5
372.706	306.5
372.932	317.5
373.158	309.5
373.384	306.5
373.61	322.5
373.835	284.5
374.061	311.5
374.287	315.5
374.513	316.5
374.739	313.5
374.965	299.5
375.191	334.5
375.416	317.5
375.642	329.5
375.868	319.5
376.094	298.5
376.319	303.5
376.545	298.5
376.771	313.5
376.997	304.5
377.222	295.5
377.448	301.5
377.674	307.5
377.899	316.5
378.125	299.5
378.35	309.5
378.576	294.5
378.802	306.5
379.027	276.5
379.253	289.5
379.478	292.5
379.704	296.5
379.929	289.5
380.155	311.5
380.38	302.5
380.606	312.5
380.831	310.5
381.057	306.5
381.282	308.5
381.507	298.5
381.733	311.5
381.958	316.5
382.184	299.5
382.409	302.5
382.634	292.5
382.86	292.5
383.085	304.5
383.31	302.5
383.535	308.5
383.761	302.5
383.986	322.5
384.211	318.5
384.436	311.5
384.662	312.5
384.887	331.5
385.112	326.5
385.337	319.5
385.562	326.5
385.787	340.5
386.013	332.5
386.238	331.5
386.463	310.5
386.688	320.5
386.913	340.5
387.138	306.5
387.363	315.5
387.588	323.5
387.813	329.5
388.038	301.5
388.263	323.5
388.488	309.5
388.713	317.5
388.938	308.5
389.163	318.5
389.387	327.5
389.612	311.5
389.837	329.5
390.062	324.5
390.287	310.5
390.512	312.5
390.736	313.5
390.961	306.5
391.186	313.5
391.411	302.5
391.636	333.5
391.86	323.5
392.085	335.5
392.31	312.5
392.534	316.5
392.759	313.5
392.984	361.5
393.208	359.5
393.433	420.5
393.658	396.5
393.882	352.5
394.107	338.5
394.331	336.5
394.556	299.5
394.78	332.5
395.005	327.5
395.229	339.5
395.454	322.5
395.678	332.5
395.903	347.5
396.127	359.5
396.352	340.5
396.576	345.5
396.801	346.5
397.025	397.5
397.249	359.5
397.474	338.5
397.698	316.5
397.922	335.5
398.147	350.5
398.371	343.5
398.595	345.5
398.82	333.5
399.044	363.5
399.268	357.5
399.492	384.5
399.717	395.5
399.941	421.5
400.165	432.5
400.389	422.5
400.613	390.5
400.837	400.5
401.062	373.5
401.286	352.5
401.51	346.5
401.734	342.5
401.958	372.5
402.182	362.5
402.406	354.5
402.63	348.5
402.854	342.5
403.078	357.5
403.302	375.5
403.526	368.5
403.75	372.5
403.974	353.5
404.198	355.5
404.422	370.5
404.645	356.5
404.869	366.5
405.093	393.5
405.317	391.5
405.541	407.5
405.765	376.5
405.988	378.5
406.212	378.5
406.436	394.5
406.66	386.5
406.883	387.5
407.107	400.5
407.331	417.5
407.555	461.5
407.778	479.5
408.002	442.5
408.226	390.5
408.449	387.5
408.673	387.5
408.896	410.5
409.12	444.5
409.344	405.5
409.567	388.5
409.791	359.5
410.014	368.5
410.238	350.5
410.461	382.5
410.685	363.5
410.908	352.5
411.132	381.5
411.355	404.5
411.578	380.5
411.802	374.5
412.025	372.5
412.249	344.5
412.472	373.5
412.695	376.5
412.919	382.5
413.142	372.5
413.365	345.5
413.589	361.5
413.812	336.5
414.035	342.5
414.258	341.5
414.482	355.5
414.705	348.5
414.928	352.5
415.151	357.5
415.374	339.5
415.597	347.5
415.821	335.5
416.044	347.5
416.267	341.5
416.49	344.5
416.713	320.5
416.936	333.5
417.159	345.5
417.382	331.5
417.605	329.5
417.828	349.5
418.051	348.5
418.274	347.5
418.497	335.5
418.72	341.5
418.943	332.5
419.166	350.5
419.389	358.5
419.611	368.5
419.834	334.5
420.057	338.5
420.28	341.5
420.503	346.5
420.726	335.5
420.948	354.5
421.171	376.5
421.394	392.5
421.617	345.5
421.839	359.5
422.062	372.5
422.285	368.5
422.507	393.5
422.73	440.5
422.953	422.5
423.175	375.5
423.398	370.5
423.621	381.5
423.843	374.5
424.066	370.5
424.288	376.5
424.511	364.5
424.733	417.5
424.956	452.5
425.178	439.5
425.401	424.5
425.623	468.5
425.846	397.5
426.068	364.5
426.291	367.5
426.513	364.5
426.735	393.5
426.958	390.5
427.18	475.5
427.402	505.5
427.625	575.5
427.847	507.5
428.069	424.5
428.292	378.5
428.514	364.5
428.736	355.5
428.958	352.5
429.181	335.5
429.403	333.5
429.625	340.5
429.847	364.5
430.069	405.5
430.292	393.5
430.514	361.5
430.736	338.5
430.958	334.5
431.18	344.5
431.402	337.5
431.624	330.5
431.846	326.5
432.068	312.5
432.29	304.5
432.512	332.5
432.734	317.5
432.956	335.5
433.178	339.5
433.4	337.5
433.622	334.5
433.844	331.5
434.066	328.5
434.287	341.5
434.509	326.5
434.731	333.5
434.953	330.5
435.175	348.5
435.397	382.5
435.618	384.5
435.84	401.5
436.062	436.5
436.284	492.5
436.505	402.5
436.727	370.5
436.949	355.5
437.17	344.5
437.392	341.5
437.614	342.5
437.835	359.5
438.057	413.5
438.278	472.5
438.5	470.5
438.721	504.5
438.943	503.5
439.165	400.5
439.386	381.5
439.608	363.5
439.829	359.5
440.05	387.5
440.272	390.5
440.493	398.5
440.715	365.5
440.936	342.5
441.158	351.5
441.379	362.5
441.6	362.5
441.822	356.5
442.043	368.5
442.264	422.5
442.486	446.5
442.707	394.5
442.928	381.5
443.149	394.5
443.371	394.5
443.592	434.5
443.813	485.5
444.034	502.5
444.255	424.5
444.476	365.5
444.698	376.5
444.919	389.5
445.14	497.5
445.361	431.5
445.582	383.5
445.803	436.5
446.024	473.5
446.245	479.5
446.466	437.5
446.687	382.5
446.908	377.5
447.129	350.5
447.35	357.5
447.571	333.5
447.792	351.5
448.013	365.5
448.234	352.5
448.455	368.5
448.675	439.5
448.896	499.5
449.117	448.5
449.338	412.5
449.559	485.5
449.779	510.5
450	431.5
450.221	360.5
450.442	347.5
450.662	336.5
450.883	353.5
451.104	343.5
451.324	324.5
451.545	317.5
451.766	303.5
451.986	290.5
452.207	310.5
452.428	292.5
452.648	290.5
452.869	325.5
453.089	308.5
453.31	315.5
453.53	309.5
453.751	303.5
453.971	318.5
454.192	314.5
454.412	287.5
454.633	289.5
454.853	286.5
455.073	282.5
455.294	321.5
455.514	342.5
455.734	340.5
455.955	314.5
456.175	293.5
456.395	285.5
456.616	296.5
456.836	306.5
457.056	288.5
457.276	292.5
457.497	286.5
457.717	293.5
457.937	306.5
458.157	285.5
458.377	300.5
458.598	288.5
458.818	330.5
459.038	357.5
459.258	370.5
459.478	346.5
459.698	331.5
459.918	349.5
460.138	314.5
460.358	342.5
460.578	313.5
460.798	338.5
461.018	343.5
461.238	315.5
461.458	331.5
461.678	329.5
461.898	329.5
462.118	332.5
462.338	318.5
462.558	331.5
462.777	322.5
462.997	358.5
463.217	376.5
463.437	363.5
463.657	355.5
463.876	355.5
464.096	357.5
464.316	340.5
464.536	345.5
464.755	345.5
464.975	342.5
465.195	348.5
465.414	373.5
465.634	360.5
465.854	342.5
466.073	316.5
466.293	310.5
466.512	316.5
466.732	319.5
466.951	316.5
467.171	317.5
467.391	319.5
467.61	299.5
467.829	319.5
468.049	324.5
468.268	320.5
468.488	319.5
468.707	310.5
468.927	308.5
469.146	307.5
469.365	321.5
469.585	314.5
469.804	306.5
470.023	326.5
470.243	328.5
470.462	329.5
470.681	311.5
470.901	331.5
471.12	310.5
471.339	294.5
471.558	322.5
471.777	324.5
471.997	315.5
472.216	326.5
472.435	318.5
472.654	314.5
472.873	303.5
473.092	319.5
473.311	321.5
473.53	310.5
473.749	317.5
473.968	351.5
474.187	406.5
474.406	408.5
474.625	346.5
474.844	315.5
475.063	318.5
475.282	317.5
475.501	317.5
475.72	329.5
475.939	318.5
476.158	332.5
476.377	309.5
476.596	326.5
476.814	328.5
477.033	347.5
477.252	352.5
477.471	360.5
477.69	343.5
477.908	358.5
478.127	333.5
478.346	336.5
478.564	347.5
478.783	348.5
479.002	361.5
479.22	366.5
479.439	359.5
479.658	380.5
479.876	357.5
480.095	378.5
480.313	390.5
480.532	378.5
480.751	379.5
480.969	382.5
481.188	388.5
481.406	394.5
481.624	381.5
481.843	358.5
482.061	376.5
482.28	359.5
482.498	367.5
482.717	358.5
482.935	364.5
483.153	378.5
483.372	386.5
483.59	364.5
483.808	382.5
484.027	363.5
484.245	361.5
484.463	353.5
484.681	384.5
484.9	396.5
485.118	388.5
485.336	382.5
485.554	379.5
485.772	356.5
485.99	382.5
486.209	379.5
486.427	374.5
486.645	379.5
486.863	382.5
487.081	378.5
487.299	397.5
487.517	396.5
487.735	388.5
487.953	389.5
488.171	398.5
488.389	395.5
488.607	382.5
488.825	392.5
489.043	399.5
489.261	391.5
489.479	383.5
489.696	398.5
489.914	400.5
490.132	400.5
490.35	403.5
490.568	390.5
490.786	419.5
491.003	413.5
491.221	444.5
491.439	403.5
491.657	448.5
491.874	438.5
492.092	454.5
492.31	464.5
492.527	448.5
492.745	427.5
492.963	454.5
493.18	440.5
493.398	458.5
493.615	447.5
493.833	430.5
494.05	450.5
494.268	446.5
494.485	461.5
494.703	446.5
494.92	435.5
495.138	442.5
495.355	459.5
495.573	447.5
495.79	448.5
496.008	461.5
496.225	472.5
496.442	441.5
496.66	474.5
496.877	452.5
497.094	463.5
497.312	483.5
497.529	490.5
497.746	498.5
497.963	479.5
498.181	482.5
498.398	489.5
498.615	508.5
498.832	514.5
499.049	511.5
499.267	542.5
499.484	539.5
499.701	566.5
499.918	572.5
500.135	594.5
500.352	643.5
500.569	622.5
500.786	624.5
501.003	628.5
501.22	609.5
501.437	600.5
501.654	570.5
501.871	585.5
502.088	551.5
502.305	534.5
502.522	507.5
502.739	481.5
502.956	520.5
503.172	488.5
503.389	487.5
503.606	479.5
503.823	455.5
504.04	456.5
504.256	451.5
504.473	467.5
504.69	457.5
504.907	456.5
505.123	440.5
505.34	451.5
505.557	428.5
505.773	450.5
505.99	439.5
506.207	430.5
506.423	417.5
506.64	429.5
506.856	426.5
507.073	415.5
507.289	408.5
507.506	422.5
507.722	416.5
507.939	420.5
508.155	415.5
508.372	400.5
508.588	408.5
508.805	391.5
509.021	396.5
509.238	394.5
509.454	414.5
509.67	411.5
509.887	408.5
510.103	404.5
510.319	403.5
510.536	435.5
510.752	580.5
510.968	496.5
511.184	415.5
511.401	390.5
511.617	399.5
511.833	382.5
512.049	374.5
512.265	385.5
512.481	382.5
512.698	380.5
512.914	366.5
513.13	380.5
513.346	387.5
513.562	386.5
513.778	386.5
513.994	393.5
514.21	380.5
514.426	389.5
514.642	402.5
514.858	404.5
515.074	427.5
515.29	474.5
515.506	593.5
515.721	532.5
515.937	406.5
516.153	397.5
516.369	383.5
516.585	398.5
516.801	396.5
517.016	412.5
517.232	396.5
517.448	390.5
517.664	386.5
517.879	404.5
518.095	380.5
518.311	370.5
518.527	378.5
518.742	383.5
518.958	399.5
519.173	390.5
519.389	372.5
519.605	386.5
519.82	402.5
520.036	370.5
