Data from 1971.PennyLincolnUp.Lamp.En5.5.200Scan.071719.P1.Scan 2. Changed Angle._HRD10591_15-24-19-842.txt Node
Date: Thu Jul 18 15:24:19 EDT 2019
User: cochatt
Spectrometer: HR+D1059
Trigger mode: 1
Integration Time (sec): 1.000000E-1
Scans to average: 1
Electric dark correction enabled: true
Nonlinearity correction enabled: false
Boxcar width: 0
XAxis mode: Wavelengths
Number of Pixels in Spectrum: 2048
>>>>>Begin Spectral Data<<<<<
223.165	-16.94
223.4	-16.94
223.635	-16.94
223.869	-24.94
224.104	-15.94
224.338	-18.94
224.573	-21.94
224.808	3.06
225.042	-14.94
225.277	-8.94
225.511	-9.94
225.746	9.06
225.98	15.06
226.215	30.06
226.449	-3.94
226.683	17.06
226.918	29.06
227.152	33.06
227.387	32.06
227.621	41.06
227.856	49.06
228.09	59.06
228.324	50.06
228.559	52.06
228.793	64.06
229.027	104.06
229.262	133.06
229.496	125.06
229.73	160.06
229.964	168.06
230.199	173.06
230.433	141.06
230.667	137.06
230.901	122.06
231.136	124.06
231.37	113.06
231.604	126.06
231.838	130.06
232.072	101.06
232.306	121.06
232.541	121.06
232.775	125.06
233.009	113.06
233.243	114.06
233.477	110.06
233.711	118.06
233.945	124.06
234.179	128.06
234.413	122.06
234.647	117.06
234.881	128.06
235.115	124.06
235.349	134.06
235.583	132.06
235.817	136.06
236.051	128.06
236.285	144.06
236.519	145.06
236.753	153.06
236.987	168.06
237.221	210.06
237.455	282.06
237.689	225.06
237.922	165.06
238.156	157.06
238.39	165.06
238.624	135.06
238.858	128.06
239.091	124.06
239.325	141.06
239.559	135.06
239.793	136.06
240.027	141.06
240.26	153.06
240.494	172.06
240.728	177.06
240.961	164.06
241.195	165.06
241.429	158.06
241.662	134.06
241.896	153.06
242.13	139.06
242.363	143.06
242.597	162.06
242.83	155.06
243.064	140.06
243.298	154.06
243.531	154.06
243.765	159.06
243.998	149.06
244.232	155.06
244.465	166.06
244.699	141.06
244.932	146.06
245.166	159.06
245.399	152.06
245.633	164.06
245.866	140.06
246.099	146.06
246.333	163.06
246.566	170.06
246.8	165.06
247.033	161.06
247.266	173.06
247.5	169.06
247.733	191.06
247.966	194.06
248.2	196.06
248.433	193.06
248.666	194.06
248.899	220.06
249.133	224.06
249.366	234.06
249.599	219.06
249.832	221.06
250.066	198.06
250.299	216.06
250.532	200.06
250.765	233.06
250.998	248.06
251.231	268.06
251.465	249.06
251.698	234.06
251.931	234.06
252.164	222.06
252.397	252.06
252.63	214.06
252.863	217.06
253.096	241.06
253.329	287.06
253.562	262.06
253.795	241.06
254.028	250.06
254.261	228.06
254.494	254.06
254.727	319.06
254.96	302.06
255.193	304.06
255.426	279.06
255.659	261.06
255.892	256.06
256.124	262.06
256.357	271.06
256.59	245.06
256.823	248.06
257.056	236.06
257.289	225.06
257.521	249.06
257.754	236.06
257.987	217.06
258.22	232.06
258.452	232.06
258.685	222.06
258.918	235.06
259.151	244.06
259.383	241.06
259.616	238.06
259.849	245.06
260.081	256.06
260.314	264.06
260.547	276.06
260.779	282.06
261.012	266.06
261.244	252.06
261.477	228.06
261.71	248.06
261.942	250.06
262.175	251.06
262.407	250.06
262.64	226.06
262.872	227.06
263.105	244.06
263.337	224.06
263.57	225.06
263.802	235.06
264.035	217.06
264.267	227.06
264.499	221.06
264.732	205.06
264.964	230.06
265.197	217.06
265.429	216.06
265.661	231.06
265.894	211.06
266.126	236.06
266.358	224.06
266.591	248.06
266.823	235.06
267.055	246.06
267.287	248.06
267.52	236.06
267.752	246.06
267.984	254.06
268.216	242.06
268.448	265.06
268.681	255.06
268.913	260.06
269.145	284.06
269.377	302.06
269.609	301.06
269.841	288.06
270.073	302.06
270.306	310.06
270.538	333.06
270.77	357.06
271.002	337.06
271.234	320.06
271.466	303.06
271.698	316.06
271.93	338.06
272.162	365.06
272.394	350.06
272.626	343.06
272.858	328.06
273.09	305.06
273.322	284.06
273.553	280.06
273.785	271.06
274.017	276.06
274.249	283.06
274.481	277.06
274.713	278.06
274.945	274.06
275.176	278.06
275.408	276.06
275.64	294.06
275.872	265.06
276.104	281.06
276.335	264.06
276.567	286.06
276.799	306.06
277.031	330.06
277.262	341.06
277.494	319.06
277.726	310.06
277.957	299.06
278.189	282.06
278.421	295.06
278.652	280.06
278.884	304.06
279.115	268.06
279.347	305.06
279.579	288.06
279.81	266.06
280.042	266.06
280.273	260.06
280.505	255.06
280.736	264.06
280.968	278.06
281.199	263.06
281.431	276.06
281.662	278.06
281.894	264.06
282.125	272.06
282.356	299.06
282.588	325.06
282.819	308.06
283.051	286.06
283.282	255.06
283.513	280.06
283.745	274.06
283.976	262.06
284.207	286.06
284.439	322.06
284.67	278.06
284.901	298.06
285.132	270.06
285.364	274.06
285.595	283.06
285.826	262.06
286.057	274.06
286.288	285.06
286.52	285.06
286.751	284.06
286.982	298.06
287.213	283.06
287.444	300.06
287.675	285.06
287.906	304.06
288.138	295.06
288.369	308.06
288.6	315.06
288.831	303.06
289.062	302.06
289.293	308.06
289.524	296.06
289.755	284.06
289.986	292.06
290.217	289.06
290.448	263.06
290.679	287.06
290.91	299.06
291.141	280.06
291.371	276.06
291.602	274.06
291.833	288.06
292.064	285.06
292.295	280.06
292.526	284.06
292.757	292.06
292.987	293.06
293.218	274.06
293.449	281.06
293.68	294.06
293.91	290.06
294.141	278.06
294.372	272.06
294.603	284.06
294.833	287.06
295.064	309.06
295.295	298.06
295.525	283.06
295.756	278.06
295.987	297.06
296.217	345.06
296.448	328.06
296.679	310.06
296.909	291.06
297.14	316.06
297.37	292.06
297.601	287.06
297.831	283.06
298.062	303.06
298.292	294.06
298.523	305.06
298.753	288.06
298.984	309.06
299.214	303.06
299.445	298.06
299.675	337.06
299.905	317.06
300.136	298.06
300.366	318.06
300.597	315.06
300.827	315.06
301.057	317.06
301.288	332.06
301.518	330.06
301.748	313.06
301.979	324.06
302.209	303.06
302.439	326.06
302.669	316.06
302.9	325.06
303.13	315.06
303.36	332.06
303.59	320.06
303.82	353.06
304.051	329.06
304.281	319.06
304.511	327.06
304.741	304.06
304.971	313.06
305.201	331.06
305.431	305.06
305.661	326.06
305.891	312.06
306.121	317.06
306.352	335.06
306.582	347.06
306.812	319.06
307.042	336.06
307.272	333.06
307.502	324.06
307.731	332.06
307.961	327.06
308.191	317.06
308.421	341.06
308.651	352.06
308.881	339.06
309.111	335.06
309.341	342.06
309.571	349.06
309.8	355.06
310.03	394.06
310.26	386.06
310.49	395.06
310.72	413.06
310.949	425.06
311.179	448.06
311.409	414.06
311.639	388.06
311.868	385.06
312.098	397.06
312.328	406.06
312.557	425.06
312.787	436.06
313.017	445.06
313.246	400.06
313.476	393.06
313.706	399.06
313.935	390.06
314.165	416.06
314.394	436.06
314.624	422.06
314.853	420.06
315.083	373.06
315.312	390.06
315.542	383.06
315.771	380.06
316.001	366.06
316.23	375.06
316.46	375.06
316.689	389.06
316.919	401.06
317.148	408.06
317.377	406.06
317.607	397.06
317.836	403.06
318.065	394.06
318.295	399.06
318.524	376.06
318.753	363.06
318.983	380.06
319.212	396.06
319.441	385.06
319.67	418.06
319.9	396.06
320.129	392.06
320.358	402.06
320.587	396.06
320.816	392.06
321.046	420.06
321.275	426.06
321.504	413.06
321.733	428.06
321.962	433.06
322.191	474.06
322.42	468.06
322.649	475.06
322.878	517.06
323.108	526.06
323.337	544.06
323.566	564.06
323.795	602.06
324.024	672.06
324.253	846.06
324.482	1243.06
324.71	1940.06
324.939	2824.06
325.168	2388.06
325.397	1248.06
325.626	830.06
325.855	650.06
326.084	623.06
326.313	582.06
326.542	587.06
326.77	646.06
326.999	785.06
327.228	1106.06
327.457	1671.06
327.686	2078.06
327.914	1364.06
328.143	910.06
328.372	784.06
328.6	721.06
328.829	652.06
329.058	674.06
329.287	700.06
329.515	640.06
329.744	583.06
329.972	589.06
330.201	630.06
330.43	638.06
330.658	686.06
330.887	746.06
331.115	712.06
331.344	607.06
331.572	549.06
331.801	557.06
332.03	554.06
332.258	518.06
332.486	476.06
332.715	481.06
332.943	459.06
333.172	477.06
333.4	483.06
333.629	489.06
333.857	507.06
334.085	512.06
334.314	527.06
334.542	554.06
334.771	576.06
334.999	524.06
335.227	500.06
335.455	471.06
335.684	466.06
335.912	456.06
336.14	471.06
336.369	476.06
336.597	458.06
336.825	457.06
337.053	463.06
337.281	461.06
337.51	428.06
337.738	438.06
337.966	463.06
338.194	465.06
338.422	477.06
338.65	456.06
338.878	466.06
339.106	444.06
339.334	415.06
339.562	441.06
339.79	446.06
340.018	420.06
340.246	440.06
340.474	476.06
340.702	453.06
340.93	439.06
341.158	456.06
341.386	446.06
341.614	447.06
341.842	433.06
342.07	426.06
342.298	424.06
342.526	438.06
342.754	428.06
342.981	439.06
343.209	423.06
343.437	432.06
343.665	432.06
343.893	415.06
344.12	436.06
344.348	434.06
344.576	448.06
344.804	475.06
345.031	476.06
345.259	497.06
345.487	460.06
345.714	458.06
345.942	430.06
346.17	449.06
346.397	440.06
346.625	433.06
346.853	436.06
347.08	424.06
347.308	439.06
347.535	453.06
347.763	465.06
347.99	450.06
348.218	464.06
348.445	495.06
348.673	454.06
348.9	462.06
349.128	451.06
349.355	413.06
349.583	413.06
349.81	429.06
350.037	417.06
350.265	421.06
350.492	439.06
350.72	428.06
350.947	446.06
351.174	453.06
351.402	461.06
351.629	447.06
351.856	457.06
352.083	484.06
352.311	475.06
352.538	484.06
352.765	471.06
352.992	451.06
353.22	436.06
353.447	443.06
353.674	440.06
353.901	430.06
354.128	418.06
354.355	418.06
354.583	401.06
354.81	407.06
355.037	414.06
355.264	411.06
355.491	401.06
355.718	420.06
355.945	388.06
356.172	386.06
356.399	386.06
356.626	393.06
356.853	390.06
357.08	381.06
357.307	384.06
357.534	394.06
357.761	410.06
357.988	406.06
358.215	405.06
358.441	396.06
358.668	398.06
358.895	408.06
359.122	420.06
359.349	433.06
359.576	433.06
359.802	466.06
360.029	511.06
360.256	540.06
360.483	515.06
360.709	452.06
360.936	452.06
361.163	456.06
361.39	454.06
361.616	446.06
361.843	438.06
362.07	439.06
362.296	481.06
362.523	448.06
362.749	438.06
362.976	461.06
363.203	443.06
363.429	437.06
363.656	439.06
363.882	421.06
364.109	418.06
364.335	424.06
364.562	432.06
364.788	429.06
365.015	449.06
365.241	416.06
365.468	433.06
365.694	451.06
365.92	449.06
366.147	416.06
366.373	416.06
366.599	411.06
366.826	408.06
367.052	410.06
367.278	411.06
367.505	433.06
367.731	423.06
367.957	410.06
368.184	417.06
368.41	426.06
368.636	456.06
368.862	444.06
369.089	424.06
369.315	392.06
369.541	438.06
369.767	436.06
369.993	422.06
370.219	432.06
370.445	398.06
370.672	420.06
370.898	418.06
371.124	412.06
371.35	410.06
371.576	420.06
371.802	427.06
372.028	400.06
372.254	423.06
372.48	416.06
372.706	411.06
372.932	408.06
373.158	425.06
373.384	417.06
373.61	413.06
373.835	429.06
374.061	396.06
374.287	389.06
374.513	412.06
374.739	418.06
374.965	425.06
375.191	420.06
375.416	413.06
375.642	412.06
375.868	428.06
376.094	402.06
376.319	407.06
376.545	409.06
376.771	403.06
376.997	425.06
377.222	406.06
377.448	400.06
377.674	410.06
377.899	398.06
378.125	413.06
378.35	425.06
378.576	424.06
378.802	416.06
379.027	430.06
379.253	412.06
379.478	418.06
379.704	403.06
379.929	434.06
380.155	412.06
380.38	420.06
380.606	432.06
380.831	425.06
381.057	421.06
381.282	393.06
381.507	407.06
381.733	408.06
381.958	414.06
382.184	440.06
382.409	404.06
382.634	425.06
382.86	425.06
383.085	410.06
383.31	421.06
383.535	429.06
383.761	432.06
383.986	413.06
384.211	460.06
384.436	445.06
384.662	433.06
384.887	423.06
385.112	439.06
385.337	428.06
385.562	424.06
385.787	431.06
386.013	468.06
386.238	452.06
386.463	458.06
386.688	461.06
386.913	446.06
387.138	414.06
387.363	448.06
387.588	443.06
387.813	457.06
388.038	441.06
388.263	432.06
388.488	447.06
388.713	452.06
388.938	430.06
389.163	447.06
389.387	455.06
389.612	450.06
389.837	465.06
390.062	456.06
390.287	444.06
390.512	453.06
390.736	466.06
390.961	452.06
391.186	461.06
391.411	465.06
391.636	457.06
391.86	458.06
392.085	466.06
392.31	424.06
392.534	447.06
392.759	457.06
392.984	466.06
393.208	454.06
393.433	463.06
393.658	472.06
393.882	439.06
394.107	447.06
394.331	469.06
394.556	469.06
394.78	458.06
395.005	457.06
395.229	462.06
395.454	474.06
395.678	475.06
395.903	487.06
396.127	499.06
396.352	493.06
396.576	475.06
396.801	464.06
397.025	492.06
397.249	491.06
397.474	476.06
397.698	459.06
397.922	473.06
398.147	509.06
398.371	514.06
398.595	506.06
398.82	510.06
399.044	534.06
399.268	529.06
399.492	556.06
399.717	562.06
399.941	583.06
400.165	631.06
400.389	642.06
400.613	593.06
400.837	543.06
401.062	543.06
401.286	511.06
401.51	536.06
401.734	530.06
401.958	535.06
402.182	533.06
402.406	554.06
402.63	565.06
402.854	528.06
403.078	537.06
403.302	536.06
403.526	541.06
403.75	555.06
403.974	542.06
404.198	542.06
404.422	533.06
404.645	537.06
404.869	549.06
405.093	589.06
405.317	648.06
405.541	654.06
405.765	610.06
405.988	592.06
406.212	584.06
406.436	641.06
406.66	633.06
406.883	602.06
407.107	608.06
407.331	662.06
407.555	749.06
407.778	746.06
408.002	683.06
408.226	619.06
408.449	604.06
408.673	614.06
408.896	652.06
409.12	679.06
409.344	666.06
409.567	564.06
409.791	581.06
410.014	558.06
410.238	545.06
410.461	551.06
410.685	582.06
410.908	564.06
411.132	625.06
411.355	649.06
411.578	599.06
411.802	565.06
412.025	547.06
412.249	564.06
412.472	600.06
412.695	635.06
412.919	618.06
413.142	570.06
413.365	542.06
413.589	534.06
413.812	502.06
414.035	544.06
414.258	516.06
414.482	513.06
414.705	530.06
414.928	515.06
415.151	520.06
415.374	516.06
415.597	520.06
415.821	535.06
416.044	495.06
416.267	492.06
416.49	511.06
416.713	504.06
416.936	504.06
417.159	516.06
417.382	510.06
417.605	519.06
417.828	543.06
418.051	576.06
418.274	538.06
418.497	527.06
418.72	529.06
418.943	523.06
419.166	562.06
419.389	581.06
419.611	576.06
419.834	561.06
420.057	571.06
420.28	543.06
420.503	546.06
420.726	564.06
420.948	581.06
421.171	619.06
421.394	653.06
421.617	605.06
421.839	553.06
422.062	549.06
422.285	593.06
422.507	634.06
422.73	752.06
422.953	707.06
423.175	624.06
423.398	590.06
423.621	577.06
423.843	614.06
424.066	605.06
424.288	612.06
424.511	628.06
424.733	694.06
424.956	773.06
425.178	784.06
425.401	753.06
425.623	778.06
425.846	656.06
426.068	642.06
426.291	612.06
426.513	634.06
426.735	631.06
426.958	690.06
427.18	788.06
427.402	928.06
427.625	998.06
427.847	925.06
428.069	811.06
428.292	710.06
428.514	666.06
428.736	634.06
428.958	591.06
429.181	589.06
429.403	607.06
429.625	595.06
429.847	631.06
430.069	729.06
430.292	701.06
430.514	620.06
430.736	565.06
430.958	565.06
431.18	546.06
431.402	564.06
431.624	548.06
431.846	536.06
432.068	531.06
432.29	541.06
432.512	542.06
432.734	568.06
432.956	545.06
433.178	555.06
433.4	585.06
433.622	548.06
433.844	550.06
434.066	552.06
434.287	533.06
434.509	536.06
434.731	552.06
434.953	536.06
435.175	568.06
435.397	623.06
435.618	635.06
435.84	658.06
436.062	786.06
436.284	841.06
436.505	706.06
436.727	640.06
436.949	610.06
437.17	560.06
437.392	575.06
437.614	610.06
437.835	657.06
438.057	786.06
438.278	898.06
438.5	839.06
438.721	926.06
438.943	905.06
439.165	730.06
439.386	673.06
439.608	671.06
439.829	640.06
440.05	713.06
440.272	760.06
440.493	706.06
440.715	646.06
440.936	604.06
441.158	570.06
441.379	594.06
441.6	590.06
441.822	651.06
442.043	694.06
442.264	762.06
442.486	813.06
442.707	694.06
442.928	641.06
443.149	639.06
443.371	703.06
443.592	731.06
443.813	834.06
444.034	868.06
444.255	735.06
444.476	670.06
444.698	644.06
444.919	648.06
445.14	724.06
445.361	682.06
445.582	676.06
445.803	787.06
446.024	892.06
446.245	881.06
446.466	806.06
446.687	720.06
446.908	657.06
447.129	593.06
447.35	597.06
447.571	593.06
447.792	586.06
448.013	596.06
448.234	626.06
448.455	670.06
448.675	814.06
448.896	910.06
449.117	798.06
449.338	742.06
449.559	877.06
449.779	973.06
450	785.06
450.221	648.06
450.442	591.06
450.662	592.06
450.883	609.06
451.104	645.06
451.324	628.06
451.545	584.06
451.766	576.06
451.986	540.06
452.207	526.06
452.428	510.06
452.648	527.06
452.869	534.06
453.089	538.06
453.31	562.06
453.53	549.06
453.751	527.06
453.971	543.06
454.192	575.06
454.412	549.06
454.633	531.06
454.853	510.06
455.073	539.06
455.294	550.06
455.514	641.06
455.734	619.06
455.955	554.06
456.175	503.06
456.395	506.06
456.616	485.06
456.836	486.06
457.056	498.06
457.276	455.06
457.497	482.06
457.717	489.06
457.937	500.06
458.157	481.06
458.377	496.06
458.598	551.06
458.818	611.06
459.038	742.06
459.258	734.06
459.478	597.06
459.698	542.06
459.918	541.06
460.138	518.06
460.358	518.06
460.578	520.06
460.798	521.06
461.018	526.06
461.238	516.06
461.458	523.06
461.678	525.06
461.898	544.06
462.118	519.06
462.338	541.06
462.558	526.06
462.777	552.06
462.997	558.06
463.217	550.06
463.437	577.06
463.657	552.06
463.876	566.06
464.096	552.06
464.316	547.06
464.536	562.06
464.755	581.06
464.975	592.06
465.195	637.06
465.414	746.06
465.634	669.06
465.854	604.06
466.073	569.06
466.293	533.06
466.512	530.06
466.732	528.06
466.951	519.06
467.171	546.06
467.391	534.06
467.61	556.06
467.829	554.06
468.049	510.06
468.268	550.06
468.488	504.06
468.707	513.06
468.927	521.06
469.146	498.06
469.365	500.06
469.585	506.06
469.804	517.06
470.023	521.06
470.243	538.06
470.462	556.06
470.681	574.06
470.901	592.06
471.12	528.06
471.339	545.06
471.558	544.06
471.777	525.06
471.997	526.06
472.216	540.06
472.435	598.06
472.654	573.06
472.873	554.06
473.092	540.06
473.311	550.06
473.53	549.06
473.749	546.06
473.968	605.06
474.187	735.06
474.406	764.06
474.625	641.06
474.844	564.06
475.063	552.06
475.282	532.06
475.501	553.06
475.72	557.06
475.939	560.06
476.158	554.06
476.377	559.06
476.596	554.06
476.814	557.06
477.033	588.06
477.252	567.06
477.471	569.06
477.69	586.06
477.908	576.06
478.127	585.06
478.346	582.06
478.564	581.06
478.783	608.06
479.002	618.06
479.22	621.06
479.439	632.06
479.658	658.06
479.876	632.06
480.095	667.06
480.313	682.06
480.532	649.06
480.751	659.06
480.969	674.06
481.188	744.06
481.406	822.06
481.624	703.06
481.843	677.06
482.061	643.06
482.28	657.06
482.498	659.06
482.717	620.06
482.935	635.06
483.153	618.06
483.372	667.06
483.59	652.06
483.808	626.06
484.027	629.06
484.245	644.06
484.463	650.06
484.681	650.06
484.9	658.06
485.118	664.06
485.336	664.06
485.554	664.06
485.772	681.06
485.99	676.06
486.209	667.06
486.427	676.06
486.645	696.06
486.863	705.06
487.081	706.06
487.299	692.06
487.517	694.06
487.735	687.06
487.953	689.06
488.171	712.06
488.389	712.06
488.607	706.06
488.825	709.06
489.043	691.06
489.261	712.06
489.479	716.06
489.696	729.06
489.914	714.06
490.132	734.06
490.35	748.06
490.568	740.06
490.786	750.06
491.003	768.06
491.221	769.06
491.439	767.06
491.657	787.06
491.874	807.06
492.092	825.06
492.31	814.06
492.527	817.06
492.745	829.06
492.963	814.06
493.18	817.06
493.398	856.06
493.615	870.06
493.833	845.06
494.05	838.06
494.268	828.06
494.485	851.06
494.703	853.06
494.92	818.06
495.138	849.06
495.355	858.06
495.573	856.06
495.79	856.06
496.008	849.06
496.225	849.06
496.442	855.06
496.66	855.06
496.877	846.06
497.094	874.06
497.312	874.06
497.529	846.06
497.746	869.06
497.963	870.06
498.181	894.06
498.398	866.06
498.615	897.06
498.832	906.06
499.049	906.06
499.267	919.06
499.484	926.06
499.701	928.06
499.918	970.06
500.135	995.06
500.352	1017.06
500.569	1042.06
500.786	1051.06
501.003	1040.06
501.22	994.06
501.437	1001.06
