Data from 1971.PennyLincolnUp.Lamp.En5.5.200Scan.071719.P1._HRD10591_15-17-51-841.txt Node
Date: Thu Jul 18 15:17:51 EDT 2019
User: cochatt
Spectrometer: HR+D1059
Trigger mode: 1
Integration Time (sec): 1.000000E-1
Scans to average: 1
Electric dark correction enabled: true
Nonlinearity correction enabled: false
Boxcar width: 0
XAxis mode: Wavelengths
Number of Pixels in Spectrum: 2048
>>>>>Begin Spectral Data<<<<<
223.165	-11.44
223.4	-11.44
223.635	-11.44
223.869	-12.44
224.104	-16.44
224.338	-31.44
224.573	-18.44
224.808	-15.44
225.042	-17.44
225.277	-11.44
225.511	-7.44
225.746	8.56
225.98	3.56
226.215	10.56
226.449	20.56
226.683	26.56
226.918	23.56
227.152	48.56
227.387	34.56
227.621	34.56
227.856	39.56
228.09	36.56
228.324	39.56
228.559	58.56
228.793	66.56
229.027	79.56
229.262	106.56
229.496	82.56
229.73	108.56
229.964	111.56
230.199	108.56
230.433	85.56
230.667	96.56
230.901	110.56
231.136	97.56
231.37	104.56
231.604	113.56
231.838	93.56
232.072	115.56
232.306	98.56
232.541	96.56
232.775	108.56
233.009	93.56
233.243	99.56
233.477	114.56
233.711	108.56
233.945	109.56
234.179	107.56
234.413	102.56
234.647	96.56
234.881	104.56
235.115	85.56
235.349	117.56
235.583	115.56
235.817	91.56
236.051	101.56
236.285	117.56
236.519	116.56
236.753	115.56
236.987	117.56
237.221	129.56
237.455	170.56
237.689	155.56
237.922	114.56
238.156	115.56
238.39	99.56
238.624	101.56
238.858	113.56
239.091	100.56
239.325	125.56
239.559	115.56
239.793	104.56
240.027	109.56
240.26	128.56
240.494	134.56
240.728	122.56
240.961	93.56
241.195	120.56
241.429	123.56
241.662	131.56
241.896	119.56
242.13	109.56
242.363	116.56
242.597	119.56
242.83	121.56
243.064	117.56
243.298	117.56
243.531	117.56
243.765	122.56
243.998	123.56
244.232	127.56
244.465	125.56
244.699	127.56
244.932	120.56
245.166	129.56
245.399	132.56
245.633	137.56
245.866	130.56
246.099	133.56
246.333	121.56
246.566	131.56
246.8	133.56
247.033	132.56
247.266	138.56
247.5	133.56
247.733	139.56
247.966	147.56
248.2	161.56
248.433	162.56
248.666	162.56
248.899	165.56
249.133	156.56
249.366	175.56
249.599	159.56
249.832	154.56
250.066	159.56
250.299	165.56
250.532	159.56
250.765	169.56
250.998	193.56
251.231	187.56
251.465	169.56
251.698	164.56
251.931	171.56
252.164	177.56
252.397	182.56
252.63	167.56
252.863	189.56
253.096	179.56
253.329	198.56
253.562	196.56
253.795	201.56
254.028	178.56
254.261	177.56
254.494	201.56
254.727	209.56
254.96	215.56
255.193	206.56
255.426	216.56
255.659	213.56
255.892	202.56
256.124	183.56
256.357	195.56
256.59	179.56
256.823	187.56
257.056	183.56
257.289	181.56
257.521	193.56
257.754	191.56
257.987	187.56
258.22	178.56
258.452	173.56
258.685	171.56
258.918	176.56
259.151	188.56
259.383	191.56
259.616	175.56
259.849	188.56
260.081	213.56
260.314	213.56
260.547	216.56
260.779	196.56
261.012	209.56
261.244	184.56
261.477	209.56
261.71	191.56
261.942	187.56
262.175	189.56
262.407	187.56
262.64	171.56
262.872	188.56
263.105	202.56
263.337	182.56
263.57	183.56
263.802	187.56
264.035	184.56
264.267	187.56
264.499	184.56
264.732	179.56
264.964	195.56
265.197	191.56
265.429	176.56
265.661	189.56
265.894	177.56
266.126	184.56
266.358	176.56
266.591	184.56
266.823	194.56
267.055	194.56
267.287	199.56
267.52	187.56
267.752	192.56
267.984	204.56
268.216	202.56
268.448	219.56
268.681	213.56
268.913	202.56
269.145	224.56
269.377	225.56
269.609	227.56
269.841	242.56
270.073	226.56
270.306	243.56
270.538	235.56
270.77	259.56
271.002	242.56
271.234	236.56
271.466	233.56
271.698	242.56
271.93	251.56
272.162	264.56
272.394	261.56
272.626	234.56
272.858	253.56
273.09	231.56
273.322	220.56
273.553	211.56
273.785	216.56
274.017	232.56
274.249	223.56
274.481	227.56
274.713	230.56
274.945	242.56
275.176	205.56
275.408	225.56
275.64	223.56
275.872	233.56
276.104	221.56
276.335	226.56
276.567	226.56
276.799	235.56
277.031	256.56
277.262	239.56
277.494	267.56
277.726	246.56
277.957	246.56
278.189	245.56
278.421	211.56
278.652	228.56
278.884	228.56
279.115	219.56
279.347	229.56
279.579	239.56
279.81	234.56
280.042	223.56
280.273	238.56
280.505	233.56
280.736	234.56
280.968	236.56
281.199	211.56
281.431	215.56
281.662	225.56
281.894	231.56
282.125	231.56
282.356	236.56
282.588	241.56
282.819	215.56
283.051	248.56
283.282	232.56
283.513	251.56
283.745	245.56
283.976	259.56
284.207	243.56
284.439	235.56
284.67	235.56
284.901	235.56
285.132	252.56
285.364	240.56
285.595	240.56
285.826	234.56
286.057	217.56
286.288	251.56
286.52	229.56
286.751	245.56
286.982	235.56
287.213	249.56
287.444	234.56
287.675	245.56
287.906	251.56
288.138	242.56
288.369	255.56
288.6	251.56
288.831	255.56
289.062	265.56
289.293	241.56
289.524	267.56
289.755	222.56
289.986	245.56
290.217	268.56
290.448	255.56
290.679	272.56
290.91	249.56
291.141	238.56
291.371	257.56
291.602	256.56
291.833	249.56
292.064	265.56
292.295	263.56
292.526	251.56
292.757	260.56
292.987	239.56
293.218	272.56
293.449	277.56
293.68	263.56
293.91	257.56
294.141	270.56
294.372	267.56
294.603	239.56
294.833	240.56
295.064	256.56
295.295	233.56
295.525	247.56
295.756	252.56
295.987	248.56
296.217	270.56
296.448	259.56
296.679	278.56
296.909	270.56
297.14	268.56
297.37	258.56
297.601	252.56
297.831	261.56
298.062	269.56
298.292	261.56
298.523	261.56
298.753	265.56
298.984	265.56
299.214	251.56
299.445	261.56
299.675	268.56
299.905	273.56
300.136	280.56
300.366	255.56
300.597	256.56
300.827	263.56
301.057	262.56
301.288	275.56
301.518	281.56
301.748	275.56
301.979	291.56
302.209	272.56
302.439	263.56
302.669	275.56
302.9	297.56
303.13	286.56
303.36	289.56
303.59	296.56
303.82	285.56
304.051	290.56
304.281	288.56
304.511	284.56
304.741	267.56
304.971	296.56
305.201	280.56
305.431	291.56
305.661	276.56
305.891	286.56
306.121	296.56
306.352	267.56
306.582	287.56
306.812	307.56
307.042	297.56
307.272	287.56
307.502	276.56
307.731	289.56
307.961	276.56
308.191	293.56
308.421	279.56
308.651	278.56
308.881	297.56
309.111	288.56
309.341	292.56
309.571	287.56
309.8	298.56
310.03	283.56
310.26	307.56
310.49	273.56
310.72	315.56
310.949	311.56
311.179	297.56
311.409	316.56
311.639	303.56
311.868	284.56
312.098	310.56
312.328	309.56
312.557	309.56
312.787	340.56
313.017	324.56
313.246	308.56
313.476	309.56
313.706	306.56
313.935	329.56
314.165	319.56
314.394	342.56
314.624	330.56
314.853	323.56
315.083	331.56
315.312	316.56
315.542	308.56
315.771	292.56
316.001	325.56
316.23	304.56
316.46	310.56
316.689	315.56
316.919	324.56
317.148	332.56
317.377	327.56
317.607	317.56
317.836	328.56
318.065	317.56
318.295	308.56
318.524	305.56
318.753	310.56
318.983	307.56
319.212	305.56
319.441	308.56
319.67	322.56
319.9	325.56
320.129	320.56
320.358	313.56
320.587	331.56
320.816	310.56
321.046	313.56
321.275	334.56
321.504	339.56
321.733	327.56
321.962	325.56
322.191	340.56
322.42	345.56
322.649	333.56
322.878	368.56
323.108	347.56
323.337	375.56
323.566	392.56
323.795	391.56
324.024	431.56
324.253	478.56
324.482	645.56
324.71	958.56
324.939	1315.56
325.168	1094.56
325.397	603.56
325.626	453.56
325.855	409.56
326.084	393.56
326.313	378.56
326.542	389.56
326.77	409.56
326.999	457.56
327.228	600.56
327.457	863.56
327.686	972.56
327.914	653.56
328.143	485.56
328.372	434.56
328.6	428.56
328.829	384.56
329.058	412.56
329.287	410.56
329.515	379.56
329.744	371.56
329.972	372.56
330.201	369.56
330.43	391.56
330.658	385.56
330.887	425.56
331.115	420.56
331.344	388.56
331.572	361.56
331.801	367.56
332.03	369.56
332.258	357.56
332.486	363.56
332.715	366.56
332.943	368.56
333.172	356.56
333.4	387.56
333.629	368.56
333.857	363.56
334.085	369.56
334.314	379.56
334.542	385.56
334.771	400.56
334.999	386.56
335.227	385.56
335.455	383.56
335.684	352.56
335.912	363.56
336.14	358.56
336.369	355.56
336.597	365.56
336.825	372.56
337.053	364.56
337.281	356.56
337.51	343.56
337.738	343.56
337.966	351.56
338.194	368.56
338.422	349.56
338.65	354.56
338.878	354.56
339.106	343.56
339.334	353.56
339.562	354.56
339.79	372.56
340.018	344.56
340.246	351.56
340.474	339.56
340.702	356.56
340.93	345.56
341.158	353.56
341.386	360.56
341.614	331.56
341.842	340.56
342.07	339.56
342.298	355.56
342.526	335.56
342.754	343.56
342.981	348.56
343.209	319.56
343.437	332.56
343.665	341.56
343.893	357.56
344.12	364.56
344.348	370.56
344.576	351.56
344.804	348.56
345.031	360.56
345.259	362.56
345.487	354.56
345.714	355.56
345.942	340.56
346.17	324.56
346.397	347.56
346.625	342.56
346.853	343.56
347.08	315.56
347.308	336.56
347.535	341.56
347.763	327.56
347.99	325.56
348.218	354.56
348.445	341.56
348.673	355.56
348.9	328.56
349.128	330.56
349.355	339.56
349.583	322.56
349.81	334.56
350.037	325.56
350.265	318.56
350.492	309.56
350.72	326.56
350.947	331.56
351.174	323.56
351.402	354.56
351.629	343.56
351.856	341.56
352.083	321.56
352.311	323.56
352.538	353.56
352.765	340.56
352.992	313.56
353.22	322.56
353.447	333.56
353.674	323.56
353.901	327.56
354.128	329.56
354.355	328.56
354.583	320.56
354.81	315.56
355.037	325.56
355.264	296.56
355.491	309.56
355.718	307.56
355.945	306.56
356.172	319.56
356.399	326.56
356.626	327.56
356.853	337.56
357.08	317.56
357.307	296.56
357.534	314.56
357.761	330.56
357.988	322.56
358.215	314.56
358.441	295.56
358.668	291.56
358.895	320.56
359.122	307.56
359.349	300.56
359.576	306.56
359.802	351.56
360.029	349.56
360.256	320.56
360.483	328.56
360.709	322.56
360.936	338.56
361.163	318.56
361.39	303.56
361.616	312.56
361.843	319.56
362.07	303.56
362.296	328.56
362.523	332.56
362.749	306.56
362.976	309.56
363.203	322.56
363.429	326.56
363.656	323.56
363.882	314.56
364.109	308.56
364.335	315.56
364.562	316.56
364.788	309.56
365.015	306.56
365.241	316.56
365.468	291.56
365.694	320.56
365.92	303.56
366.147	315.56
366.373	306.56
366.599	330.56
366.826	323.56
367.052	300.56
367.278	306.56
367.505	305.56
367.731	323.56
367.957	308.56
368.184	315.56
368.41	310.56
368.636	304.56
368.862	320.56
369.089	314.56
369.315	289.56
369.541	322.56
369.767	313.56
369.993	327.56
370.219	312.56
370.445	319.56
370.672	291.56
370.898	288.56
371.124	318.56
371.35	311.56
371.576	321.56
371.802	315.56
372.028	307.56
372.254	303.56
372.48	316.56
372.706	322.56
372.932	308.56
373.158	293.56
373.384	319.56
373.61	305.56
373.835	295.56
374.061	317.56
374.287	309.56
374.513	321.56
374.739	310.56
374.965	301.56
375.191	300.56
375.416	337.56
375.642	320.56
375.868	303.56
376.094	323.56
376.319	317.56
376.545	316.56
376.771	299.56
376.997	311.56
377.222	303.56
377.448	309.56
377.674	313.56
377.899	303.56
378.125	296.56
378.35	295.56
378.576	297.56
378.802	306.56
379.027	311.56
379.253	327.56
379.478	297.56
379.704	322.56
379.929	298.56
380.155	318.56
380.38	309.56
380.606	311.56
380.831	318.56
381.057	311.56
381.282	325.56
381.507	314.56
381.733	307.56
381.958	301.56
382.184	301.56
382.409	307.56
382.634	299.56
382.86	325.56
383.085	305.56
383.31	295.56
383.535	299.56
383.761	307.56
383.986	323.56
384.211	322.56
384.436	297.56
384.662	318.56
384.887	324.56
385.112	330.56
385.337	337.56
385.562	323.56
385.787	318.56
386.013	329.56
386.238	323.56
386.463	330.56
386.688	324.56
386.913	313.56
387.138	300.56
387.363	340.56
387.588	327.56
387.813	312.56
388.038	307.56
388.263	328.56
388.488	313.56
388.713	337.56
388.938	335.56
389.163	328.56
389.387	345.56
389.612	315.56
389.837	337.56
390.062	318.56
390.287	305.56
390.512	317.56
390.736	332.56
390.961	321.56
391.186	320.56
391.411	322.56
391.636	324.56
391.86	336.56
392.085	349.56
392.31	330.56
392.534	324.56
392.759	319.56
392.984	336.56
393.208	351.56
393.433	357.56
393.658	342.56
393.882	306.56
394.107	337.56
394.331	320.56
394.556	339.56
394.78	322.56
395.005	344.56
395.229	329.56
395.454	343.56
395.678	335.56
395.903	356.56
396.127	339.56
396.352	337.56
396.576	328.56
396.801	352.56
397.025	346.56
397.249	333.56
397.474	343.56
397.698	337.56
397.922	351.56
398.147	355.56
398.371	368.56
398.595	351.56
398.82	360.56
399.044	349.56
399.268	372.56
399.492	387.56
399.717	413.56
399.941	403.56
400.165	417.56
400.389	425.56
400.613	398.56
400.837	376.56
401.062	384.56
401.286	372.56
401.51	363.56
401.734	372.56
401.958	359.56
402.182	341.56
402.406	371.56
402.63	373.56
402.854	378.56
403.078	376.56
403.302	369.56
403.526	371.56
403.75	361.56
403.974	374.56
404.198	356.56
404.422	381.56
404.645	370.56
404.869	390.56
405.093	393.56
405.317	385.56
405.541	418.56
405.765	389.56
405.988	388.56
406.212	370.56
406.436	395.56
406.66	402.56
406.883	399.56
407.107	416.56
407.331	434.56
407.555	468.56
407.778	453.56
408.002	443.56
408.226	414.56
408.449	415.56
408.673	400.56
408.896	420.56
409.12	437.56
409.344	420.56
409.567	384.56
409.791	378.56
410.014	355.56
410.238	361.56
410.461	377.56
410.685	384.56
410.908	380.56
411.132	383.56
411.355	425.56
411.578	398.56
411.802	359.56
412.025	373.56
412.249	371.56
412.472	363.56
412.695	382.56
412.919	381.56
413.142	364.56
413.365	345.56
413.589	361.56
413.812	369.56
414.035	348.56
414.258	361.56
414.482	356.56
414.705	357.56
414.928	362.56
415.151	356.56
415.374	349.56
415.597	333.56
415.821	371.56
416.044	350.56
416.267	357.56
416.49	342.56
416.713	331.56
416.936	332.56
417.159	343.56
417.382	357.56
417.605	347.56
417.828	350.56
418.051	366.56
418.274	344.56
418.497	347.56
418.72	354.56
418.943	344.56
419.166	332.56
419.389	365.56
419.611	370.56
419.834	377.56
420.057	395.56
420.28	360.56
420.503	356.56
420.726	354.56
420.948	377.56
421.171	367.56
421.394	410.56
421.617	364.56
421.839	348.56
422.062	356.56
422.285	372.56
422.507	390.56
422.73	435.56
422.953	440.56
423.175	379.56
423.398	369.56
423.621	361.56
423.843	360.56
424.066	388.56
424.288	359.56
424.511	397.56
424.733	421.56
424.956	460.56
425.178	463.56
425.401	442.56
425.623	457.56
425.846	399.56
426.068	374.56
426.291	370.56
426.513	385.56
426.735	386.56
426.958	397.56
427.18	475.56
427.402	541.56
427.625	587.56
427.847	495.56
428.069	433.56
428.292	394.56
428.514	376.56
428.736	369.56
428.958	364.56
429.181	356.56
429.403	351.56
429.625	362.56
429.847	367.56
430.069	425.56
430.292	428.56
430.514	351.56
430.736	347.56
430.958	329.56
431.18	344.56
431.402	328.56
431.624	337.56
431.846	335.56
432.068	317.56
432.29	326.56
432.512	340.56
432.734	343.56
432.956	351.56
433.178	351.56
433.4	351.56
433.622	347.56
433.844	355.56
434.066	342.56
434.287	324.56
434.509	344.56
434.731	364.56
434.953	355.56
435.175	385.56
435.397	377.56
435.618	364.56
435.84	401.56
436.062	461.56
436.284	503.56
436.505	421.56
436.727	369.56
436.949	367.56
437.17	351.56
437.392	348.56
437.614	348.56
437.835	374.56
438.057	421.56
438.278	510.56
438.5	485.56
438.721	557.56
438.943	537.56
439.165	428.56
439.386	387.56
439.608	373.56
439.829	384.56
440.05	396.56
440.272	390.56
440.493	373.56
440.715	351.56
440.936	367.56
441.158	347.56
441.379	357.56
441.6	362.56
441.822	382.56
442.043	393.56
442.264	448.56
442.486	459.56
442.707	417.56
442.928	369.56
443.149	387.56
443.371	407.56
443.592	423.56
443.813	463.56
444.034	522.56
444.255	455.56
444.476	392.56
444.698	377.56
444.919	372.56
445.14	499.56
445.361	439.56
445.582	402.56
445.803	424.56
446.024	498.56
446.245	487.56
446.466	476.56
446.687	393.56
446.908	377.56
447.129	349.56
447.35	367.56
447.571	342.56
447.792	343.56
448.013	338.56
448.234	355.56
448.455	395.56
448.675	445.56
448.896	517.56
449.117	452.56
449.338	434.56
449.559	515.56
449.779	546.56
450	444.56
450.221	381.56
450.442	357.56
450.662	353.56
450.883	346.56
451.104	344.56
451.324	334.56
451.545	309.56
451.766	324.56
451.986	316.56
452.207	313.56
452.428	298.56
452.648	315.56
452.869	323.56
453.089	311.56
453.31	305.56
453.53	314.56
453.751	316.56
453.971	312.56
454.192	309.56
454.412	316.56
454.633	315.56
454.853	305.56
455.073	301.56
455.294	325.56
455.514	358.56
455.734	343.56
455.955	310.56
456.175	307.56
456.395	272.56
456.616	284.56
456.836	306.56
457.056	312.56
457.276	288.56
457.497	296.56
457.717	278.56
457.937	297.56
458.157	295.56
458.377	305.56
458.598	333.56
458.818	333.56
459.038	388.56
459.258	405.56
459.478	337.56
459.698	330.56
459.918	337.56
460.138	311.56
460.358	333.56
460.578	331.56
460.798	339.56
461.018	334.56
461.238	329.56
461.458	334.56
461.678	323.56
461.898	336.56
462.118	339.56
462.338	347.56
462.558	355.56
462.777	347.56
462.997	357.56
463.217	352.56
463.437	353.56
463.657	364.56
463.876	359.56
464.096	356.56
464.316	349.56
464.536	349.56
464.755	341.56
464.975	348.56
465.195	352.56
465.414	397.56
465.634	336.56
465.854	362.56
466.073	330.56
466.293	332.56
466.512	324.56
466.732	325.56
466.951	316.56
467.171	321.56
467.391	332.56
467.61	329.56
467.829	318.56
468.049	330.56
468.268	325.56
468.488	298.56
468.707	319.56
468.927	305.56
469.146	321.56
469.365	309.56
469.585	312.56
469.804	342.56
470.023	348.56
470.243	340.56
470.462	329.56
470.681	327.56
470.901	333.56
471.12	316.56
471.339	324.56
471.558	335.56
471.777	322.56
471.997	315.56
472.216	326.56
472.435	329.56
472.654	304.56
472.873	290.56
473.092	296.56
473.311	317.56
473.53	327.56
473.749	333.56
473.968	363.56
474.187	414.56
474.406	423.56
474.625	332.56
474.844	339.56
475.063	339.56
475.282	336.56
475.501	316.56
475.72	326.56
475.939	340.56
476.158	356.56
476.377	339.56
476.596	326.56
476.814	332.56
477.033	358.56
477.252	340.56
477.471	343.56
477.69	357.56
477.908	347.56
478.127	351.56
478.346	329.56
478.564	349.56
478.783	364.56
479.002	352.56
479.22	369.56
479.439	379.56
479.658	390.56
479.876	379.56
480.095	383.56
480.313	368.56
480.532	374.56
480.751	376.56
480.969	390.56
481.188	413.56
481.406	409.56
481.624	383.56
481.843	385.56
482.061	376.56
482.28	367.56
482.498	370.56
482.717	392.56
482.935	380.56
483.153	396.56
483.372	378.56
483.59	379.56
483.808	361.56
484.027	384.56
484.245	363.56
484.463	371.56
484.681	377.56
484.9	395.56
485.118	383.56
485.336	378.56
485.554	379.56
485.772	372.56
485.99	407.56
486.209	379.56
486.427	387.56
486.645	401.56
486.863	387.56
487.081	417.56
487.299	398.56
487.517	397.56
487.735	405.56
487.953	399.56
488.171	393.56
488.389	413.56
488.607	410.56
488.825	392.56
489.043	404.56
489.261	409.56
489.479	407.56
489.696	416.56
489.914	416.56
490.132	424.56
490.35	397.56
490.568	402.56
490.786	441.56
491.003	419.56
491.221	437.56
491.439	435.56
491.657	441.56
491.874	461.56
492.092	477.56
492.31	471.56
492.527	428.56
492.745	453.56
492.963	452.56
493.18	481.56
493.398	453.56
493.615	461.56
493.833	457.56
494.05	470.56
494.268	448.56
494.485	475.56
494.703	447.56
494.92	464.56
495.138	466.56
495.355	488.56
495.573	461.56
495.79	469.56
496.008	461.56
496.225	466.56
496.442	483.56
496.66	497.56
496.877	479.56
497.094	484.56
497.312	475.56
497.529	473.56
497.746	483.56
497.963	482.56
498.181	497.56
498.398	511.56
498.615	525.56
498.832	519.56
499.049	519.56
499.267	531.56
499.484	564.56
499.701	581.56
499.918	629.56
500.135	621.56
500.352	641.56
500.569	673.56
500.786	676.56
501.003	627.56
501.22	617.56
501.437	583.56
501.654	583.56
501.871	586.56
502.088	572.56
