Data from 1971.PennyLincolnUp.Lamp.En5.5.200Scan.071719.P1.Scan 2. Changed Angle._HRD10591_15-25-32-842.txt Node
Date: Thu Jul 18 15:25:32 EDT 2019
User: cochatt
Spectrometer: HR+D1059
Trigger mode: 1
Integration Time (sec): 1.000000E-1
Scans to average: 1
Electric dark correction enabled: true
Nonlinearity correction enabled: false
Boxcar width: 0
XAxis mode: Wavelengths
Number of Pixels in Spectrum: 2048
>>>>>Begin Spectral Data<<<<<
223.165	-9.38
223.4	-9.38
223.635	-9.38
223.869	-23.38
224.104	-5.38
224.338	-4.38
224.573	-16.38
224.808	-17.38
225.042	-2.38
225.277	-4.38
225.511	-14.38
225.746	-3.38
225.98	6.62
226.215	5.62
226.449	18.62
226.683	22.62
226.918	24.62
227.152	22.62
227.387	20.62
227.621	50.62
227.856	40.62
228.09	44.62
228.324	44.62
228.559	61.62
228.793	70.62
229.027	104.62
229.262	125.62
229.496	142.62
229.73	145.62
229.964	183.62
230.199	142.62
230.433	123.62
230.667	131.62
230.901	118.62
231.136	124.62
231.37	117.62
231.604	126.62
231.838	124.62
232.072	120.62
232.306	123.62
232.541	128.62
232.775	107.62
233.009	130.62
233.243	126.62
233.477	140.62
233.711	136.62
233.945	126.62
234.179	124.62
234.413	138.62
234.647	134.62
234.881	122.62
235.115	132.62
235.349	134.62
235.583	125.62
235.817	129.62
236.051	133.62
236.285	144.62
236.519	143.62
236.753	144.62
236.987	170.62
237.221	208.62
237.455	274.62
237.689	217.62
237.922	176.62
238.156	155.62
238.39	139.62
238.624	158.62
238.858	146.62
239.091	142.62
239.325	135.62
239.559	140.62
239.793	140.62
240.027	138.62
240.26	162.62
240.494	190.62
240.728	190.62
240.961	156.62
241.195	166.62
241.429	149.62
241.662	148.62
241.896	149.62
242.13	144.62
242.363	162.62
242.597	136.62
242.83	146.62
243.064	167.62
243.298	148.62
243.531	154.62
243.765	148.62
243.998	167.62
244.232	161.62
244.465	159.62
244.699	145.62
244.932	162.62
245.166	149.62
245.399	161.62
245.633	146.62
245.866	163.62
246.099	155.62
246.333	160.62
246.566	152.62
246.8	170.62
247.033	178.62
247.266	182.62
247.5	184.62
247.733	184.62
247.966	189.62
248.2	189.62
248.433	192.62
248.666	202.62
248.899	210.62
249.133	235.62
249.366	239.62
249.599	230.62
249.832	204.62
250.066	201.62
250.299	206.62
250.532	229.62
250.765	235.62
250.998	264.62
251.231	262.62
251.465	231.62
251.698	229.62
251.931	256.62
252.164	220.62
252.397	233.62
252.63	236.62
252.863	241.62
253.096	250.62
253.329	251.62
253.562	271.62
253.795	265.62
254.028	252.62
254.261	249.62
254.494	262.62
254.727	310.62
254.96	337.62
255.193	328.62
255.426	285.62
255.659	268.62
255.892	272.62
256.124	265.62
256.357	262.62
256.59	259.62
256.823	242.62
257.056	252.62
257.289	235.62
257.521	233.62
257.754	248.62
257.987	224.62
258.22	232.62
258.452	228.62
258.685	237.62
258.918	223.62
259.151	239.62
259.383	250.62
259.616	233.62
259.849	242.62
260.081	264.62
260.314	275.62
260.547	302.62
260.779	281.62
261.012	264.62
261.244	278.62
261.477	254.62
261.71	240.62
261.942	266.62
262.175	279.62
262.407	266.62
262.64	240.62
262.872	223.62
263.105	237.62
263.337	219.62
263.57	227.62
263.802	214.62
264.035	214.62
264.267	204.62
264.499	242.62
264.732	224.62
264.964	231.62
265.197	226.62
265.429	215.62
265.661	227.62
265.894	226.62
266.126	214.62
266.358	229.62
266.591	224.62
266.823	251.62
267.055	229.62
267.287	245.62
267.52	244.62
267.752	244.62
267.984	239.62
268.216	242.62
268.448	256.62
268.681	226.62
268.913	264.62
269.145	292.62
269.377	301.62
269.609	298.62
269.841	306.62
270.073	314.62
270.306	326.62
270.538	336.62
270.77	361.62
271.002	326.62
271.234	332.62
271.466	323.62
271.698	353.62
271.93	362.62
272.162	356.62
272.394	372.62
272.626	332.62
272.858	313.62
273.09	294.62
273.322	304.62
273.553	301.62
273.785	289.62
274.017	264.62
274.249	288.62
274.481	274.62
274.713	278.62
274.945	288.62
275.176	279.62
275.408	288.62
275.64	290.62
275.872	277.62
276.104	294.62
276.335	287.62
276.567	292.62
276.799	306.62
277.031	335.62
277.262	355.62
277.494	335.62
277.726	327.62
277.957	318.62
278.189	304.62
278.421	312.62
278.652	280.62
278.884	285.62
279.115	265.62
279.347	272.62
279.579	255.62
279.81	273.62
280.042	287.62
280.273	293.62
280.505	270.62
280.736	278.62
280.968	289.62
281.199	287.62
281.431	278.62
281.662	271.62
281.894	282.62
282.125	284.62
282.356	295.62
282.588	314.62
282.819	310.62
283.051	291.62
283.282	274.62
283.513	294.62
283.745	287.62
283.976	293.62
284.207	269.62
284.439	293.62
284.67	258.62
284.901	274.62
285.132	286.62
285.364	267.62
285.595	280.62
285.826	301.62
286.057	272.62
286.288	303.62
286.52	282.62
286.751	269.62
286.982	289.62
287.213	289.62
287.444	286.62
287.675	309.62
287.906	311.62
288.138	316.62
288.369	313.62
288.6	317.62
288.831	303.62
289.062	298.62
289.293	296.62
289.524	296.62
289.755	291.62
289.986	294.62
290.217	299.62
290.448	286.62
290.679	294.62
290.91	298.62
291.141	306.62
291.371	305.62
291.602	300.62
291.833	294.62
292.064	291.62
292.295	280.62
292.526	274.62
292.757	288.62
292.987	292.62
293.218	296.62
293.449	276.62
293.68	288.62
293.91	280.62
294.141	292.62
294.372	295.62
294.603	291.62
294.833	288.62
295.064	278.62
295.295	302.62
295.525	289.62
295.756	316.62
295.987	318.62
296.217	333.62
296.448	353.62
296.679	322.62
296.909	299.62
297.14	292.62
297.37	291.62
297.601	301.62
297.831	292.62
298.062	304.62
298.292	308.62
298.523	305.62
298.753	283.62
298.984	293.62
299.214	298.62
299.445	314.62
299.675	317.62
299.905	325.62
300.136	312.62
300.366	309.62
300.597	319.62
300.827	319.62
301.057	329.62
301.288	336.62
301.518	332.62
301.748	307.62
301.979	326.62
302.209	329.62
302.439	330.62
302.669	323.62
302.9	327.62
303.13	326.62
303.36	336.62
303.59	340.62
303.82	350.62
304.051	343.62
304.281	338.62
304.511	333.62
304.741	311.62
304.971	325.62
305.201	323.62
305.431	325.62
305.661	316.62
305.891	324.62
306.121	330.62
306.352	347.62
306.582	346.62
306.812	334.62
307.042	335.62
307.272	331.62
307.502	320.62
307.731	360.62
307.961	344.62
308.191	319.62
308.421	358.62
308.651	333.62
308.881	351.62
309.111	338.62
309.341	354.62
309.571	350.62
309.8	361.62
310.03	389.62
310.26	404.62
310.49	388.62
310.72	409.62
310.949	443.62
311.179	455.62
311.409	412.62
311.639	394.62
311.868	390.62
312.098	388.62
312.328	418.62
312.557	458.62
312.787	454.62
313.017	428.62
313.246	424.62
313.476	405.62
313.706	395.62
313.935	408.62
314.165	412.62
314.394	440.62
314.624	421.62
314.853	412.62
315.083	390.62
315.312	380.62
315.542	389.62
315.771	382.62
316.001	380.62
316.23	389.62
316.46	388.62
316.689	386.62
316.919	391.62
317.148	413.62
317.377	408.62
317.607	374.62
317.836	403.62
318.065	389.62
318.295	390.62
318.524	395.62
318.753	374.62
318.983	400.62
319.212	383.62
319.441	407.62
319.67	428.62
319.9	386.62
320.129	379.62
320.358	412.62
320.587	421.62
320.816	413.62
321.046	424.62
321.275	411.62
321.504	420.62
321.733	441.62
321.962	458.62
322.191	452.62
322.42	484.62
322.649	501.62
322.878	495.62
323.108	517.62
323.337	553.62
323.566	594.62
323.795	618.62
324.024	688.62
324.253	876.62
324.482	1274.62
324.71	2022.62
324.939	2824.62
325.168	2440.62
325.397	1262.62
325.626	812.62
325.855	681.62
326.084	620.62
326.313	595.62
326.542	593.62
326.77	638.62
326.999	794.62
327.228	1125.62
327.457	1737.62
327.686	2112.62
327.914	1416.62
328.143	902.62
328.372	786.62
328.6	709.62
328.829	674.62
329.058	706.62
329.287	704.62
329.515	654.62
329.744	616.62
329.972	574.62
330.201	644.62
330.43	657.62
330.658	711.62
330.887	762.62
331.115	726.62
331.344	600.62
331.572	556.62
331.801	540.62
332.03	541.62
332.258	508.62
332.486	485.62
332.715	472.62
332.943	483.62
333.172	476.62
333.4	487.62
333.629	491.62
333.857	520.62
334.085	544.62
334.314	542.62
334.542	581.62
334.771	604.62
334.999	551.62
335.227	489.62
335.455	472.62
335.684	488.62
335.912	467.62
336.14	460.62
336.369	450.62
336.597	492.62
336.825	460.62
337.053	445.62
337.281	439.62
337.51	446.62
337.738	465.62
337.966	477.62
338.194	460.62
338.422	459.62
338.65	466.62
338.878	430.62
339.106	437.62
339.334	444.62
339.562	432.62
339.79	433.62
340.018	433.62
340.246	457.62
340.474	455.62
340.702	440.62
340.93	430.62
341.158	440.62
341.386	447.62
341.614	438.62
341.842	443.62
342.07	441.62
342.298	440.62
342.526	424.62
342.754	441.62
342.981	417.62
343.209	415.62
343.437	431.62
343.665	405.62
343.893	420.62
344.12	444.62
344.348	440.62
344.576	459.62
344.804	471.62
345.031	468.62
345.259	496.62
345.487	472.62
345.714	452.62
345.942	442.62
346.17	452.62
346.397	447.62
346.625	429.62
346.853	431.62
347.08	431.62
347.308	461.62
347.535	436.62
347.763	457.62
347.99	477.62
348.218	455.62
348.445	460.62
348.673	475.62
348.9	459.62
349.128	472.62
349.355	443.62
349.583	432.62
349.81	432.62
350.037	423.62
350.265	438.62
350.492	429.62
350.72	424.62
350.947	456.62
351.174	439.62
351.402	456.62
351.629	464.62
351.856	450.62
352.083	480.62
352.311	462.62
352.538	471.62
352.765	474.62
352.992	452.62
353.22	460.62
353.447	419.62
353.674	440.62
353.901	437.62
354.128	431.62
354.355	436.62
354.583	416.62
354.81	410.62
355.037	393.62
355.264	382.62
355.491	392.62
355.718	395.62
355.945	418.62
356.172	410.62
356.399	418.62
356.626	411.62
356.853	421.62
357.08	402.62
357.307	405.62
357.534	396.62
357.761	424.62
357.988	413.62
358.215	382.62
358.441	412.62
358.668	414.62
358.895	430.62
359.122	404.62
359.349	440.62
359.576	456.62
359.802	481.62
360.029	537.62
360.256	529.62
360.483	540.62
360.709	472.62
360.936	472.62
361.163	466.62
361.39	468.62
361.616	456.62
361.843	452.62
362.07	462.62
362.296	440.62
362.523	451.62
362.749	444.62
362.976	428.62
363.203	427.62
363.429	442.62
363.656	434.62
363.882	424.62
364.109	447.62
364.335	420.62
364.562	433.62
364.788	432.62
365.015	443.62
365.241	423.62
365.468	426.62
365.694	453.62
365.92	454.62
366.147	428.62
366.373	440.62
366.599	444.62
366.826	417.62
367.052	417.62
367.278	432.62
367.505	440.62
367.731	424.62
367.957	420.62
368.184	422.62
368.41	433.62
368.636	447.62
368.862	449.62
369.089	425.62
369.315	439.62
369.541	414.62
369.767	417.62
369.993	445.62
370.219	423.62
370.445	437.62
370.672	411.62
370.898	430.62
371.124	420.62
371.35	411.62
371.576	407.62
371.802	396.62
372.028	408.62
372.254	414.62
372.48	421.62
372.706	406.62
372.932	413.62
373.158	407.62
373.384	406.62
373.61	403.62
373.835	417.62
374.061	446.62
374.287	430.62
374.513	423.62
374.739	431.62
374.965	430.62
375.191	425.62
375.416	410.62
375.642	410.62
375.868	419.62
376.094	425.62
376.319	417.62
376.545	421.62
376.771	419.62
376.997	419.62
377.222	416.62
377.448	417.62
377.674	415.62
377.899	412.62
378.125	403.62
378.35	425.62
378.576	415.62
378.802	402.62
379.027	413.62
379.253	420.62
379.478	416.62
379.704	422.62
379.929	421.62
380.155	402.62
380.38	426.62
380.606	440.62
380.831	441.62
381.057	415.62
381.282	417.62
381.507	415.62
381.733	432.62
381.958	430.62
382.184	424.62
382.409	430.62
382.634	420.62
382.86	429.62
383.085	438.62
383.31	446.62
383.535	440.62
383.761	425.62
383.986	445.62
384.211	417.62
384.436	454.62
384.662	463.62
384.887	452.62
385.112	438.62
385.337	454.62
385.562	447.62
385.787	458.62
386.013	458.62
386.238	479.62
386.463	473.62
386.688	451.62
386.913	460.62
387.138	438.62
387.363	462.62
387.588	446.62
387.813	439.62
388.038	429.62
388.263	444.62
388.488	438.62
388.713	446.62
388.938	430.62
389.163	458.62
389.387	463.62
389.612	456.62
389.837	454.62
390.062	451.62
390.287	428.62
390.512	457.62
390.736	454.62
390.961	452.62
391.186	453.62
391.411	439.62
391.636	462.62
391.86	465.62
392.085	455.62
392.31	457.62
392.534	470.62
392.759	446.62
392.984	454.62
393.208	457.62
393.433	467.62
393.658	470.62
393.882	469.62
394.107	444.62
394.331	456.62
394.556	449.62
394.78	451.62
395.005	464.62
395.229	472.62
395.454	471.62
395.678	465.62
395.903	477.62
396.127	504.62
396.352	502.62
396.576	478.62
396.801	473.62
397.025	473.62
397.249	470.62
397.474	467.62
397.698	470.62
397.922	489.62
398.147	532.62
398.371	528.62
398.595	491.62
398.82	496.62
399.044	503.62
399.268	521.62
399.492	523.62
399.717	573.62
399.941	592.62
400.165	650.62
400.389	642.62
400.613	595.62
400.837	542.62
401.062	540.62
401.286	530.62
401.51	524.62
401.734	500.62
401.958	510.62
402.182	539.62
402.406	537.62
402.63	552.62
402.854	550.62
403.078	532.62
403.302	531.62
403.526	525.62
403.75	545.62
403.974	530.62
404.198	548.62
404.422	550.62
404.645	549.62
404.869	569.62
405.093	600.62
405.317	661.62
405.541	694.62
405.765	613.62
405.988	585.62
406.212	601.62
406.436	616.62
406.66	643.62
406.883	606.62
407.107	614.62
407.331	657.62
407.555	731.62
407.778	740.62
408.002	645.62
408.226	610.62
408.449	605.62
408.673	609.62
408.896	648.62
409.12	682.62
409.344	665.62
409.567	584.62
409.791	576.62
410.014	556.62
410.238	545.62
410.461	554.62
410.685	552.62
410.908	590.62
411.132	631.62
411.355	666.62
411.578	645.62
411.802	552.62
412.025	568.62
412.249	554.62
412.472	585.62
412.695	650.62
412.919	632.62
413.142	583.62
413.365	566.62
413.589	524.62
413.812	520.62
414.035	545.62
414.258	526.62
414.482	506.62
414.705	525.62
414.928	513.62
415.151	508.62
415.374	496.62
415.597	516.62
415.821	519.62
416.044	524.62
416.267	540.62
416.49	512.62
416.713	524.62
416.936	510.62
417.159	513.62
417.382	538.62
417.605	534.62
417.828	523.62
418.051	550.62
418.274	573.62
418.497	531.62
418.72	540.62
418.943	522.62
419.166	533.62
419.389	569.62
419.611	569.62
419.834	555.62
420.057	580.62
420.28	557.62
420.503	549.62
420.726	574.62
420.948	587.62
421.171	634.62
421.394	656.62
421.617	602.62
421.839	574.62
422.062	562.62
422.285	585.62
422.507	656.62
422.73	744.62
422.953	702.62
423.175	626.62
423.398	599.62
423.621	569.62
423.843	602.62
424.066	615.62
424.288	628.62
424.511	630.62
424.733	697.62
424.956	801.62
425.178	764.62
425.401	763.62
425.623	809.62
425.846	694.62
426.068	628.62
426.291	613.62
426.513	637.62
426.735	626.62
426.958	685.62
427.18	780.62
427.402	926.62
427.625	1000.62
427.847	940.62
428.069	808.62
428.292	716.62
428.514	626.62
428.736	613.62
428.958	605.62
429.181	601.62
429.403	579.62
429.625	583.62
429.847	639.62
430.069	732.62
430.292	696.62
430.514	626.62
430.736	581.62
430.958	576.62
431.18	552.62
431.402	562.62
431.624	559.62
431.846	544.62
432.068	530.62
432.29	527.62
432.512	544.62
432.734	564.62
432.956	564.62
433.178	570.62
433.4	557.62
433.622	555.62
433.844	540.62
434.066	554.62
434.287	545.62
434.509	516.62
434.731	563.62
434.953	544.62
435.175	595.62
435.397	594.62
435.618	625.62
435.84	672.62
436.062	794.62
436.284	846.62
436.505	717.62
436.727	653.62
436.949	602.62
437.17	586.62
437.392	581.62
437.614	588.62
437.835	640.62
438.057	776.62
438.278	887.62
438.5	874.62
438.721	945.62
438.943	896.62
439.165	709.62
439.386	694.62
439.608	644.62
439.829	683.62
440.05	698.62
440.272	794.62
440.493	697.62
440.715	656.62
440.936	615.62
441.158	600.62
441.379	586.62
441.6	607.62
441.822	630.62
442.043	649.62
442.264	804.62
442.486	840.62
442.707	697.62
442.928	681.62
443.149	676.62
443.371	706.62
443.592	769.62
443.813	848.62
444.034	890.62
444.255	756.62
444.476	678.62
444.698	661.62
444.919	645.62
445.14	728.62
445.361	696.62
445.582	700.62
445.803	762.62
446.024	892.62
446.245	898.62
446.466	828.62
446.687	727.62
446.908	666.62
447.129	612.62
447.35	603.62
447.571	579.62
447.792	594.62
448.013	605.62
448.234	608.62
448.455	706.62
448.675	820.62
448.896	927.62
449.117	809.62
449.338	784.62
449.559	874.62
449.779	970.62
450	771.62
450.221	654.62
450.442	629.62
450.662	630.62
450.883	618.62
451.104	628.62
451.324	599.62
451.545	564.62
451.766	564.62
451.986	542.62
452.207	522.62
452.428	517.62
452.648	538.62
452.869	547.62
453.089	529.62
453.31	552.62
453.53	546.62
453.751	546.62
453.971	539.62
454.192	542.62
454.412	561.62
454.633	548.62
454.853	535.62
455.073	524.62
455.294	556.62
455.514	635.62
455.734	629.62
455.955	538.62
456.175	500.62
456.395	505.62
456.616	480.62
456.836	492.62
457.056	500.62
457.276	463.62
457.497	494.62
457.717	505.62
457.937	501.62
458.157	501.62
458.377	513.62
458.598	530.62
458.818	609.62
459.038	727.62
459.258	728.62
459.478	615.62
459.698	566.62
459.918	500.62
460.138	525.62
460.358	522.62
460.578	542.62
460.798	544.62
461.018	525.62
461.238	550.62
461.458	528.62
461.678	512.62
461.898	536.62
462.118	535.62
462.338	521.62
462.558	529.62
462.777	534.62
462.997	569.62
463.217	530.62
463.437	550.62
463.657	550.62
463.876	572.62
464.096	580.62
464.316	552.62
464.536	569.62
464.755	555.62
464.975	583.62
465.195	657.62
465.414	778.62
465.634	675.62
465.854	616.62
466.073	586.62
466.293	565.62
466.512	540.62
466.732	512.62
466.951	522.62
467.171	526.62
467.391	569.62
467.61	576.62
467.829	557.62
468.049	557.62
468.268	533.62
468.488	536.62
468.707	532.62
468.927	522.62
469.146	535.62
469.365	508.62
469.585	508.62
469.804	544.62
470.023	545.62
470.243	550.62
470.462	549.62
470.681	561.62
470.901	577.62
471.12	543.62
471.339	568.62
471.558	566.62
471.777	548.62
471.997	544.62
472.216	538.62
472.435	604.62
472.654	572.62
472.873	552.62
473.092	530.62
473.311	519.62
473.53	540.62
473.749	552.62
473.968	610.62
474.187	741.62
474.406	756.62
474.625	633.62
474.844	580.62
475.063	566.62
475.282	540.62
475.501	564.62
475.72	554.62
475.939	550.62
476.158	573.62
476.377	576.62
476.596	572.62
476.814	583.62
477.033	579.62
477.252	597.62
477.471	591.62
477.69	622.62
477.908	588.62
478.127	596.62
478.346	582.62
478.564	595.62
478.783	602.62
479.002	608.62
479.22	620.62
479.439	630.62
479.658	661.62
479.876	688.62
480.095	682.62
480.313	709.62
480.532	668.62
480.751	671.62
480.969	673.62
481.188	729.62
481.406	843.62
481.624	740.62
481.843	708.62
482.061	674.62
482.28	650.62
482.498	633.62
482.717	659.62
482.935	674.62
483.153	662.62
483.372	664.62
483.59	650.62
483.808	660.62
484.027	642.62
484.245	669.62
484.463	652.62
484.681	667.62
484.9	666.62
485.118	672.62
485.336	672.62
485.554	667.62
485.772	674.62
485.99	657.62
486.209	667.62
486.427	684.62
486.645	705.62
486.863	726.62
487.081	710.62
487.299	670.62
487.517	716.62
487.735	729.62
487.953	712.62
488.171	701.62
488.389	710.62
488.607	731.62
488.825	743.62
489.043	709.62
489.261	710.62
489.479	716.62
489.696	739.62
489.914	746.62
490.132	738.62
490.35	722.62
490.568	768.62
490.786	773.62
491.003	781.62
491.221	808.62
491.439	809.62
491.657	809.62
491.874	834.62
492.092	841.62
492.31	853.62
492.527	837.62
492.745	849.62
492.963	829.62
493.18	864.62
493.398	848.62
493.615	832.62
493.833	839.62
494.05	862.62
494.268	876.62
494.485	869.62
494.703	863.62
494.92	841.62
495.138	854.62
495.355	885.62
495.573	860.62
495.79	868.62
496.008	865.62
496.225	846.62
496.442	851.62
496.66	896.62
496.877	863.62
497.094	870.62
497.312	871.62
497.529	856.62
497.746	882.62
497.963	864.62
498.181	913.62
498.398	893.62
498.615	926.62
498.832	914.62
499.049	944.62
499.267	919.62
499.484	952.62
499.701	935.62
499.918	977.62
500.135	998.62
500.352	1038.62
500.569	1016.62
500.786	1020.62
501.003	1040.62
501.22	1021.62
501.437	1009.62
