Data from 1971.PennyLincolnUp.Lamp.En5.5.200Scan.071719.P1._HRD10591_15-20-23-841.txt Node
Date: Thu Jul 18 15:20:23 EDT 2019
User: cochatt
Spectrometer: HR+D1059
Trigger mode: 1
Integration Time (sec): 1.000000E-1
Scans to average: 1
Electric dark correction enabled: true
Nonlinearity correction enabled: false
Boxcar width: 0
XAxis mode: Wavelengths
Number of Pixels in Spectrum: 2048
>>>>>Begin Spectral Data<<<<<
223.165	-12.69
223.4	-12.69
223.635	-12.69
223.869	-22.69
224.104	-23.69
224.338	-10.69
224.573	-26.69
224.808	-8.69
225.042	-11.69
225.277	7.31
225.511	2.31
225.746	7.31
225.98	9.31
226.215	16.31
226.449	1.31
226.683	15.31
226.918	24.31
227.152	33.31
227.387	32.31
227.621	46.31
227.856	49.31
228.09	48.31
228.324	42.31
228.559	55.31
228.793	66.31
229.027	91.31
229.262	99.31
229.496	93.31
229.73	120.31
229.964	140.31
230.199	124.31
230.433	103.31
230.667	118.31
230.901	116.31
231.136	114.31
231.37	116.31
231.604	103.31
231.838	103.31
232.072	103.31
232.306	105.31
232.541	103.31
232.775	95.31
233.009	112.31
233.243	115.31
233.477	108.31
233.711	116.31
233.945	114.31
234.179	115.31
234.413	108.31
234.647	116.31
234.881	92.31
235.115	116.31
235.349	119.31
235.583	122.31
235.817	118.31
236.051	116.31
236.285	124.31
236.519	114.31
236.753	127.31
236.987	146.31
237.221	168.31
237.455	216.31
237.689	173.31
237.922	130.31
238.156	122.31
238.39	144.31
238.624	127.31
238.858	116.31
239.091	140.31
239.325	128.31
239.559	122.31
239.793	138.31
240.027	140.31
240.26	140.31
240.494	158.31
240.728	160.31
240.961	146.31
241.195	143.31
241.429	134.31
241.662	120.31
241.896	126.31
242.13	121.31
242.363	148.31
242.597	144.31
242.83	128.31
243.064	138.31
243.298	141.31
243.531	129.31
243.765	136.31
243.998	132.31
244.232	140.31
244.465	130.31
244.699	144.31
244.932	144.31
245.166	130.31
245.399	146.31
245.633	128.31
245.866	144.31
246.099	160.31
246.333	151.31
246.566	153.31
246.8	157.31
247.033	145.31
247.266	165.31
247.5	152.31
247.733	150.31
247.966	167.31
248.2	175.31
248.433	181.31
248.666	184.31
248.899	195.31
249.133	222.31
249.366	179.31
249.599	189.31
249.832	182.31
250.066	173.31
250.299	172.31
250.532	190.31
250.765	202.31
250.998	206.31
251.231	216.31
251.465	214.31
251.698	205.31
251.931	215.31
252.164	219.31
252.397	203.31
252.63	192.31
252.863	203.31
253.096	216.31
253.329	236.31
253.562	231.31
253.795	220.31
254.028	218.31
254.261	229.31
254.494	217.31
254.727	261.31
254.96	272.31
255.193	285.31
255.426	260.31
255.659	233.31
255.892	242.31
256.124	240.31
256.357	235.31
256.59	231.31
256.823	214.31
257.056	221.31
257.289	219.31
257.521	200.31
257.754	203.31
257.987	208.31
258.22	229.31
258.452	210.31
258.685	196.31
258.918	215.31
259.151	216.31
259.383	220.31
259.616	218.31
259.849	242.31
260.081	228.31
260.314	256.31
260.547	245.31
260.779	266.31
261.012	230.31
261.244	215.31
261.477	230.31
261.71	233.31
261.942	234.31
262.175	241.31
262.407	224.31
262.64	219.31
262.872	225.31
263.105	217.31
263.337	226.31
263.57	217.31
263.802	225.31
264.035	206.31
264.267	204.31
264.499	204.31
264.732	219.31
264.964	231.31
265.197	214.31
265.429	203.31
265.661	196.31
265.894	225.31
266.126	209.31
266.358	210.31
266.591	219.31
266.823	226.31
267.055	225.31
267.287	228.31
267.52	220.31
267.752	235.31
267.984	219.31
268.216	228.31
268.448	232.31
268.681	238.31
268.913	260.31
269.145	249.31
269.377	280.31
269.609	249.31
269.841	274.31
270.073	293.31
270.306	278.31
270.538	316.31
270.77	317.31
271.002	313.31
271.234	288.31
271.466	314.31
271.698	314.31
271.93	329.31
272.162	335.31
272.394	309.31
272.626	330.31
272.858	297.31
273.09	272.31
273.322	292.31
273.553	284.31
273.785	286.31
274.017	284.31
274.249	273.31
274.481	265.31
274.713	265.31
274.945	261.31
275.176	280.31
275.408	273.31
275.64	271.31
275.872	259.31
276.104	286.31
276.335	268.31
276.567	274.31
276.799	288.31
277.031	306.31
277.262	329.31
277.494	335.31
277.726	313.31
277.957	302.31
278.189	289.31
278.421	283.31
278.652	260.31
278.884	278.31
279.115	282.31
279.347	278.31
279.579	267.31
279.81	261.31
280.042	285.31
280.273	254.31
280.505	276.31
280.736	268.31
280.968	270.31
281.199	282.31
281.431	274.31
281.662	261.31
281.894	271.31
282.125	291.31
282.356	293.31
282.588	302.31
282.819	322.31
283.051	281.31
283.282	274.31
283.513	262.31
283.745	285.31
283.976	276.31
284.207	290.31
284.439	276.31
284.67	286.31
284.901	270.31
285.132	289.31
285.364	289.31
285.595	286.31
285.826	280.31
286.057	287.31
286.288	277.31
286.52	283.31
286.751	270.31
286.982	277.31
287.213	286.31
287.444	284.31
287.675	286.31
287.906	295.31
288.138	300.31
288.369	315.31
288.6	313.31
288.831	302.31
289.062	300.31
289.293	297.31
289.524	292.31
289.755	285.31
289.986	284.31
290.217	304.31
290.448	309.31
290.679	296.31
290.91	293.31
291.141	295.31
291.371	285.31
291.602	301.31
291.833	284.31
292.064	277.31
292.295	277.31
292.526	291.31
292.757	287.31
292.987	305.31
293.218	298.31
293.449	281.31
293.68	293.31
293.91	290.31
294.141	306.31
294.372	290.31
294.603	284.31
294.833	289.31
295.064	281.31
295.295	282.31
295.525	292.31
295.756	280.31
295.987	296.31
296.217	320.31
296.448	329.31
296.679	302.31
296.909	291.31
297.14	327.31
297.37	304.31
297.601	301.31
297.831	292.31
298.062	314.31
298.292	299.31
298.523	302.31
298.753	310.31
298.984	300.31
299.214	294.31
299.445	301.31
299.675	334.31
299.905	318.31
300.136	306.31
300.366	308.31
300.597	309.31
300.827	313.31
301.057	315.31
301.288	323.31
301.518	318.31
301.748	316.31
301.979	320.31
302.209	335.31
302.439	332.31
302.669	314.31
302.9	326.31
303.13	320.31
303.36	322.31
303.59	332.31
303.82	322.31
304.051	331.31
304.281	337.31
304.511	330.31
304.741	322.31
304.971	331.31
305.201	319.31
305.431	332.31
305.661	312.31
305.891	317.31
306.121	328.31
306.352	342.31
306.582	321.31
306.812	320.31
307.042	337.31
307.272	330.31
307.502	333.31
307.731	326.31
307.961	346.31
308.191	342.31
308.421	316.31
308.651	344.31
308.881	332.31
309.111	338.31
309.341	340.31
309.571	361.31
309.8	376.31
310.03	371.31
310.26	369.31
310.49	366.31
310.72	363.31
310.949	408.31
311.179	374.31
311.409	395.31
311.639	389.31
311.868	373.31
312.098	366.31
312.328	380.31
312.557	388.31
312.787	396.31
313.017	394.31
313.246	380.31
313.476	372.31
313.706	375.31
313.935	413.31
314.165	390.31
314.394	408.31
314.624	385.31
314.853	377.31
315.083	387.31
315.312	374.31
315.542	369.31
315.771	390.31
316.001	388.31
316.23	372.31
316.46	374.31
316.689	376.31
316.919	364.31
317.148	365.31
317.377	374.31
317.607	394.31
317.836	402.31
318.065	373.31
318.295	370.31
318.524	350.31
318.753	380.31
318.983	396.31
319.212	371.31
319.441	368.31
319.67	372.31
319.9	378.31
320.129	378.31
320.358	399.31
320.587	377.31
320.816	381.31
321.046	384.31
321.275	394.31
321.504	396.31
321.733	407.31
321.962	406.31
322.191	440.31
322.42	426.31
322.649	426.31
322.878	450.31
323.108	466.31
323.337	479.31
323.566	485.31
323.795	529.31
324.024	574.31
324.253	686.31
324.482	995.31
324.71	1416.31
324.939	1974.31
325.168	1679.31
325.397	901.31
325.626	640.31
325.855	524.31
326.084	518.31
326.313	505.31
326.542	502.31
326.77	542.31
326.999	643.31
327.228	894.31
327.457	1271.31
327.686	1430.31
327.914	985.31
328.143	682.31
328.372	629.31
328.6	551.31
328.829	543.31
329.058	539.31
329.287	536.31
329.515	516.31
329.744	492.31
329.972	498.31
330.201	500.31
330.43	551.31
330.658	574.31
330.887	593.31
331.115	556.31
331.344	508.31
331.572	462.31
331.801	491.31
332.03	463.31
332.258	460.31
332.486	452.31
332.715	439.31
332.943	452.31
333.172	451.31
333.4	443.31
333.629	441.31
333.857	468.31
334.085	471.31
334.314	479.31
334.542	481.31
334.771	526.31
334.999	471.31
335.227	436.31
335.455	441.31
335.684	418.31
335.912	405.31
336.14	438.31
336.369	428.31
336.597	412.31
336.825	446.31
337.053	442.31
337.281	430.31
337.51	415.31
337.738	444.31
337.966	414.31
338.194	418.31
338.422	417.31
338.65	418.31
338.878	421.31
339.106	417.31
339.334	410.31
339.562	410.31
339.79	426.31
340.018	412.31
340.246	387.31
340.474	425.31
340.702	412.31
340.93	400.31
341.158	406.31
341.386	412.31
341.614	403.31
341.842	397.31
342.07	416.31
342.298	390.31
342.526	388.31
342.754	391.31
342.981	396.31
343.209	382.31
343.437	396.31
343.665	408.31
343.893	442.31
344.12	432.31
344.348	419.31
344.576	409.31
344.804	436.31
345.031	403.31
345.259	429.31
345.487	404.31
345.714	414.31
345.942	402.31
346.17	412.31
346.397	401.31
346.625	405.31
346.853	392.31
347.08	382.31
347.308	383.31
347.535	393.31
347.763	390.31
347.99	409.31
348.218	405.31
348.445	426.31
348.673	385.31
348.9	375.31
349.128	396.31
349.355	356.31
349.583	383.31
349.81	380.31
350.037	390.31
350.265	397.31
350.492	381.31
350.72	375.31
350.947	387.31
351.174	393.31
351.402	394.31
351.629	396.31
351.856	406.31
352.083	402.31
352.311	388.31
352.538	406.31
352.765	402.31
352.992	395.31
353.22	396.31
353.447	392.31
353.674	372.31
353.901	381.31
354.128	370.31
354.355	354.31
354.583	370.31
354.81	342.31
355.037	377.31
355.264	374.31
355.491	361.31
355.718	368.31
355.945	360.31
356.172	357.31
356.399	347.31
356.626	340.31
356.853	370.31
357.08	364.31
357.307	347.31
357.534	364.31
357.761	363.31
357.988	334.31
358.215	352.31
358.441	358.31
358.668	361.31
358.895	359.31
359.122	354.31
359.349	381.31
359.576	396.31
359.802	398.31
360.029	430.31
360.256	409.31
360.483	406.31
360.709	376.31
360.936	360.31
361.163	383.31
361.39	388.31
361.616	398.31
361.843	374.31
362.07	376.31
362.296	384.31
362.523	379.31
362.749	368.31
362.976	375.31
363.203	371.31
363.429	373.31
363.656	389.31
363.882	362.31
364.109	362.31
364.335	356.31
364.562	359.31
364.788	354.31
365.015	353.31
365.241	350.31
365.468	380.31
365.694	372.31
365.92	369.31
366.147	366.31
366.373	358.31
366.599	359.31
366.826	329.31
367.052	348.31
367.278	360.31
367.505	350.31
367.731	349.31
367.957	359.31
368.184	350.31
368.41	366.31
368.636	356.31
368.862	357.31
369.089	331.31
369.315	363.31
369.541	345.31
369.767	363.31
369.993	345.31
370.219	353.31
370.445	359.31
370.672	353.31
370.898	344.31
371.124	365.31
371.35	343.31
371.576	360.31
371.802	356.31
372.028	373.31
372.254	360.31
372.48	369.31
372.706	355.31
372.932	362.31
373.158	364.31
373.384	338.31
373.61	342.31
373.835	362.31
374.061	345.31
374.287	353.31
374.513	338.31
374.739	350.31
374.965	349.31
375.191	340.31
375.416	348.31
375.642	348.31
375.868	361.31
376.094	338.31
376.319	340.31
376.545	343.31
376.771	355.31
376.997	343.31
377.222	331.31
377.448	342.31
377.674	345.31
377.899	347.31
378.125	349.31
378.35	335.31
378.576	339.31
378.802	314.31
379.027	342.31
379.253	327.31
379.478	348.31
379.704	360.31
379.929	338.31
380.155	352.31
380.38	339.31
380.606	338.31
380.831	347.31
381.057	357.31
381.282	346.31
381.507	347.31
381.733	365.31
381.958	346.31
382.184	330.31
382.409	345.31
382.634	334.31
382.86	358.31
383.085	349.31
383.31	352.31
383.535	343.31
383.761	363.31
383.986	351.31
384.211	354.31
384.436	354.31
384.662	345.31
384.887	368.31
385.112	356.31
385.337	360.31
385.562	339.31
385.787	348.31
386.013	371.31
386.238	397.31
386.463	377.31
386.688	356.31
386.913	368.31
387.138	384.31
387.363	347.31
387.588	376.31
387.813	372.31
388.038	352.31
388.263	368.31
388.488	367.31
388.713	355.31
388.938	376.31
389.163	368.31
389.387	368.31
389.612	364.31
389.837	361.31
390.062	346.31
390.287	353.31
390.512	366.31
390.736	363.31
390.961	373.31
391.186	362.31
391.411	362.31
391.636	379.31
391.86	368.31
392.085	378.31
392.31	363.31
392.534	358.31
392.759	381.31
392.984	356.31
393.208	349.31
393.433	369.31
393.658	363.31
393.882	366.31
394.107	356.31
394.331	371.31
394.556	358.31
394.78	376.31
395.005	354.31
395.229	375.31
395.454	348.31
395.678	380.31
395.903	382.31
396.127	399.31
396.352	392.31
396.576	357.31
396.801	369.31
397.025	374.31
397.249	375.31
397.474	375.31
397.698	352.31
397.922	402.31
398.147	397.31
398.371	388.31
398.595	404.31
398.82	389.31
399.044	419.31
399.268	438.31
399.492	434.31
399.717	443.31
399.941	454.31
400.165	489.31
400.389	493.31
400.613	480.31
400.837	431.31
401.062	404.31
401.286	416.31
401.51	410.31
401.734	402.31
401.958	393.31
402.182	403.31
402.406	395.31
402.63	394.31
402.854	412.31
403.078	414.31
403.302	406.31
403.526	413.31
403.75	413.31
403.974	429.31
404.198	401.31
404.422	422.31
404.645	429.31
404.869	428.31
405.093	440.31
405.317	465.31
405.541	516.31
405.765	456.31
405.988	442.31
406.212	444.31
406.436	452.31
406.66	444.31
406.883	451.31
407.107	452.31
407.331	495.31
407.555	547.31
407.778	547.31
408.002	509.31
408.226	465.31
408.449	450.31
408.673	458.31
408.896	464.31
409.12	501.31
409.344	498.31
409.567	440.31
409.791	429.31
410.014	412.31
410.238	413.31
410.461	409.31
410.685	434.31
410.908	434.31
411.132	472.31
411.355	479.31
411.578	468.31
411.802	436.31
412.025	428.31
412.249	416.31
412.472	431.31
412.695	466.31
412.919	448.31
413.142	438.31
413.365	404.31
413.589	409.31
413.812	399.31
414.035	399.31
414.258	402.31
414.482	392.31
414.705	392.31
414.928	376.31
415.151	380.31
415.374	367.31
415.597	390.31
415.821	400.31
416.044	386.31
416.267	389.31
416.49	386.31
416.713	379.31
416.936	410.31
417.159	379.31
417.382	378.31
417.605	404.31
417.828	397.31
418.051	390.31
418.274	406.31
418.497	394.31
418.72	409.31
418.943	394.31
419.166	404.31
419.389	402.31
419.611	417.31
419.834	413.31
420.057	415.31
420.28	433.31
420.503	417.31
420.726	433.31
420.948	430.31
421.171	469.31
421.394	483.31
421.617	451.31
421.839	420.31
422.062	422.31
422.285	416.31
422.507	453.31
422.73	509.31
422.953	481.31
423.175	448.31
423.398	436.31
423.621	435.31
423.843	440.31
424.066	463.31
424.288	462.31
424.511	464.31
424.733	491.31
424.956	586.31
425.178	552.31
425.401	542.31
425.623	541.31
425.846	474.31
426.068	464.31
426.291	428.31
426.513	436.31
426.735	437.31
426.958	484.31
427.18	560.31
427.402	656.31
427.625	708.31
427.847	634.31
428.069	541.31
428.292	485.31
428.514	459.31
428.736	416.31
428.958	413.31
429.181	414.31
429.403	425.31
429.625	424.31
429.847	437.31
430.069	512.31
430.292	499.31
430.514	432.31
430.736	420.31
430.958	389.31
431.18	381.31
431.402	383.31
431.624	382.31
431.846	374.31
432.068	350.31
432.29	354.31
432.512	400.31
432.734	387.31
432.956	403.31
433.178	394.31
433.4	405.31
433.622	384.31
433.844	394.31
434.066	389.31
434.287	382.31
434.509	383.31
434.731	377.31
434.953	393.31
435.175	400.31
435.397	440.31
435.618	456.31
435.84	473.31
436.062	581.31
436.284	614.31
436.505	484.31
436.727	447.31
436.949	434.31
437.17	418.31
437.392	406.31
437.614	408.31
437.835	442.31
438.057	512.31
438.278	602.31
438.5	608.31
438.721	665.31
438.943	632.31
439.165	520.31
439.386	466.31
439.608	455.31
439.829	454.31
440.05	486.31
440.272	511.31
440.493	476.31
440.715	456.31
440.936	409.31
441.158	419.31
441.379	413.31
441.6	440.31
441.822	437.31
442.043	480.31
442.264	528.31
442.486	561.31
442.707	502.31
442.928	456.31
443.149	464.31
443.371	489.31
443.592	515.31
443.813	592.31
444.034	617.31
444.255	531.31
444.476	458.31
444.698	448.31
444.919	459.31
445.14	526.31
445.361	495.31
445.582	481.31
445.803	530.31
446.024	630.31
446.245	615.31
446.466	570.31
446.687	466.31
446.908	445.31
447.129	419.31
447.35	412.31
447.571	406.31
447.792	417.31
448.013	420.31
448.234	449.31
448.455	480.31
448.675	562.31
448.896	644.31
449.117	568.31
449.338	524.31
449.559	598.31
449.779	688.31
450	552.31
450.221	461.31
450.442	423.31
450.662	392.31
450.883	410.31
451.104	400.31
451.324	400.31
451.545	377.31
451.766	379.31
451.986	368.31
452.207	356.31
452.428	367.31
452.648	370.31
452.869	365.31
453.089	380.31
453.31	364.31
453.53	373.31
453.751	368.31
453.971	359.31
454.192	376.31
454.412	375.31
454.633	361.31
454.853	356.31
455.073	359.31
455.294	390.31
455.514	437.31
455.734	403.31
455.955	378.31
456.175	347.31
456.395	352.31
456.616	328.31
456.836	346.31
457.056	337.31
457.276	336.31
457.497	326.31
457.717	353.31
457.937	342.31
458.157	329.31
458.377	345.31
458.598	362.31
458.818	412.31
459.038	491.31
459.258	506.31
459.478	430.31
459.698	382.31
459.918	380.31
460.138	394.31
460.358	396.31
460.578	376.31
460.798	379.31
461.018	388.31
461.238	376.31
461.458	356.31
461.678	382.31
461.898	372.31
462.118	376.31
462.338	376.31
462.558	377.31
462.777	381.31
462.997	389.31
463.217	391.31
463.437	409.31
463.657	385.31
463.876	393.31
464.096	398.31
464.316	402.31
464.536	386.31
464.755	398.31
464.975	402.31
465.195	433.31
465.414	476.31
465.634	447.31
465.854	402.31
466.073	365.31
466.293	395.31
466.512	378.31
466.732	354.31
466.951	367.31
467.171	380.31
467.391	378.31
467.61	381.31
467.829	369.31
468.049	385.31
468.268	363.31
468.488	366.31
468.707	363.31
468.927	364.31
469.146	362.31
469.365	366.31
469.585	352.31
469.804	352.31
470.023	394.31
470.243	372.31
470.462	389.31
470.681	388.31
470.901	378.31
471.12	376.31
471.339	364.31
471.558	390.31
471.777	388.31
471.997	368.31
472.216	392.31
472.435	404.31
472.654	403.31
472.873	374.31
473.092	368.31
473.311	360.31
473.53	378.31
473.749	392.31
473.968	450.31
474.187	526.31
474.406	521.31
474.625	433.31
474.844	389.31
475.063	372.31
475.282	384.31
475.501	378.31
475.72	357.31
475.939	382.31
476.158	374.31
476.377	378.31
476.596	376.31
476.814	380.31
477.033	384.31
477.252	386.31
477.471	386.31
477.69	408.31
477.908	394.31
478.127	395.31
478.346	411.31
478.564	405.31
478.783	405.31
479.002	415.31
479.22	420.31
479.439	422.31
479.658	426.31
479.876	441.31
480.095	423.31
480.313	473.31
480.532	453.31
480.751	453.31
480.969	453.31
481.188	503.31
481.406	525.31
481.624	456.31
481.843	454.31
482.061	444.31
482.28	441.31
482.498	450.31
482.717	443.31
482.935	418.31
483.153	437.31
483.372	448.31
483.59	427.31
483.808	439.31
484.027	413.31
484.245	440.31
484.463	434.31
484.681	446.31
484.9	442.31
485.118	431.31
485.336	426.31
485.554	430.31
485.772	425.31
485.99	440.31
486.209	436.31
486.427	416.31
486.645	452.31
486.863	467.31
487.081	464.31
487.299	461.31
487.517	462.31
487.735	454.31
487.953	478.31
488.171	477.31
488.389	466.31
488.607	458.31
488.825	455.31
489.043	467.31
489.261	466.31
489.479	457.31
489.696	475.31
489.914	468.31
490.132	488.31
490.35	501.31
490.568	490.31
490.786	484.31
491.003	528.31
491.221	528.31
491.439	539.31
491.657	535.31
491.874	531.31
492.092	538.31
492.31	561.31
492.527	550.31
492.745	539.31
492.963	547.31
493.18	549.31
493.398	553.31
493.615	556.31
493.833	562.31
494.05	563.31
494.268	516.31
494.485	535.31
494.703	572.31
494.92	558.31
495.138	558.31
495.355	569.31
495.573	555.31
495.79	554.31
496.008	547.31
496.225	548.31
496.442	572.31
496.66	538.31
496.877	491.31
497.094	567.31
497.312	545.31
497.529	564.31
497.746	588.31
497.963	578.31
498.181	597.31
498.398	575.31
498.615	619.31
498.832	601.31
499.049	600.31
499.267	617.31
499.484	621.31
499.701	651.31
499.918	658.31
500.135	672.31
500.352	731.31
500.569	717.31
500.786	699.31
501.003	699.31
501.22	711.31
501.437	689.31
501.654	673.31
501.871	693.31
502.088	652.31
