Data from 1971.PennyLincolnUp.Lamp.En5.5.200Scan.071719.P1._HRD10591_15-19-29-841.txt Node
Date: Thu Jul 18 15:19:29 EDT 2019
User: cochatt
Spectrometer: HR+D1059
Trigger mode: 1
Integration Time (sec): 1.000000E-1
Scans to average: 1
Electric dark correction enabled: true
Nonlinearity correction enabled: false
Boxcar width: 0
XAxis mode: Wavelengths
Number of Pixels in Spectrum: 2048
>>>>>Begin Spectral Data<<<<<
223.165	-12.56
223.4	-12.56
223.635	-12.56
223.869	-21.56
224.104	-26.56
224.338	-1.56
224.573	-10.56
224.808	-12.56
225.042	-7.56
225.277	-15.56
225.511	-2.56
225.746	16.44
225.98	11.44
226.215	2.44
226.449	23.44
226.683	15.44
226.918	11.44
227.152	30.44
227.387	32.44
227.621	35.44
227.856	48.44
228.09	51.44
228.324	46.44
228.559	53.44
228.793	56.44
229.027	89.44
229.262	110.44
229.496	104.44
229.73	126.44
229.964	137.44
230.199	119.44
230.433	104.44
230.667	112.44
230.901	106.44
231.136	106.44
231.37	107.44
231.604	102.44
231.838	103.44
232.072	113.44
232.306	112.44
232.541	117.44
232.775	111.44
233.009	110.44
233.243	117.44
233.477	115.44
233.711	115.44
233.945	112.44
234.179	112.44
234.413	115.44
234.647	115.44
234.881	121.44
235.115	109.44
235.349	125.44
235.583	124.44
235.817	108.44
236.051	128.44
236.285	122.44
236.519	117.44
236.753	121.44
236.987	143.44
237.221	169.44
237.455	207.44
237.689	195.44
237.922	129.44
238.156	127.44
238.39	129.44
238.624	146.44
238.858	116.44
239.091	129.44
239.325	118.44
239.559	118.44
239.793	127.44
240.027	131.44
240.26	137.44
240.494	160.44
240.728	152.44
240.961	140.44
241.195	145.44
241.429	136.44
241.662	144.44
241.896	143.44
242.13	142.44
242.363	142.44
242.597	139.44
242.83	134.44
243.064	144.44
243.298	148.44
243.531	139.44
243.765	135.44
243.998	140.44
244.232	131.44
244.465	149.44
244.699	144.44
244.932	136.44
245.166	152.44
245.399	149.44
245.633	139.44
245.866	158.44
246.099	147.44
246.333	150.44
246.566	136.44
246.8	154.44
247.033	168.44
247.266	154.44
247.5	171.44
247.733	180.44
247.966	179.44
248.2	180.44
248.433	185.44
248.666	182.44
248.899	190.44
249.133	211.44
249.366	218.44
249.599	186.44
249.832	185.44
250.066	191.44
250.299	200.44
250.532	187.44
250.765	229.44
250.998	218.44
251.231	221.44
251.465	218.44
251.698	213.44
251.931	193.44
252.164	198.44
252.397	203.44
252.63	218.44
252.863	209.44
253.096	228.44
253.329	243.44
253.562	219.44
253.795	220.44
254.028	255.44
254.261	235.44
254.494	240.44
254.727	260.44
254.96	293.44
255.193	269.44
255.426	268.44
255.659	247.44
255.892	261.44
256.124	227.44
256.357	240.44
256.59	241.44
256.823	221.44
257.056	222.44
257.289	234.44
257.521	213.44
257.754	235.44
257.987	218.44
258.22	202.44
258.452	203.44
258.685	230.44
258.918	220.44
259.151	215.44
259.383	226.44
259.616	244.44
259.849	229.44
260.081	239.44
260.314	264.44
260.547	261.44
260.779	243.44
261.012	254.44
261.244	243.44
261.477	232.44
261.71	228.44
261.942	236.44
262.175	242.44
262.407	245.44
262.64	232.44
262.872	215.44
263.105	227.44
263.337	238.44
263.57	221.44
263.802	221.44
264.035	233.44
264.267	234.44
264.499	220.44
264.732	222.44
264.964	216.44
265.197	227.44
265.429	222.44
265.661	219.44
265.894	228.44
266.126	216.44
266.358	229.44
266.591	237.44
266.823	244.44
267.055	245.44
267.287	253.44
267.52	236.44
267.752	236.44
267.984	251.44
268.216	232.44
268.448	238.44
268.681	240.44
268.913	256.44
269.145	270.44
269.377	291.44
269.609	269.44
269.841	284.44
270.073	289.44
270.306	299.44
270.538	319.44
270.77	331.44
271.002	326.44
271.234	317.44
271.466	301.44
271.698	329.44
271.93	331.44
272.162	335.44
272.394	332.44
272.626	328.44
272.858	313.44
273.09	307.44
273.322	288.44
273.553	290.44
273.785	285.44
274.017	283.44
274.249	304.44
274.481	283.44
274.713	268.44
274.945	294.44
275.176	279.44
275.408	265.44
275.64	286.44
275.872	275.44
276.104	297.44
276.335	285.44
276.567	288.44
276.799	291.44
277.031	317.44
277.262	336.44
277.494	317.44
277.726	316.44
277.957	311.44
278.189	282.44
278.421	263.44
278.652	281.44
278.884	287.44
279.115	288.44
279.347	285.44
279.579	293.44
279.81	287.44
280.042	273.44
280.273	279.44
280.505	286.44
280.736	289.44
280.968	252.44
281.199	280.44
281.431	285.44
281.662	280.44
281.894	283.44
282.125	285.44
282.356	298.44
282.588	321.44
282.819	320.44
283.051	303.44
283.282	282.44
283.513	294.44
283.745	298.44
283.976	309.44
284.207	274.44
284.439	294.44
284.67	316.44
284.901	295.44
285.132	302.44
285.364	300.44
285.595	279.44
285.826	284.44
286.057	303.44
286.288	284.44
286.52	320.44
286.751	286.44
286.982	314.44
287.213	304.44
287.444	313.44
287.675	298.44
287.906	323.44
288.138	315.44
288.369	295.44
288.6	326.44
288.831	308.44
289.062	311.44
289.293	322.44
289.524	315.44
289.755	301.44
289.986	319.44
290.217	296.44
290.448	295.44
290.679	292.44
290.91	293.44
291.141	301.44
291.371	304.44
291.602	302.44
291.833	316.44
292.064	311.44
292.295	312.44
292.526	293.44
292.757	315.44
292.987	307.44
293.218	289.44
293.449	304.44
293.68	308.44
293.91	309.44
294.141	310.44
294.372	316.44
294.603	332.44
294.833	295.44
295.064	301.44
295.295	328.44
295.525	302.44
295.756	291.44
295.987	320.44
296.217	335.44
296.448	334.44
296.679	341.44
296.909	311.44
297.14	311.44
297.37	315.44
297.601	303.44
297.831	296.44
298.062	313.44
298.292	328.44
298.523	315.44
298.753	330.44
298.984	314.44
299.214	321.44
299.445	327.44
299.675	311.44
299.905	320.44
300.136	317.44
300.366	320.44
300.597	335.44
300.827	313.44
301.057	343.44
301.288	349.44
301.518	332.44
301.748	357.44
301.979	339.44
302.209	339.44
302.439	351.44
302.669	350.44
302.9	337.44
303.13	328.44
303.36	348.44
303.59	347.44
303.82	346.44
304.051	355.44
304.281	351.44
304.511	341.44
304.741	341.44
304.971	337.44
305.201	340.44
305.431	340.44
305.661	341.44
305.891	342.44
306.121	348.44
306.352	336.44
306.582	356.44
306.812	360.44
307.042	345.44
307.272	350.44
307.502	359.44
307.731	350.44
307.961	354.44
308.191	364.44
308.421	365.44
308.651	353.44
308.881	349.44
309.111	360.44
309.341	382.44
309.571	357.44
309.8	384.44
310.03	373.44
310.26	385.44
310.49	380.44
310.72	388.44
310.949	395.44
311.179	424.44
311.409	411.44
311.639	385.44
311.868	387.44
312.098	386.44
312.328	391.44
312.557	425.44
312.787	415.44
313.017	411.44
313.246	405.44
313.476	384.44
313.706	373.44
313.935	411.44
314.165	381.44
314.394	417.44
314.624	415.44
314.853	399.44
315.083	392.44
315.312	404.44
315.542	389.44
315.771	398.44
316.001	408.44
316.23	393.44
316.46	376.44
316.689	391.44
316.919	407.44
317.148	388.44
317.377	391.44
317.607	407.44
317.836	384.44
318.065	392.44
318.295	405.44
318.524	383.44
318.753	391.44
318.983	401.44
319.212	402.44
319.441	409.44
319.67	391.44
319.9	389.44
320.129	390.44
320.358	383.44
320.587	423.44
320.816	400.44
321.046	409.44
321.275	404.44
321.504	409.44
321.733	409.44
321.962	419.44
322.191	421.44
322.42	444.44
322.649	447.44
322.878	463.44
323.108	462.44
323.337	488.44
323.566	512.44
323.795	545.44
324.024	597.44
324.253	721.44
324.482	992.44
324.71	1481.44
324.939	1963.44
325.168	1675.44
325.397	893.44
325.626	610.44
325.855	553.44
326.084	529.44
326.313	499.44
326.542	508.44
326.77	551.44
326.999	643.44
327.228	902.44
327.457	1265.44
327.686	1440.44
327.914	995.44
328.143	699.44
328.372	613.44
328.6	564.44
328.829	563.44
329.058	567.44
329.287	559.44
329.515	550.44
329.744	508.44
329.972	513.44
330.201	535.44
330.43	549.44
330.658	553.44
330.887	593.44
331.115	549.44
331.344	503.44
331.572	491.44
331.801	497.44
332.03	490.44
332.258	454.44
332.486	468.44
332.715	449.44
332.943	479.44
333.172	467.44
333.4	480.44
333.629	462.44
333.857	481.44
334.085	483.44
334.314	505.44
334.542	526.44
334.771	506.44
334.999	489.44
335.227	478.44
335.455	474.44
335.684	447.44
335.912	458.44
336.14	428.44
336.369	421.44
336.597	449.44
336.825	470.44
337.053	437.44
337.281	447.44
337.51	436.44
337.738	453.44
337.966	451.44
338.194	431.44
338.422	450.44
338.65	431.44
338.878	449.44
339.106	447.44
339.334	424.44
339.562	410.44
339.79	442.44
340.018	443.44
340.246	435.44
340.474	452.44
340.702	454.44
340.93	419.44
341.158	442.44
341.386	431.44
341.614	439.44
341.842	412.44
342.07	414.44
342.298	422.44
342.526	424.44
342.754	422.44
342.981	417.44
343.209	422.44
343.437	430.44
343.665	415.44
343.893	427.44
344.12	431.44
344.348	415.44
344.576	448.44
344.804	434.44
345.031	440.44
345.259	436.44
345.487	423.44
345.714	412.44
345.942	416.44
346.17	427.44
346.397	420.44
346.625	409.44
346.853	398.44
347.08	427.44
347.308	414.44
347.535	413.44
347.763	419.44
347.99	417.44
348.218	418.44
348.445	426.44
348.673	406.44
348.9	411.44
349.128	385.44
349.355	405.44
349.583	405.44
349.81	404.44
350.037	405.44
350.265	389.44
350.492	406.44
350.72	398.44
350.947	399.44
351.174	414.44
351.402	396.44
351.629	394.44
351.856	405.44
352.083	429.44
352.311	433.44
352.538	408.44
352.765	414.44
352.992	415.44
353.22	417.44
353.447	430.44
353.674	403.44
353.901	405.44
354.128	381.44
354.355	367.44
354.583	389.44
354.81	385.44
355.037	363.44
355.264	379.44
355.491	383.44
355.718	392.44
355.945	366.44
356.172	369.44
356.399	378.44
356.626	355.44
356.853	373.44
357.08	369.44
357.307	387.44
357.534	389.44
357.761	375.44
357.988	368.44
358.215	383.44
358.441	383.44
358.668	366.44
358.895	384.44
359.122	382.44
359.349	389.44
359.576	415.44
359.802	411.44
360.029	429.44
360.256	445.44
360.483	425.44
360.709	415.44
360.936	400.44
361.163	373.44
361.39	390.44
361.616	377.44
361.843	384.44
362.07	391.44
362.296	395.44
362.523	395.44
362.749	402.44
362.976	390.44
363.203	386.44
363.429	377.44
363.656	397.44
363.882	378.44
364.109	395.44
364.335	381.44
364.562	374.44
364.788	385.44
365.015	359.44
365.241	385.44
365.468	355.44
365.694	365.44
365.92	374.44
366.147	383.44
366.373	364.44
366.599	395.44
366.826	364.44
367.052	359.44
367.278	380.44
367.505	380.44
367.731	377.44
367.957	369.44
368.184	374.44
368.41	367.44
368.636	375.44
368.862	393.44
369.089	384.44
369.315	374.44
369.541	379.44
369.767	389.44
369.993	376.44
370.219	381.44
370.445	392.44
370.672	383.44
370.898	377.44
371.124	378.44
371.35	376.44
371.576	375.44
371.802	372.44
372.028	387.44
372.254	363.44
372.48	365.44
372.706	368.44
372.932	360.44
373.158	371.44
373.384	369.44
373.61	351.44
373.835	371.44
374.061	377.44
374.287	379.44
374.513	375.44
374.739	356.44
374.965	375.44
375.191	383.44
375.416	376.44
375.642	375.44
375.868	380.44
376.094	384.44
376.319	349.44
376.545	365.44
376.771	359.44
376.997	365.44
377.222	352.44
377.448	361.44
377.674	348.44
377.899	351.44
378.125	354.44
378.35	365.44
378.576	378.44
378.802	361.44
379.027	361.44
379.253	359.44
379.478	375.44
379.704	354.44
379.929	359.44
380.155	367.44
380.38	374.44
380.606	357.44
380.831	364.44
381.057	350.44
381.282	372.44
381.507	354.44
381.733	371.44
381.958	355.44
382.184	371.44
382.409	371.44
382.634	365.44
382.86	381.44
383.085	378.44
383.31	381.44
383.535	364.44
383.761	363.44
383.986	378.44
384.211	380.44
384.436	374.44
384.662	385.44
384.887	381.44
385.112	367.44
385.337	383.44
385.562	373.44
385.787	392.44
386.013	384.44
386.238	382.44
386.463	390.44
386.688	397.44
386.913	391.44
387.138	394.44
387.363	368.44
387.588	375.44
387.813	395.44
388.038	365.44
388.263	381.44
388.488	386.44
388.713	363.44
388.938	372.44
389.163	394.44
389.387	395.44
389.612	367.44
389.837	381.44
390.062	377.44
390.287	380.44
390.512	371.44
390.736	367.44
390.961	393.44
391.186	386.44
391.411	375.44
391.636	392.44
391.86	394.44
392.085	384.44
392.31	376.44
392.534	384.44
392.759	384.44
392.984	384.44
393.208	381.44
393.433	384.44
393.658	379.44
393.882	378.44
394.107	383.44
394.331	375.44
394.556	387.44
394.78	373.44
395.005	374.44
395.229	360.44
395.454	392.44
395.678	393.44
395.903	404.44
396.127	401.44
396.352	428.44
396.576	409.44
396.801	387.44
397.025	395.44
397.249	381.44
397.474	398.44
397.698	401.44
397.922	409.44
398.147	409.44
398.371	423.44
398.595	422.44
398.82	446.44
399.044	431.44
399.268	458.44
399.492	469.44
399.717	492.44
399.941	511.44
400.165	506.44
400.389	517.44
400.613	473.44
400.837	453.44
401.062	441.44
401.286	432.44
401.51	419.44
401.734	427.44
401.958	426.44
402.182	430.44
402.406	448.44
402.63	429.44
402.854	421.44
403.078	424.44
403.302	441.44
403.526	456.44
403.75	444.44
403.974	430.44
404.198	455.44
404.422	443.44
404.645	446.44
404.869	457.44
405.093	455.44
405.317	500.44
405.541	531.44
405.765	495.44
405.988	454.44
406.212	473.44
406.436	501.44
406.66	479.44
406.883	489.44
407.107	502.44
407.331	528.44
407.555	568.44
407.778	571.44
408.002	547.44
408.226	500.44
408.449	487.44
408.673	476.44
408.896	503.44
409.12	558.44
409.344	511.44
409.567	471.44
409.791	460.44
410.014	464.44
410.238	457.44
410.461	423.44
410.685	432.44
410.908	457.44
411.132	490.44
411.355	517.44
411.578	486.44
411.802	445.44
412.025	422.44
412.249	450.44
412.472	468.44
412.695	487.44
412.919	472.44
413.142	444.44
413.365	417.44
413.589	421.44
413.812	409.44
414.035	420.44
414.258	414.44
414.482	396.44
414.705	427.44
414.928	407.44
415.151	426.44
415.374	424.44
415.597	393.44
415.821	406.44
416.044	417.44
416.267	415.44
416.49	401.44
416.713	402.44
416.936	411.44
417.159	413.44
417.382	412.44
417.605	401.44
417.828	442.44
418.051	439.44
418.274	429.44
418.497	413.44
418.72	428.44
418.943	403.44
419.166	408.44
419.389	430.44
419.611	421.44
419.834	419.44
420.057	431.44
420.28	441.44
420.503	402.44
420.726	419.44
420.948	439.44
421.171	471.44
421.394	508.44
421.617	475.44
421.839	424.44
422.062	425.44
422.285	444.44
422.507	480.44
422.73	550.44
422.953	523.44
423.175	474.44
423.398	459.44
423.621	438.44
423.843	443.44
424.066	459.44
424.288	476.44
424.511	481.44
424.733	521.44
424.956	604.44
425.178	603.44
425.401	570.44
425.623	567.44
425.846	508.44
426.068	455.44
426.291	464.44
426.513	454.44
426.735	463.44
426.958	515.44
427.18	580.44
427.402	670.44
427.625	727.44
427.847	657.44
428.069	579.44
428.292	505.44
428.514	455.44
428.736	453.44
428.958	454.44
429.181	441.44
429.403	443.44
429.625	449.44
429.847	474.44
430.069	495.44
430.292	506.44
430.514	456.44
430.736	439.44
430.958	444.44
431.18	403.44
431.402	411.44
431.624	409.44
431.846	388.44
432.068	403.44
432.29	409.44
432.512	403.44
432.734	407.44
432.956	413.44
433.178	405.44
433.4	426.44
433.622	390.44
433.844	418.44
434.066	397.44
434.287	402.44
434.509	387.44
434.731	418.44
434.953	408.44
435.175	452.44
435.397	445.44
435.618	467.44
435.84	501.44
436.062	581.44
436.284	603.44
436.505	527.44
436.727	461.44
436.949	432.44
437.17	407.44
437.392	428.44
437.614	445.44
437.835	468.44
438.057	546.44
438.278	630.44
438.5	624.44
438.721	695.44
438.943	653.44
439.165	539.44
439.386	485.44
439.608	458.44
439.829	484.44
440.05	496.44
440.272	545.44
440.493	496.44
440.715	473.44
440.936	436.44
441.158	426.44
441.379	423.44
441.6	434.44
441.822	469.44
442.043	477.44
442.264	559.44
442.486	607.44
442.707	522.44
442.928	487.44
443.149	472.44
443.371	491.44
443.592	527.44
443.813	618.44
444.034	650.44
444.255	544.44
444.476	465.44
444.698	464.44
444.919	451.44
445.14	589.44
445.361	536.44
445.582	519.44
445.803	569.44
446.024	646.44
446.245	637.44
446.466	597.44
446.687	508.44
446.908	472.44
447.129	434.44
447.35	434.44
447.571	418.44
447.792	427.44
448.013	428.44
448.234	449.44
448.455	488.44
448.675	580.44
448.896	653.44
449.117	585.44
449.338	540.44
449.559	643.44
449.779	699.44
450	581.44
450.221	456.44
450.442	430.44
450.662	415.44
450.883	418.44
451.104	444.44
451.324	416.44
451.545	396.44
451.766	411.44
451.986	393.44
452.207	392.44
452.428	383.44
452.648	380.44
452.869	367.44
453.089	391.44
453.31	408.44
453.53	392.44
453.751	384.44
453.971	377.44
454.192	398.44
454.412	404.44
454.633	361.44
454.853	359.44
455.073	379.44
455.294	389.44
455.514	460.44
455.734	456.44
455.955	377.44
456.175	375.44
456.395	351.44
456.616	347.44
456.836	345.44
457.056	357.44
457.276	341.44
457.497	345.44
457.717	360.44
457.937	375.44
458.157	360.44
458.377	369.44
458.598	366.44
458.818	427.44
459.038	492.44
459.258	489.44
459.478	434.44
459.698	407.44
459.918	387.44
460.138	390.44
460.358	415.44
460.578	401.44
460.798	412.44
461.018	416.44
461.238	399.44
461.458	384.44
461.678	384.44
461.898	392.44
462.118	405.44
462.338	383.44
462.558	404.44
462.777	415.44
462.997	413.44
463.217	417.44
463.437	448.44
463.657	424.44
463.876	423.44
464.096	417.44
464.316	395.44
464.536	405.44
464.755	430.44
464.975	433.44
465.195	454.44
465.414	508.44
465.634	441.44
465.854	427.44
466.073	387.44
466.293	401.44
466.512	395.44
466.732	388.44
466.951	388.44
467.171	389.44
467.391	391.44
467.61	404.44
467.829	366.44
468.049	381.44
468.268	384.44
468.488	374.44
468.707	396.44
468.927	379.44
469.146	381.44
469.365	381.44
469.585	365.44
469.804	371.44
470.023	392.44
470.243	401.44
470.462	401.44
470.681	414.44
470.901	394.44
471.12	411.44
471.339	381.44
471.558	416.44
471.777	382.44
471.997	379.44
472.216	385.44
472.435	396.44
472.654	407.44
472.873	385.44
473.092	389.44
473.311	393.44
473.53	393.44
473.749	405.44
473.968	444.44
474.187	500.44
474.406	532.44
474.625	428.44
474.844	408.44
475.063	423.44
475.282	411.44
475.501	401.44
475.72	391.44
475.939	385.44
476.158	407.44
476.377	421.44
476.596	392.44
476.814	393.44
477.033	413.44
477.252	413.44
477.471	400.44
477.69	435.44
477.908	442.44
478.127	427.44
478.346	425.44
478.564	438.44
478.783	459.44
479.002	441.44
479.22	428.44
479.439	451.44
479.658	452.44
479.876	464.44
480.095	457.44
480.313	484.44
480.532	491.44
480.751	461.44
480.969	485.44
481.188	529.44
481.406	547.44
481.624	472.44
481.843	461.44
482.061	464.44
482.28	454.44
482.498	448.44
482.717	435.44
482.935	447.44
483.153	452.44
483.372	446.44
483.59	451.44
483.808	447.44
484.027	438.44
484.245	436.44
484.463	465.44
484.681	462.44
484.9	450.44
485.118	458.44
485.336	441.44
485.554	464.44
485.772	461.44
485.99	476.44
486.209	458.44
486.427	472.44
486.645	481.44
486.863	462.44
487.081	487.44
487.299	485.44
487.517	487.44
487.735	478.44
487.953	483.44
488.171	519.44
488.389	472.44
488.607	488.44
488.825	471.44
489.043	477.44
489.261	486.44
489.479	496.44
489.696	494.44
489.914	485.44
490.132	499.44
490.35	517.44
490.568	500.44
490.786	535.44
491.003	539.44
491.221	547.44
491.439	543.44
491.657	539.44
491.874	555.44
492.092	571.44
492.31	565.44
492.527	567.44
492.745	567.44
492.963	569.44
493.18	573.44
493.398	590.44
493.615	565.44
493.833	579.44
494.05	589.44
494.268	579.44
494.485	570.44
494.703	568.44
494.92	564.44
495.138	572.44
495.355	575.44
495.573	583.44
495.79	596.44
496.008	583.44
496.225	553.44
496.442	574.44
496.66	572.44
496.877	585.44
497.094	585.44
497.312	578.44
497.529	597.44
497.746	590.44
497.963	595.44
498.181	632.44
498.398	631.44
498.615	623.44
498.832	646.44
499.049	651.44
499.267	651.44
499.484	657.44
499.701	699.44
499.918	733.44
500.135	753.44
500.352	751.44
500.569	774.44
500.786	773.44
501.003	773.44
501.22	727.44
501.437	707.44
501.654	713.44
501.871	712.44
