Data from 1971.PennyLincolnUp.Lamp.En5.5.200Scan.071719.P1._HRD10591_15-19-51-841.txt Node
Date: Thu Jul 18 15:19:51 EDT 2019
User: cochatt
Spectrometer: HR+D1059
Trigger mode: 1
Integration Time (sec): 1.000000E-1
Scans to average: 1
Electric dark correction enabled: true
Nonlinearity correction enabled: false
Boxcar width: 0
XAxis mode: Wavelengths
Number of Pixels in Spectrum: 2048
>>>>>Begin Spectral Data<<<<<
223.165	-20.5
223.4	-20.5
223.635	-20.5
223.869	-19.5
224.104	-8.5
224.338	3.5
224.573	-13.5
224.808	-1.5
225.042	-8.5
225.277	-5.5
225.511	-5.5
225.746	6.5
225.98	8.5
226.215	16.5
226.449	6.5
226.683	-1.5
226.918	12.5
227.152	30.5
227.387	44.5
227.621	44.5
227.856	34.5
228.09	32.5
228.324	51.5
228.559	58.5
228.793	63.5
229.027	86.5
229.262	101.5
229.496	117.5
229.73	112.5
229.964	138.5
230.199	119.5
230.433	111.5
230.667	102.5
230.901	111.5
231.136	123.5
231.37	107.5
231.604	110.5
231.838	111.5
232.072	119.5
232.306	112.5
232.541	126.5
232.775	114.5
233.009	116.5
233.243	103.5
233.477	114.5
233.711	105.5
233.945	124.5
234.179	120.5
234.413	118.5
234.647	123.5
234.881	118.5
235.115	111.5
235.349	122.5
235.583	116.5
235.817	116.5
236.051	118.5
236.285	125.5
236.519	117.5
236.753	105.5
236.987	134.5
237.221	168.5
237.455	196.5
237.689	190.5
237.922	133.5
238.156	123.5
238.39	120.5
238.624	121.5
238.858	117.5
239.091	125.5
239.325	128.5
239.559	120.5
239.793	123.5
240.027	126.5
240.26	131.5
240.494	146.5
240.728	145.5
240.961	150.5
241.195	156.5
241.429	142.5
241.662	134.5
241.896	136.5
242.13	144.5
242.363	134.5
242.597	133.5
242.83	136.5
243.064	134.5
243.298	138.5
243.531	137.5
243.765	134.5
243.998	152.5
244.232	140.5
244.465	134.5
244.699	155.5
244.932	135.5
245.166	142.5
245.399	147.5
245.633	146.5
245.866	159.5
246.099	148.5
246.333	151.5
246.566	142.5
246.8	151.5
247.033	160.5
247.266	162.5
247.5	157.5
247.733	169.5
247.966	163.5
248.2	171.5
248.433	192.5
248.666	173.5
248.899	180.5
249.133	196.5
249.366	199.5
249.599	194.5
249.832	186.5
250.066	179.5
250.299	180.5
250.532	187.5
250.765	212.5
250.998	229.5
251.231	250.5
251.465	206.5
251.698	210.5
251.931	215.5
252.164	202.5
252.397	217.5
252.63	215.5
252.863	209.5
253.096	235.5
253.329	234.5
253.562	222.5
253.795	227.5
254.028	231.5
254.261	219.5
254.494	255.5
254.727	269.5
254.96	278.5
255.193	282.5
255.426	252.5
255.659	246.5
255.892	245.5
256.124	232.5
256.357	227.5
256.59	234.5
256.823	229.5
257.056	229.5
257.289	223.5
257.521	226.5
257.754	227.5
257.987	219.5
258.22	222.5
258.452	205.5
258.685	218.5
258.918	223.5
259.151	212.5
259.383	208.5
259.616	241.5
259.849	225.5
260.081	250.5
260.314	264.5
260.547	266.5
260.779	281.5
261.012	234.5
261.244	244.5
261.477	226.5
261.71	242.5
261.942	243.5
262.175	229.5
262.407	223.5
262.64	234.5
262.872	222.5
263.105	213.5
263.337	213.5
263.57	234.5
263.802	236.5
264.035	222.5
264.267	207.5
264.499	221.5
264.732	224.5
264.964	235.5
265.197	221.5
265.429	227.5
265.661	219.5
265.894	227.5
266.126	205.5
266.358	209.5
266.591	224.5
266.823	242.5
267.055	227.5
267.287	225.5
267.52	231.5
267.752	230.5
267.984	231.5
268.216	209.5
268.448	236.5
268.681	248.5
268.913	268.5
269.145	297.5
269.377	295.5
269.609	298.5
269.841	281.5
270.073	295.5
270.306	323.5
270.538	322.5
270.77	342.5
271.002	320.5
271.234	335.5
271.466	313.5
271.698	326.5
271.93	318.5
272.162	323.5
272.394	338.5
272.626	325.5
272.858	314.5
273.09	286.5
273.322	306.5
273.553	287.5
273.785	287.5
274.017	282.5
274.249	275.5
274.481	289.5
274.713	274.5
274.945	280.5
275.176	284.5
275.408	285.5
275.64	286.5
275.872	297.5
276.104	279.5
276.335	282.5
276.567	290.5
276.799	306.5
277.031	313.5
277.262	334.5
277.494	314.5
277.726	332.5
277.957	298.5
278.189	309.5
278.421	282.5
278.652	297.5
278.884	288.5
279.115	302.5
279.347	274.5
279.579	275.5
279.81	284.5
280.042	272.5
280.273	294.5
280.505	274.5
280.736	266.5
280.968	267.5
281.199	277.5
281.431	265.5
281.662	271.5
281.894	288.5
282.125	291.5
282.356	291.5
282.588	323.5
282.819	319.5
283.051	308.5
283.282	275.5
283.513	283.5
283.745	293.5
283.976	292.5
284.207	299.5
284.439	298.5
284.67	284.5
284.901	284.5
285.132	291.5
285.364	297.5
285.595	299.5
285.826	284.5
286.057	307.5
286.288	295.5
286.52	290.5
286.751	288.5
286.982	281.5
287.213	287.5
287.444	293.5
287.675	291.5
287.906	304.5
288.138	318.5
288.369	340.5
288.6	325.5
288.831	313.5
289.062	315.5
289.293	315.5
289.524	305.5
289.755	308.5
289.986	302.5
290.217	292.5
290.448	299.5
290.679	295.5
290.91	306.5
291.141	310.5
291.371	295.5
291.602	314.5
291.833	314.5
292.064	312.5
292.295	306.5
292.526	295.5
292.757	298.5
292.987	301.5
293.218	294.5
293.449	306.5
293.68	303.5
293.91	299.5
294.141	299.5
294.372	322.5
294.603	317.5
294.833	318.5
295.064	325.5
295.295	317.5
295.525	314.5
295.756	326.5
295.987	328.5
296.217	339.5
296.448	330.5
296.679	313.5
296.909	289.5
297.14	301.5
297.37	310.5
297.601	320.5
297.831	315.5
298.062	314.5
298.292	316.5
298.523	333.5
298.753	309.5
298.984	333.5
299.214	336.5
299.445	324.5
299.675	326.5
299.905	341.5
300.136	313.5
300.366	332.5
300.597	324.5
300.827	337.5
301.057	345.5
301.288	336.5
301.518	342.5
301.748	351.5
301.979	353.5
302.209	333.5
302.439	346.5
302.669	323.5
302.9	338.5
303.13	348.5
303.36	346.5
303.59	341.5
303.82	346.5
304.051	350.5
304.281	330.5
304.511	347.5
304.741	351.5
304.971	354.5
305.201	326.5
305.431	328.5
305.661	353.5
305.891	314.5
306.121	338.5
306.352	336.5
306.582	355.5
306.812	343.5
307.042	355.5
307.272	348.5
307.502	350.5
307.731	373.5
307.961	359.5
308.191	339.5
308.421	339.5
308.651	353.5
308.881	357.5
309.111	341.5
309.341	371.5
309.571	392.5
309.8	366.5
310.03	382.5
310.26	396.5
310.49	376.5
310.72	386.5
310.949	384.5
311.179	403.5
311.409	375.5
311.639	387.5
311.868	381.5
312.098	398.5
312.328	409.5
312.557	394.5
312.787	428.5
313.017	418.5
313.246	391.5
313.476	418.5
313.706	394.5
313.935	386.5
314.165	390.5
314.394	411.5
314.624	399.5
314.853	411.5
315.083	384.5
315.312	400.5
315.542	382.5
315.771	377.5
316.001	408.5
316.23	407.5
316.46	399.5
316.689	377.5
316.919	393.5
317.148	396.5
317.377	408.5
317.607	393.5
317.836	398.5
318.065	403.5
318.295	394.5
318.524	392.5
318.753	390.5
318.983	395.5
319.212	395.5
319.441	400.5
319.67	401.5
319.9	413.5
320.129	403.5
320.358	388.5
320.587	423.5
320.816	403.5
321.046	405.5
321.275	398.5
321.504	411.5
321.733	412.5
321.962	421.5
322.191	444.5
322.42	437.5
322.649	482.5
322.878	468.5
323.108	475.5
323.337	493.5
323.566	509.5
323.795	534.5
324.024	591.5
324.253	709.5
324.482	1014.5
324.71	1497.5
324.939	1998.5
325.168	1667.5
325.397	902.5
325.626	620.5
325.855	536.5
326.084	527.5
326.313	520.5
326.542	518.5
326.77	560.5
326.999	663.5
327.228	894.5
327.457	1265.5
327.686	1487.5
327.914	1026.5
328.143	689.5
328.372	610.5
328.6	577.5
328.829	568.5
329.058	559.5
329.287	588.5
329.515	546.5
329.744	524.5
329.972	502.5
330.201	530.5
330.43	544.5
330.658	585.5
330.887	616.5
331.115	568.5
331.344	534.5
331.572	508.5
331.801	489.5
332.03	471.5
332.258	504.5
332.486	457.5
332.715	443.5
332.943	454.5
333.172	450.5
333.4	469.5
333.629	471.5
333.857	481.5
334.085	505.5
334.314	514.5
334.542	521.5
334.771	497.5
334.999	494.5
335.227	474.5
335.455	466.5
335.684	439.5
335.912	429.5
336.14	465.5
336.369	455.5
336.597	454.5
336.825	457.5
337.053	440.5
337.281	444.5
337.51	430.5
337.738	437.5
337.966	445.5
338.194	454.5
338.422	439.5
338.65	458.5
338.878	442.5
339.106	413.5
339.334	422.5
339.562	419.5
339.79	424.5
340.018	434.5
340.246	441.5
340.474	428.5
340.702	440.5
340.93	429.5
341.158	447.5
341.386	428.5
341.614	429.5
341.842	412.5
342.07	412.5
342.298	406.5
342.526	426.5
342.754	420.5
342.981	407.5
343.209	429.5
343.437	417.5
343.665	415.5
343.893	436.5
344.12	444.5
344.348	429.5
344.576	408.5
344.804	417.5
345.031	419.5
345.259	448.5
345.487	452.5
345.714	430.5
345.942	414.5
346.17	398.5
346.397	424.5
346.625	422.5
346.853	411.5
347.08	415.5
347.308	411.5
347.535	423.5
347.763	427.5
347.99	415.5
348.218	423.5
348.445	418.5
348.673	416.5
348.9	409.5
349.128	416.5
349.355	404.5
349.583	398.5
349.81	392.5
350.037	412.5
350.265	435.5
350.492	390.5
350.72	399.5
350.947	396.5
351.174	406.5
351.402	394.5
351.629	408.5
351.856	396.5
352.083	404.5
352.311	407.5
352.538	396.5
352.765	420.5
352.992	417.5
353.22	402.5
353.447	417.5
353.674	392.5
353.901	378.5
354.128	386.5
354.355	376.5
354.583	374.5
354.81	386.5
355.037	385.5
355.264	375.5
355.491	384.5
355.718	386.5
355.945	384.5
356.172	392.5
356.399	371.5
356.626	379.5
356.853	374.5
357.08	375.5
357.307	388.5
357.534	390.5
357.761	380.5
357.988	378.5
358.215	385.5
358.441	356.5
358.668	364.5
358.895	368.5
359.122	384.5
359.349	396.5
359.576	396.5
359.802	399.5
360.029	449.5
360.256	456.5
360.483	411.5
360.709	404.5
360.936	405.5
361.163	411.5
361.39	397.5
361.616	401.5
361.843	386.5
362.07	396.5
362.296	397.5
362.523	389.5
362.749	381.5
362.976	371.5
363.203	379.5
363.429	373.5
363.656	385.5
363.882	374.5
364.109	377.5
364.335	378.5
364.562	384.5
364.788	377.5
365.015	379.5
365.241	362.5
365.468	390.5
365.694	398.5
365.92	405.5
366.147	396.5
366.373	370.5
366.599	353.5
366.826	376.5
367.052	374.5
367.278	376.5
367.505	359.5
367.731	384.5
367.957	370.5
368.184	377.5
368.41	394.5
368.636	390.5
368.862	396.5
369.089	392.5
369.315	373.5
369.541	361.5
369.767	360.5
369.993	375.5
370.219	364.5
370.445	364.5
370.672	361.5
370.898	379.5
371.124	363.5
371.35	361.5
371.576	371.5
371.802	376.5
372.028	343.5
372.254	379.5
372.48	360.5
372.706	368.5
372.932	392.5
373.158	370.5
373.384	380.5
373.61	375.5
373.835	367.5
374.061	379.5
374.287	361.5
374.513	372.5
374.739	348.5
374.965	380.5
375.191	367.5
375.416	400.5
375.642	362.5
375.868	367.5
376.094	370.5
376.319	357.5
376.545	360.5
376.771	355.5
376.997	373.5
377.222	328.5
377.448	372.5
377.674	363.5
377.899	342.5
378.125	369.5
378.35	356.5
378.576	350.5
378.802	355.5
379.027	368.5
379.253	350.5
379.478	354.5
379.704	358.5
379.929	381.5
380.155	362.5
380.38	364.5
380.606	368.5
380.831	376.5
381.057	353.5
381.282	380.5
381.507	371.5
381.733	364.5
381.958	356.5
382.184	355.5
382.409	372.5
382.634	376.5
382.86	351.5
383.085	356.5
383.31	367.5
383.535	380.5
383.761	377.5
383.986	376.5
384.211	374.5
384.436	362.5
384.662	364.5
384.887	392.5
385.112	377.5
385.337	370.5
385.562	377.5
385.787	361.5
386.013	398.5
386.238	402.5
386.463	384.5
386.688	384.5
386.913	383.5
387.138	381.5
387.363	371.5
387.588	390.5
387.813	374.5
388.038	372.5
388.263	377.5
388.488	396.5
388.713	386.5
388.938	382.5
389.163	382.5
389.387	387.5
389.612	370.5
389.837	382.5
390.062	382.5
390.287	375.5
390.512	379.5
390.736	384.5
390.961	393.5
391.186	364.5
391.411	375.5
391.636	374.5
391.86	383.5
392.085	405.5
392.31	390.5
392.534	373.5
392.759	378.5
392.984	376.5
393.208	384.5
393.433	394.5
393.658	363.5
393.882	384.5
394.107	374.5
394.331	370.5
394.556	393.5
394.78	381.5
395.005	389.5
395.229	390.5
395.454	390.5
395.678	406.5
395.903	405.5
396.127	405.5
396.352	424.5
396.576	396.5
396.801	375.5
397.025	389.5
397.249	397.5
397.474	407.5
397.698	418.5
397.922	402.5
398.147	420.5
398.371	401.5
398.595	396.5
398.82	411.5
399.044	442.5
399.268	454.5
399.492	476.5
399.717	483.5
399.941	520.5
400.165	530.5
400.389	498.5
400.613	475.5
400.837	450.5
401.062	436.5
401.286	427.5
401.51	432.5
401.734	417.5
401.958	438.5
402.182	432.5
402.406	442.5
402.63	431.5
402.854	427.5
403.078	446.5
403.302	448.5
403.526	427.5
403.75	448.5
403.974	436.5
404.198	440.5
404.422	416.5
404.645	446.5
404.869	443.5
405.093	469.5
405.317	520.5
405.541	525.5
405.765	488.5
405.988	470.5
406.212	452.5
406.436	471.5
406.66	484.5
406.883	483.5
407.107	486.5
407.331	525.5
407.555	600.5
407.778	562.5
408.002	551.5
408.226	479.5
408.449	479.5
408.673	492.5
408.896	464.5
409.12	543.5
409.344	512.5
409.567	460.5
409.791	459.5
410.014	445.5
410.238	420.5
410.461	424.5
410.685	437.5
410.908	436.5
411.132	488.5
411.355	509.5
411.578	500.5
411.802	436.5
412.025	444.5
412.249	435.5
412.472	464.5
412.695	475.5
412.919	489.5
413.142	443.5
413.365	437.5
413.589	429.5
413.812	428.5
414.035	408.5
414.258	420.5
414.482	416.5
414.705	415.5
414.928	401.5
415.151	412.5
415.374	405.5
415.597	409.5
415.821	421.5
416.044	422.5
416.267	416.5
416.49	417.5
416.713	413.5
416.936	408.5
417.159	395.5
417.382	416.5
417.605	434.5
417.828	421.5
418.051	426.5
418.274	416.5
418.497	416.5
418.72	413.5
418.943	424.5
419.166	431.5
419.389	444.5
419.611	445.5
419.834	425.5
420.057	446.5
420.28	423.5
420.503	424.5
420.726	435.5
420.948	450.5
421.171	478.5
421.394	508.5
421.617	442.5
421.839	430.5
422.062	450.5
422.285	438.5
422.507	479.5
422.73	533.5
422.953	522.5
423.175	470.5
423.398	429.5
423.621	450.5
423.843	455.5
424.066	462.5
424.288	467.5
424.511	488.5
424.733	519.5
424.956	613.5
425.178	574.5
425.401	580.5
425.623	585.5
425.846	499.5
426.068	474.5
426.291	468.5
426.513	462.5
426.735	487.5
426.958	523.5
427.18	606.5
427.402	675.5
427.625	709.5
427.847	656.5
428.069	556.5
428.292	533.5
428.514	461.5
428.736	434.5
428.958	423.5
429.181	436.5
429.403	439.5
429.625	426.5
429.847	432.5
430.069	510.5
430.292	502.5
430.514	429.5
430.736	418.5
430.958	429.5
431.18	397.5
431.402	399.5
431.624	406.5
431.846	376.5
432.068	382.5
432.29	406.5
432.512	393.5
432.734	430.5
432.956	429.5
433.178	419.5
433.4	415.5
433.622	394.5
433.844	407.5
434.066	410.5
434.287	412.5
434.509	392.5
434.731	403.5
434.953	412.5
435.175	425.5
435.397	444.5
435.618	453.5
435.84	514.5
436.062	581.5
436.284	644.5
436.505	538.5
436.727	469.5
436.949	446.5
437.17	438.5
437.392	435.5
437.614	442.5
437.835	464.5
438.057	539.5
438.278	621.5
438.5	628.5
438.721	688.5
438.943	648.5
439.165	512.5
439.386	485.5
439.608	486.5
439.829	467.5
440.05	512.5
440.272	519.5
440.493	504.5
440.715	481.5
440.936	426.5
441.158	428.5
441.379	414.5
441.6	421.5
441.822	474.5
442.043	480.5
442.264	549.5
442.486	606.5
442.707	508.5
442.928	477.5
443.149	468.5
443.371	492.5
443.592	548.5
443.813	589.5
444.034	639.5
444.255	525.5
444.476	482.5
444.698	465.5
444.919	464.5
445.14	534.5
445.361	496.5
445.582	487.5
445.803	538.5
446.024	631.5
446.245	646.5
446.466	596.5
446.687	503.5
446.908	467.5
447.129	461.5
447.35	451.5
447.571	418.5
447.792	413.5
448.013	441.5
448.234	467.5
448.455	502.5
448.675	590.5
448.896	663.5
449.117	590.5
449.338	548.5
449.559	646.5
449.779	706.5
450	578.5
450.221	475.5
450.442	443.5
450.662	422.5
450.883	421.5
451.104	432.5
451.324	417.5
451.545	380.5
451.766	386.5
451.986	363.5
452.207	386.5
452.428	387.5
452.648	374.5
452.869	395.5
453.089	379.5
453.31	391.5
453.53	375.5
453.751	367.5
453.971	365.5
454.192	353.5
454.412	403.5
454.633	378.5
454.853	371.5
455.073	367.5
455.294	404.5
455.514	451.5
455.734	446.5
455.955	387.5
456.175	384.5
456.395	363.5
456.616	340.5
456.836	357.5
457.056	363.5
457.276	361.5
457.497	356.5
457.717	371.5
457.937	358.5
458.157	363.5
458.377	360.5
458.598	382.5
458.818	415.5
459.038	476.5
459.258	490.5
459.478	444.5
459.698	407.5
459.918	407.5
460.138	399.5
460.358	385.5
460.578	404.5
460.798	408.5
461.018	410.5
461.238	377.5
461.458	397.5
461.678	389.5
461.898	424.5
462.118	374.5
462.338	380.5
462.558	406.5
462.777	423.5
462.997	423.5
463.217	415.5
463.437	425.5
463.657	420.5
463.876	428.5
464.096	405.5
464.316	400.5
464.536	427.5
464.755	430.5
464.975	408.5
465.195	459.5
465.414	489.5
465.634	447.5
465.854	430.5
466.073	407.5
466.293	397.5
466.512	396.5
466.732	380.5
466.951	376.5
467.171	376.5
467.391	398.5
467.61	383.5
467.829	391.5
468.049	383.5
468.268	392.5
468.488	384.5
468.707	381.5
468.927	382.5
469.146	381.5
469.365	386.5
469.585	372.5
469.804	379.5
470.023	391.5
470.243	377.5
470.462	378.5
470.681	418.5
470.901	410.5
471.12	410.5
471.339	390.5
471.558	407.5
471.777	399.5
471.997	380.5
472.216	413.5
472.435	408.5
472.654	415.5
472.873	416.5
473.092	378.5
473.311	389.5
473.53	414.5
473.749	412.5
473.968	446.5
474.187	534.5
474.406	550.5
474.625	442.5
474.844	410.5
475.063	403.5
475.282	395.5
475.501	390.5
475.72	401.5
475.939	399.5
476.158	410.5
476.377	380.5
476.596	408.5
476.814	397.5
477.033	414.5
477.252	412.5
477.471	415.5
477.69	411.5
477.908	432.5
478.127	423.5
478.346	444.5
478.564	430.5
478.783	430.5
479.002	455.5
479.22	447.5
479.439	462.5
479.658	452.5
479.876	467.5
480.095	454.5
480.313	494.5
480.532	468.5
480.751	461.5
480.969	456.5
481.188	505.5
481.406	541.5
481.624	492.5
481.843	484.5
482.061	468.5
482.28	459.5
482.498	450.5
482.717	453.5
482.935	452.5
483.153	457.5
483.372	470.5
483.59	476.5
483.808	456.5
484.027	464.5
484.245	464.5
484.463	455.5
484.681	443.5
484.9	458.5
485.118	479.5
485.336	471.5
485.554	452.5
485.772	460.5
485.99	449.5
486.209	458.5
486.427	475.5
486.645	480.5
486.863	489.5
487.081	482.5
487.299	478.5
487.517	496.5
487.735	469.5
487.953	486.5
488.171	482.5
488.389	488.5
488.607	491.5
488.825	472.5
489.043	495.5
489.261	503.5
489.479	485.5
489.696	478.5
489.914	501.5
490.132	510.5
490.35	506.5
490.568	484.5
490.786	530.5
491.003	544.5
491.221	535.5
491.439	548.5
491.657	582.5
491.874	546.5
492.092	580.5
492.31	588.5
492.527	574.5
492.745	561.5
492.963	564.5
493.18	578.5
493.398	582.5
493.615	587.5
493.833	584.5
494.05	580.5
494.268	594.5
494.485	567.5
494.703	552.5
494.92	569.5
495.138	584.5
495.355	586.5
495.573	598.5
495.79	562.5
496.008	600.5
496.225	592.5
496.442	584.5
496.66	572.5
496.877	597.5
497.094	600.5
497.312	607.5
497.529	594.5
497.746	588.5
497.963	606.5
498.181	623.5
498.398	618.5
498.615	607.5
498.832	621.5
499.049	646.5
499.267	646.5
499.484	656.5
499.701	697.5
499.918	716.5
500.135	745.5
500.352	767.5
500.569	776.5
500.786	756.5
501.003	748.5
501.22	715.5
501.437	718.5
501.654	711.5
501.871	697.5
502.088	670.5
502.305	670.5
502.522	636.5
502.739	637.5
502.956	591.5
503.172	587.5
503.389	583.5
503.606	579.5
503.823	564.5
504.04	587.5
504.256	575.5
504.473	598.5
504.69	590.5
504.907	590.5
505.123	562.5
505.34	558.5
505.557	559.5
505.773	568.5
505.99	540.5
506.207	572.5
506.423	539.5
506.64	533.5
506.856	555.5
507.073	524.5
507.289	524.5
507.506	524.5
507.722	558.5
507.939	559.5
508.155	564.5
508.372	541.5
508.588	520.5
508.805	523.5
509.021	532.5
509.238	514.5
509.454	549.5
509.67	551.5
509.887	529.5
510.103	515.5
510.319	555.5
510.536	612.5
510.752	926.5
510.968	746.5
511.184	540.5
511.401	526.5
511.617	477.5
511.833	495.5
512.049	493.5
512.265	491.5
512.481	498.5
512.698	511.5
512.914	487.5
513.13	488.5
513.346	505.5
513.562	490.5
513.778	513.5
513.994	490.5
514.21	480.5
514.426	501.5
514.642	539.5
514.858	558.5
515.074	596.5
515.29	706.5
515.506	950.5
515.721	792.5
515.937	562.5
516.153	530.5
516.369	535.5
516.585	502.5
516.801	503.5
517.016	500.5
517.232	527.5
517.448	501.5
517.664	504.5
517.879	497.5
518.095	494.5
518.311	487.5
518.527	479.5
518.742	498.5
518.958	476.5
519.173	479.5
519.389	489.5
519.605	489.5
519.82	503.5
