Data from 1971.PennyLincolnUp.Lamp.En5.5.200Scan.071719.P1._HRD10591_15-19-16-841.txt Node
Date: Thu Jul 18 15:19:16 EDT 2019
User: cochatt
Spectrometer: HR+D1059
Trigger mode: 1
Integration Time (sec): 1.000000E-1
Scans to average: 1
Electric dark correction enabled: true
Nonlinearity correction enabled: false
Boxcar width: 0
XAxis mode: Wavelengths
Number of Pixels in Spectrum: 2048
>>>>>Begin Spectral Data<<<<<
223.165	-4.75
223.4	-4.75
223.635	-4.75
223.869	-14.75
224.104	-31.75
224.338	-14.75
224.573	-7.75
224.808	-12.75
225.042	-14.75
225.277	-4.75
225.511	-1.75
225.746	5.25
225.98	11.25
226.215	16.25
226.449	17.25
226.683	15.25
226.918	16.25
227.152	26.25
227.387	29.25
227.621	32.25
227.856	41.25
228.09	46.25
228.324	37.25
228.559	45.25
228.793	68.25
229.027	97.25
229.262	103.25
229.496	111.25
229.73	124.25
229.964	155.25
230.199	123.25
230.433	117.25
230.667	114.25
230.901	110.25
231.136	100.25
231.37	107.25
231.604	122.25
231.838	107.25
232.072	121.25
232.306	117.25
232.541	107.25
232.775	124.25
233.009	125.25
233.243	104.25
233.477	108.25
233.711	115.25
233.945	102.25
234.179	115.25
234.413	111.25
234.647	118.25
234.881	120.25
235.115	121.25
235.349	129.25
235.583	114.25
235.817	121.25
236.051	131.25
236.285	129.25
236.519	115.25
236.753	135.25
236.987	156.25
237.221	152.25
237.455	206.25
237.689	177.25
237.922	131.25
238.156	137.25
238.39	134.25
238.624	134.25
238.858	117.25
239.091	113.25
239.325	139.25
239.559	122.25
239.793	125.25
240.027	146.25
240.26	147.25
240.494	157.25
240.728	144.25
240.961	156.25
241.195	134.25
241.429	132.25
241.662	129.25
241.896	130.25
242.13	143.25
242.363	140.25
242.597	131.25
242.83	141.25
243.064	149.25
243.298	142.25
243.531	153.25
243.765	125.25
243.998	145.25
244.232	150.25
244.465	140.25
244.699	140.25
244.932	156.25
245.166	145.25
245.399	135.25
245.633	142.25
245.866	157.25
246.099	140.25
246.333	140.25
246.566	151.25
246.8	151.25
247.033	162.25
247.266	149.25
247.5	153.25
247.733	184.25
247.966	179.25
248.2	179.25
248.433	178.25
248.666	172.25
248.899	177.25
249.133	188.25
249.366	206.25
249.599	217.25
249.832	177.25
250.066	178.25
250.299	182.25
250.532	199.25
250.765	202.25
250.998	227.25
251.231	229.25
251.465	195.25
251.698	194.25
251.931	202.25
252.164	192.25
252.397	212.25
252.63	200.25
252.863	211.25
253.096	227.25
253.329	234.25
253.562	242.25
253.795	222.25
254.028	223.25
254.261	209.25
254.494	238.25
254.727	263.25
254.96	290.25
255.193	281.25
255.426	257.25
255.659	256.25
255.892	242.25
256.124	244.25
256.357	229.25
256.59	238.25
256.823	220.25
257.056	229.25
257.289	215.25
257.521	226.25
257.754	215.25
257.987	211.25
258.22	226.25
258.452	216.25
258.685	206.25
258.918	231.25
259.151	229.25
259.383	219.25
259.616	231.25
259.849	239.25
260.081	245.25
260.314	257.25
260.547	267.25
260.779	247.25
261.012	261.25
261.244	245.25
261.477	234.25
261.71	226.25
261.942	233.25
262.175	228.25
262.407	234.25
262.64	218.25
262.872	223.25
263.105	221.25
263.337	217.25
263.57	221.25
263.802	212.25
264.035	221.25
264.267	211.25
264.499	213.25
264.732	219.25
264.964	210.25
265.197	205.25
265.429	225.25
265.661	224.25
265.894	226.25
266.126	218.25
266.358	215.25
266.591	218.25
266.823	231.25
267.055	236.25
267.287	241.25
267.52	232.25
267.752	245.25
267.984	227.25
268.216	244.25
268.448	243.25
268.681	259.25
268.913	254.25
269.145	265.25
269.377	280.25
269.609	282.25
269.841	292.25
270.073	281.25
270.306	291.25
270.538	322.25
270.77	331.25
271.002	331.25
271.234	301.25
271.466	324.25
271.698	305.25
271.93	310.25
272.162	326.25
272.394	321.25
272.626	316.25
272.858	276.25
273.09	289.25
273.322	267.25
273.553	284.25
273.785	268.25
274.017	265.25
274.249	278.25
274.481	275.25
274.713	269.25
274.945	270.25
275.176	282.25
275.408	272.25
275.64	267.25
275.872	261.25
276.104	281.25
276.335	278.25
276.567	279.25
276.799	300.25
277.031	316.25
277.262	324.25
277.494	327.25
277.726	308.25
277.957	310.25
278.189	293.25
278.421	283.25
278.652	282.25
278.884	294.25
279.115	294.25
279.347	274.25
279.579	284.25
279.81	281.25
280.042	278.25
280.273	273.25
280.505	275.25
280.736	269.25
280.968	279.25
281.199	286.25
281.431	271.25
281.662	271.25
281.894	284.25
282.125	297.25
282.356	292.25
282.588	300.25
282.819	303.25
283.051	291.25
283.282	300.25
283.513	275.25
283.745	295.25
283.976	286.25
284.207	294.25
284.439	295.25
284.67	277.25
284.901	289.25
285.132	286.25
285.364	270.25
285.595	296.25
285.826	291.25
286.057	285.25
286.288	302.25
286.52	275.25
286.751	282.25
286.982	271.25
287.213	305.25
287.444	280.25
287.675	283.25
287.906	293.25
288.138	302.25
288.369	305.25
288.6	309.25
288.831	294.25
289.062	296.25
289.293	283.25
289.524	306.25
289.755	284.25
289.986	293.25
290.217	292.25
290.448	296.25
290.679	286.25
290.91	299.25
291.141	316.25
291.371	305.25
291.602	299.25
291.833	314.25
292.064	305.25
292.295	291.25
292.526	306.25
292.757	301.25
292.987	285.25
293.218	296.25
293.449	302.25
293.68	309.25
293.91	297.25
294.141	296.25
294.372	286.25
294.603	305.25
294.833	317.25
295.064	296.25
295.295	297.25
295.525	315.25
295.756	295.25
295.987	318.25
296.217	350.25
296.448	334.25
296.679	320.25
296.909	311.25
297.14	294.25
297.37	313.25
297.601	299.25
297.831	299.25
298.062	312.25
298.292	325.25
298.523	300.25
298.753	316.25
298.984	309.25
299.214	320.25
299.445	329.25
299.675	324.25
299.905	337.25
300.136	321.25
300.366	318.25
300.597	334.25
300.827	334.25
301.057	333.25
301.288	325.25
301.518	334.25
301.748	347.25
301.979	334.25
302.209	326.25
302.439	331.25
302.669	350.25
302.9	323.25
303.13	327.25
303.36	351.25
303.59	313.25
303.82	341.25
304.051	343.25
304.281	335.25
304.511	347.25
304.741	333.25
304.971	331.25
305.201	350.25
305.431	329.25
305.661	322.25
305.891	323.25
306.121	339.25
306.352	349.25
306.582	336.25
306.812	359.25
307.042	338.25
307.272	334.25
307.502	342.25
307.731	354.25
307.961	351.25
308.191	343.25
308.421	357.25
308.651	370.25
308.881	356.25
309.111	361.25
309.341	339.25
309.571	364.25
309.8	371.25
310.03	374.25
310.26	379.25
310.49	397.25
310.72	387.25
310.949	381.25
311.179	395.25
311.409	375.25
311.639	365.25
311.868	375.25
312.098	385.25
312.328	396.25
312.557	411.25
312.787	407.25
313.017	414.25
313.246	405.25
313.476	379.25
313.706	380.25
313.935	403.25
314.165	405.25
314.394	386.25
314.624	393.25
314.853	373.25
315.083	404.25
315.312	398.25
315.542	387.25
315.771	371.25
316.001	383.25
316.23	377.25
316.46	379.25
316.689	374.25
316.919	361.25
317.148	379.25
317.377	389.25
317.607	399.25
317.836	383.25
318.065	381.25
318.295	391.25
318.524	379.25
318.753	374.25
318.983	389.25
319.212	379.25
319.441	398.25
319.67	385.25
319.9	382.25
320.129	375.25
320.358	392.25
320.587	397.25
320.816	392.25
321.046	393.25
321.275	408.25
321.504	387.25
321.733	415.25
321.962	423.25
322.191	399.25
322.42	421.25
322.649	456.25
322.878	451.25
323.108	467.25
323.337	490.25
323.566	491.25
323.795	507.25
324.024	575.25
324.253	693.25
324.482	970.25
324.71	1467.25
324.939	1939.25
325.168	1655.25
325.397	885.25
325.626	602.25
325.855	521.25
326.084	505.25
326.313	506.25
326.542	511.25
326.77	523.25
326.999	635.25
327.228	859.25
327.457	1261.25
327.686	1433.25
327.914	981.25
328.143	693.25
328.372	596.25
328.6	558.25
328.829	546.25
329.058	549.25
329.287	547.25
329.515	524.25
329.744	498.25
329.972	493.25
330.201	519.25
330.43	559.25
330.658	563.25
330.887	585.25
331.115	549.25
331.344	505.25
331.572	479.25
331.801	475.25
332.03	470.25
332.258	458.25
332.486	435.25
332.715	452.25
332.943	448.25
333.172	455.25
333.4	469.25
333.629	478.25
333.857	473.25
334.085	469.25
334.314	463.25
334.542	506.25
334.771	518.25
334.999	487.25
335.227	459.25
335.455	443.25
335.684	473.25
335.912	436.25
336.14	426.25
336.369	437.25
336.597	431.25
336.825	444.25
337.053	441.25
337.281	425.25
337.51	449.25
337.738	446.25
337.966	433.25
338.194	444.25
338.422	426.25
338.65	422.25
338.878	419.25
339.106	435.25
339.334	421.25
339.562	414.25
339.79	425.25
340.018	423.25
340.246	413.25
340.474	421.25
340.702	435.25
340.93	416.25
341.158	426.25
341.386	410.25
341.614	417.25
341.842	399.25
342.07	419.25
342.298	400.25
342.526	418.25
342.754	410.25
342.981	393.25
343.209	389.25
343.437	410.25
343.665	415.25
343.893	409.25
344.12	416.25
344.348	406.25
344.576	425.25
344.804	433.25
345.031	425.25
345.259	429.25
345.487	430.25
345.714	435.25
345.942	418.25
346.17	401.25
346.397	410.25
346.625	420.25
346.853	400.25
347.08	403.25
347.308	401.25
347.535	392.25
347.763	416.25
347.99	404.25
348.218	411.25
348.445	421.25
348.673	397.25
348.9	399.25
349.128	405.25
349.355	393.25
349.583	397.25
349.81	398.25
350.037	387.25
350.265	399.25
350.492	397.25
350.72	390.25
350.947	385.25
351.174	378.25
351.402	401.25
351.629	402.25
351.856	391.25
352.083	398.25
352.311	415.25
352.538	395.25
352.765	412.25
352.992	404.25
353.22	381.25
353.447	374.25
353.674	389.25
353.901	382.25
354.128	390.25
354.355	383.25
354.583	341.25
354.81	381.25
355.037	384.25
355.264	345.25
355.491	377.25
355.718	362.25
355.945	351.25
356.172	365.25
356.399	361.25
356.626	378.25
356.853	375.25
357.08	375.25
357.307	372.25
357.534	378.25
357.761	377.25
357.988	388.25
358.215	376.25
358.441	372.25
358.668	374.25
358.895	373.25
359.122	379.25
359.349	402.25
359.576	383.25
359.802	420.25
360.029	419.25
360.256	423.25
360.483	417.25
360.709	375.25
360.936	396.25
361.163	387.25
361.39	391.25
361.616	388.25
361.843	379.25
362.07	376.25
362.296	380.25
362.523	378.25
362.749	391.25
362.976	396.25
363.203	374.25
363.429	389.25
363.656	395.25
363.882	374.25
364.109	357.25
364.335	360.25
364.562	377.25
364.788	375.25
365.015	366.25
365.241	377.25
365.468	379.25
365.694	393.25
365.92	379.25
366.147	365.25
366.373	380.25
366.599	363.25
366.826	373.25
367.052	385.25
367.278	354.25
367.505	379.25
367.731	375.25
367.957	363.25
368.184	369.25
368.41	356.25
368.636	381.25
368.862	377.25
369.089	369.25
369.315	373.25
369.541	363.25
369.767	363.25
369.993	378.25
370.219	353.25
370.445	373.25
370.672	358.25
370.898	368.25
371.124	351.25
371.35	397.25
371.576	357.25
371.802	370.25
372.028	357.25
372.254	367.25
372.48	351.25
372.706	347.25
372.932	357.25
373.158	349.25
373.384	389.25
373.61	357.25
373.835	377.25
374.061	358.25
374.287	367.25
374.513	350.25
374.739	365.25
374.965	388.25
375.191	366.25
375.416	362.25
375.642	380.25
375.868	361.25
376.094	379.25
376.319	372.25
376.545	372.25
376.771	358.25
376.997	357.25
377.222	360.25
377.448	356.25
377.674	356.25
377.899	334.25
378.125	342.25
378.35	356.25
378.576	363.25
378.802	360.25
379.027	357.25
379.253	372.25
379.478	351.25
379.704	360.25
379.929	346.25
380.155	361.25
380.38	368.25
380.606	361.25
380.831	363.25
381.057	371.25
381.282	349.25
381.507	353.25
381.733	363.25
381.958	358.25
382.184	356.25
382.409	360.25
382.634	364.25
382.86	372.25
383.085	371.25
383.31	362.25
383.535	373.25
383.761	353.25
383.986	369.25
384.211	364.25
384.436	359.25
384.662	372.25
384.887	371.25
385.112	352.25
385.337	359.25
385.562	374.25
385.787	371.25
386.013	381.25
386.238	398.25
386.463	380.25
386.688	389.25
386.913	388.25
387.138	382.25
387.363	389.25
387.588	363.25
387.813	395.25
388.038	384.25
388.263	366.25
388.488	367.25
388.713	373.25
388.938	368.25
389.163	396.25
389.387	389.25
389.612	363.25
389.837	377.25
390.062	360.25
390.287	358.25
390.512	360.25
390.736	380.25
390.961	361.25
391.186	375.25
391.411	386.25
391.636	399.25
391.86	378.25
392.085	389.25
392.31	383.25
392.534	389.25
392.759	385.25
392.984	385.25
393.208	397.25
393.433	394.25
393.658	367.25
393.882	350.25
394.107	379.25
394.331	383.25
394.556	370.25
394.78	373.25
395.005	364.25
395.229	394.25
395.454	381.25
395.678	382.25
395.903	387.25
396.127	411.25
396.352	400.25
396.576	389.25
396.801	391.25
397.025	393.25
397.249	401.25
397.474	389.25
397.698	385.25
397.922	406.25
398.147	415.25
398.371	407.25
398.595	413.25
398.82	407.25
399.044	417.25
399.268	434.25
399.492	453.25
399.717	476.25
399.941	497.25
400.165	510.25
400.389	512.25
400.613	470.25
400.837	441.25
401.062	431.25
401.286	414.25
401.51	422.25
401.734	403.25
401.958	431.25
402.182	411.25
402.406	424.25
402.63	449.25
402.854	432.25
403.078	419.25
403.302	407.25
403.526	447.25
403.75	440.25
403.974	410.25
404.198	426.25
404.422	448.25
404.645	427.25
404.869	449.25
405.093	466.25
405.317	490.25
405.541	525.25
405.765	478.25
405.988	458.25
406.212	460.25
406.436	470.25
406.66	485.25
406.883	454.25
407.107	470.25
407.331	513.25
407.555	579.25
407.778	573.25
408.002	506.25
408.226	456.25
408.449	467.25
408.673	498.25
408.896	482.25
409.12	503.25
409.344	526.25
409.567	445.25
409.791	431.25
410.014	428.25
410.238	423.25
410.461	414.25
410.685	453.25
410.908	459.25
411.132	499.25
411.355	490.25
411.578	476.25
411.802	429.25
412.025	430.25
412.249	420.25
412.472	457.25
412.695	480.25
412.919	465.25
413.142	452.25
413.365	423.25
413.589	401.25
413.812	399.25
414.035	413.25
414.258	399.25
414.482	402.25
414.705	391.25
414.928	408.25
415.151	412.25
415.374	378.25
415.597	391.25
415.821	393.25
416.044	385.25
416.267	408.25
416.49	423.25
416.713	381.25
416.936	390.25
417.159	408.25
417.382	389.25
417.605	419.25
417.828	415.25
418.051	414.25
418.274	426.25
418.497	424.25
418.72	404.25
418.943	387.25
419.166	423.25
419.389	433.25
419.611	415.25
419.834	418.25
420.057	435.25
420.28	412.25
420.503	417.25
420.726	433.25
420.948	433.25
421.171	458.25
421.394	482.25
421.617	446.25
421.839	415.25
422.062	439.25
422.285	450.25
422.507	475.25
422.73	552.25
422.953	515.25
423.175	463.25
423.398	431.25
423.621	442.25
423.843	443.25
424.066	475.25
424.288	446.25
424.511	444.25
424.733	493.25
424.956	568.25
425.178	541.25
425.401	554.25
425.623	564.25
425.846	465.25
426.068	454.25
426.291	437.25
426.513	453.25
426.735	457.25
426.958	500.25
427.18	565.25
427.402	661.25
427.625	724.25
427.847	620.25
428.069	566.25
428.292	491.25
428.514	462.25
428.736	443.25
428.958	442.25
429.181	419.25
429.403	424.25
429.625	423.25
429.847	461.25
430.069	499.25
430.292	508.25
430.514	441.25
430.736	412.25
430.958	435.25
431.18	410.25
431.402	384.25
431.624	409.25
431.846	394.25
432.068	378.25
432.29	382.25
432.512	379.25
432.734	395.25
432.956	395.25
433.178	404.25
433.4	401.25
433.622	391.25
433.844	396.25
434.066	383.25
434.287	383.25
434.509	393.25
434.731	390.25
434.953	413.25
435.175	415.25
435.397	419.25
435.618	440.25
435.84	507.25
436.062	587.25
436.284	596.25
436.505	509.25
436.727	457.25
436.949	424.25
437.17	439.25
437.392	418.25
437.614	440.25
437.835	454.25
438.057	518.25
438.278	621.25
438.5	621.25
438.721	684.25
438.943	645.25
439.165	513.25
439.386	468.25
439.608	468.25
439.829	456.25
440.05	501.25
440.272	537.25
440.493	501.25
440.715	439.25
440.936	439.25
441.158	441.25
441.379	411.25
441.6	445.25
441.822	455.25
442.043	506.25
442.264	537.25
442.486	567.25
442.707	511.25
442.928	469.25
443.149	478.25
443.371	483.25
443.592	516.25
443.813	589.25
444.034	626.25
444.255	530.25
444.476	473.25
444.698	460.25
444.919	444.25
445.14	569.25
445.361	501.25
445.582	501.25
445.803	543.25
446.024	635.25
446.245	626.25
446.466	565.25
446.687	469.25
446.908	463.25
447.129	424.25
447.35	426.25
447.571	410.25
447.792	413.25
448.013	422.25
448.234	417.25
448.455	485.25
448.675	584.25
448.896	667.25
449.117	577.25
449.338	557.25
449.559	603.25
449.779	693.25
450	538.25
450.221	463.25
450.442	425.25
450.662	423.25
450.883	415.25
451.104	406.25
451.324	422.25
451.545	407.25
451.766	376.25
451.986	369.25
452.207	373.25
452.428	363.25
452.648	369.25
452.869	383.25
453.089	393.25
453.31	375.25
453.53	379.25
453.751	382.25
453.971	374.25
454.192	389.25
454.412	374.25
454.633	381.25
454.853	387.25
455.073	361.25
455.294	386.25
455.514	435.25
455.734	443.25
455.955	375.25
456.175	356.25
456.395	358.25
456.616	342.25
456.836	345.25
457.056	356.25
457.276	342.25
457.497	373.25
457.717	356.25
457.937	356.25
458.157	332.25
458.377	376.25
458.598	373.25
458.818	411.25
459.038	499.25
459.258	483.25
459.478	425.25
459.698	392.25
459.918	373.25
460.138	395.25
460.358	388.25
460.578	381.25
460.798	383.25
461.018	381.25
461.238	389.25
461.458	394.25
461.678	391.25
461.898	379.25
462.118	407.25
462.338	399.25
462.558	385.25
462.777	413.25
462.997	395.25
463.217	412.25
463.437	415.25
463.657	424.25
463.876	417.25
464.096	399.25
464.316	388.25
464.536	423.25
464.755	413.25
464.975	413.25
465.195	451.25
465.414	493.25
465.634	435.25
465.854	423.25
466.073	392.25
466.293	383.25
466.512	375.25
466.732	384.25
466.951	386.25
467.171	386.25
467.391	382.25
467.61	395.25
467.829	387.25
468.049	375.25
468.268	396.25
468.488	394.25
468.707	375.25
468.927	375.25
469.146	360.25
469.365	363.25
469.585	382.25
469.804	391.25
470.023	388.25
470.243	372.25
470.462	374.25
470.681	418.25
470.901	391.25
471.12	383.25
471.339	391.25
471.558	396.25
471.777	373.25
471.997	369.25
472.216	376.25
472.435	410.25
472.654	390.25
472.873	379.25
473.092	361.25
473.311	369.25
473.53	385.25
473.749	383.25
473.968	398.25
474.187	512.25
474.406	528.25
474.625	439.25
474.844	409.25
475.063	398.25
475.282	374.25
475.501	396.25
475.72	377.25
475.939	396.25
476.158	390.25
476.377	392.25
476.596	391.25
476.814	385.25
477.033	382.25
477.252	407.25
477.471	424.25
477.69	393.25
477.908	401.25
478.127	428.25
478.346	426.25
478.564	421.25
478.783	426.25
479.002	445.25
479.22	437.25
479.439	440.25
479.658	451.25
479.876	460.25
480.095	461.25
480.313	481.25
480.532	466.25
480.751	474.25
480.969	458.25
481.188	484.25
481.406	528.25
481.624	470.25
481.843	476.25
482.061	433.25
482.28	433.25
482.498	437.25
482.717	424.25
482.935	437.25
483.153	449.25
483.372	451.25
483.59	421.25
483.808	449.25
484.027	435.25
484.245	463.25
484.463	453.25
484.681	447.25
484.9	452.25
485.118	462.25
485.336	464.25
485.554	455.25
485.772	455.25
485.99	436.25
486.209	467.25
486.427	448.25
486.645	469.25
486.863	476.25
487.081	478.25
487.299	477.25
487.517	459.25
487.735	500.25
487.953	495.25
488.171	484.25
488.389	457.25
488.607	472.25
488.825	458.25
489.043	481.25
489.261	494.25
489.479	469.25
489.696	479.25
489.914	484.25
490.132	493.25
490.35	483.25
490.568	486.25
490.786	525.25
491.003	519.25
491.221	539.25
491.439	525.25
491.657	533.25
491.874	542.25
492.092	554.25
492.31	549.25
492.527	558.25
492.745	586.25
492.963	555.25
493.18	534.25
493.398	550.25
493.615	559.25
493.833	555.25
494.05	562.25
494.268	566.25
494.485	558.25
494.703	545.25
494.92	561.25
495.138	542.25
495.355	577.25
495.573	574.25
495.79	571.25
496.008	576.25
496.225	568.25
496.442	577.25
496.66	581.25
496.877	579.25
497.094	577.25
497.312	580.25
497.529	597.25
497.746	602.25
497.963	589.25
498.181	598.25
498.398	625.25
498.615	611.25
498.832	633.25
499.049	622.25
499.267	635.25
499.484	642.25
499.701	661.25
499.918	683.25
500.135	725.25
500.352	737.25
500.569	741.25
500.786	742.25
501.003	726.25
501.22	710.25
501.437	694.25
501.654	691.25
501.871	673.25
