Data from 1971.PennyLincolnUp.Lamp.En5.5.200Scan.071719.P1.Scan 2. Changed Angle._HRD10591_15-22-57-842.txt Node
Date: Thu Jul 18 15:22:57 EDT 2019
User: cochatt
Spectrometer: HR+D1059
Trigger mode: 1
Integration Time (sec): 1.000000E-1
Scans to average: 1
Electric dark correction enabled: true
Nonlinearity correction enabled: false
Boxcar width: 0
XAxis mode: Wavelengths
Number of Pixels in Spectrum: 2048
>>>>>Begin Spectral Data<<<<<
223.165	-15.62
223.4	-15.62
223.635	-15.62
223.869	-13.62
224.104	-29.62
224.338	-15.62
224.573	-14.62
224.808	-4.62
225.042	6.38
225.277	-15.62
225.511	-7.62
225.746	6.38
225.98	15.38
226.215	7.38
226.449	11.38
226.683	26.38
226.918	25.38
227.152	18.38
227.387	28.38
227.621	35.38
227.856	41.38
228.09	34.38
228.324	61.38
228.559	55.38
228.793	57.38
229.027	110.38
229.262	119.38
229.496	104.38
229.73	134.38
229.964	167.38
230.199	141.38
230.433	129.38
230.667	101.38
230.901	115.38
231.136	124.38
231.37	118.38
231.604	117.38
231.838	105.38
232.072	119.38
232.306	123.38
232.541	104.38
232.775	111.38
233.009	104.38
233.243	121.38
233.477	121.38
233.711	112.38
233.945	113.38
234.179	119.38
234.413	116.38
234.647	98.38
234.881	108.38
235.115	117.38
235.349	108.38
235.583	126.38
235.817	123.38
236.051	115.38
236.285	112.38
236.519	120.38
236.753	130.38
236.987	141.38
237.221	191.38
237.455	245.38
237.689	194.38
237.922	154.38
238.156	129.38
238.39	120.38
238.624	131.38
238.858	114.38
239.091	111.38
239.325	128.38
239.559	136.38
239.793	123.38
240.027	133.38
240.26	136.38
240.494	154.38
240.728	151.38
240.961	142.38
241.195	148.38
241.429	135.38
241.662	127.38
241.896	129.38
242.13	131.38
242.363	132.38
242.597	138.38
242.83	128.38
243.064	125.38
243.298	127.38
243.531	139.38
243.765	144.38
243.998	147.38
244.232	131.38
244.465	131.38
244.699	138.38
244.932	133.38
245.166	155.38
245.399	132.38
245.633	154.38
245.866	137.38
246.099	148.38
246.333	167.38
246.566	153.38
246.8	142.38
247.033	140.38
247.266	148.38
247.5	162.38
247.733	168.38
247.966	163.38
248.2	161.38
248.433	154.38
248.666	165.38
248.899	181.38
249.133	198.38
249.366	208.38
249.599	204.38
249.832	172.38
250.066	187.38
250.299	180.38
250.532	198.38
250.765	195.38
250.998	221.38
251.231	246.38
251.465	222.38
251.698	205.38
251.931	210.38
252.164	199.38
252.397	214.38
252.63	210.38
252.863	189.38
253.096	215.38
253.329	240.38
253.562	228.38
253.795	202.38
254.028	236.38
254.261	232.38
254.494	220.38
254.727	267.38
254.96	266.38
255.193	256.38
255.426	251.38
255.659	258.38
255.892	232.38
256.124	240.38
256.357	229.38
256.59	216.38
256.823	213.38
257.056	211.38
257.289	217.38
257.521	223.38
257.754	194.38
257.987	204.38
258.22	206.38
258.452	210.38
258.685	202.38
258.918	181.38
259.151	204.38
259.383	215.38
259.616	204.38
259.849	217.38
260.081	228.38
260.314	236.38
260.547	263.38
260.779	255.38
261.012	227.38
261.244	218.38
261.477	219.38
261.71	196.38
261.942	211.38
262.175	220.38
262.407	238.38
262.64	209.38
262.872	189.38
263.105	189.38
263.337	205.38
263.57	210.38
263.802	207.38
264.035	201.38
264.267	205.38
264.499	201.38
264.732	203.38
264.964	188.38
265.197	184.38
265.429	213.38
265.661	193.38
265.894	197.38
266.126	208.38
266.358	218.38
266.591	208.38
266.823	208.38
267.055	222.38
267.287	215.38
267.52	187.38
267.752	200.38
267.984	187.38
268.216	196.38
268.448	226.38
268.681	230.38
268.913	228.38
269.145	240.38
269.377	257.38
269.609	269.38
269.841	256.38
270.073	260.38
270.306	273.38
270.538	294.38
270.77	301.38
271.002	288.38
271.234	281.38
271.466	277.38
271.698	301.38
271.93	291.38
272.162	300.38
272.394	295.38
272.626	285.38
272.858	261.38
273.09	267.38
273.322	250.38
273.553	259.38
273.785	245.38
274.017	247.38
274.249	244.38
274.481	239.38
274.713	253.38
274.945	249.38
275.176	237.38
275.408	235.38
275.64	245.38
275.872	235.38
276.104	235.38
276.335	261.38
276.567	249.38
276.799	261.38
277.031	271.38
277.262	291.38
277.494	312.38
277.726	273.38
277.957	260.38
278.189	266.38
278.421	249.38
278.652	255.38
278.884	259.38
279.115	240.38
279.347	227.38
279.579	235.38
279.81	237.38
280.042	255.38
280.273	254.38
280.505	242.38
280.736	251.38
280.968	252.38
281.199	235.38
281.431	230.38
281.662	230.38
281.894	227.38
282.125	258.38
282.356	265.38
282.588	276.38
282.819	282.38
283.051	245.38
283.282	241.38
283.513	236.38
283.745	228.38
283.976	257.38
284.207	271.38
284.439	259.38
284.67	243.38
284.901	251.38
285.132	245.38
285.364	243.38
285.595	245.38
285.826	220.38
286.057	251.38
286.288	235.38
286.52	234.38
286.751	235.38
286.982	240.38
287.213	241.38
287.444	262.38
287.675	255.38
287.906	261.38
288.138	267.38
288.369	255.38
288.6	270.38
288.831	261.38
289.062	277.38
289.293	269.38
289.524	262.38
289.755	240.38
289.986	257.38
290.217	264.38
290.448	265.38
290.679	271.38
290.91	247.38
291.141	262.38
291.371	255.38
291.602	251.38
291.833	254.38
292.064	252.38
292.295	246.38
292.526	250.38
292.757	275.38
292.987	268.38
293.218	256.38
293.449	261.38
293.68	245.38
293.91	262.38
294.141	248.38
294.372	250.38
294.603	262.38
294.833	255.38
295.064	259.38
295.295	269.38
295.525	261.38
295.756	277.38
295.987	272.38
296.217	293.38
296.448	300.38
296.679	284.38
296.909	262.38
297.14	252.38
297.37	241.38
297.601	257.38
297.831	268.38
298.062	263.38
298.292	272.38
298.523	266.38
298.753	279.38
298.984	239.38
299.214	283.38
299.445	276.38
299.675	277.38
299.905	267.38
300.136	278.38
300.366	263.38
300.597	277.38
300.827	280.38
301.057	281.38
301.288	281.38
301.518	304.38
301.748	283.38
301.979	292.38
302.209	274.38
302.439	309.38
302.669	293.38
302.9	293.38
303.13	281.38
303.36	298.38
303.59	281.38
303.82	313.38
304.051	297.38
304.281	268.38
304.511	299.38
304.741	276.38
304.971	285.38
305.201	284.38
305.431	292.38
305.661	258.38
305.891	290.38
306.121	296.38
306.352	303.38
306.582	295.38
306.812	298.38
307.042	281.38
307.272	300.38
307.502	285.38
307.731	288.38
307.961	295.38
308.191	289.38
308.421	282.38
308.651	295.38
308.881	288.38
309.111	312.38
309.341	280.38
309.571	293.38
309.8	307.38
310.03	320.38
310.26	319.38
310.49	341.38
310.72	338.38
310.949	338.38
311.179	345.38
311.409	321.38
311.639	342.38
311.868	349.38
312.098	329.38
312.328	351.38
312.557	357.38
312.787	376.38
313.017	371.38
313.246	355.38
313.476	342.38
313.706	348.38
313.935	335.38
314.165	345.38
314.394	367.38
314.624	374.38
314.853	334.38
315.083	352.38
315.312	328.38
315.542	339.38
315.771	326.38
316.001	340.38
316.23	336.38
316.46	322.38
316.689	341.38
316.919	349.38
317.148	355.38
317.377	351.38
317.607	353.38
317.836	331.38
318.065	345.38
318.295	359.38
318.524	350.38
318.753	351.38
318.983	353.38
319.212	344.38
319.441	356.38
319.67	357.38
319.9	354.38
320.129	325.38
320.358	330.38
320.587	343.38
320.816	354.38
321.046	371.38
321.275	353.38
321.504	373.38
321.733	363.38
321.962	371.38
322.191	375.38
322.42	400.38
322.649	410.38
322.878	409.38
323.108	421.38
323.337	451.38
323.566	471.38
323.795	502.38
324.024	559.38
324.253	671.38
324.482	960.38
324.71	1535.38
324.939	2195.38
325.168	1873.38
325.397	991.38
325.626	657.38
325.855	545.38
326.084	489.38
326.313	475.38
326.542	473.38
326.77	513.38
326.999	605.38
327.228	869.38
327.457	1332.38
327.686	1657.38
327.914	1076.38
328.143	730.38
328.372	615.38
328.6	550.38
328.829	526.38
329.058	557.38
329.287	544.38
329.515	515.38
329.744	476.38
329.972	476.38
330.201	500.38
330.43	521.38
330.658	567.38
330.887	611.38
331.115	582.38
331.344	469.38
331.572	471.38
331.801	477.38
332.03	457.38
332.258	431.38
332.486	429.38
332.715	388.38
332.943	404.38
333.172	400.38
333.4	419.38
333.629	409.38
333.857	426.38
334.085	425.38
334.314	454.38
334.542	481.38
334.771	505.38
334.999	454.38
335.227	420.38
335.455	418.38
335.684	402.38
335.912	406.38
336.14	390.38
336.369	406.38
336.597	414.38
336.825	391.38
337.053	399.38
337.281	395.38
337.51	398.38
337.738	397.38
337.966	394.38
338.194	418.38
338.422	397.38
338.65	397.38
338.878	396.38
339.106	407.38
339.334	379.38
339.562	387.38
339.79	379.38
340.018	384.38
340.246	405.38
340.474	407.38
340.702	398.38
340.93	386.38
341.158	387.38
341.386	385.38
341.614	412.38
341.842	390.38
342.07	396.38
342.298	385.38
342.526	361.38
342.754	373.38
342.981	367.38
343.209	386.38
343.437	367.38
343.665	384.38
343.893	365.38
344.12	387.38
344.348	376.38
344.576	378.38
344.804	402.38
345.031	408.38
345.259	431.38
345.487	425.38
345.714	411.38
345.942	389.38
346.17	393.38
346.397	382.38
346.625	379.38
346.853	397.38
347.08	364.38
347.308	417.38
347.535	397.38
347.763	384.38
347.99	417.38
348.218	371.38
348.445	411.38
348.673	411.38
348.9	388.38
349.128	373.38
349.355	360.38
349.583	380.38
349.81	357.38
350.037	334.38
350.265	378.38
350.492	374.38
350.72	379.38
350.947	393.38
351.174	383.38
351.402	401.38
351.629	403.38
351.856	385.38
352.083	411.38
352.311	402.38
352.538	421.38
352.765	427.38
352.992	409.38
353.22	404.38
353.447	394.38
353.674	379.38
353.901	375.38
354.128	360.38
354.355	373.38
354.583	363.38
354.81	375.38
355.037	363.38
355.264	364.38
355.491	370.38
355.718	351.38
355.945	341.38
356.172	355.38
356.399	374.38
356.626	359.38
356.853	343.38
357.08	380.38
357.307	377.38
357.534	353.38
357.761	358.38
357.988	364.38
358.215	371.38
358.441	357.38
358.668	368.38
358.895	372.38
359.122	380.38
359.349	392.38
359.576	401.38
359.802	410.38
360.029	442.38
360.256	462.38
360.483	427.38
360.709	403.38
360.936	396.38
361.163	401.38
361.39	414.38
361.616	409.38
361.843	384.38
362.07	389.38
362.296	415.38
362.523	383.38
362.749	391.38
362.976	393.38
363.203	382.38
363.429	353.38
363.656	367.38
363.882	377.38
364.109	381.38
364.335	387.38
364.562	401.38
364.788	401.38
365.015	381.38
365.241	389.38
365.468	396.38
365.694	396.38
365.92	386.38
366.147	386.38
366.373	365.38
366.599	357.38
366.826	392.38
367.052	393.38
367.278	389.38
367.505	374.38
367.731	373.38
367.957	378.38
368.184	366.38
368.41	373.38
368.636	386.38
368.862	398.38
369.089	394.38
369.315	380.38
369.541	380.38
369.767	362.38
369.993	386.38
370.219	393.38
370.445	377.38
370.672	377.38
370.898	363.38
371.124	370.38
371.35	392.38
371.576	383.38
371.802	366.38
372.028	375.38
372.254	357.38
372.48	381.38
372.706	365.38
372.932	365.38
373.158	381.38
373.384	377.38
373.61	386.38
373.835	373.38
374.061	373.38
374.287	384.38
374.513	388.38
374.739	372.38
374.965	387.38
375.191	381.38
375.416	383.38
375.642	379.38
375.868	373.38
376.094	377.38
376.319	359.38
376.545	373.38
376.771	383.38
376.997	373.38
377.222	390.38
377.448	370.38
377.674	383.38
377.899	387.38
378.125	376.38
378.35	387.38
378.576	404.38
378.802	371.38
379.027	369.38
379.253	376.38
379.478	367.38
379.704	374.38
379.929	380.38
380.155	369.38
380.38	405.38
380.606	385.38
380.831	368.38
381.057	391.38
381.282	391.38
381.507	399.38
381.733	406.38
381.958	374.38
382.184	378.38
382.409	404.38
382.634	387.38
382.86	361.38
383.085	379.38
383.31	383.38
383.535	392.38
383.761	387.38
383.986	383.38
384.211	384.38
384.436	413.38
384.662	385.38
384.887	395.38
385.112	397.38
385.337	419.38
385.562	391.38
385.787	396.38
386.013	407.38
386.238	415.38
386.463	421.38
386.688	417.38
386.913	412.38
387.138	406.38
387.363	390.38
387.588	415.38
387.813	428.38
388.038	410.38
388.263	395.38
388.488	417.38
388.713	404.38
388.938	415.38
389.163	415.38
389.387	415.38
389.612	415.38
389.837	404.38
390.062	398.38
390.287	413.38
390.512	395.38
390.736	392.38
390.961	394.38
391.186	387.38
391.411	408.38
391.636	409.38
391.86	423.38
392.085	403.38
392.31	422.38
392.534	417.38
392.759	411.38
392.984	418.38
393.208	402.38
393.433	431.38
393.658	440.38
393.882	425.38
394.107	398.38
394.331	398.38
394.556	389.38
394.78	392.38
395.005	429.38
395.229	411.38
395.454	425.38
395.678	415.38
395.903	439.38
396.127	462.38
396.352	445.38
396.576	435.38
396.801	444.38
397.025	451.38
397.249	436.38
397.474	438.38
397.698	442.38
397.922	436.38
398.147	455.38
398.371	452.38
398.595	440.38
398.82	490.38
399.044	462.38
399.268	477.38
399.492	483.38
399.717	528.38
399.941	562.38
400.165	569.38
400.389	577.38
400.613	525.38
400.837	507.38
401.062	465.38
401.286	469.38
401.51	477.38
401.734	468.38
401.958	476.38
402.182	480.38
402.406	495.38
402.63	486.38
402.854	475.38
403.078	490.38
403.302	481.38
403.526	503.38
403.75	475.38
403.974	458.38
404.198	474.38
404.422	488.38
404.645	477.38
404.869	489.38
405.093	526.38
405.317	577.38
405.541	584.38
405.765	547.38
405.988	541.38
406.212	515.38
406.436	545.38
406.66	546.38
406.883	546.38
407.107	552.38
407.331	576.38
407.555	660.38
407.778	651.38
408.002	591.38
408.226	544.38
408.449	543.38
408.673	534.38
408.896	569.38
409.12	611.38
409.344	577.38
409.567	525.38
409.791	503.38
410.014	526.38
410.238	522.38
410.461	496.38
410.685	516.38
410.908	515.38
411.132	553.38
411.355	602.38
411.578	571.38
411.802	517.38
412.025	491.38
412.249	507.38
412.472	483.38
412.695	559.38
412.919	556.38
413.142	515.38
413.365	505.38
413.589	478.38
413.812	495.38
414.035	467.38
414.258	481.38
414.482	473.38
414.705	492.38
414.928	470.38
415.151	456.38
415.374	462.38
415.597	480.38
415.821	473.38
416.044	472.38
416.267	487.38
416.49	473.38
416.713	463.38
416.936	456.38
417.159	461.38
417.382	460.38
417.605	490.38
417.828	503.38
418.051	515.38
418.274	475.38
418.497	489.38
418.72	508.38
418.943	474.38
419.166	489.38
419.389	523.38
419.611	520.38
419.834	490.38
420.057	513.38
420.28	501.38
420.503	490.38
420.726	494.38
420.948	515.38
421.171	561.38
421.394	585.38
421.617	549.38
421.839	533.38
422.062	505.38
422.285	533.38
422.507	588.38
422.73	659.38
422.953	624.38
423.175	561.38
423.398	533.38
423.621	519.38
423.843	543.38
424.066	547.38
424.288	522.38
424.511	577.38
424.733	637.38
424.956	706.38
425.178	679.38
425.401	671.38
425.623	684.38
425.846	597.38
426.068	555.38
426.291	564.38
426.513	557.38
426.735	593.38
426.958	628.38
427.18	722.38
427.402	811.38
427.625	919.38
427.847	839.38
428.069	693.38
428.292	624.38
428.514	560.38
428.736	541.38
428.958	516.38
429.181	551.38
429.403	509.38
429.625	537.38
429.847	559.38
430.069	620.38
430.292	610.38
430.514	549.38
430.736	505.38
430.958	524.38
431.18	502.38
431.402	514.38
431.624	456.38
431.846	486.38
432.068	485.38
432.29	495.38
432.512	469.38
432.734	495.38
432.956	479.38
433.178	514.38
433.4	516.38
433.622	515.38
433.844	490.38
434.066	474.38
434.287	499.38
434.509	482.38
434.731	514.38
434.953	506.38
435.175	522.38
435.397	541.38
435.618	577.38
435.84	624.38
436.062	699.38
436.284	750.38
436.505	637.38
436.727	593.38
436.949	581.38
437.17	529.38
437.392	524.38
437.614	538.38
437.835	580.38
438.057	663.38
438.278	755.38
438.5	778.38
438.721	841.38
438.943	810.38
439.165	645.38
439.386	599.38
439.608	593.38
439.829	575.38
440.05	601.38
440.272	664.38
440.493	615.38
440.715	571.38
440.936	539.38
441.158	540.38
441.379	517.38
441.6	532.38
441.822	559.38
442.043	607.38
442.264	670.38
442.486	735.38
442.707	631.38
442.928	579.38
443.149	582.38
443.371	600.38
443.592	646.38
443.813	723.38
444.034	796.38
444.255	664.38
444.476	595.38
444.698	531.38
444.919	585.38
445.14	676.38
445.361	633.38
445.582	629.38
445.803	652.38
446.024	787.38
446.245	798.38
446.466	718.38
446.687	620.38
446.908	588.38
447.129	531.38
447.35	533.38
447.571	534.38
447.792	525.38
448.013	554.38
448.234	568.38
448.455	615.38
448.675	693.38
448.896	821.38
449.117	704.38
449.338	666.38
449.559	773.38
449.779	849.38
450	721.38
450.221	583.38
450.442	523.38
450.662	531.38
450.883	516.38
451.104	559.38
451.324	546.38
451.545	511.38
451.766	477.38
451.986	493.38
452.207	472.38
452.428	488.38
452.648	447.38
452.869	451.38
453.089	483.38
453.31	478.38
453.53	491.38
453.751	468.38
453.971	477.38
454.192	520.38
454.412	477.38
454.633	478.38
454.853	467.38
455.073	484.38
455.294	511.38
455.514	561.38
455.734	538.38
455.955	468.38
456.175	448.38
456.395	455.38
456.616	452.38
456.836	442.38
457.056	443.38
457.276	425.38
457.497	447.38
457.717	423.38
457.937	446.38
458.157	456.38
458.377	468.38
458.598	483.38
458.818	534.38
459.038	643.38
459.258	642.38
459.478	526.38
459.698	503.38
459.918	483.38
460.138	477.38
460.358	477.38
460.578	471.38
460.798	476.38
461.018	493.38
461.238	481.38
461.458	464.38
461.678	468.38
461.898	475.38
462.118	463.38
462.338	483.38
462.558	486.38
462.777	493.38
462.997	522.38
463.217	517.38
463.437	529.38
463.657	484.38
463.876	478.38
464.096	515.38
464.316	513.38
464.536	515.38
464.755	508.38
464.975	512.38
465.195	580.38
465.414	651.38
465.634	573.38
465.854	533.38
466.073	521.38
466.293	497.38
466.512	458.38
466.732	484.38
466.951	455.38
467.171	477.38
467.391	489.38
467.61	492.38
467.829	479.38
468.049	472.38
468.268	502.38
468.488	470.38
468.707	460.38
468.927	449.38
469.146	484.38
469.365	470.38
469.585	461.38
469.804	498.38
470.023	505.38
470.243	491.38
470.462	498.38
470.681	517.38
470.901	515.38
471.12	488.38
471.339	499.38
471.558	479.38
471.777	483.38
471.997	475.38
472.216	475.38
472.435	519.38
472.654	508.38
472.873	490.38
473.092	473.38
473.311	480.38
473.53	475.38
473.749	487.38
473.968	527.38
474.187	647.38
474.406	702.38
474.625	539.38
474.844	527.38
475.063	492.38
475.282	515.38
475.501	488.38
475.72	475.38
475.939	475.38
476.158	481.38
476.377	495.38
476.596	481.38
476.814	511.38
477.033	529.38
477.252	510.38
477.471	492.38
477.69	511.38
477.908	508.38
478.127	517.38
478.346	536.38
478.564	517.38
478.783	529.38
479.002	539.38
479.22	577.38
479.439	544.38
479.658	547.38
479.876	592.38
480.095	577.38
480.313	607.38
480.532	604.38
480.751	584.38
480.969	610.38
481.188	632.38
481.406	677.38
481.624	632.38
481.843	616.38
482.061	574.38
482.28	567.38
482.498	585.38
482.717	582.38
482.935	592.38
483.153	580.38
483.372	588.38
483.59	582.38
483.808	572.38
484.027	572.38
484.245	583.38
484.463	576.38
484.681	593.38
484.9	584.38
485.118	608.38
485.336	577.38
485.554	597.38
485.772	603.38
485.99	604.38
486.209	613.38
486.427	628.38
486.645	619.38
486.863	636.38
487.081	641.38
487.299	644.38
487.517	613.38
487.735	638.38
487.953	635.38
488.171	639.38
488.389	627.38
488.607	630.38
488.825	649.38
489.043	617.38
489.261	635.38
489.479	669.38
489.696	640.38
489.914	649.38
490.132	668.38
490.35	663.38
490.568	679.38
490.786	676.38
491.003	699.38
491.221	691.38
491.439	714.38
491.657	729.38
491.874	730.38
492.092	744.38
492.31	762.38
492.527	748.38
492.745	729.38
492.963	723.38
493.18	715.38
493.398	738.38
493.615	757.38
493.833	754.38
494.05	745.38
494.268	743.38
494.485	759.38
494.703	758.38
494.92	743.38
495.138	769.38
495.355	754.38
495.573	772.38
495.79	761.38
496.008	739.38
496.225	743.38
496.442	753.38
496.66	767.38
496.877	741.38
497.094	743.38
497.312	765.38
497.529	782.38
497.746	768.38
497.963	775.38
498.181	837.38
498.398	796.38
498.615	822.38
498.832	826.38
499.049	823.38
499.267	819.38
499.484	840.38
499.701	872.38
499.918	874.38
500.135	919.38
500.352	972.38
500.569	946.38
500.786	952.38
501.003	944.38
501.22	922.38
501.437	906.38
501.654	905.38
