Data from 1971.PennyLincolnUp.Lamp.En5.5.200Scan.071719.P1._HRD10591_15-19-32-841.txt Node
Date: Thu Jul 18 15:19:32 EDT 2019
User: cochatt
Spectrometer: HR+D1059
Trigger mode: 1
Integration Time (sec): 1.000000E-1
Scans to average: 1
Electric dark correction enabled: true
Nonlinearity correction enabled: false
Boxcar width: 0
XAxis mode: Wavelengths
Number of Pixels in Spectrum: 2048
>>>>>Begin Spectral Data<<<<<
223.165	-18.81
223.4	-18.81
223.635	-18.81
223.869	-3.81
224.104	-20.81
224.338	-17.81
224.573	-11.81
224.808	-16.81
225.042	-21.81
225.277	-18.81
225.511	10.19
225.746	6.19
225.98	7.19
226.215	11.19
226.449	12.19
226.683	21.19
226.918	22.19
227.152	40.19
227.387	44.19
227.621	28.19
227.856	35.19
228.09	45.19
228.324	50.19
228.559	56.19
228.793	60.19
229.027	97.19
229.262	94.19
229.496	112.19
229.73	121.19
229.964	134.19
230.199	114.19
230.433	121.19
230.667	101.19
230.901	104.19
231.136	114.19
231.37	96.19
231.604	111.19
231.838	107.19
232.072	99.19
232.306	107.19
232.541	117.19
232.775	114.19
233.009	120.19
233.243	111.19
233.477	116.19
233.711	118.19
233.945	114.19
234.179	122.19
234.413	111.19
234.647	102.19
234.881	118.19
235.115	99.19
235.349	120.19
235.583	124.19
235.817	114.19
236.051	122.19
236.285	124.19
236.519	115.19
236.753	139.19
236.987	162.19
237.221	178.19
237.455	203.19
237.689	165.19
237.922	142.19
238.156	106.19
238.39	127.19
238.624	114.19
238.858	121.19
239.091	110.19
239.325	126.19
239.559	107.19
239.793	130.19
240.027	134.19
240.26	140.19
240.494	136.19
240.728	170.19
240.961	136.19
241.195	138.19
241.429	136.19
241.662	133.19
241.896	118.19
242.13	151.19
242.363	142.19
242.597	142.19
242.83	134.19
243.064	121.19
243.298	135.19
243.531	147.19
243.765	149.19
243.998	139.19
244.232	150.19
244.465	134.19
244.699	154.19
244.932	140.19
245.166	137.19
245.399	155.19
245.633	154.19
245.866	146.19
246.099	152.19
246.333	154.19
246.566	147.19
246.8	156.19
247.033	155.19
247.266	164.19
247.5	165.19
247.733	168.19
247.966	174.19
248.2	163.19
248.433	172.19
248.666	179.19
248.899	196.19
249.133	197.19
249.366	214.19
249.599	189.19
249.832	172.19
250.066	185.19
250.299	191.19
250.532	189.19
250.765	199.19
250.998	222.19
251.231	233.19
251.465	209.19
251.698	224.19
251.931	194.19
252.164	200.19
252.397	216.19
252.63	207.19
252.863	203.19
253.096	212.19
253.329	246.19
253.562	230.19
253.795	219.19
254.028	226.19
254.261	234.19
254.494	229.19
254.727	259.19
254.96	308.19
255.193	264.19
255.426	248.19
255.659	243.19
255.892	234.19
256.124	250.19
256.357	235.19
256.59	224.19
256.823	231.19
257.056	230.19
257.289	224.19
257.521	234.19
257.754	218.19
257.987	213.19
258.22	215.19
258.452	215.19
258.685	230.19
258.918	213.19
259.151	230.19
259.383	224.19
259.616	217.19
259.849	243.19
260.081	245.19
260.314	262.19
260.547	254.19
260.779	260.19
261.012	242.19
261.244	248.19
261.477	235.19
261.71	226.19
261.942	229.19
262.175	259.19
262.407	238.19
262.64	201.19
262.872	230.19
263.105	227.19
263.337	205.19
263.57	216.19
263.802	218.19
264.035	231.19
264.267	212.19
264.499	208.19
264.732	212.19
264.964	214.19
265.197	245.19
265.429	224.19
265.661	233.19
265.894	214.19
266.126	225.19
266.358	238.19
266.591	208.19
266.823	256.19
267.055	233.19
267.287	246.19
267.52	222.19
267.752	250.19
267.984	243.19
268.216	244.19
268.448	238.19
268.681	235.19
268.913	258.19
269.145	254.19
269.377	279.19
269.609	289.19
269.841	270.19
270.073	280.19
270.306	304.19
270.538	315.19
270.77	322.19
271.002	313.19
271.234	293.19
271.466	301.19
271.698	312.19
271.93	334.19
272.162	314.19
272.394	318.19
272.626	313.19
272.858	294.19
273.09	296.19
273.322	288.19
273.553	271.19
273.785	259.19
274.017	278.19
274.249	281.19
274.481	275.19
274.713	272.19
274.945	274.19
275.176	285.19
275.408	285.19
275.64	277.19
275.872	284.19
276.104	291.19
276.335	293.19
276.567	274.19
276.799	279.19
277.031	306.19
277.262	301.19
277.494	327.19
277.726	302.19
277.957	296.19
278.189	298.19
278.421	280.19
278.652	267.19
278.884	280.19
279.115	281.19
279.347	272.19
279.579	266.19
279.81	269.19
280.042	283.19
280.273	256.19
280.505	273.19
280.736	270.19
280.968	270.19
281.199	279.19
281.431	277.19
281.662	276.19
281.894	266.19
282.125	283.19
282.356	280.19
282.588	299.19
282.819	325.19
283.051	296.19
283.282	284.19
283.513	293.19
283.745	287.19
283.976	287.19
284.207	307.19
284.439	297.19
284.67	288.19
284.901	285.19
285.132	290.19
285.364	299.19
285.595	288.19
285.826	280.19
286.057	289.19
286.288	295.19
286.52	292.19
286.751	283.19
286.982	278.19
287.213	280.19
287.444	294.19
287.675	297.19
287.906	302.19
288.138	304.19
288.369	308.19
288.6	314.19
288.831	317.19
289.062	312.19
289.293	306.19
289.524	287.19
289.755	295.19
289.986	296.19
290.217	296.19
290.448	319.19
290.679	312.19
290.91	298.19
291.141	280.19
291.371	306.19
291.602	301.19
291.833	314.19
292.064	307.19
292.295	298.19
292.526	301.19
292.757	325.19
292.987	298.19
293.218	304.19
293.449	310.19
293.68	293.19
293.91	309.19
294.141	299.19
294.372	306.19
294.603	301.19
294.833	306.19
295.064	315.19
295.295	312.19
295.525	301.19
295.756	309.19
295.987	315.19
296.217	327.19
296.448	316.19
296.679	301.19
296.909	296.19
297.14	322.19
297.37	306.19
297.601	297.19
297.831	310.19
298.062	318.19
298.292	326.19
298.523	331.19
298.753	324.19
298.984	300.19
299.214	297.19
299.445	306.19
299.675	327.19
299.905	329.19
300.136	317.19
300.366	314.19
300.597	321.19
300.827	323.19
301.057	320.19
301.288	338.19
301.518	347.19
301.748	336.19
301.979	343.19
302.209	333.19
302.439	349.19
302.669	352.19
302.9	327.19
303.13	333.19
303.36	348.19
303.59	344.19
303.82	337.19
304.051	342.19
304.281	344.19
304.511	348.19
304.741	340.19
304.971	339.19
305.201	340.19
305.431	362.19
305.661	330.19
305.891	330.19
306.121	334.19
306.352	341.19
306.582	347.19
306.812	341.19
307.042	328.19
307.272	333.19
307.502	339.19
307.731	322.19
307.961	352.19
308.191	353.19
308.421	331.19
308.651	328.19
308.881	363.19
309.111	356.19
309.341	363.19
309.571	347.19
309.8	334.19
310.03	381.19
310.26	374.19
310.49	361.19
310.72	372.19
310.949	388.19
311.179	380.19
311.409	395.19
311.639	367.19
311.868	385.19
312.098	376.19
312.328	380.19
312.557	387.19
312.787	414.19
313.017	400.19
313.246	401.19
313.476	383.19
313.706	382.19
313.935	382.19
314.165	396.19
314.394	410.19
314.624	388.19
314.853	370.19
315.083	380.19
315.312	406.19
315.542	382.19
315.771	395.19
316.001	388.19
316.23	382.19
316.46	388.19
316.689	399.19
316.919	381.19
317.148	374.19
317.377	397.19
317.607	379.19
317.836	388.19
318.065	378.19
318.295	397.19
318.524	386.19
318.753	367.19
318.983	374.19
319.212	387.19
319.441	372.19
319.67	391.19
319.9	382.19
320.129	382.19
320.358	379.19
320.587	411.19
320.816	400.19
321.046	428.19
321.275	401.19
321.504	402.19
321.733	415.19
321.962	396.19
322.191	430.19
322.42	435.19
322.649	446.19
322.878	445.19
323.108	453.19
323.337	468.19
323.566	477.19
323.795	531.19
324.024	580.19
324.253	689.19
324.482	999.19
324.71	1407.19
324.939	1940.19
325.168	1634.19
325.397	850.19
325.626	584.19
325.855	535.19
326.084	505.19
326.313	480.19
326.542	509.19
326.77	533.19
326.999	635.19
327.228	867.19
327.457	1252.19
327.686	1424.19
327.914	971.19
328.143	656.19
328.372	596.19
328.6	564.19
328.829	565.19
329.058	563.19
329.287	534.19
329.515	533.19
329.744	494.19
329.972	487.19
330.201	499.19
330.43	564.19
330.658	551.19
330.887	574.19
331.115	551.19
331.344	507.19
331.572	466.19
331.801	489.19
332.03	482.19
332.258	474.19
332.486	455.19
332.715	443.19
332.943	450.19
333.172	454.19
333.4	459.19
333.629	451.19
333.857	460.19
334.085	492.19
334.314	511.19
334.542	501.19
334.771	515.19
334.999	491.19
335.227	470.19
335.455	447.19
335.684	446.19
335.912	450.19
336.14	446.19
336.369	447.19
336.597	435.19
336.825	447.19
337.053	435.19
337.281	420.19
337.51	423.19
337.738	449.19
337.966	442.19
338.194	423.19
338.422	455.19
338.65	434.19
338.878	423.19
339.106	425.19
339.334	426.19
339.562	428.19
339.79	427.19
340.018	437.19
340.246	416.19
340.474	427.19
340.702	436.19
340.93	413.19
341.158	404.19
341.386	408.19
341.614	422.19
341.842	429.19
342.07	402.19
342.298	410.19
342.526	425.19
342.754	407.19
342.981	413.19
343.209	399.19
343.437	411.19
343.665	419.19
343.893	429.19
344.12	435.19
344.348	436.19
344.576	426.19
344.804	426.19
345.031	459.19
345.259	438.19
345.487	420.19
345.714	431.19
345.942	411.19
346.17	397.19
346.397	392.19
346.625	423.19
346.853	399.19
347.08	382.19
347.308	391.19
347.535	402.19
347.763	411.19
347.99	430.19
348.218	403.19
348.445	388.19
348.673	403.19
348.9	403.19
349.128	415.19
349.355	379.19
349.583	403.19
349.81	380.19
350.037	392.19
350.265	377.19
350.492	380.19
350.72	389.19
350.947	401.19
351.174	419.19
351.402	415.19
351.629	422.19
351.856	406.19
352.083	401.19
352.311	407.19
352.538	395.19
352.765	401.19
352.992	406.19
353.22	407.19
353.447	401.19
353.674	398.19
353.901	368.19
354.128	368.19
354.355	365.19
354.583	395.19
354.81	392.19
355.037	357.19
355.264	374.19
355.491	366.19
355.718	379.19
355.945	346.19
356.172	354.19
356.399	379.19
356.626	352.19
356.853	364.19
357.08	372.19
357.307	371.19
357.534	355.19
357.761	366.19
357.988	382.19
358.215	363.19
358.441	376.19
358.668	388.19
358.895	373.19
359.122	378.19
359.349	398.19
359.576	386.19
359.802	427.19
360.029	426.19
360.256	444.19
360.483	432.19
360.709	393.19
360.936	391.19
361.163	401.19
361.39	391.19
361.616	380.19
361.843	370.19
362.07	379.19
362.296	381.19
362.523	387.19
362.749	412.19
362.976	376.19
363.203	370.19
363.429	366.19
363.656	377.19
363.882	378.19
364.109	379.19
364.335	371.19
364.562	375.19
364.788	360.19
365.015	374.19
365.241	392.19
365.468	392.19
365.694	374.19
365.92	380.19
366.147	377.19
366.373	365.19
366.599	372.19
366.826	373.19
367.052	361.19
367.278	347.19
367.505	372.19
367.731	370.19
367.957	371.19
368.184	376.19
368.41	386.19
368.636	379.19
368.862	377.19
369.089	376.19
369.315	359.19
369.541	360.19
369.767	366.19
369.993	360.19
370.219	386.19
370.445	380.19
370.672	377.19
370.898	366.19
371.124	358.19
371.35	361.19
371.576	367.19
371.802	352.19
372.028	359.19
372.254	360.19
372.48	346.19
372.706	361.19
372.932	361.19
373.158	369.19
373.384	370.19
373.61	376.19
373.835	391.19
374.061	364.19
374.287	367.19
374.513	358.19
374.739	373.19
374.965	370.19
375.191	378.19
375.416	360.19
375.642	372.19
375.868	358.19
376.094	366.19
376.319	352.19
376.545	351.19
376.771	368.19
376.997	359.19
377.222	345.19
377.448	338.19
377.674	355.19
377.899	361.19
378.125	359.19
378.35	346.19
378.576	358.19
378.802	360.19
379.027	363.19
379.253	349.19
379.478	360.19
379.704	348.19
379.929	350.19
380.155	342.19
380.38	353.19
380.606	350.19
380.831	359.19
381.057	372.19
381.282	353.19
381.507	370.19
381.733	371.19
381.958	352.19
382.184	380.19
382.409	338.19
382.634	348.19
382.86	365.19
383.085	365.19
383.31	377.19
383.535	372.19
383.761	373.19
383.986	367.19
384.211	359.19
384.436	375.19
384.662	370.19
384.887	384.19
385.112	351.19
385.337	378.19
385.562	367.19
385.787	399.19
386.013	384.19
386.238	403.19
386.463	400.19
386.688	380.19
386.913	382.19
387.138	385.19
387.363	376.19
387.588	370.19
387.813	363.19
388.038	376.19
388.263	396.19
388.488	391.19
388.713	368.19
388.938	400.19
389.163	382.19
389.387	388.19
389.612	377.19
389.837	371.19
390.062	362.19
390.287	369.19
390.512	366.19
390.736	386.19
390.961	380.19
391.186	376.19
391.411	387.19
391.636	376.19
391.86	394.19
392.085	397.19
392.31	387.19
392.534	392.19
392.759	368.19
392.984	399.19
393.208	388.19
393.433	376.19
393.658	384.19
393.882	386.19
394.107	364.19
394.331	384.19
394.556	358.19
394.78	378.19
395.005	377.19
395.229	380.19
395.454	399.19
395.678	384.19
395.903	382.19
396.127	422.19
396.352	414.19
396.576	385.19
396.801	386.19
397.025	398.19
397.249	396.19
397.474	370.19
397.698	408.19
397.922	407.19
398.147	419.19
398.371	415.19
398.595	404.19
398.82	395.19
399.044	423.19
399.268	429.19
399.492	455.19
399.717	474.19
399.941	494.19
400.165	511.19
400.389	507.19
400.613	481.19
400.837	456.19
401.062	435.19
401.286	405.19
401.51	438.19
401.734	418.19
401.958	406.19
402.182	434.19
402.406	443.19
402.63	424.19
402.854	433.19
403.078	428.19
403.302	441.19
403.526	427.19
403.75	409.19
403.974	423.19
404.198	421.19
404.422	422.19
404.645	423.19
404.869	435.19
405.093	450.19
405.317	502.19
405.541	524.19
405.765	471.19
405.988	472.19
406.212	480.19
406.436	458.19
406.66	477.19
406.883	476.19
407.107	483.19
407.331	514.19
407.555	550.19
407.778	556.19
408.002	499.19
408.226	484.19
408.449	482.19
408.673	469.19
408.896	483.19
409.12	505.19
409.344	520.19
409.567	463.19
409.791	440.19
410.014	412.19
410.238	446.19
410.461	459.19
410.685	447.19
410.908	470.19
411.132	455.19
411.355	490.19
411.578	476.19
411.802	412.19
412.025	446.19
412.249	451.19
412.472	454.19
412.695	493.19
412.919	463.19
413.142	433.19
413.365	439.19
413.589	418.19
413.812	420.19
414.035	404.19
414.258	410.19
414.482	425.19
414.705	393.19
414.928	387.19
415.151	423.19
415.374	418.19
415.597	403.19
415.821	397.19
416.044	401.19
416.267	390.19
416.49	382.19
416.713	400.19
416.936	428.19
417.159	418.19
417.382	419.19
417.605	399.19
417.828	431.19
418.051	426.19
418.274	412.19
418.497	405.19
418.72	389.19
418.943	402.19
419.166	414.19
419.389	438.19
419.611	436.19
419.834	422.19
420.057	418.19
420.28	412.19
420.503	429.19
420.726	425.19
420.948	444.19
421.171	464.19
421.394	492.19
421.617	448.19
421.839	430.19
422.062	426.19
422.285	452.19
422.507	471.19
422.73	538.19
422.953	510.19
423.175	463.19
423.398	443.19
423.621	427.19
423.843	459.19
424.066	459.19
424.288	446.19
424.511	501.19
424.733	519.19
424.956	587.19
425.178	572.19
425.401	527.19
425.623	551.19
425.846	489.19
426.068	454.19
426.291	467.19
426.513	452.19
426.735	468.19
426.958	483.19
427.18	555.19
427.402	641.19
427.625	723.19
427.847	654.19
428.069	543.19
428.292	508.19
428.514	456.19
428.736	425.19
428.958	438.19
429.181	422.19
429.403	436.19
429.625	450.19
429.847	450.19
430.069	519.19
430.292	498.19
430.514	427.19
430.736	426.19
430.958	425.19
431.18	418.19
431.402	425.19
431.624	386.19
431.846	395.19
432.068	399.19
432.29	388.19
432.512	412.19
432.734	399.19
432.956	388.19
433.178	408.19
433.4	409.19
433.622	394.19
433.844	402.19
434.066	378.19
434.287	387.19
434.509	384.19
434.731	407.19
434.953	421.19
435.175	434.19
435.397	448.19
435.618	465.19
435.84	499.19
436.062	560.19
436.284	604.19
436.505	522.19
436.727	460.19
436.949	444.19
437.17	442.19
437.392	428.19
437.614	430.19
437.835	481.19
438.057	544.19
438.278	634.19
438.5	628.19
438.721	660.19
438.943	612.19
439.165	494.19
439.386	468.19
439.608	464.19
439.829	455.19
440.05	467.19
440.272	530.19
440.493	474.19
440.715	449.19
440.936	407.19
441.158	428.19
441.379	414.19
441.6	441.19
441.822	446.19
442.043	476.19
442.264	564.19
442.486	558.19
442.707	501.19
442.928	472.19
443.149	451.19
443.371	481.19
443.592	538.19
443.813	591.19
444.034	615.19
444.255	484.19
444.476	476.19
444.698	479.19
444.919	449.19
445.14	573.19
445.361	521.19
445.582	494.19
445.803	566.19
446.024	635.19
446.245	604.19
446.466	581.19
446.687	504.19
446.908	463.19
447.129	430.19
447.35	429.19
447.571	433.19
447.792	424.19
448.013	423.19
448.234	440.19
448.455	479.19
448.675	583.19
448.896	666.19
449.117	574.19
449.338	524.19
449.559	614.19
449.779	700.19
450	570.19
450.221	474.19
450.442	416.19
450.662	401.19
450.883	430.19
451.104	410.19
451.324	414.19
451.545	411.19
451.766	418.19
451.986	380.19
452.207	374.19
452.428	364.19
452.648	388.19
452.869	390.19
453.089	379.19
453.31	386.19
453.53	374.19
453.751	382.19
453.971	386.19
454.192	378.19
454.412	373.19
454.633	367.19
454.853	365.19
455.073	370.19
455.294	401.19
455.514	450.19
455.734	426.19
455.955	375.19
456.175	358.19
456.395	358.19
456.616	346.19
456.836	342.19
457.056	346.19
457.276	339.19
457.497	353.19
457.717	358.19
457.937	359.19
458.157	372.19
458.377	364.19
458.598	379.19
458.818	408.19
459.038	467.19
459.258	495.19
459.478	416.19
459.698	395.19
459.918	385.19
460.138	389.19
460.358	383.19
460.578	388.19
460.798	373.19
461.018	414.19
461.238	396.19
461.458	384.19
461.678	388.19
461.898	409.19
462.118	372.19
462.338	407.19
462.558	397.19
462.777	429.19
462.997	406.19
463.217	408.19
463.437	427.19
463.657	400.19
463.876	412.19
464.096	403.19
464.316	420.19
464.536	397.19
464.755	443.19
464.975	424.19
465.195	439.19
465.414	495.19
465.634	447.19
465.854	409.19
466.073	391.19
466.293	392.19
466.512	366.19
466.732	368.19
466.951	378.19
467.171	386.19
467.391	399.19
467.61	387.19
467.829	409.19
468.049	403.19
468.268	379.19
468.488	377.19
468.707	365.19
468.927	362.19
469.146	381.19
469.365	378.19
469.585	371.19
469.804	382.19
470.023	410.19
470.243	384.19
470.462	392.19
470.681	391.19
470.901	397.19
471.12	394.19
471.339	390.19
471.558	399.19
471.777	387.19
471.997	382.19
472.216	396.19
472.435	423.19
472.654	401.19
472.873	375.19
473.092	384.19
473.311	379.19
473.53	394.19
473.749	413.19
473.968	444.19
474.187	519.19
474.406	518.19
474.625	422.19
474.844	410.19
475.063	385.19
475.282	414.19
475.501	386.19
475.72	406.19
475.939	386.19
476.158	391.19
476.377	398.19
476.596	391.19
476.814	407.19
477.033	410.19
477.252	387.19
477.471	416.19
477.69	392.19
477.908	417.19
478.127	422.19
478.346	415.19
478.564	399.19
478.783	421.19
479.002	421.19
479.22	436.19
479.439	438.19
479.658	424.19
479.876	441.19
480.095	459.19
480.313	492.19
480.532	466.19
480.751	443.19
480.969	468.19
481.188	488.19
481.406	498.19
481.624	479.19
481.843	466.19
482.061	454.19
482.28	458.19
482.498	458.19
482.717	451.19
482.935	445.19
483.153	429.19
483.372	453.19
483.59	450.19
483.808	455.19
484.027	433.19
484.245	429.19
484.463	439.19
484.681	439.19
484.9	448.19
485.118	456.19
485.336	437.19
485.554	440.19
485.772	468.19
485.99	455.19
486.209	468.19
486.427	439.19
486.645	487.19
486.863	491.19
487.081	478.19
487.299	480.19
487.517	458.19
487.735	466.19
487.953	479.19
488.171	489.19
488.389	479.19
488.607	478.19
488.825	502.19
489.043	487.19
489.261	490.19
489.479	468.19
489.696	484.19
489.914	491.19
490.132	492.19
490.35	490.19
490.568	519.19
490.786	524.19
491.003	524.19
491.221	540.19
491.439	555.19
491.657	556.19
491.874	555.19
492.092	552.19
492.31	579.19
492.527	544.19
492.745	554.19
492.963	566.19
493.18	552.19
493.398	565.19
493.615	550.19
493.833	559.19
494.05	559.19
494.268	563.19
494.485	548.19
494.703	539.19
494.92	582.19
495.138	564.19
495.355	565.19
495.573	555.19
495.79	564.19
496.008	554.19
496.225	552.19
496.442	556.19
496.66	551.19
496.877	574.19
497.094	552.19
497.312	572.19
497.529	581.19
497.746	599.19
497.963	580.19
498.181	587.19
498.398	622.19
498.615	634.19
498.832	637.19
499.049	637.19
499.267	636.19
499.484	680.19
499.701	679.19
499.918	677.19
500.135	718.19
500.352	747.19
500.569	747.19
500.786	739.19
501.003	760.19
501.22	724.19
501.437	702.19
501.654	732.19
501.871	696.19
