Data from 1971.PennyLincolnUp.Lamp.En5.5.200Scan.071719.P1.Scan 2. Changed Angle._HRD10591_15-22-31-841.txt Node
Date: Thu Jul 18 15:22:31 EDT 2019
User: cochatt
Spectrometer: HR+D1059
Trigger mode: 1
Integration Time (sec): 1.000000E-1
Scans to average: 1
Electric dark correction enabled: true
Nonlinearity correction enabled: false
Boxcar width: 0
XAxis mode: Wavelengths
Number of Pixels in Spectrum: 2048
>>>>>Begin Spectral Data<<<<<
223.165	-22.12
223.4	-22.12
223.635	-22.12
223.869	-27.12
224.104	-14.12
224.338	-18.12
224.573	-2.12
224.808	-11.12
225.042	0.88
225.277	-3.12
225.511	-0.12
225.746	6.88
225.98	-7.12
226.215	5.88
226.449	19.88
226.683	11.88
226.918	34.88
227.152	24.88
227.387	30.88
227.621	32.88
227.856	40.88
228.09	45.88
228.324	45.88
228.559	38.88
228.793	60.88
229.027	73.88
229.262	88.88
229.496	96.88
229.73	121.88
229.964	126.88
230.199	104.88
230.433	113.88
230.667	102.88
230.901	119.88
231.136	105.88
231.37	100.88
231.604	107.88
231.838	107.88
232.072	108.88
232.306	102.88
232.541	101.88
232.775	99.88
233.009	109.88
233.243	97.88
233.477	106.88
233.711	111.88
233.945	113.88
234.179	103.88
234.413	113.88
234.647	117.88
234.881	115.88
235.115	102.88
235.349	98.88
235.583	102.88
235.817	107.88
236.051	103.88
236.285	124.88
236.519	110.88
236.753	122.88
236.987	134.88
237.221	174.88
237.455	190.88
237.689	158.88
237.922	114.88
238.156	125.88
238.39	116.88
238.624	114.88
238.858	117.88
239.091	116.88
239.325	110.88
239.559	121.88
239.793	125.88
240.027	115.88
240.26	121.88
240.494	127.88
240.728	134.88
240.961	129.88
241.195	122.88
241.429	119.88
241.662	124.88
241.896	121.88
242.13	125.88
242.363	112.88
242.597	119.88
242.83	126.88
243.064	126.88
243.298	123.88
243.531	132.88
243.765	111.88
243.998	125.88
244.232	137.88
244.465	134.88
244.699	128.88
244.932	127.88
245.166	121.88
245.399	122.88
245.633	130.88
245.866	135.88
246.099	136.88
246.333	125.88
246.566	131.88
246.8	146.88
247.033	146.88
247.266	128.88
247.5	137.88
247.733	160.88
247.966	165.88
248.2	161.88
248.433	170.88
248.666	155.88
248.899	161.88
249.133	168.88
249.366	180.88
249.599	171.88
249.832	171.88
250.066	162.88
250.299	163.88
250.532	165.88
250.765	180.88
250.998	181.88
251.231	201.88
251.465	185.88
251.698	189.88
251.931	189.88
252.164	164.88
252.397	159.88
252.63	145.88
252.863	179.88
253.096	197.88
253.329	194.88
253.562	199.88
253.795	192.88
254.028	181.88
254.261	183.88
254.494	190.88
254.727	222.88
254.96	238.88
255.193	214.88
255.426	200.88
255.659	184.88
255.892	197.88
256.124	179.88
256.357	209.88
256.59	198.88
256.823	181.88
257.056	173.88
257.289	180.88
257.521	184.88
257.754	180.88
257.987	173.88
258.22	184.88
258.452	170.88
258.685	188.88
258.918	169.88
259.151	187.88
259.383	185.88
259.616	182.88
259.849	183.88
260.081	186.88
260.314	206.88
260.547	219.88
260.779	199.88
261.012	200.88
261.244	190.88
261.477	186.88
261.71	185.88
261.942	193.88
262.175	194.88
262.407	180.88
262.64	183.88
262.872	167.88
263.105	162.88
263.337	163.88
263.57	164.88
263.802	180.88
264.035	181.88
264.267	166.88
264.499	178.88
264.732	181.88
264.964	173.88
265.197	184.88
265.429	174.88
265.661	176.88
265.894	159.88
266.126	182.88
266.358	163.88
266.591	181.88
266.823	195.88
267.055	192.88
267.287	180.88
267.52	180.88
267.752	175.88
267.984	175.88
268.216	182.88
268.448	184.88
268.681	180.88
268.913	217.88
269.145	200.88
269.377	208.88
269.609	203.88
269.841	208.88
270.073	207.88
270.306	233.88
270.538	232.88
270.77	247.88
271.002	243.88
271.234	251.88
271.466	224.88
271.698	248.88
271.93	261.88
272.162	244.88
272.394	265.88
272.626	239.88
272.858	230.88
273.09	226.88
273.322	219.88
273.553	202.88
273.785	211.88
274.017	210.88
274.249	215.88
274.481	217.88
274.713	201.88
274.945	219.88
275.176	206.88
275.408	222.88
275.64	209.88
275.872	210.88
276.104	197.88
276.335	202.88
276.567	213.88
276.799	206.88
277.031	237.88
277.262	229.88
277.494	227.88
277.726	223.88
277.957	219.88
278.189	217.88
278.421	213.88
278.652	202.88
278.884	195.88
279.115	191.88
279.347	214.88
279.579	213.88
279.81	214.88
280.042	198.88
280.273	206.88
280.505	212.88
280.736	202.88
280.968	203.88
281.199	198.88
281.431	196.88
281.662	211.88
281.894	207.88
282.125	207.88
282.356	224.88
282.588	234.88
282.819	243.88
283.051	221.88
283.282	195.88
283.513	222.88
283.745	202.88
283.976	221.88
284.207	214.88
284.439	215.88
284.67	231.88
284.901	222.88
285.132	221.88
285.364	220.88
285.595	223.88
285.826	225.88
286.057	212.88
286.288	203.88
286.52	220.88
286.751	222.88
286.982	217.88
287.213	205.88
287.444	210.88
287.675	223.88
287.906	238.88
288.138	227.88
288.369	241.88
288.6	225.88
288.831	215.88
289.062	238.88
289.293	222.88
289.524	227.88
289.755	215.88
289.986	205.88
290.217	226.88
290.448	207.88
290.679	209.88
290.91	215.88
291.141	212.88
291.371	235.88
291.602	214.88
291.833	223.88
292.064	214.88
292.295	206.88
292.526	217.88
292.757	213.88
292.987	214.88
293.218	219.88
293.449	221.88
293.68	227.88
293.91	213.88
294.141	216.88
294.372	218.88
294.603	223.88
294.833	222.88
295.064	219.88
295.295	219.88
295.525	220.88
295.756	227.88
295.987	228.88
296.217	248.88
296.448	263.88
296.679	230.88
296.909	243.88
297.14	230.88
297.37	227.88
297.601	234.88
297.831	230.88
298.062	216.88
298.292	231.88
298.523	227.88
298.753	245.88
298.984	217.88
299.214	233.88
299.445	239.88
299.675	224.88
299.905	233.88
300.136	245.88
300.366	243.88
300.597	247.88
300.827	240.88
301.057	246.88
301.288	229.88
301.518	233.88
301.748	243.88
301.979	242.88
302.209	254.88
302.439	250.88
302.669	267.88
302.9	241.88
303.13	251.88
303.36	252.88
303.59	250.88
303.82	244.88
304.051	239.88
304.281	255.88
304.511	241.88
304.741	241.88
304.971	254.88
305.201	251.88
305.431	244.88
305.661	235.88
305.891	249.88
306.121	237.88
306.352	251.88
306.582	238.88
306.812	245.88
307.042	252.88
307.272	263.88
307.502	238.88
307.731	234.88
307.961	258.88
308.191	237.88
308.421	257.88
308.651	248.88
308.881	266.88
309.111	265.88
309.341	242.88
309.571	261.88
309.8	252.88
310.03	274.88
310.26	292.88
310.49	275.88
310.72	281.88
310.949	281.88
311.179	295.88
311.409	278.88
311.639	276.88
311.868	286.88
312.098	271.88
312.328	292.88
312.557	309.88
312.787	301.88
313.017	311.88
313.246	297.88
313.476	277.88
313.706	270.88
313.935	289.88
314.165	283.88
314.394	295.88
314.624	292.88
314.853	293.88
315.083	270.88
315.312	296.88
315.542	264.88
315.771	269.88
316.001	261.88
316.23	290.88
316.46	267.88
316.689	281.88
316.919	288.88
317.148	292.88
317.377	299.88
317.607	275.88
317.836	287.88
318.065	314.88
318.295	285.88
318.524	293.88
318.753	297.88
318.983	293.88
319.212	286.88
319.441	296.88
319.67	298.88
319.9	293.88
320.129	298.88
320.358	299.88
320.587	298.88
320.816	289.88
321.046	307.88
321.275	312.88
321.504	315.88
321.733	304.88
321.962	295.88
322.191	313.88
322.42	309.88
322.649	342.88
322.878	340.88
323.108	346.88
323.337	361.88
323.566	386.88
323.795	379.88
324.024	430.88
324.253	499.88
324.482	728.88
324.71	1089.88
324.939	1569.88
325.168	1353.88
325.397	723.88
325.626	483.88
325.855	419.88
326.084	389.88
326.313	370.88
326.542	389.88
326.77	412.88
326.999	493.88
327.228	639.88
327.457	982.88
327.686	1185.88
327.914	793.88
328.143	522.88
328.372	467.88
328.6	413.88
328.829	416.88
329.058	441.88
329.287	419.88
329.515	421.88
329.744	377.88
329.972	381.88
330.201	394.88
330.43	413.88
330.658	445.88
330.887	453.88
331.115	443.88
331.344	400.88
331.572	362.88
331.801	366.88
332.03	353.88
332.258	343.88
332.486	334.88
332.715	354.88
332.943	338.88
333.172	342.88
333.4	325.88
333.629	330.88
333.857	350.88
334.085	345.88
334.314	365.88
334.542	371.88
334.771	380.88
334.999	351.88
335.227	357.88
335.455	330.88
335.684	370.88
335.912	338.88
336.14	336.88
336.369	344.88
336.597	356.88
336.825	329.88
337.053	332.88
337.281	346.88
337.51	330.88
337.738	352.88
337.966	328.88
338.194	326.88
338.422	351.88
338.65	325.88
338.878	322.88
339.106	334.88
339.334	313.88
339.562	315.88
339.79	315.88
340.018	335.88
340.246	328.88
340.474	340.88
340.702	341.88
340.93	311.88
341.158	338.88
341.386	330.88
341.614	333.88
341.842	325.88
342.07	325.88
342.298	314.88
342.526	349.88
342.754	327.88
342.981	314.88
343.209	321.88
343.437	331.88
343.665	329.88
343.893	336.88
344.12	346.88
344.348	327.88
344.576	353.88
344.804	332.88
345.031	353.88
345.259	338.88
345.487	348.88
345.714	335.88
345.942	318.88
346.17	336.88
346.397	328.88
346.625	310.88
346.853	330.88
347.08	316.88
347.308	293.88
347.535	327.88
347.763	342.88
347.99	333.88
348.218	330.88
348.445	336.88
348.673	321.88
348.9	312.88
349.128	320.88
349.355	294.88
349.583	314.88
349.81	325.88
350.037	290.88
350.265	335.88
350.492	325.88
350.72	321.88
350.947	331.88
351.174	334.88
351.402	319.88
351.629	339.88
351.856	319.88
352.083	353.88
352.311	334.88
352.538	339.88
352.765	345.88
352.992	351.88
353.22	339.88
353.447	321.88
353.674	323.88
353.901	308.88
354.128	305.88
354.355	309.88
354.583	325.88
354.81	310.88
355.037	315.88
355.264	319.88
355.491	317.88
355.718	331.88
355.945	318.88
356.172	311.88
356.399	288.88
356.626	291.88
356.853	306.88
357.08	297.88
357.307	301.88
357.534	292.88
357.761	322.88
357.988	324.88
358.215	315.88
358.441	322.88
358.668	319.88
358.895	310.88
359.122	314.88
359.349	326.88
359.576	349.88
359.802	355.88
360.029	379.88
360.256	375.88
360.483	357.88
360.709	330.88
360.936	314.88
361.163	331.88
361.39	343.88
361.616	341.88
361.843	334.88
362.07	351.88
362.296	339.88
362.523	334.88
362.749	335.88
362.976	320.88
363.203	330.88
363.429	319.88
363.656	315.88
363.882	328.88
364.109	330.88
364.335	324.88
364.562	330.88
364.788	326.88
365.015	341.88
365.241	315.88
365.468	331.88
365.694	363.88
365.92	327.88
366.147	346.88
366.373	325.88
366.599	343.88
366.826	338.88
367.052	315.88
367.278	326.88
367.505	338.88
367.731	323.88
367.957	327.88
368.184	311.88
368.41	347.88
368.636	333.88
368.862	318.88
369.089	339.88
369.315	310.88
369.541	324.88
369.767	338.88
369.993	321.88
370.219	310.88
370.445	313.88
370.672	318.88
370.898	315.88
371.124	327.88
371.35	335.88
371.576	331.88
371.802	335.88
372.028	325.88
372.254	337.88
372.48	327.88
372.706	342.88
372.932	332.88
373.158	338.88
373.384	328.88
373.61	336.88
373.835	335.88
374.061	315.88
374.287	341.88
374.513	325.88
374.739	331.88
374.965	323.88
375.191	353.88
375.416	353.88
375.642	338.88
375.868	339.88
376.094	342.88
376.319	339.88
376.545	335.88
376.771	344.88
376.997	338.88
377.222	328.88
377.448	344.88
377.674	301.88
377.899	338.88
378.125	338.88
378.35	351.88
378.576	326.88
378.802	334.88
379.027	307.88
379.253	332.88
379.478	312.88
379.704	328.88
379.929	319.88
380.155	331.88
380.38	323.88
380.606	346.88
380.831	360.88
381.057	347.88
381.282	327.88
381.507	342.88
381.733	319.88
381.958	341.88
382.184	334.88
382.409	346.88
382.634	356.88
382.86	341.88
383.085	350.88
383.31	362.88
383.535	370.88
383.761	351.88
383.986	372.88
384.211	343.88
384.436	347.88
384.662	361.88
384.887	354.88
385.112	341.88
385.337	347.88
385.562	359.88
385.787	368.88
386.013	369.88
386.238	362.88
386.463	393.88
386.688	363.88
386.913	371.88
387.138	362.88
387.363	359.88
387.588	369.88
387.813	375.88
388.038	355.88
388.263	371.88
388.488	389.88
388.713	368.88
388.938	354.88
389.163	365.88
389.387	383.88
389.612	350.88
389.837	375.88
390.062	367.88
390.287	341.88
390.512	354.88
390.736	358.88
390.961	361.88
391.186	366.88
391.411	365.88
391.636	384.88
391.86	391.88
392.085	385.88
392.31	370.88
392.534	389.88
392.759	364.88
392.984	366.88
393.208	390.88
393.433	418.88
393.658	446.88
393.882	398.88
394.107	368.88
394.331	358.88
394.556	360.88
394.78	368.88
395.005	369.88
395.229	369.88
395.454	375.88
395.678	376.88
395.903	386.88
396.127	404.88
396.352	385.88
396.576	390.88
396.801	385.88
397.025	421.88
397.249	396.88
397.474	394.88
397.698	388.88
397.922	400.88
398.147	425.88
398.371	422.88
398.595	403.88
398.82	404.88
399.044	410.88
399.268	424.88
399.492	412.88
399.717	469.88
399.941	485.88
400.165	505.88
400.389	485.88
400.613	493.88
400.837	467.88
401.062	433.88
401.286	435.88
401.51	416.88
401.734	424.88
401.958	403.88
402.182	427.88
402.406	425.88
402.63	428.88
402.854	422.88
403.078	427.88
403.302	424.88
403.526	424.88
403.75	450.88
403.974	426.88
404.198	432.88
404.422	444.88
404.645	445.88
404.869	447.88
405.093	477.88
405.317	493.88
405.541	519.88
405.765	452.88
405.988	441.88
406.212	470.88
406.436	492.88
406.66	499.88
406.883	456.88
407.107	485.88
407.331	548.88
407.555	575.88
407.778	583.88
408.002	530.88
408.226	503.88
408.449	487.88
408.673	491.88
408.896	511.88
409.12	549.88
409.344	502.88
409.567	461.88
409.791	463.88
410.014	424.88
410.238	450.88
410.461	436.88
410.685	455.88
410.908	466.88
411.132	506.88
411.355	509.88
411.578	494.88
411.802	445.88
412.025	438.88
412.249	444.88
412.472	464.88
412.695	502.88
412.919	484.88
413.142	413.88
413.365	441.88
413.589	405.88
413.812	429.88
414.035	434.88
414.258	421.88
414.482	426.88
414.705	414.88
414.928	410.88
415.151	412.88
415.374	417.88
415.597	414.88
415.821	422.88
416.044	426.88
416.267	424.88
416.49	411.88
416.713	426.88
416.936	434.88
417.159	431.88
417.382	423.88
417.605	432.88
417.828	423.88
418.051	443.88
418.274	451.88
418.497	409.88
418.72	426.88
418.943	421.88
419.166	433.88
419.389	437.88
419.611	443.88
419.834	438.88
420.057	447.88
420.28	451.88
420.503	429.88
420.726	419.88
420.948	441.88
421.171	475.88
421.394	488.88
421.617	469.88
421.839	467.88
422.062	448.88
422.285	451.88
422.507	516.88
422.73	576.88
422.953	545.88
423.175	481.88
423.398	463.88
423.621	459.88
423.843	455.88
424.066	490.88
424.288	468.88
424.511	486.88
424.733	545.88
424.956	605.88
425.178	594.88
425.401	580.88
425.623	592.88
425.846	528.88
426.068	514.88
426.291	493.88
426.513	479.88
426.735	485.88
426.958	524.88
427.18	557.88
427.402	682.88
427.625	754.88
427.847	673.88
428.069	573.88
428.292	517.88
428.514	489.88
428.736	451.88
428.958	453.88
429.181	469.88
429.403	424.88
429.625	466.88
429.847	492.88
430.069	535.88
430.292	561.88
430.514	456.88
430.736	471.88
430.958	450.88
431.18	426.88
431.402	447.88
431.624	415.88
431.846	385.88
432.068	438.88
432.29	431.88
432.512	443.88
432.734	426.88
432.956	426.88
433.178	441.88
433.4	442.88
433.622	441.88
433.844	413.88
434.066	429.88
434.287	418.88
434.509	425.88
434.731	423.88
434.953	441.88
435.175	459.88
435.397	460.88
435.618	484.88
435.84	527.88
436.062	611.88
436.284	648.88
436.505	533.88
436.727	489.88
436.949	477.88
437.17	459.88
437.392	449.88
437.614	462.88
437.835	495.88
438.057	579.88
438.278	679.88
438.5	643.88
438.721	701.88
438.943	704.88
439.165	553.88
439.386	498.88
439.608	513.88
439.829	520.88
440.05	516.88
440.272	563.88
440.493	525.88
440.715	473.88
440.936	450.88
441.158	483.88
441.379	452.88
441.6	466.88
441.822	489.88
442.043	529.88
442.264	582.88
442.486	627.88
442.707	528.88
442.928	507.88
443.149	488.88
443.371	514.88
443.592	577.88
443.813	614.88
444.034	669.88
444.255	569.88
444.476	519.88
444.698	519.88
444.919	487.88
445.14	573.88
445.361	536.88
445.582	525.88
445.803	583.88
446.024	640.88
446.245	685.88
446.466	616.88
446.687	517.88
446.908	499.88
447.129	468.88
447.35	449.88
447.571	442.88
447.792	445.88
448.013	462.88
448.234	495.88
448.455	544.88
448.675	633.88
448.896	736.88
449.117	597.88
449.338	573.88
449.559	637.88
449.779	755.88
450	616.88
450.221	516.88
450.442	454.88
450.662	448.88
450.883	446.88
451.104	459.88
451.324	447.88
451.545	441.88
451.766	430.88
451.986	416.88
452.207	399.88
452.428	398.88
452.648	399.88
452.869	411.88
453.089	409.88
453.31	437.88
453.53	411.88
453.751	420.88
453.971	418.88
454.192	417.88
454.412	431.88
454.633	396.88
454.853	409.88
455.073	410.88
455.294	440.88
455.514	480.88
455.734	454.88
455.955	404.88
456.175	395.88
456.395	401.88
456.616	375.88
456.836	381.88
457.056	382.88
457.276	377.88
457.497	382.88
457.717	378.88
457.937	368.88
458.157	379.88
458.377	379.88
458.598	421.88
458.818	477.88
459.038	502.88
459.258	536.88
459.478	455.88
459.698	417.88
459.918	418.88
460.138	420.88
460.358	437.88
460.578	421.88
460.798	437.88
461.018	423.88
461.238	441.88
461.458	430.88
461.678	435.88
461.898	441.88
462.118	431.88
462.338	450.88
462.558	439.88
462.777	424.88
462.997	437.88
463.217	436.88
463.437	469.88
463.657	468.88
463.876	459.88
464.096	445.88
464.316	438.88
464.536	476.88
464.755	476.88
464.975	455.88
465.195	473.88
465.414	555.88
465.634	481.88
465.854	446.88
466.073	439.88
466.293	416.88
466.512	413.88
466.732	409.88
466.951	423.88
467.171	411.88
467.391	438.88
467.61	447.88
467.829	423.88
468.049	418.88
468.268	416.88
468.488	409.88
468.707	419.88
468.927	425.88
469.146	383.88
469.365	412.88
469.585	402.88
469.804	441.88
470.023	421.88
470.243	411.88
470.462	432.88
470.681	455.88
470.901	431.88
471.12	408.88
471.339	427.88
471.558	417.88
471.777	433.88
471.997	416.88
472.216	420.88
472.435	442.88
472.654	433.88
472.873	404.88
473.092	433.88
473.311	439.88
473.53	435.88
473.749	442.88
473.968	455.88
474.187	551.88
474.406	560.88
474.625	485.88
474.844	449.88
475.063	447.88
475.282	432.88
475.501	430.88
475.72	437.88
475.939	424.88
476.158	433.88
476.377	455.88
476.596	426.88
476.814	445.88
477.033	455.88
477.252	455.88
477.471	478.88
477.69	482.88
477.908	458.88
478.127	463.88
478.346	462.88
478.564	468.88
478.783	467.88
479.002	477.88
479.22	486.88
479.439	505.88
479.658	495.88
479.876	531.88
480.095	498.88
480.313	522.88
480.532	520.88
480.751	509.88
480.969	512.88
481.188	521.88
481.406	551.88
481.624	518.88
481.843	502.88
482.061	482.88
482.28	503.88
482.498	507.88
482.717	518.88
482.935	510.88
483.153	523.88
483.372	485.88
483.59	498.88
483.808	497.88
484.027	523.88
484.245	519.88
484.463	515.88
484.681	523.88
484.9	512.88
485.118	515.88
485.336	496.88
485.554	513.88
485.772	527.88
485.99	519.88
486.209	538.88
486.427	529.88
486.645	535.88
486.863	534.88
487.081	560.88
487.299	536.88
487.517	543.88
487.735	543.88
487.953	575.88
488.171	565.88
488.389	551.88
488.607	552.88
488.825	561.88
489.043	539.88
489.261	573.88
489.479	579.88
489.696	554.88
489.914	535.88
490.132	597.88
490.35	570.88
490.568	584.88
490.786	578.88
491.003	605.88
491.221	633.88
491.439	640.88
491.657	624.88
491.874	643.88
492.092	660.88
492.31	629.88
492.527	644.88
492.745	617.88
492.963	607.88
493.18	633.88
493.398	651.88
493.615	656.88
493.833	661.88
494.05	640.88
494.268	669.88
494.485	632.88
494.703	649.88
494.92	670.88
495.138	631.88
495.355	646.88
495.573	665.88
495.79	672.88
496.008	653.88
496.225	652.88
496.442	654.88
496.66	659.88
496.877	668.88
497.094	651.88
497.312	659.88
497.529	669.88
497.746	687.88
497.963	657.88
498.181	690.88
498.398	703.88
498.615	712.88
498.832	705.88
499.049	725.88
499.267	743.88
499.484	796.88
499.701	769.88
499.918	778.88
500.135	814.88
500.352	833.88
500.569	848.88
500.786	874.88
501.003	861.88
501.22	809.88
501.437	807.88
501.654	814.88
