Data from 1971.PennyLincolnUp.Lamp.En5.5.200Scan.071719.P1.Scan 2. Changed Angle._HRD10591_15-24-17-842.txt Node
Date: Thu Jul 18 15:24:17 EDT 2019
User: cochatt
Spectrometer: HR+D1059
Trigger mode: 1
Integration Time (sec): 1.000000E-1
Scans to average: 1
Electric dark correction enabled: true
Nonlinearity correction enabled: false
Boxcar width: 0
XAxis mode: Wavelengths
Number of Pixels in Spectrum: 2048
>>>>>Begin Spectral Data<<<<<
223.165	-18.75
223.4	-18.75
223.635	-18.75
223.869	-13.75
224.104	-18.75
224.338	-10.75
224.573	-17.75
224.808	-8.75
225.042	-0.75
225.277	-13.75
225.511	-4.75
225.746	1.25
225.98	7.25
226.215	2.25
226.449	22.25
226.683	3.25
226.918	34.25
227.152	37.25
227.387	35.25
227.621	53.25
227.856	40.25
228.09	46.25
228.324	44.25
228.559	50.25
228.793	90.25
229.027	102.25
229.262	141.25
229.496	120.25
229.73	150.25
229.964	174.25
230.199	140.25
230.433	136.25
230.667	123.25
230.901	125.25
231.136	115.25
231.37	125.25
231.604	125.25
231.838	121.25
232.072	107.25
232.306	116.25
232.541	125.25
232.775	112.25
233.009	135.25
233.243	125.25
233.477	119.25
233.711	132.25
233.945	122.25
234.179	120.25
234.413	136.25
234.647	110.25
234.881	119.25
235.115	140.25
235.349	125.25
235.583	127.25
235.817	125.25
236.051	143.25
236.285	141.25
236.519	139.25
236.753	132.25
236.987	161.25
237.221	219.25
237.455	281.25
237.689	214.25
237.922	151.25
238.156	150.25
238.39	143.25
238.624	143.25
238.858	132.25
239.091	133.25
239.325	134.25
239.559	139.25
239.793	144.25
240.027	138.25
240.26	144.25
240.494	195.25
240.728	151.25
240.961	157.25
241.195	160.25
241.429	161.25
241.662	139.25
241.896	147.25
242.13	153.25
242.363	135.25
242.597	129.25
242.83	148.25
243.064	141.25
243.298	145.25
243.531	140.25
243.765	149.25
243.998	159.25
244.232	158.25
244.465	155.25
244.699	153.25
244.932	156.25
245.166	135.25
245.399	141.25
245.633	155.25
245.866	141.25
246.099	163.25
246.333	164.25
246.566	160.25
246.8	169.25
247.033	161.25
247.266	169.25
247.5	178.25
247.733	193.25
247.966	192.25
248.2	185.25
248.433	188.25
248.666	183.25
248.899	218.25
249.133	219.25
249.366	221.25
249.599	219.25
249.832	220.25
250.066	190.25
250.299	191.25
250.532	214.25
250.765	234.25
250.998	228.25
251.231	257.25
251.465	239.25
251.698	228.25
251.931	230.25
252.164	211.25
252.397	217.25
252.63	209.25
252.863	232.25
253.096	247.25
253.329	235.25
253.562	241.25
253.795	259.25
254.028	255.25
254.261	255.25
254.494	270.25
254.727	283.25
254.96	321.25
255.193	308.25
255.426	280.25
255.659	263.25
255.892	268.25
256.124	261.25
256.357	257.25
256.59	250.25
256.823	247.25
257.056	248.25
257.289	220.25
257.521	229.25
257.754	233.25
257.987	235.25
258.22	225.25
258.452	229.25
258.685	221.25
258.918	230.25
259.151	232.25
259.383	239.25
259.616	222.25
259.849	234.25
260.081	261.25
260.314	270.25
260.547	266.25
260.779	264.25
261.012	260.25
261.244	248.25
261.477	260.25
261.71	242.25
261.942	235.25
262.175	249.25
262.407	246.25
262.64	236.25
262.872	230.25
263.105	230.25
263.337	239.25
263.57	212.25
263.802	212.25
264.035	234.25
264.267	234.25
264.499	230.25
264.732	229.25
264.964	212.25
265.197	206.25
265.429	214.25
265.661	214.25
265.894	221.25
266.126	211.25
266.358	224.25
266.591	228.25
266.823	236.25
267.055	231.25
267.287	240.25
267.52	243.25
267.752	237.25
267.984	237.25
268.216	228.25
268.448	234.25
268.681	250.25
268.913	249.25
269.145	268.25
269.377	286.25
269.609	292.25
269.841	301.25
270.073	294.25
270.306	307.25
270.538	369.25
270.77	374.25
271.002	334.25
271.234	335.25
271.466	326.25
271.698	343.25
271.93	339.25
272.162	350.25
272.394	373.25
272.626	336.25
272.858	286.25
273.09	290.25
273.322	289.25
273.553	287.25
273.785	274.25
274.017	265.25
274.249	264.25
274.481	273.25
274.713	293.25
274.945	272.25
275.176	269.25
275.408	281.25
275.64	266.25
275.872	277.25
276.104	273.25
276.335	295.25
276.567	276.25
276.799	301.25
277.031	343.25
277.262	335.25
277.494	342.25
277.726	314.25
277.957	301.25
278.189	286.25
278.421	286.25
278.652	280.25
278.884	287.25
279.115	287.25
279.347	269.25
279.579	250.25
279.81	262.25
280.042	265.25
280.273	270.25
280.505	262.25
280.736	259.25
280.968	288.25
281.199	283.25
281.431	259.25
281.662	258.25
281.894	269.25
282.125	263.25
282.356	291.25
282.588	311.25
282.819	320.25
283.051	281.25
283.282	274.25
283.513	272.25
283.745	279.25
283.976	270.25
284.207	283.25
284.439	293.25
284.67	270.25
284.901	270.25
285.132	282.25
285.364	286.25
285.595	279.25
285.826	273.25
286.057	288.25
286.288	288.25
286.52	271.25
286.751	265.25
286.982	281.25
287.213	268.25
287.444	288.25
287.675	270.25
287.906	265.25
288.138	288.25
288.369	300.25
288.6	301.25
288.831	307.25
289.062	297.25
289.293	279.25
289.524	290.25
289.755	290.25
289.986	290.25
290.217	280.25
290.448	290.25
290.679	285.25
290.91	295.25
291.141	280.25
291.371	267.25
291.602	285.25
291.833	279.25
292.064	301.25
292.295	282.25
292.526	298.25
292.757	285.25
292.987	294.25
293.218	295.25
293.449	287.25
293.68	279.25
293.91	275.25
294.141	266.25
294.372	287.25
294.603	311.25
294.833	286.25
295.064	293.25
295.295	278.25
295.525	285.25
295.756	294.25
295.987	314.25
296.217	345.25
296.448	355.25
296.679	306.25
296.909	298.25
297.14	289.25
297.37	293.25
297.601	295.25
297.831	314.25
298.062	289.25
298.292	297.25
298.523	299.25
298.753	305.25
298.984	296.25
299.214	302.25
299.445	291.25
299.675	313.25
299.905	311.25
300.136	285.25
300.366	293.25
300.597	295.25
300.827	314.25
301.057	316.25
301.288	335.25
301.518	320.25
301.748	322.25
301.979	306.25
302.209	339.25
302.439	317.25
302.669	333.25
302.9	332.25
303.13	317.25
303.36	315.25
303.59	332.25
303.82	321.25
304.051	318.25
304.281	335.25
304.511	316.25
304.741	308.25
304.971	340.25
305.201	306.25
305.431	314.25
305.661	325.25
305.891	322.25
306.121	333.25
306.352	322.25
306.582	324.25
306.812	340.25
307.042	309.25
307.272	312.25
307.502	325.25
307.731	337.25
307.961	325.25
308.191	327.25
308.421	333.25
308.651	336.25
308.881	319.25
309.111	358.25
309.341	354.25
309.571	343.25
309.8	385.25
310.03	377.25
310.26	380.25
310.49	380.25
310.72	390.25
310.949	419.25
311.179	435.25
311.409	410.25
311.639	364.25
311.868	391.25
312.098	400.25
312.328	403.25
312.557	406.25
312.787	457.25
313.017	443.25
313.246	395.25
313.476	379.25
313.706	389.25
313.935	405.25
314.165	399.25
314.394	411.25
314.624	408.25
314.853	412.25
315.083	376.25
315.312	389.25
315.542	403.25
315.771	384.25
316.001	382.25
316.23	380.25
316.46	359.25
316.689	387.25
316.919	391.25
317.148	388.25
317.377	407.25
317.607	382.25
317.836	377.25
318.065	387.25
318.295	370.25
318.524	378.25
318.753	397.25
318.983	382.25
319.212	381.25
319.441	411.25
319.67	400.25
319.9	381.25
320.129	392.25
320.358	389.25
320.587	411.25
320.816	415.25
321.046	421.25
321.275	418.25
321.504	420.25
321.733	431.25
321.962	433.25
322.191	448.25
322.42	481.25
322.649	459.25
322.878	482.25
323.108	500.25
323.337	525.25
323.566	570.25
323.795	603.25
324.024	668.25
324.253	833.25
324.482	1238.25
324.71	1942.25
324.939	2787.25
325.168	2366.25
325.397	1225.25
325.626	811.25
325.855	645.25
326.084	607.25
326.313	550.25
326.542	562.25
326.77	653.25
326.999	783.25
327.228	1131.25
327.457	1657.25
327.686	2059.25
327.914	1387.25
328.143	885.25
328.372	754.25
328.6	702.25
328.829	639.25
329.058	659.25
329.287	669.25
329.515	631.25
329.744	565.25
329.972	572.25
330.201	617.25
330.43	638.25
330.658	715.25
330.887	726.25
331.115	702.25
331.344	604.25
331.572	556.25
331.801	541.25
332.03	556.25
332.258	500.25
332.486	477.25
332.715	473.25
332.943	455.25
333.172	457.25
333.4	457.25
333.629	468.25
333.857	484.25
334.085	496.25
334.314	515.25
334.542	545.25
334.771	583.25
334.999	531.25
335.227	495.25
335.455	460.25
335.684	481.25
335.912	460.25
336.14	446.25
336.369	445.25
336.597	469.25
336.825	453.25
337.053	461.25
337.281	463.25
337.51	452.25
337.738	450.25
337.966	454.25
338.194	464.25
338.422	462.25
338.65	446.25
338.878	451.25
339.106	441.25
339.334	428.25
339.562	457.25
339.79	444.25
340.018	430.25
340.246	437.25
340.474	457.25
340.702	442.25
340.93	430.25
341.158	435.25
341.386	421.25
341.614	460.25
341.842	435.25
342.07	428.25
342.298	438.25
342.526	439.25
342.754	426.25
342.981	416.25
343.209	427.25
343.437	439.25
343.665	425.25
343.893	446.25
344.12	449.25
344.348	435.25
344.576	433.25
344.804	452.25
345.031	471.25
345.259	466.25
345.487	452.25
345.714	447.25
345.942	447.25
346.17	412.25
346.397	429.25
346.625	439.25
346.853	438.25
347.08	433.25
347.308	437.25
347.535	463.25
347.763	457.25
347.99	462.25
348.218	464.25
348.445	452.25
348.673	461.25
348.9	451.25
349.128	440.25
349.355	421.25
349.583	430.25
349.81	407.25
350.037	418.25
350.265	416.25
350.492	427.25
350.72	423.25
350.947	411.25
351.174	443.25
351.402	441.25
351.629	473.25
351.856	464.25
352.083	472.25
352.311	454.25
352.538	479.25
352.765	474.25
352.992	454.25
353.22	425.25
353.447	444.25
353.674	409.25
353.901	423.25
354.128	415.25
354.355	411.25
354.583	416.25
354.81	403.25
355.037	411.25
355.264	409.25
355.491	382.25
355.718	405.25
355.945	399.25
356.172	385.25
356.399	390.25
356.626	401.25
356.853	410.25
357.08	385.25
357.307	402.25
357.534	406.25
357.761	417.25
357.988	423.25
358.215	410.25
358.441	404.25
358.668	390.25
358.895	412.25
359.122	405.25
359.349	434.25
359.576	439.25
359.802	476.25
360.029	505.25
360.256	540.25
360.483	524.25
360.709	470.25
360.936	431.25
361.163	447.25
361.39	463.25
361.616	463.25
361.843	465.25
362.07	442.25
362.296	457.25
362.523	452.25
362.749	454.25
362.976	434.25
363.203	424.25
363.429	427.25
363.656	433.25
363.882	429.25
364.109	422.25
364.335	397.25
364.562	403.25
364.788	419.25
365.015	422.25
365.241	435.25
365.468	435.25
365.694	454.25
365.92	444.25
366.147	429.25
366.373	409.25
366.599	411.25
366.826	414.25
367.052	393.25
367.278	430.25
367.505	403.25
367.731	445.25
367.957	418.25
368.184	414.25
368.41	440.25
368.636	439.25
368.862	443.25
369.089	442.25
369.315	422.25
369.541	435.25
369.767	411.25
369.993	417.25
370.219	403.25
370.445	411.25
370.672	433.25
370.898	398.25
371.124	415.25
371.35	403.25
371.576	411.25
371.802	422.25
372.028	428.25
372.254	414.25
372.48	404.25
372.706	408.25
372.932	399.25
373.158	403.25
373.384	427.25
373.61	410.25
373.835	406.25
374.061	392.25
374.287	436.25
374.513	419.25
374.739	428.25
374.965	418.25
375.191	404.25
375.416	426.25
375.642	403.25
375.868	407.25
376.094	424.25
376.319	431.25
376.545	406.25
376.771	411.25
376.997	411.25
377.222	396.25
377.448	390.25
377.674	413.25
377.899	420.25
378.125	429.25
378.35	419.25
378.576	406.25
378.802	396.25
379.027	409.25
379.253	398.25
379.478	403.25
379.704	413.25
379.929	408.25
380.155	424.25
380.38	435.25
380.606	426.25
380.831	426.25
381.057	437.25
381.282	423.25
381.507	405.25
381.733	408.25
381.958	416.25
382.184	426.25
382.409	423.25
382.634	444.25
382.86	414.25
383.085	434.25
383.31	421.25
383.535	419.25
383.761	442.25
383.986	407.25
384.211	431.25
384.436	410.25
384.662	447.25
384.887	420.25
385.112	417.25
385.337	404.25
385.562	439.25
385.787	433.25
386.013	464.25
386.238	459.25
386.463	454.25
386.688	458.25
386.913	466.25
387.138	466.25
387.363	455.25
387.588	441.25
387.813	446.25
388.038	458.25
388.263	438.25
388.488	463.25
388.713	429.25
388.938	455.25
389.163	445.25
389.387	446.25
389.612	457.25
389.837	458.25
390.062	436.25
390.287	440.25
390.512	454.25
390.736	449.25
390.961	443.25
391.186	444.25
391.411	458.25
391.636	447.25
391.86	467.25
392.085	439.25
392.31	444.25
392.534	457.25
392.759	465.25
392.984	449.25
393.208	442.25
393.433	449.25
393.658	468.25
393.882	441.25
394.107	456.25
394.331	445.25
394.556	447.25
394.78	442.25
395.005	448.25
395.229	463.25
395.454	454.25
395.678	471.25
395.903	484.25
396.127	496.25
396.352	529.25
396.576	471.25
396.801	469.25
397.025	489.25
397.249	480.25
397.474	478.25
397.698	475.25
397.922	486.25
398.147	486.25
398.371	532.25
398.595	501.25
398.82	518.25
399.044	509.25
399.268	518.25
399.492	556.25
399.717	587.25
399.941	578.25
400.165	619.25
400.389	640.25
400.613	588.25
400.837	544.25
401.062	531.25
401.286	522.25
401.51	543.25
401.734	515.25
401.958	501.25
402.182	524.25
402.406	530.25
402.63	540.25
402.854	542.25
403.078	564.25
403.302	541.25
403.526	555.25
403.75	550.25
403.974	543.25
404.198	540.25
404.422	524.25
404.645	554.25
404.869	566.25
405.093	593.25
405.317	630.25
405.541	663.25
405.765	619.25
405.988	583.25
406.212	577.25
406.436	614.25
406.66	635.25
406.883	612.25
407.107	629.25
407.331	683.25
407.555	719.25
407.778	733.25
408.002	644.25
408.226	614.25
408.449	621.25
408.673	588.25
408.896	614.25
409.12	666.25
409.344	659.25
409.567	576.25
409.791	567.25
410.014	525.25
410.238	556.25
410.461	546.25
410.685	533.25
410.908	567.25
411.132	596.25
411.355	639.25
411.578	627.25
411.802	563.25
412.025	563.25
412.249	548.25
412.472	561.25
412.695	607.25
412.919	622.25
413.142	593.25
413.365	545.25
413.589	532.25
413.812	524.25
414.035	536.25
414.258	519.25
414.482	533.25
414.705	510.25
414.928	508.25
415.151	510.25
415.374	505.25
415.597	484.25
415.821	520.25
416.044	519.25
416.267	540.25
416.49	521.25
416.713	526.25
416.936	524.25
417.159	516.25
417.382	546.25
417.605	547.25
417.828	531.25
418.051	548.25
418.274	561.25
418.497	522.25
418.72	533.25
418.943	525.25
419.166	552.25
419.389	566.25
419.611	559.25
419.834	561.25
420.057	570.25
420.28	585.25
420.503	555.25
420.726	575.25
420.948	584.25
421.171	618.25
421.394	658.25
421.617	580.25
421.839	548.25
422.062	567.25
422.285	571.25
422.507	630.25
422.73	775.25
422.953	705.25
423.175	602.25
423.398	591.25
423.621	615.25
423.843	633.25
424.066	627.25
424.288	585.25
424.511	634.25
424.733	706.25
424.956	783.25
425.178	805.25
425.401	750.25
425.623	769.25
425.846	664.25
426.068	627.25
426.291	639.25
426.513	625.25
426.735	647.25
426.958	675.25
427.18	779.25
427.402	912.25
427.625	1039.25
427.847	939.25
428.069	793.25
428.292	726.25
428.514	648.25
428.736	623.25
428.958	606.25
429.181	582.25
429.403	562.25
429.625	614.25
429.847	628.25
430.069	713.25
430.292	684.25
430.514	605.25
430.736	581.25
430.958	559.25
431.18	551.25
431.402	555.25
431.624	548.25
431.846	531.25
432.068	551.25
432.29	546.25
432.512	540.25
432.734	556.25
432.956	566.25
433.178	548.25
433.4	561.25
433.622	569.25
433.844	535.25
434.066	519.25
434.287	527.25
434.509	540.25
434.731	538.25
434.953	550.25
435.175	594.25
435.397	614.25
435.618	636.25
435.84	684.25
436.062	794.25
436.284	846.25
436.505	722.25
436.727	627.25
436.949	615.25
437.17	590.25
437.392	566.25
437.614	601.25
437.835	656.25
438.057	785.25
438.278	890.25
438.5	871.25
438.721	932.25
438.943	894.25
439.165	742.25
439.386	661.25
439.608	666.25
439.829	655.25
440.05	707.25
440.272	730.25
440.493	709.25
440.715	636.25
440.936	610.25
441.158	587.25
441.379	569.25
441.6	598.25
441.822	637.25
442.043	694.25
442.264	776.25
442.486	817.25
442.707	730.25
442.928	653.25
443.149	680.25
443.371	692.25
443.592	750.25
443.813	825.25
444.034	867.25
444.255	757.25
444.476	665.25
444.698	623.25
444.919	630.25
445.14	737.25
445.361	684.25
445.582	696.25
445.803	755.25
446.024	899.25
446.245	891.25
446.466	805.25
446.687	698.25
446.908	661.25
447.129	606.25
447.35	600.25
447.571	611.25
447.792	588.25
448.013	599.25
448.234	635.25
448.455	718.25
448.675	789.25
448.896	932.25
449.117	809.25
449.338	762.25
449.559	845.25
449.779	941.25
450	775.25
450.221	661.25
450.442	595.25
450.662	569.25
450.883	601.25
451.104	641.25
451.324	613.25
451.545	592.25
451.766	556.25
451.986	527.25
452.207	507.25
452.428	532.25
452.648	521.25
452.869	507.25
453.089	517.25
453.31	545.25
453.53	544.25
453.751	537.25
453.971	533.25
454.192	565.25
454.412	546.25
454.633	507.25
454.853	529.25
455.073	524.25
455.294	552.25
455.514	653.25
455.734	618.25
455.955	499.25
456.175	485.25
456.395	501.25
456.616	457.25
456.836	486.25
457.056	497.25
457.276	474.25
457.497	486.25
457.717	461.25
457.937	487.25
458.157	509.25
458.377	507.25
458.598	549.25
458.818	630.25
459.038	746.25
459.258	736.25
459.478	619.25
459.698	545.25
459.918	535.25
460.138	515.25
460.358	542.25
460.578	547.25
460.798	531.25
461.018	540.25
461.238	534.25
461.458	521.25
461.678	507.25
461.898	506.25
462.118	532.25
462.338	544.25
462.558	516.25
462.777	527.25
462.997	567.25
463.217	557.25
463.437	538.25
463.657	556.25
463.876	552.25
464.096	564.25
464.316	555.25
464.536	549.25
464.755	579.25
464.975	571.25
465.195	625.25
465.414	775.25
465.634	649.25
465.854	618.25
466.073	565.25
466.293	557.25
466.512	535.25
466.732	528.25
466.951	545.25
467.171	506.25
467.391	515.25
467.61	546.25
467.829	566.25
468.049	575.25
468.268	531.25
468.488	507.25
468.707	514.25
468.927	529.25
469.146	502.25
469.365	489.25
469.585	505.25
469.804	502.25
470.023	513.25
470.243	533.25
470.462	556.25
470.681	578.25
470.901	558.25
471.12	539.25
471.339	550.25
471.558	588.25
471.777	540.25
471.997	540.25
472.216	543.25
472.435	568.25
472.654	575.25
472.873	517.25
473.092	537.25
473.311	558.25
473.53	550.25
473.749	575.25
473.968	637.25
474.187	742.25
474.406	745.25
474.625	618.25
474.844	552.25
475.063	573.25
475.282	561.25
475.501	547.25
475.72	569.25
475.939	573.25
476.158	559.25
476.377	551.25
476.596	562.25
476.814	574.25
477.033	577.25
477.252	587.25
477.471	575.25
477.69	574.25
477.908	590.25
478.127	591.25
478.346	579.25
478.564	576.25
478.783	580.25
479.002	619.25
479.22	631.25
479.439	634.25
479.658	642.25
479.876	646.25
480.095	661.25
480.313	697.25
480.532	659.25
480.751	647.25
480.969	681.25
481.188	748.25
481.406	819.25
481.624	701.25
481.843	684.25
482.061	663.25
482.28	669.25
482.498	628.25
482.717	655.25
482.935	630.25
483.153	638.25
483.372	636.25
483.59	655.25
483.808	641.25
484.027	626.25
484.245	644.25
484.463	659.25
484.681	633.25
484.9	641.25
485.118	659.25
485.336	661.25
485.554	654.25
485.772	652.25
485.99	671.25
486.209	691.25
486.427	678.25
486.645	701.25
486.863	691.25
487.081	711.25
487.299	706.25
487.517	702.25
487.735	717.25
487.953	710.25
488.171	717.25
488.389	717.25
488.607	718.25
488.825	721.25
489.043	711.25
489.261	706.25
489.479	707.25
489.696	705.25
489.914	716.25
490.132	725.25
490.35	746.25
490.568	740.25
490.786	766.25
491.003	771.25
491.221	769.25
491.439	817.25
491.657	822.25
491.874	835.25
492.092	847.25
492.31	821.25
492.527	822.25
492.745	845.25
492.963	851.25
493.18	844.25
493.398	849.25
493.615	832.25
493.833	836.25
494.05	855.25
494.268	851.25
494.485	879.25
494.703	842.25
494.92	841.25
495.138	860.25
495.355	858.25
495.573	857.25
495.79	863.25
496.008	883.25
496.225	839.25
496.442	853.25
496.66	852.25
496.877	825.25
497.094	857.25
497.312	872.25
497.529	870.25
497.746	878.25
497.963	882.25
498.181	873.25
498.398	906.25
498.615	865.25
498.832	916.25
499.049	941.25
499.267	923.25
499.484	939.25
499.701	929.25
499.918	973.25
500.135	994.25
500.352	1033.25
500.569	1037.25
500.786	1045.25
501.003	1013.25
501.22	1017.25
501.437	1006.25
