Data from 1971.PennyLincolnUp.Lamp.En5.5.200Scan.071719.P1.Scan 2. Changed Angle._HRD10591_15-25-16-842.txt Node
Date: Thu Jul 18 15:25:16 EDT 2019
User: cochatt
Spectrometer: HR+D1059
Trigger mode: 1
Integration Time (sec): 1.000000E-1
Scans to average: 1
Electric dark correction enabled: true
Nonlinearity correction enabled: false
Boxcar width: 0
XAxis mode: Wavelengths
Number of Pixels in Spectrum: 2048
>>>>>Begin Spectral Data<<<<<
223.165	-16.31
223.4	-16.31
223.635	-16.31
223.869	-31.31
224.104	-10.31
224.338	-20.31
224.573	-9.31
224.808	2.69
225.042	-18.31
225.277	4.69
225.511	9.69
225.746	2.69
225.98	14.69
226.215	13.69
226.449	9.69
226.683	6.69
226.918	6.69
227.152	34.69
227.387	32.69
227.621	26.69
227.856	22.69
228.09	28.69
228.324	33.69
228.559	46.69
228.793	63.69
229.027	121.69
229.262	125.69
229.496	137.69
229.73	151.69
229.964	187.69
230.199	151.69
230.433	125.69
230.667	132.69
230.901	117.69
231.136	123.69
231.37	121.69
231.604	117.69
231.838	115.69
232.072	122.69
232.306	120.69
232.541	107.69
232.775	117.69
233.009	119.69
233.243	109.69
233.477	130.69
233.711	101.69
233.945	120.69
234.179	121.69
234.413	135.69
234.647	113.69
234.881	124.69
235.115	128.69
235.349	119.69
235.583	138.69
235.817	122.69
236.051	144.69
236.285	123.69
236.519	131.69
236.753	151.69
236.987	147.69
237.221	218.69
237.455	288.69
237.689	218.69
237.922	159.69
238.156	163.69
238.39	142.69
238.624	129.69
238.858	129.69
239.091	134.69
239.325	132.69
239.559	134.69
239.793	155.69
240.027	158.69
240.26	155.69
240.494	170.69
240.728	180.69
240.961	162.69
241.195	160.69
241.429	153.69
241.662	150.69
241.896	132.69
242.13	130.69
242.363	140.69
242.597	161.69
242.83	147.69
243.064	127.69
243.298	160.69
243.531	157.69
243.765	133.69
243.998	131.69
244.232	156.69
244.465	154.69
244.699	160.69
244.932	151.69
245.166	159.69
245.399	136.69
245.633	151.69
245.866	157.69
246.099	165.69
246.333	133.69
246.566	156.69
246.8	155.69
247.033	170.69
247.266	175.69
247.5	185.69
247.733	174.69
247.966	181.69
248.2	187.69
248.433	182.69
248.666	199.69
248.899	209.69
249.133	207.69
249.366	235.69
249.599	226.69
249.832	206.69
250.066	193.69
250.299	197.69
250.532	200.69
250.765	241.69
250.998	269.69
251.231	257.69
251.465	232.69
251.698	231.69
251.931	227.69
252.164	208.69
252.397	222.69
252.63	231.69
252.863	218.69
253.096	228.69
253.329	249.69
253.562	265.69
253.795	234.69
254.028	256.69
254.261	234.69
254.494	253.69
254.727	301.69
254.96	328.69
255.193	320.69
255.426	303.69
255.659	264.69
255.892	273.69
256.124	261.69
256.357	265.69
256.59	241.69
256.823	229.69
257.056	231.69
257.289	226.69
257.521	232.69
257.754	222.69
257.987	232.69
258.22	240.69
258.452	233.69
258.685	226.69
258.918	226.69
259.151	237.69
259.383	229.69
259.616	246.69
259.849	255.69
260.081	270.69
260.314	271.69
260.547	281.69
260.779	282.69
261.012	251.69
261.244	263.69
261.477	240.69
261.71	248.69
261.942	230.69
262.175	266.69
262.407	256.69
262.64	241.69
262.872	226.69
263.105	218.69
263.337	234.69
263.57	212.69
263.802	220.69
264.035	246.69
264.267	207.69
264.499	221.69
264.732	215.69
264.964	225.69
265.197	210.69
265.429	211.69
265.661	235.69
265.894	223.69
266.126	226.69
266.358	239.69
266.591	214.69
266.823	239.69
267.055	255.69
267.287	254.69
267.52	209.69
267.752	229.69
267.984	250.69
268.216	234.69
268.448	245.69
268.681	240.69
268.913	253.69
269.145	285.69
269.377	335.69
269.609	295.69
269.841	296.69
270.073	285.69
270.306	328.69
270.538	342.69
270.77	354.69
271.002	331.69
271.234	313.69
271.466	346.69
271.698	350.69
271.93	357.69
272.162	333.69
272.394	339.69
272.626	331.69
272.858	290.69
273.09	303.69
273.322	279.69
273.553	265.69
273.785	289.69
274.017	256.69
274.249	278.69
274.481	270.69
274.713	262.69
274.945	283.69
275.176	298.69
275.408	283.69
275.64	270.69
275.872	267.69
276.104	259.69
276.335	289.69
276.567	268.69
276.799	314.69
277.031	320.69
277.262	357.69
277.494	342.69
277.726	310.69
277.957	314.69
278.189	284.69
278.421	271.69
278.652	285.69
278.884	297.69
279.115	269.69
279.347	278.69
279.579	267.69
279.81	263.69
280.042	267.69
280.273	275.69
280.505	274.69
280.736	254.69
280.968	267.69
281.199	269.69
281.431	240.69
281.662	291.69
281.894	255.69
282.125	271.69
282.356	281.69
282.588	326.69
282.819	328.69
283.051	282.69
283.282	271.69
283.513	251.69
283.745	268.69
283.976	275.69
284.207	268.69
284.439	279.69
284.67	293.69
284.901	294.69
285.132	273.69
285.364	265.69
285.595	290.69
285.826	284.69
286.057	274.69
286.288	287.69
286.52	283.69
286.751	278.69
286.982	282.69
287.213	268.69
287.444	295.69
287.675	281.69
287.906	303.69
288.138	290.69
288.369	296.69
288.6	295.69
288.831	324.69
289.062	315.69
289.293	275.69
289.524	300.69
289.755	301.69
289.986	303.69
290.217	278.69
290.448	298.69
290.679	274.69
290.91	283.69
291.141	279.69
291.371	279.69
291.602	280.69
291.833	283.69
292.064	282.69
292.295	288.69
292.526	275.69
292.757	278.69
292.987	282.69
293.218	289.69
293.449	289.69
293.68	286.69
293.91	293.69
294.141	286.69
294.372	281.69
294.603	278.69
294.833	286.69
295.064	275.69
295.295	285.69
295.525	296.69
295.756	309.69
295.987	297.69
296.217	326.69
296.448	331.69
296.679	323.69
296.909	291.69
297.14	295.69
297.37	293.69
297.601	286.69
297.831	287.69
298.062	305.69
298.292	287.69
298.523	309.69
298.753	303.69
298.984	306.69
299.214	293.69
299.445	297.69
299.675	316.69
299.905	325.69
300.136	314.69
300.366	291.69
300.597	317.69
300.827	305.69
301.057	320.69
301.288	311.69
301.518	335.69
301.748	306.69
301.979	319.69
302.209	325.69
302.439	314.69
302.669	320.69
302.9	315.69
303.13	302.69
303.36	294.69
303.59	312.69
303.82	346.69
304.051	313.69
304.281	317.69
304.511	319.69
304.741	329.69
304.971	330.69
305.201	336.69
305.431	323.69
305.661	334.69
305.891	323.69
306.121	323.69
306.352	342.69
306.582	345.69
306.812	327.69
307.042	338.69
307.272	328.69
307.502	335.69
307.731	306.69
307.961	333.69
308.191	329.69
308.421	337.69
308.651	363.69
308.881	340.69
309.111	339.69
309.341	336.69
309.571	352.69
309.8	366.69
310.03	391.69
310.26	379.69
310.49	391.69
310.72	404.69
310.949	416.69
311.179	441.69
311.409	418.69
311.639	379.69
311.868	405.69
312.098	401.69
312.328	431.69
312.557	435.69
312.787	438.69
313.017	433.69
313.246	440.69
313.476	375.69
313.706	383.69
313.935	390.69
314.165	436.69
314.394	432.69
314.624	415.69
314.853	423.69
315.083	410.69
315.312	389.69
315.542	375.69
315.771	365.69
316.001	366.69
316.23	363.69
316.46	376.69
316.689	384.69
316.919	393.69
317.148	399.69
317.377	399.69
317.607	411.69
317.836	401.69
318.065	390.69
318.295	401.69
318.524	377.69
318.753	385.69
318.983	378.69
319.212	378.69
319.441	392.69
319.67	420.69
319.9	411.69
320.129	384.69
320.358	392.69
320.587	391.69
320.816	391.69
321.046	421.69
321.275	430.69
321.504	426.69
321.733	431.69
321.962	450.69
322.191	436.69
322.42	457.69
322.649	486.69
322.878	510.69
323.108	524.69
323.337	543.69
323.566	593.69
323.795	624.69
324.024	682.69
324.253	861.69
324.482	1263.69
324.71	1973.69
324.939	2921.69
325.168	2503.69
325.397	1227.69
325.626	836.69
325.855	665.69
326.084	610.69
326.313	593.69
326.542	590.69
326.77	666.69
326.999	805.69
327.228	1111.69
327.457	1749.69
327.686	2145.69
327.914	1438.69
328.143	902.69
328.372	772.69
328.6	726.69
328.829	677.69
329.058	685.69
329.287	681.69
329.515	648.69
329.744	605.69
329.972	608.69
330.201	636.69
330.43	659.69
330.658	680.69
330.887	743.69
331.115	703.69
331.344	591.69
331.572	554.69
331.801	559.69
332.03	537.69
332.258	497.69
332.486	491.69
332.715	472.69
332.943	464.69
333.172	462.69
333.4	479.69
333.629	506.69
333.857	509.69
334.085	536.69
334.314	531.69
334.542	567.69
334.771	608.69
334.999	520.69
335.227	510.69
335.455	484.69
335.684	464.69
335.912	490.69
336.14	452.69
336.369	466.69
336.597	449.69
336.825	473.69
337.053	431.69
337.281	431.69
337.51	464.69
337.738	455.69
337.966	438.69
338.194	464.69
338.422	455.69
338.65	446.69
338.878	446.69
339.106	434.69
339.334	440.69
339.562	426.69
339.79	452.69
340.018	447.69
340.246	442.69
340.474	444.69
340.702	471.69
340.93	441.69
341.158	440.69
341.386	459.69
341.614	453.69
341.842	453.69
342.07	439.69
342.298	430.69
342.526	426.69
342.754	401.69
342.981	419.69
343.209	418.69
343.437	421.69
343.665	425.69
343.893	432.69
344.12	447.69
344.348	429.69
344.576	454.69
344.804	462.69
345.031	490.69
345.259	485.69
345.487	478.69
345.714	434.69
345.942	461.69
346.17	457.69
346.397	464.69
346.625	457.69
346.853	431.69
347.08	436.69
347.308	443.69
347.535	462.69
347.763	481.69
347.99	460.69
348.218	459.69
348.445	451.69
348.673	459.69
348.9	455.69
349.128	442.69
349.355	422.69
349.583	421.69
349.81	421.69
350.037	435.69
350.265	418.69
350.492	399.69
350.72	421.69
350.947	435.69
351.174	447.69
351.402	469.69
351.629	445.69
351.856	463.69
352.083	455.69
352.311	473.69
352.538	475.69
352.765	483.69
352.992	454.69
353.22	461.69
353.447	466.69
353.674	443.69
353.901	431.69
354.128	427.69
354.355	426.69
354.583	398.69
354.81	407.69
355.037	422.69
355.264	412.69
355.491	392.69
355.718	395.69
355.945	402.69
356.172	402.69
356.399	407.69
356.626	402.69
356.853	401.69
357.08	409.69
357.307	402.69
357.534	398.69
357.761	410.69
357.988	398.69
358.215	403.69
358.441	387.69
358.668	401.69
358.895	396.69
359.122	395.69
359.349	423.69
359.576	453.69
359.802	465.69
360.029	533.69
360.256	516.69
360.483	501.69
360.709	468.69
360.936	452.69
361.163	453.69
361.39	452.69
361.616	466.69
361.843	471.69
362.07	430.69
362.296	452.69
362.523	443.69
362.749	449.69
362.976	442.69
363.203	429.69
363.429	452.69
363.656	407.69
363.882	408.69
364.109	415.69
364.335	423.69
364.562	427.69
364.788	422.69
365.015	400.69
365.241	414.69
365.468	438.69
365.694	425.69
365.92	436.69
366.147	423.69
366.373	416.69
366.599	423.69
366.826	405.69
367.052	432.69
367.278	419.69
367.505	429.69
367.731	445.69
367.957	422.69
368.184	415.69
368.41	415.69
368.636	457.69
368.862	469.69
369.089	438.69
369.315	431.69
369.541	414.69
369.767	414.69
369.993	415.69
370.219	419.69
370.445	426.69
370.672	407.69
370.898	409.69
371.124	408.69
371.35	408.69
371.576	415.69
371.802	395.69
372.028	405.69
372.254	411.69
372.48	426.69
372.706	415.69
372.932	407.69
373.158	425.69
373.384	429.69
373.61	415.69
373.835	410.69
374.061	411.69
374.287	421.69
374.513	401.69
374.739	410.69
374.965	432.69
375.191	414.69
375.416	413.69
375.642	427.69
375.868	422.69
376.094	411.69
376.319	429.69
376.545	429.69
376.771	401.69
376.997	426.69
377.222	415.69
377.448	421.69
377.674	413.69
377.899	423.69
378.125	402.69
378.35	388.69
378.576	388.69
378.802	414.69
379.027	406.69
379.253	418.69
379.478	416.69
379.704	394.69
379.929	434.69
380.155	431.69
380.38	434.69
380.606	423.69
380.831	409.69
381.057	418.69
381.282	413.69
381.507	425.69
381.733	419.69
381.958	410.69
382.184	417.69
382.409	414.69
382.634	438.69
382.86	424.69
383.085	413.69
383.31	434.69
383.535	434.69
383.761	415.69
383.986	433.69
384.211	412.69
384.436	425.69
384.662	424.69
384.887	433.69
385.112	451.69
385.337	435.69
385.562	423.69
385.787	433.69
386.013	448.69
386.238	445.69
386.463	450.69
386.688	445.69
386.913	427.69
387.138	472.69
387.363	420.69
387.588	438.69
387.813	447.69
388.038	458.69
388.263	440.69
388.488	436.69
388.713	437.69
388.938	445.69
389.163	449.69
389.387	469.69
389.612	444.69
389.837	423.69
390.062	427.69
390.287	446.69
390.512	443.69
390.736	436.69
390.961	424.69
391.186	458.69
391.411	454.69
391.636	455.69
391.86	474.69
392.085	433.69
392.31	454.69
392.534	435.69
392.759	427.69
392.984	439.69
393.208	467.69
393.433	464.69
393.658	429.69
393.882	457.69
394.107	450.69
394.331	432.69
394.556	455.69
394.78	431.69
395.005	459.69
395.229	440.69
395.454	447.69
395.678	458.69
395.903	470.69
396.127	505.69
396.352	501.69
396.576	490.69
396.801	472.69
397.025	489.69
397.249	458.69
397.474	457.69
397.698	483.69
397.922	501.69
398.147	500.69
398.371	517.69
398.595	502.69
398.82	503.69
399.044	502.69
399.268	517.69
399.492	543.69
399.717	565.69
399.941	593.69
400.165	619.69
400.389	626.69
400.613	576.69
400.837	535.69
401.062	528.69
401.286	539.69
401.51	519.69
401.734	516.69
401.958	518.69
402.182	527.69
402.406	523.69
402.63	545.69
402.854	534.69
403.078	512.69
403.302	525.69
403.526	543.69
403.75	544.69
403.974	531.69
404.198	518.69
404.422	527.69
404.645	553.69
404.869	563.69
405.093	595.69
405.317	626.69
405.541	661.69
405.765	605.69
405.988	599.69
406.212	601.69
406.436	617.69
406.66	618.69
406.883	590.69
407.107	639.69
407.331	693.69
407.555	742.69
407.778	724.69
408.002	665.69
408.226	626.69
408.449	637.69
408.673	609.69
408.896	669.69
409.12	673.69
409.344	647.69
409.567	601.69
409.791	567.69
410.014	536.69
410.238	545.69
410.461	540.69
410.685	555.69
410.908	581.69
411.132	610.69
411.355	631.69
411.578	622.69
411.802	601.69
412.025	546.69
412.249	541.69
412.472	606.69
412.695	631.69
412.919	619.69
413.142	575.69
413.365	538.69
413.589	553.69
413.812	539.69
414.035	542.69
414.258	503.69
414.482	497.69
414.705	491.69
414.928	522.69
415.151	503.69
415.374	509.69
415.597	523.69
415.821	498.69
416.044	529.69
416.267	524.69
416.49	509.69
416.713	486.69
416.936	523.69
417.159	517.69
417.382	536.69
417.605	537.69
417.828	544.69
418.051	588.69
418.274	550.69
418.497	509.69
418.72	522.69
418.943	520.69
419.166	515.69
419.389	553.69
419.611	541.69
419.834	552.69
420.057	566.69
420.28	545.69
420.503	548.69
420.726	542.69
420.948	587.69
421.171	615.69
421.394	635.69
421.617	593.69
421.839	550.69
422.062	570.69
422.285	567.69
422.507	666.69
422.73	717.69
422.953	709.69
423.175	621.69
423.398	598.69
423.621	611.69
423.843	629.69
424.066	626.69
424.288	617.69
424.511	629.69
424.733	695.69
424.956	798.69
425.178	749.69
425.401	775.69
425.623	771.69
425.846	660.69
426.068	623.69
426.291	621.69
426.513	597.69
426.735	660.69
426.958	680.69
427.18	799.69
427.402	916.69
427.625	1036.69
427.847	953.69
428.069	785.69
428.292	701.69
428.514	643.69
428.736	606.69
428.958	597.69
429.181	587.69
429.403	573.69
429.625	598.69
429.847	637.69
430.069	709.69
430.292	729.69
430.514	610.69
430.736	601.69
430.958	566.69
431.18	553.69
431.402	537.69
431.624	534.69
431.846	518.69
432.068	513.69
432.29	553.69
432.512	541.69
432.734	551.69
432.956	557.69
433.178	559.69
433.4	564.69
433.622	543.69
433.844	535.69
434.066	531.69
434.287	521.69
434.509	515.69
434.731	551.69
434.953	555.69
435.175	570.69
435.397	613.69
435.618	633.69
435.84	682.69
436.062	816.69
436.284	892.69
436.505	718.69
436.727	663.69
436.949	605.69
437.17	586.69
437.392	597.69
437.614	616.69
437.835	649.69
438.057	794.69
438.278	904.69
438.5	891.69
438.721	948.69
438.943	900.69
439.165	736.69
439.386	669.69
439.608	634.69
439.829	643.69
440.05	682.69
440.272	765.69
440.493	715.69
440.715	657.69
440.936	617.69
441.158	605.69
441.379	563.69
441.6	610.69
441.822	637.69
442.043	663.69
442.264	791.69
442.486	829.69
442.707	703.69
442.928	663.69
443.149	639.69
443.371	681.69
443.592	739.69
443.813	844.69
444.034	891.69
444.255	725.69
444.476	641.69
444.698	617.69
444.919	610.69
445.14	743.69
445.361	675.69
445.582	691.69
445.803	793.69
446.024	908.69
446.245	907.69
446.466	837.69
446.687	694.69
446.908	630.69
447.129	625.69
447.35	591.69
447.571	595.69
447.792	580.69
448.013	577.69
448.234	633.69
448.455	679.69
448.675	820.69
448.896	936.69
449.117	799.69
449.338	779.69
449.559	843.69
449.779	974.69
450	804.69
450.221	639.69
450.442	623.69
450.662	596.69
450.883	591.69
451.104	618.69
451.324	628.69
451.545	582.69
451.766	553.69
451.986	529.69
452.207	547.69
452.428	538.69
452.648	501.69
452.869	520.69
453.089	530.69
453.31	536.69
453.53	543.69
453.751	520.69
453.971	544.69
454.192	540.69
454.412	559.69
454.633	533.69
454.853	523.69
455.073	542.69
455.294	564.69
455.514	643.69
455.734	641.69
455.955	562.69
456.175	509.69
456.395	505.69
456.616	465.69
456.836	479.69
457.056	478.69
457.276	462.69
457.497	497.69
457.717	481.69
457.937	495.69
458.157	490.69
458.377	517.69
458.598	524.69
458.818	611.69
459.038	732.69
459.258	725.69
459.478	637.69
459.698	552.69
459.918	537.69
460.138	551.69
460.358	550.69
460.578	535.69
460.798	529.69
461.018	534.69
461.238	522.69
461.458	521.69
461.678	528.69
461.898	509.69
462.118	513.69
462.338	528.69
462.558	541.69
462.777	541.69
462.997	551.69
463.217	553.69
463.437	559.69
463.657	542.69
463.876	536.69
464.096	547.69
464.316	551.69
464.536	574.69
464.755	550.69
464.975	573.69
465.195	633.69
465.414	788.69
465.634	664.69
465.854	599.69
466.073	557.69
466.293	566.69
466.512	530.69
466.732	528.69
466.951	527.69
467.171	516.69
467.391	518.69
467.61	562.69
467.829	552.69
468.049	551.69
468.268	542.69
468.488	504.69
468.707	529.69
468.927	498.69
469.146	519.69
469.365	521.69
469.585	522.69
469.804	542.69
470.023	553.69
470.243	538.69
470.462	545.69
470.681	570.69
470.901	573.69
471.12	557.69
471.339	534.69
471.558	546.69
471.777	550.69
471.997	549.69
472.216	552.69
472.435	598.69
472.654	585.69
472.873	549.69
473.092	539.69
473.311	550.69
473.53	551.69
473.749	533.69
473.968	582.69
474.187	712.69
474.406	777.69
474.625	632.69
474.844	583.69
475.063	546.69
475.282	554.69
475.501	534.69
475.72	562.69
475.939	571.69
476.158	574.69
476.377	551.69
476.596	557.69
476.814	553.69
477.033	596.69
477.252	575.69
477.471	573.69
477.69	562.69
477.908	593.69
478.127	601.69
478.346	593.69
478.564	587.69
478.783	623.69
479.002	601.69
479.22	601.69
479.439	625.69
479.658	673.69
479.876	655.69
480.095	675.69
480.313	681.69
480.532	672.69
480.751	657.69
480.969	673.69
481.188	771.69
481.406	794.69
481.624	719.69
481.843	701.69
482.061	667.69
482.28	659.69
482.498	624.69
482.717	634.69
482.935	638.69
483.153	628.69
483.372	629.69
483.59	636.69
483.808	628.69
484.027	663.69
484.245	647.69
484.463	661.69
484.681	674.69
484.9	647.69
485.118	661.69
485.336	661.69
485.554	664.69
485.772	678.69
485.99	666.69
486.209	667.69
486.427	652.69
486.645	679.69
486.863	727.69
487.081	693.69
487.299	691.69
487.517	692.69
487.735	687.69
487.953	698.69
488.171	729.69
488.389	703.69
488.607	712.69
488.825	699.69
489.043	701.69
489.261	718.69
489.479	724.69
489.696	732.69
489.914	738.69
490.132	694.69
490.35	735.69
490.568	751.69
490.786	765.69
491.003	777.69
491.221	793.69
491.439	809.69
491.657	816.69
491.874	817.69
492.092	821.69
492.31	846.69
492.527	835.69
492.745	836.69
492.963	817.69
493.18	853.69
493.398	829.69
493.615	867.69
493.833	855.69
494.05	838.69
494.268	881.69
494.485	889.69
494.703	852.69
494.92	847.69
495.138	837.69
495.355	869.69
495.573	890.69
495.79	849.69
496.008	841.69
496.225	855.69
496.442	867.69
496.66	865.69
496.877	855.69
497.094	854.69
497.312	825.69
497.529	856.69
497.746	864.69
497.963	885.69
498.181	915.69
498.398	884.69
498.615	893.69
498.832	892.69
499.049	924.69
499.267	914.69
499.484	908.69
499.701	955.69
499.918	977.69
500.135	979.69
500.352	1005.69
500.569	1013.69
500.786	1041.69
501.003	1023.69
501.22	1024.69
501.437	1022.69
