Data from 1971.PennyLincolnUp.Lamp.En5.5.200Scan.071719.P1._HRD10591_15-18-09-841.txt Node
Date: Thu Jul 18 15:18:09 EDT 2019
User: cochatt
Spectrometer: HR+D1059
Trigger mode: 1
Integration Time (sec): 1.000000E-1
Scans to average: 1
Electric dark correction enabled: true
Nonlinearity correction enabled: false
Boxcar width: 0
XAxis mode: Wavelengths
Number of Pixels in Spectrum: 2048
>>>>>Begin Spectral Data<<<<<
223.165	-11.06
223.4	-11.06
223.635	-11.06
223.869	-3.06
224.104	-15.06
224.338	-22.06
224.573	-12.06
224.808	-12.06
225.042	-12.06
225.277	-11.06
225.511	4.94
225.746	-0.06
225.98	-3.06
226.215	4.94
226.449	17.94
226.683	20.94
226.918	25.94
227.152	26.94
227.387	30.94
227.621	39.94
227.856	42.94
228.09	52.94
228.324	42.94
228.559	63.94
228.793	58.94
229.027	96.94
229.262	94.94
229.496	110.94
229.73	112.94
229.964	138.94
230.199	114.94
230.433	101.94
230.667	122.94
230.901	118.94
231.136	119.94
231.37	112.94
231.604	116.94
231.838	99.94
232.072	103.94
232.306	105.94
232.541	121.94
232.775	112.94
233.009	106.94
233.243	101.94
233.477	109.94
233.711	107.94
233.945	102.94
234.179	113.94
234.413	98.94
234.647	108.94
234.881	121.94
235.115	105.94
235.349	110.94
235.583	107.94
235.817	99.94
236.051	118.94
236.285	106.94
236.519	120.94
236.753	118.94
236.987	139.94
237.221	148.94
237.455	188.94
237.689	166.94
237.922	115.94
238.156	109.94
238.39	109.94
238.624	106.94
238.858	113.94
239.091	124.94
239.325	125.94
239.559	132.94
239.793	116.94
240.027	137.94
240.26	129.94
240.494	143.94
240.728	112.94
240.961	122.94
241.195	153.94
241.429	140.94
241.662	130.94
241.896	109.94
242.13	123.94
242.363	118.94
242.597	134.94
242.83	127.94
243.064	117.94
243.298	125.94
243.531	121.94
243.765	115.94
243.998	133.94
244.232	142.94
244.465	138.94
244.699	132.94
244.932	150.94
245.166	146.94
245.399	128.94
245.633	124.94
245.866	131.94
246.099	137.94
246.333	136.94
246.566	151.94
246.8	140.94
247.033	148.94
247.266	169.94
247.5	160.94
247.733	135.94
247.966	162.94
248.2	145.94
248.433	149.94
248.666	162.94
248.899	152.94
249.133	173.94
249.366	183.94
249.599	192.94
249.832	166.94
250.066	174.94
250.299	169.94
250.532	158.94
250.765	182.94
250.998	201.94
251.231	196.94
251.465	195.94
251.698	180.94
251.931	185.94
252.164	178.94
252.397	167.94
252.63	176.94
252.863	202.94
253.096	198.94
253.329	205.94
253.562	206.94
253.795	202.94
254.028	205.94
254.261	204.94
254.494	209.94
254.727	240.94
254.96	237.94
255.193	247.94
255.426	219.94
255.659	206.94
255.892	218.94
256.124	222.94
256.357	198.94
256.59	215.94
256.823	195.94
257.056	185.94
257.289	196.94
257.521	192.94
257.754	178.94
257.987	213.94
258.22	191.94
258.452	181.94
258.685	205.94
258.918	192.94
259.151	202.94
259.383	212.94
259.616	196.94
259.849	209.94
260.081	237.94
260.314	223.94
260.547	227.94
260.779	229.94
261.012	212.94
261.244	210.94
261.477	215.94
261.71	218.94
261.942	205.94
262.175	223.94
262.407	217.94
262.64	194.94
262.872	196.94
263.105	194.94
263.337	196.94
263.57	200.94
263.802	212.94
264.035	199.94
264.267	193.94
264.499	226.94
264.732	211.94
264.964	202.94
265.197	221.94
265.429	211.94
265.661	198.94
265.894	196.94
266.126	209.94
266.358	188.94
266.591	213.94
266.823	209.94
267.055	224.94
267.287	229.94
267.52	209.94
267.752	211.94
267.984	217.94
268.216	220.94
268.448	223.94
268.681	213.94
268.913	224.94
269.145	252.94
269.377	254.94
269.609	255.94
269.841	258.94
270.073	242.94
270.306	276.94
270.538	284.94
270.77	281.94
271.002	281.94
271.234	259.94
271.466	272.94
271.698	276.94
271.93	277.94
272.162	278.94
272.394	273.94
272.626	277.94
272.858	265.94
273.09	256.94
273.322	247.94
273.553	257.94
273.785	254.94
274.017	235.94
274.249	242.94
274.481	227.94
274.713	252.94
274.945	247.94
275.176	252.94
275.408	256.94
275.64	246.94
275.872	230.94
276.104	244.94
276.335	236.94
276.567	239.94
276.799	250.94
277.031	267.94
277.262	277.94
277.494	286.94
277.726	271.94
277.957	275.94
278.189	277.94
278.421	252.94
278.652	252.94
278.884	250.94
279.115	261.94
279.347	250.94
279.579	251.94
279.81	241.94
280.042	260.94
280.273	251.94
280.505	237.94
280.736	245.94
280.968	242.94
281.199	256.94
281.431	246.94
281.662	255.94
281.894	244.94
282.125	265.94
282.356	248.94
282.588	273.94
282.819	282.94
283.051	287.94
283.282	254.94
283.513	256.94
283.745	264.94
283.976	242.94
284.207	255.94
284.439	259.94
284.67	271.94
284.901	255.94
285.132	263.94
285.364	268.94
285.595	246.94
285.826	259.94
286.057	266.94
286.288	252.94
286.52	261.94
286.751	258.94
286.982	266.94
287.213	268.94
287.444	278.94
287.675	276.94
287.906	265.94
288.138	273.94
288.369	281.94
288.6	291.94
288.831	270.94
289.062	276.94
289.293	256.94
289.524	268.94
289.755	276.94
289.986	259.94
290.217	262.94
290.448	263.94
290.679	274.94
290.91	267.94
291.141	265.94
291.371	260.94
291.602	251.94
291.833	268.94
292.064	274.94
292.295	266.94
292.526	293.94
292.757	264.94
292.987	262.94
293.218	279.94
293.449	279.94
293.68	288.94
293.91	270.94
294.141	287.94
294.372	270.94
294.603	258.94
294.833	270.94
295.064	287.94
295.295	293.94
295.525	274.94
295.756	277.94
295.987	271.94
296.217	291.94
296.448	294.94
296.679	294.94
296.909	294.94
297.14	277.94
297.37	278.94
297.601	298.94
297.831	271.94
298.062	283.94
298.292	256.94
298.523	282.94
298.753	287.94
298.984	265.94
299.214	284.94
299.445	290.94
299.675	291.94
299.905	293.94
300.136	304.94
300.366	266.94
300.597	273.94
300.827	295.94
301.057	308.94
301.288	304.94
301.518	294.94
301.748	308.94
301.979	296.94
302.209	297.94
302.439	310.94
302.669	301.94
302.9	328.94
303.13	314.94
303.36	314.94
303.59	322.94
303.82	301.94
304.051	320.94
304.281	305.94
304.511	296.94
304.741	306.94
304.971	293.94
305.201	291.94
305.431	317.94
305.661	312.94
305.891	294.94
306.121	296.94
306.352	308.94
306.582	318.94
306.812	299.94
307.042	310.94
307.272	306.94
307.502	310.94
307.731	313.94
307.961	325.94
308.191	295.94
308.421	313.94
308.651	295.94
308.881	296.94
309.111	301.94
309.341	308.94
309.571	326.94
309.8	337.94
310.03	327.94
310.26	326.94
310.49	350.94
310.72	360.94
310.949	345.94
311.179	354.94
311.409	356.94
311.639	355.94
311.868	343.94
312.098	345.94
312.328	334.94
312.557	352.94
312.787	338.94
313.017	344.94
313.246	340.94
313.476	348.94
313.706	355.94
313.935	357.94
314.165	346.94
314.394	340.94
314.624	357.94
314.853	360.94
315.083	364.94
315.312	348.94
315.542	347.94
315.771	355.94
316.001	324.94
316.23	327.94
316.46	359.94
316.689	349.94
316.919	348.94
317.148	358.94
317.377	359.94
317.607	345.94
317.836	329.94
318.065	348.94
318.295	333.94
318.524	348.94
318.753	344.94
318.983	355.94
319.212	350.94
319.441	352.94
319.67	357.94
319.9	361.94
320.129	357.94
320.358	363.94
320.587	361.94
320.816	341.94
321.046	372.94
321.275	353.94
321.504	351.94
321.733	345.94
321.962	373.94
322.191	366.94
322.42	363.94
322.649	400.94
322.878	394.94
323.108	387.94
323.337	423.94
323.566	444.94
323.795	440.94
324.024	494.94
324.253	567.94
324.482	786.94
324.71	1156.94
324.939	1538.94
325.168	1318.94
325.397	721.94
325.626	517.94
325.855	448.94
326.084	441.94
326.313	428.94
326.542	436.94
326.77	464.94
326.999	529.94
327.228	706.94
327.457	1008.94
327.686	1174.94
327.914	796.94
328.143	559.94
328.372	493.94
328.6	466.94
328.829	453.94
329.058	483.94
329.287	468.94
329.515	462.94
329.744	428.94
329.972	424.94
330.201	438.94
330.43	438.94
330.658	469.94
330.887	478.94
331.115	495.94
331.344	447.94
331.572	431.94
331.801	431.94
332.03	424.94
332.258	404.94
332.486	388.94
332.715	411.94
332.943	416.94
333.172	410.94
333.4	410.94
333.629	420.94
333.857	407.94
334.085	432.94
334.314	432.94
334.542	414.94
334.771	458.94
334.999	416.94
335.227	408.94
335.455	407.94
335.684	410.94
335.912	390.94
336.14	390.94
336.369	399.94
336.597	394.94
336.825	412.94
337.053	387.94
337.281	406.94
337.51	379.94
337.738	380.94
337.966	398.94
338.194	404.94
338.422	408.94
338.65	389.94
338.878	390.94
339.106	370.94
339.334	381.94
339.562	382.94
339.79	374.94
340.018	387.94
340.246	390.94
340.474	380.94
340.702	390.94
340.93	375.94
341.158	380.94
341.386	385.94
341.614	357.94
341.842	368.94
342.07	364.94
342.298	378.94
342.526	387.94
342.754	363.94
342.981	360.94
343.209	373.94
343.437	373.94
343.665	376.94
343.893	366.94
344.12	380.94
344.348	381.94
344.576	382.94
344.804	390.94
345.031	391.94
345.259	396.94
345.487	388.94
345.714	369.94
345.942	373.94
346.17	352.94
346.397	372.94
346.625	379.94
346.853	348.94
347.08	372.94
347.308	359.94
347.535	371.94
347.763	355.94
347.99	357.94
348.218	361.94
348.445	374.94
348.673	365.94
348.9	379.94
349.128	352.94
349.355	364.94
349.583	361.94
349.81	350.94
350.037	350.94
350.265	340.94
350.492	355.94
350.72	348.94
350.947	346.94
351.174	374.94
351.402	361.94
351.629	378.94
351.856	380.94
352.083	377.94
352.311	363.94
352.538	352.94
352.765	364.94
352.992	362.94
353.22	359.94
353.447	369.94
353.674	340.94
353.901	356.94
354.128	348.94
354.355	333.94
354.583	350.94
354.81	312.94
355.037	343.94
355.264	333.94
355.491	343.94
355.718	332.94
355.945	331.94
356.172	313.94
356.399	347.94
356.626	335.94
356.853	349.94
357.08	354.94
357.307	341.94
357.534	346.94
357.761	361.94
357.988	350.94
358.215	334.94
358.441	333.94
358.668	351.94
358.895	337.94
359.122	320.94
359.349	351.94
359.576	360.94
359.802	376.94
360.029	383.94
360.256	383.94
360.483	378.94
360.709	380.94
360.936	352.94
361.163	347.94
361.39	335.94
361.616	369.94
361.843	362.94
362.07	338.94
362.296	346.94
362.523	345.94
362.749	348.94
362.976	334.94
363.203	341.94
363.429	348.94
363.656	334.94
363.882	356.94
364.109	332.94
364.335	348.94
364.562	335.94
364.788	333.94
365.015	335.94
365.241	363.94
365.468	349.94
365.694	352.94
365.92	337.94
366.147	340.94
366.373	347.94
366.599	345.94
366.826	332.94
367.052	321.94
367.278	354.94
367.505	326.94
367.731	341.94
367.957	340.94
368.184	345.94
368.41	330.94
368.636	335.94
368.862	346.94
369.089	339.94
369.315	314.94
369.541	322.94
369.767	340.94
369.993	355.94
370.219	330.94
370.445	341.94
370.672	343.94
370.898	332.94
371.124	333.94
371.35	342.94
371.576	335.94
371.802	316.94
372.028	311.94
372.254	323.94
372.48	332.94
372.706	325.94
372.932	327.94
373.158	331.94
373.384	341.94
373.61	339.94
373.835	327.94
374.061	331.94
374.287	321.94
374.513	357.94
374.739	325.94
374.965	359.94
375.191	353.94
375.416	337.94
375.642	342.94
375.868	347.94
376.094	321.94
376.319	320.94
376.545	316.94
376.771	306.94
376.997	322.94
377.222	341.94
377.448	313.94
377.674	351.94
377.899	342.94
378.125	327.94
378.35	341.94
378.576	338.94
378.802	313.94
379.027	333.94
379.253	352.94
379.478	318.94
379.704	330.94
379.929	316.94
380.155	310.94
380.38	335.94
380.606	348.94
380.831	328.94
381.057	330.94
381.282	332.94
381.507	330.94
381.733	333.94
381.958	332.94
382.184	345.94
382.409	334.94
382.634	343.94
382.86	323.94
383.085	340.94
383.31	348.94
383.535	336.94
383.761	347.94
383.986	324.94
384.211	330.94
384.436	356.94
384.662	346.94
384.887	352.94
385.112	346.94
385.337	353.94
385.562	344.94
385.787	347.94
386.013	359.94
386.238	359.94
386.463	353.94
386.688	372.94
386.913	365.94
387.138	352.94
387.363	350.94
387.588	359.94
387.813	349.94
388.038	354.94
388.263	353.94
388.488	341.94
388.713	340.94
388.938	356.94
389.163	360.94
389.387	347.94
389.612	345.94
389.837	331.94
390.062	344.94
390.287	334.94
390.512	349.94
390.736	349.94
390.961	323.94
391.186	356.94
391.411	365.94
391.636	366.94
391.86	369.94
392.085	342.94
392.31	352.94
392.534	353.94
392.759	347.94
392.984	357.94
393.208	365.94
393.433	362.94
393.658	352.94
393.882	349.94
394.107	350.94
394.331	357.94
394.556	334.94
394.78	371.94
395.005	352.94
395.229	346.94
395.454	371.94
395.678	373.94
395.903	351.94
396.127	379.94
396.352	352.94
396.576	361.94
396.801	352.94
397.025	375.94
397.249	360.94
397.474	355.94
397.698	377.94
397.922	372.94
398.147	378.94
398.371	390.94
398.595	376.94
398.82	379.94
399.044	385.94
399.268	410.94
399.492	422.94
399.717	440.94
399.941	450.94
400.165	450.94
400.389	477.94
400.613	429.94
400.837	412.94
401.062	401.94
401.286	388.94
401.51	369.94
401.734	382.94
401.958	365.94
402.182	384.94
402.406	405.94
402.63	380.94
402.854	394.94
403.078	385.94
403.302	409.94
403.526	391.94
403.75	397.94
403.974	394.94
404.198	382.94
404.422	409.94
404.645	414.94
404.869	402.94
405.093	410.94
405.317	444.94
405.541	477.94
405.765	428.94
405.988	423.94
406.212	430.94
406.436	441.94
406.66	428.94
406.883	418.94
407.107	445.94
407.331	498.94
407.555	501.94
407.778	497.94
408.002	474.94
408.226	447.94
408.449	441.94
408.673	436.94
408.896	442.94
409.12	488.94
409.344	460.94
409.567	429.94
409.791	402.94
410.014	400.94
410.238	406.94
410.461	389.94
410.685	422.94
410.908	394.94
411.132	432.94
411.355	467.94
411.578	430.94
411.802	417.94
412.025	397.94
412.249	400.94
412.472	398.94
412.695	435.94
412.919	408.94
413.142	408.94
413.365	383.94
413.589	397.94
413.812	394.94
414.035	387.94
414.258	356.94
414.482	367.94
414.705	383.94
414.928	366.94
415.151	366.94
415.374	369.94
415.597	368.94
415.821	370.94
416.044	366.94
416.267	384.94
416.49	388.94
416.713	372.94
416.936	379.94
417.159	363.94
417.382	363.94
417.605	388.94
417.828	381.94
418.051	391.94
418.274	371.94
418.497	359.94
418.72	378.94
418.943	356.94
419.166	372.94
419.389	400.94
419.611	380.94
419.834	402.94
420.057	398.94
420.28	392.94
420.503	394.94
420.726	376.94
420.948	400.94
421.171	413.94
421.394	466.94
421.617	404.94
421.839	394.94
422.062	393.94
422.285	400.94
422.507	453.94
422.73	488.94
422.953	476.94
423.175	424.94
423.398	412.94
423.621	404.94
423.843	438.94
424.066	426.94
424.288	422.94
424.511	449.94
424.733	465.94
424.956	521.94
425.178	512.94
425.401	499.94
425.623	506.94
425.846	441.94
426.068	438.94
426.291	417.94
426.513	431.94
426.735	414.94
426.958	446.94
427.18	499.94
427.402	586.94
427.625	656.94
427.847	563.94
428.069	478.94
428.292	445.94
428.514	399.94
428.736	392.94
428.958	394.94
429.181	380.94
429.403	376.94
429.625	378.94
429.847	425.94
430.069	440.94
430.292	460.94
430.514	389.94
430.736	390.94
430.958	360.94
431.18	370.94
431.402	365.94
431.624	376.94
431.846	363.94
432.068	347.94
432.29	340.94
432.512	355.94
432.734	363.94
432.956	364.94
433.178	388.94
433.4	379.94
433.622	387.94
433.844	375.94
434.066	380.94
434.287	383.94
434.509	356.94
434.731	354.94
434.953	380.94
435.175	400.94
435.397	416.94
435.618	401.94
435.84	446.94
436.062	499.94
436.284	574.94
436.505	462.94
436.727	428.94
436.949	393.94
437.17	398.94
437.392	384.94
437.614	377.94
437.835	412.94
438.057	475.94
438.278	543.94
438.5	538.94
438.721	603.94
438.943	563.94
439.165	445.94
439.386	424.94
439.608	423.94
439.829	420.94
440.05	441.94
440.272	459.94
440.493	460.94
440.715	393.94
440.936	411.94
441.158	368.94
441.379	376.94
441.6	412.94
441.822	410.94
442.043	426.94
442.264	487.94
442.486	528.94
442.707	434.94
442.928	421.94
443.149	422.94
443.371	450.94
443.592	462.94
443.813	546.94
444.034	576.94
444.255	453.94
444.476	430.94
444.698	416.94
444.919	421.94
445.14	525.94
445.361	477.94
445.582	434.94
445.803	488.94
446.024	554.94
446.245	563.94
446.466	508.94
446.687	432.94
446.908	428.94
447.129	386.94
447.35	388.94
447.571	381.94
447.792	376.94
448.013	379.94
448.234	412.94
448.455	422.94
448.675	528.94
448.896	599.94
449.117	520.94
449.338	484.94
449.559	560.94
449.779	635.94
450	480.94
450.221	440.94
450.442	391.94
450.662	392.94
450.883	376.94
451.104	377.94
451.324	379.94
451.545	364.94
451.766	368.94
451.986	340.94
452.207	332.94
452.428	330.94
452.648	347.94
452.869	323.94
453.089	356.94
453.31	345.94
453.53	324.94
453.751	335.94
453.971	354.94
454.192	365.94
454.412	342.94
454.633	319.94
454.853	332.94
455.073	331.94
455.294	381.94
455.514	400.94
455.734	410.94
455.955	359.94
456.175	316.94
456.395	322.94
456.616	312.94
456.836	328.94
457.056	329.94
457.276	322.94
457.497	324.94
457.717	327.94
457.937	339.94
458.157	331.94
458.377	332.94
458.598	337.94
458.818	361.94
459.038	435.94
459.258	445.94
459.478	381.94
459.698	350.94
459.918	357.94
460.138	350.94
460.358	359.94
460.578	361.94
460.798	377.94
461.018	341.94
461.238	373.94
461.458	368.94
461.678	375.94
461.898	363.94
462.118	361.94
462.338	379.94
462.558	382.94
462.777	380.94
462.997	388.94
463.217	368.94
463.437	361.94
463.657	384.94
463.876	396.94
464.096	388.94
464.316	389.94
464.536	384.94
464.755	395.94
464.975	392.94
465.195	411.94
465.414	438.94
465.634	390.94
465.854	372.94
466.073	390.94
466.293	354.94
466.512	338.94
466.732	341.94
466.951	340.94
467.171	341.94
467.391	358.94
467.61	357.94
467.829	351.94
468.049	343.94
468.268	341.94
468.488	316.94
468.707	320.94
468.927	351.94
469.146	353.94
469.365	333.94
469.585	343.94
469.804	339.94
470.023	355.94
470.243	347.94
470.462	356.94
470.681	355.94
470.901	347.94
471.12	349.94
471.339	358.94
471.558	372.94
471.777	358.94
471.997	346.94
472.216	339.94
472.435	352.94
472.654	347.94
472.873	355.94
473.092	358.94
473.311	334.94
473.53	361.94
473.749	364.94
473.968	396.94
474.187	465.94
474.406	464.94
474.625	376.94
474.844	394.94
475.063	356.94
475.282	339.94
475.501	348.94
475.72	350.94
475.939	348.94
476.158	365.94
476.377	375.94
476.596	384.94
476.814	362.94
477.033	372.94
477.252	364.94
477.471	363.94
477.69	378.94
477.908	364.94
478.127	377.94
478.346	380.94
478.564	398.94
478.783	386.94
479.002	381.94
479.22	406.94
479.439	436.94
479.658	402.94
479.876	418.94
480.095	395.94
480.313	421.94
480.532	426.94
480.751	408.94
480.969	411.94
481.188	437.94
481.406	441.94
481.624	436.94
481.843	405.94
482.061	399.94
482.28	412.94
482.498	425.94
482.717	385.94
482.935	428.94
483.153	417.94
483.372	412.94
483.59	424.94
483.808	399.94
484.027	383.94
484.245	417.94
484.463	424.94
484.681	426.94
484.9	405.94
485.118	404.94
485.336	409.94
485.554	422.94
485.772	398.94
485.99	408.94
486.209	438.94
486.427	418.94
486.645	436.94
486.863	441.94
487.081	419.94
487.299	430.94
487.517	436.94
487.735	429.94
487.953	442.94
488.171	460.94
488.389	445.94
488.607	440.94
488.825	444.94
489.043	442.94
489.261	427.94
489.479	429.94
489.696	448.94
489.914	438.94
490.132	442.94
490.35	452.94
490.568	468.94
490.786	446.94
491.003	476.94
491.221	468.94
491.439	481.94
491.657	490.94
491.874	510.94
492.092	511.94
492.31	530.94
492.527	490.94
492.745	478.94
492.963	524.94
493.18	481.94
493.398	504.94
493.615	500.94
493.833	510.94
494.05	512.94
494.268	522.94
494.485	502.94
494.703	507.94
494.92	512.94
495.138	536.94
495.355	508.94
495.573	516.94
495.79	498.94
496.008	504.94
496.225	508.94
496.442	508.94
496.66	534.94
496.877	546.94
497.094	527.94
497.312	546.94
497.529	539.94
497.746	532.94
497.963	560.94
498.181	559.94
498.398	585.94
498.615	553.94
498.832	574.94
499.049	569.94
499.267	590.94
499.484	603.94
499.701	611.94
499.918	630.94
500.135	680.94
500.352	675.94
500.569	695.94
500.786	706.94
501.003	701.94
501.22	655.94
501.437	646.94
501.654	640.94
501.871	630.94
