Data from 1971.PennyLincolnUp.Lamp.En5.5.200Scan.071719.P1._HRD10591_15-19-27-841.txt Node
Date: Thu Jul 18 15:19:27 EDT 2019
User: cochatt
Spectrometer: HR+D1059
Trigger mode: 1
Integration Time (sec): 1.000000E-1
Scans to average: 1
Electric dark correction enabled: true
Nonlinearity correction enabled: false
Boxcar width: 0
XAxis mode: Wavelengths
Number of Pixels in Spectrum: 2048
>>>>>Begin Spectral Data<<<<<
223.165	-14.5
223.4	-14.5
223.635	-14.5
223.869	-22.5
224.104	-27.5
224.338	-17.5
224.573	-5.5
224.808	-10.5
225.042	-14.5
225.277	-7.5
225.511	2.5
225.746	-0.5
225.98	16.5
226.215	30.5
226.449	7.5
226.683	9.5
226.918	23.5
227.152	30.5
227.387	25.5
227.621	38.5
227.856	52.5
228.09	49.5
228.324	64.5
228.559	43.5
228.793	70.5
229.027	95.5
229.262	107.5
229.496	100.5
229.73	124.5
229.964	141.5
230.199	128.5
230.433	118.5
230.667	104.5
230.901	100.5
231.136	118.5
231.37	117.5
231.604	105.5
231.838	117.5
232.072	101.5
232.306	131.5
232.541	117.5
232.775	110.5
233.009	110.5
233.243	114.5
233.477	114.5
233.711	107.5
233.945	122.5
234.179	125.5
234.413	122.5
234.647	114.5
234.881	114.5
235.115	110.5
235.349	119.5
235.583	115.5
235.817	125.5
236.051	113.5
236.285	113.5
236.519	114.5
236.753	118.5
236.987	132.5
237.221	176.5
237.455	204.5
237.689	170.5
237.922	134.5
238.156	126.5
238.39	128.5
238.624	124.5
238.858	109.5
239.091	117.5
239.325	109.5
239.559	118.5
239.793	118.5
240.027	124.5
240.26	132.5
240.494	158.5
240.728	141.5
240.961	151.5
241.195	130.5
241.429	149.5
241.662	133.5
241.896	139.5
242.13	115.5
242.363	128.5
242.597	134.5
242.83	139.5
243.064	147.5
243.298	148.5
243.531	127.5
243.765	129.5
243.998	147.5
244.232	141.5
244.465	156.5
244.699	167.5
244.932	156.5
245.166	139.5
245.399	142.5
245.633	156.5
245.866	143.5
246.099	130.5
246.333	162.5
246.566	162.5
246.8	156.5
247.033	141.5
247.266	167.5
247.5	168.5
247.733	180.5
247.966	177.5
248.2	164.5
248.433	181.5
248.666	188.5
248.899	192.5
249.133	207.5
249.366	210.5
249.599	185.5
249.832	181.5
250.066	193.5
250.299	181.5
250.532	191.5
250.765	205.5
250.998	222.5
251.231	242.5
251.465	226.5
251.698	203.5
251.931	202.5
252.164	191.5
252.397	201.5
252.63	202.5
252.863	211.5
253.096	214.5
253.329	229.5
253.562	233.5
253.795	220.5
254.028	214.5
254.261	217.5
254.494	229.5
254.727	259.5
254.96	276.5
255.193	280.5
255.426	260.5
255.659	226.5
255.892	245.5
256.124	226.5
256.357	243.5
256.59	234.5
256.823	214.5
257.056	219.5
257.289	206.5
257.521	213.5
257.754	226.5
257.987	213.5
258.22	209.5
258.452	217.5
258.685	221.5
258.918	217.5
259.151	202.5
259.383	224.5
259.616	218.5
259.849	235.5
260.081	243.5
260.314	265.5
260.547	268.5
260.779	247.5
261.012	243.5
261.244	227.5
261.477	234.5
261.71	244.5
261.942	242.5
262.175	221.5
262.407	238.5
262.64	219.5
262.872	218.5
263.105	210.5
263.337	211.5
263.57	224.5
263.802	226.5
264.035	227.5
264.267	198.5
264.499	231.5
264.732	207.5
264.964	219.5
265.197	215.5
265.429	216.5
265.661	221.5
265.894	225.5
266.126	224.5
266.358	227.5
266.591	244.5
266.823	234.5
267.055	245.5
267.287	246.5
267.52	229.5
267.752	234.5
267.984	225.5
268.216	233.5
268.448	244.5
268.681	258.5
268.913	270.5
269.145	282.5
269.377	291.5
269.609	277.5
269.841	279.5
270.073	280.5
270.306	295.5
270.538	331.5
270.77	321.5
271.002	306.5
271.234	313.5
271.466	301.5
271.698	307.5
271.93	323.5
272.162	316.5
272.394	321.5
272.626	302.5
272.858	305.5
273.09	285.5
273.322	289.5
273.553	271.5
273.785	285.5
274.017	273.5
274.249	277.5
274.481	273.5
274.713	289.5
274.945	267.5
275.176	278.5
275.408	261.5
275.64	262.5
275.872	281.5
276.104	273.5
276.335	274.5
276.567	269.5
276.799	307.5
277.031	309.5
277.262	312.5
277.494	325.5
277.726	325.5
277.957	301.5
278.189	289.5
278.421	278.5
278.652	285.5
278.884	261.5
279.115	267.5
279.347	276.5
279.579	270.5
279.81	287.5
280.042	275.5
280.273	287.5
280.505	269.5
280.736	276.5
280.968	278.5
281.199	284.5
281.431	278.5
281.662	268.5
281.894	284.5
282.125	279.5
282.356	303.5
282.588	306.5
282.819	310.5
283.051	292.5
283.282	283.5
283.513	286.5
283.745	294.5
283.976	280.5
284.207	292.5
284.439	286.5
284.67	283.5
284.901	295.5
285.132	284.5
285.364	281.5
285.595	273.5
285.826	286.5
286.057	305.5
286.288	278.5
286.52	285.5
286.751	279.5
286.982	293.5
287.213	297.5
287.444	309.5
287.675	299.5
287.906	325.5
288.138	317.5
288.369	318.5
288.6	319.5
288.831	308.5
289.062	309.5
289.293	313.5
289.524	307.5
289.755	292.5
289.986	315.5
290.217	309.5
290.448	282.5
290.679	300.5
290.91	278.5
291.141	299.5
291.371	295.5
291.602	302.5
291.833	271.5
292.064	296.5
292.295	321.5
292.526	291.5
292.757	289.5
292.987	290.5
293.218	296.5
293.449	305.5
293.68	314.5
293.91	310.5
294.141	298.5
294.372	294.5
294.603	309.5
294.833	317.5
295.064	302.5
295.295	297.5
295.525	295.5
295.756	306.5
295.987	296.5
296.217	346.5
296.448	346.5
296.679	323.5
296.909	314.5
297.14	318.5
297.37	275.5
297.601	298.5
297.831	316.5
298.062	316.5
298.292	296.5
298.523	325.5
298.753	315.5
298.984	309.5
299.214	322.5
299.445	312.5
299.675	312.5
299.905	325.5
300.136	302.5
300.366	334.5
300.597	327.5
300.827	328.5
301.057	316.5
301.288	341.5
301.518	326.5
301.748	337.5
301.979	338.5
302.209	327.5
302.439	347.5
302.669	321.5
302.9	324.5
303.13	333.5
303.36	323.5
303.59	319.5
303.82	349.5
304.051	348.5
304.281	353.5
304.511	335.5
304.741	328.5
304.971	339.5
305.201	334.5
305.431	324.5
305.661	318.5
305.891	317.5
306.121	344.5
306.352	336.5
306.582	333.5
306.812	334.5
307.042	331.5
307.272	328.5
307.502	338.5
307.731	341.5
307.961	334.5
308.191	341.5
308.421	346.5
308.651	351.5
308.881	359.5
309.111	351.5
309.341	341.5
309.571	385.5
309.8	357.5
310.03	360.5
310.26	396.5
310.49	377.5
310.72	377.5
310.949	408.5
311.179	409.5
311.409	376.5
311.639	380.5
311.868	389.5
312.098	378.5
312.328	379.5
312.557	398.5
312.787	404.5
313.017	397.5
313.246	385.5
313.476	390.5
313.706	379.5
313.935	373.5
314.165	397.5
314.394	409.5
314.624	387.5
314.853	371.5
315.083	375.5
315.312	383.5
315.542	388.5
315.771	376.5
316.001	358.5
316.23	362.5
316.46	382.5
316.689	379.5
316.919	403.5
317.148	389.5
317.377	383.5
317.607	404.5
317.836	391.5
318.065	392.5
318.295	378.5
318.524	362.5
318.753	377.5
318.983	379.5
319.212	379.5
319.441	384.5
319.67	397.5
319.9	382.5
320.129	397.5
320.358	386.5
320.587	395.5
320.816	388.5
321.046	417.5
321.275	389.5
321.504	391.5
321.733	406.5
321.962	426.5
322.191	418.5
322.42	440.5
322.649	447.5
322.878	443.5
323.108	459.5
323.337	473.5
323.566	500.5
323.795	527.5
324.024	587.5
324.253	693.5
324.482	952.5
324.71	1463.5
324.939	1936.5
325.168	1665.5
325.397	886.5
325.626	618.5
325.855	546.5
326.084	501.5
326.313	472.5
326.542	502.5
326.77	543.5
326.999	639.5
327.228	862.5
327.457	1276.5
327.686	1449.5
327.914	971.5
328.143	683.5
328.372	595.5
328.6	569.5
328.829	547.5
329.058	547.5
329.287	541.5
329.515	520.5
329.744	501.5
329.972	502.5
330.201	523.5
330.43	518.5
330.658	565.5
330.887	574.5
331.115	570.5
331.344	497.5
331.572	487.5
331.801	479.5
332.03	475.5
332.258	453.5
332.486	466.5
332.715	458.5
332.943	445.5
333.172	471.5
333.4	461.5
333.629	442.5
333.857	449.5
334.085	469.5
334.314	484.5
334.542	513.5
334.771	514.5
334.999	485.5
335.227	455.5
335.455	464.5
335.684	431.5
335.912	454.5
336.14	449.5
336.369	429.5
336.597	435.5
336.825	446.5
337.053	433.5
337.281	421.5
337.51	435.5
337.738	427.5
337.966	442.5
338.194	429.5
338.422	435.5
338.65	422.5
338.878	430.5
339.106	422.5
339.334	428.5
339.562	418.5
339.79	415.5
340.018	421.5
340.246	427.5
340.474	435.5
340.702	417.5
340.93	434.5
341.158	430.5
341.386	421.5
341.614	423.5
341.842	414.5
342.07	415.5
342.298	412.5
342.526	390.5
342.754	417.5
342.981	392.5
343.209	405.5
343.437	409.5
343.665	405.5
343.893	434.5
344.12	435.5
344.348	429.5
344.576	422.5
344.804	409.5
345.031	419.5
345.259	446.5
345.487	439.5
345.714	420.5
345.942	405.5
346.17	421.5
346.397	415.5
346.625	409.5
346.853	406.5
347.08	384.5
347.308	392.5
347.535	413.5
347.763	429.5
347.99	419.5
348.218	408.5
348.445	408.5
348.673	410.5
348.9	409.5
349.128	393.5
349.355	385.5
349.583	403.5
349.81	395.5
350.037	399.5
350.265	396.5
350.492	382.5
350.72	376.5
350.947	388.5
351.174	414.5
351.402	415.5
351.629	391.5
351.856	397.5
352.083	391.5
352.311	424.5
352.538	405.5
352.765	401.5
352.992	397.5
353.22	382.5
353.447	385.5
353.674	394.5
353.901	372.5
354.128	367.5
354.355	371.5
354.583	395.5
354.81	376.5
355.037	390.5
355.264	371.5
355.491	366.5
355.718	358.5
355.945	369.5
356.172	372.5
356.399	360.5
356.626	366.5
356.853	372.5
357.08	359.5
357.307	362.5
357.534	363.5
357.761	361.5
357.988	375.5
358.215	374.5
358.441	356.5
358.668	370.5
358.895	371.5
359.122	367.5
359.349	393.5
359.576	383.5
359.802	411.5
360.029	422.5
360.256	420.5
360.483	402.5
360.709	398.5
360.936	385.5
361.163	396.5
361.39	391.5
361.616	410.5
361.843	389.5
362.07	379.5
362.296	393.5
362.523	393.5
362.749	392.5
362.976	364.5
363.203	371.5
363.429	359.5
363.656	377.5
363.882	388.5
364.109	371.5
364.335	377.5
364.562	350.5
364.788	364.5
365.015	372.5
365.241	377.5
365.468	377.5
365.694	376.5
365.92	359.5
366.147	352.5
366.373	366.5
366.599	365.5
366.826	357.5
367.052	357.5
367.278	382.5
367.505	361.5
367.731	375.5
367.957	371.5
368.184	366.5
368.41	367.5
368.636	391.5
368.862	369.5
369.089	358.5
369.315	363.5
369.541	340.5
369.767	368.5
369.993	349.5
370.219	360.5
370.445	352.5
370.672	350.5
370.898	354.5
371.124	366.5
371.35	371.5
371.576	373.5
371.802	372.5
372.028	352.5
372.254	373.5
372.48	351.5
372.706	350.5
372.932	369.5
373.158	344.5
373.384	357.5
373.61	359.5
373.835	388.5
374.061	369.5
374.287	378.5
374.513	388.5
374.739	382.5
374.965	375.5
375.191	359.5
375.416	365.5
375.642	364.5
375.868	346.5
376.094	371.5
376.319	363.5
376.545	357.5
376.771	385.5
376.997	363.5
377.222	373.5
377.448	366.5
377.674	366.5
377.899	379.5
378.125	353.5
378.35	358.5
378.576	335.5
378.802	332.5
379.027	353.5
379.253	348.5
379.478	345.5
379.704	348.5
379.929	354.5
380.155	358.5
380.38	358.5
380.606	331.5
380.831	342.5
381.057	364.5
381.282	357.5
381.507	357.5
381.733	379.5
381.958	355.5
382.184	356.5
382.409	333.5
382.634	370.5
382.86	357.5
383.085	348.5
383.31	368.5
383.535	371.5
383.761	359.5
383.986	369.5
384.211	362.5
384.436	373.5
384.662	361.5
384.887	368.5
385.112	357.5
385.337	359.5
385.562	366.5
385.787	393.5
386.013	385.5
386.238	361.5
386.463	389.5
386.688	387.5
386.913	382.5
387.138	373.5
387.363	385.5
387.588	381.5
387.813	376.5
388.038	372.5
388.263	374.5
388.488	390.5
388.713	379.5
388.938	373.5
389.163	363.5
389.387	360.5
389.612	377.5
389.837	374.5
390.062	381.5
390.287	379.5
390.512	353.5
390.736	375.5
390.961	387.5
391.186	378.5
391.411	385.5
391.636	386.5
391.86	386.5
392.085	386.5
392.31	380.5
392.534	389.5
392.759	383.5
392.984	355.5
393.208	375.5
393.433	374.5
393.658	397.5
393.882	377.5
394.107	363.5
394.331	379.5
394.556	356.5
394.78	387.5
395.005	377.5
395.229	384.5
395.454	382.5
395.678	376.5
395.903	378.5
396.127	423.5
396.352	407.5
396.576	399.5
396.801	389.5
397.025	378.5
397.249	385.5
397.474	376.5
397.698	408.5
397.922	413.5
398.147	416.5
398.371	396.5
398.595	421.5
398.82	428.5
399.044	403.5
399.268	413.5
399.492	452.5
399.717	459.5
399.941	505.5
400.165	513.5
400.389	512.5
400.613	485.5
400.837	425.5
401.062	428.5
401.286	409.5
401.51	409.5
401.734	406.5
401.958	417.5
402.182	437.5
402.406	415.5
402.63	412.5
402.854	417.5
403.078	413.5
403.302	432.5
403.526	412.5
403.75	426.5
403.974	427.5
404.198	440.5
404.422	426.5
404.645	436.5
404.869	419.5
405.093	454.5
405.317	500.5
405.541	513.5
405.765	468.5
405.988	464.5
406.212	467.5
406.436	490.5
406.66	469.5
406.883	455.5
407.107	493.5
407.331	526.5
407.555	580.5
407.778	565.5
408.002	529.5
408.226	478.5
408.449	461.5
408.673	463.5
408.896	501.5
409.12	528.5
409.344	512.5
409.567	454.5
409.791	449.5
410.014	443.5
410.238	427.5
410.461	431.5
410.685	424.5
410.908	461.5
411.132	488.5
411.355	517.5
411.578	477.5
411.802	424.5
412.025	437.5
412.249	450.5
412.472	469.5
412.695	462.5
412.919	472.5
413.142	440.5
413.365	428.5
413.589	413.5
413.812	406.5
414.035	403.5
414.258	423.5
414.482	401.5
414.705	395.5
414.928	403.5
415.151	400.5
415.374	406.5
415.597	401.5
415.821	381.5
416.044	396.5
416.267	406.5
416.49	409.5
416.713	393.5
416.936	407.5
417.159	389.5
417.382	382.5
417.605	412.5
417.828	420.5
418.051	438.5
418.274	415.5
418.497	409.5
418.72	409.5
418.943	395.5
419.166	417.5
419.389	409.5
419.611	430.5
419.834	408.5
420.057	433.5
420.28	425.5
420.503	420.5
420.726	435.5
420.948	448.5
421.171	453.5
421.394	477.5
421.617	447.5
421.839	422.5
422.062	418.5
422.285	454.5
422.507	488.5
422.73	549.5
422.953	534.5
423.175	459.5
423.398	456.5
423.621	445.5
423.843	471.5
424.066	456.5
424.288	471.5
424.511	476.5
424.733	526.5
424.956	569.5
425.178	553.5
425.401	552.5
425.623	574.5
425.846	493.5
426.068	455.5
426.291	438.5
426.513	446.5
426.735	457.5
426.958	502.5
427.18	564.5
427.402	651.5
427.625	717.5
427.847	611.5
428.069	523.5
428.292	509.5
428.514	463.5
428.736	433.5
428.958	412.5
429.181	407.5
429.403	415.5
429.625	445.5
429.847	452.5
430.069	517.5
430.292	500.5
430.514	432.5
430.736	424.5
430.958	413.5
431.18	411.5
431.402	420.5
431.624	392.5
431.846	393.5
432.068	392.5
432.29	392.5
432.512	379.5
432.734	396.5
432.956	377.5
433.178	415.5
433.4	425.5
433.622	397.5
433.844	393.5
434.066	403.5
434.287	393.5
434.509	383.5
434.731	407.5
434.953	409.5
435.175	413.5
435.397	445.5
435.618	458.5
435.84	495.5
436.062	583.5
436.284	606.5
436.505	522.5
436.727	442.5
436.949	445.5
437.17	421.5
437.392	413.5
437.614	434.5
437.835	470.5
438.057	546.5
438.278	628.5
438.5	621.5
438.721	689.5
438.943	639.5
439.165	524.5
439.386	460.5
439.608	485.5
439.829	455.5
440.05	485.5
440.272	538.5
440.493	475.5
440.715	433.5
440.936	435.5
441.158	420.5
441.379	425.5
441.6	453.5
441.822	441.5
442.043	494.5
442.264	564.5
442.486	590.5
442.707	488.5
442.928	474.5
443.149	454.5
443.371	482.5
443.592	518.5
443.813	594.5
444.034	640.5
444.255	535.5
444.476	470.5
444.698	445.5
444.919	464.5
445.14	572.5
445.361	528.5
445.582	499.5
445.803	545.5
446.024	642.5
446.245	654.5
446.466	560.5
446.687	493.5
446.908	463.5
447.129	450.5
447.35	421.5
447.571	417.5
447.792	431.5
448.013	419.5
448.234	477.5
448.455	490.5
448.675	599.5
448.896	644.5
449.117	554.5
449.338	555.5
449.559	601.5
449.779	682.5
450	560.5
450.221	466.5
450.442	426.5
450.662	413.5
450.883	405.5
451.104	431.5
451.324	412.5
451.545	400.5
451.766	398.5
451.986	385.5
452.207	368.5
452.428	364.5
452.648	385.5
452.869	378.5
453.089	390.5
453.31	399.5
453.53	362.5
453.751	371.5
453.971	379.5
454.192	380.5
454.412	376.5
454.633	377.5
454.853	358.5
455.073	355.5
455.294	407.5
455.514	460.5
455.734	421.5
455.955	382.5
456.175	375.5
456.395	363.5
456.616	336.5
456.836	348.5
457.056	340.5
457.276	337.5
457.497	355.5
457.717	355.5
457.937	358.5
458.157	365.5
458.377	364.5
458.598	371.5
458.818	405.5
459.038	488.5
459.258	473.5
459.478	408.5
459.698	395.5
459.918	380.5
460.138	389.5
460.358	374.5
460.578	385.5
460.798	386.5
461.018	379.5
461.238	411.5
461.458	400.5
461.678	384.5
461.898	388.5
462.118	386.5
462.338	411.5
462.558	400.5
462.777	408.5
462.997	414.5
463.217	442.5
463.437	420.5
463.657	411.5
463.876	424.5
464.096	403.5
464.316	402.5
464.536	421.5
464.755	406.5
464.975	413.5
465.195	442.5
465.414	478.5
465.634	453.5
465.854	417.5
466.073	394.5
466.293	381.5
466.512	377.5
466.732	358.5
466.951	375.5
467.171	366.5
467.391	390.5
467.61	399.5
467.829	381.5
468.049	387.5
468.268	374.5
468.488	373.5
468.707	358.5
468.927	372.5
469.146	351.5
469.365	374.5
469.585	357.5
469.804	395.5
470.023	405.5
470.243	405.5
470.462	405.5
470.681	401.5
470.901	389.5
471.12	379.5
471.339	394.5
471.558	389.5
471.777	399.5
471.997	379.5
472.216	376.5
472.435	390.5
472.654	383.5
472.873	381.5
473.092	380.5
473.311	389.5
473.53	389.5
473.749	386.5
473.968	413.5
474.187	515.5
474.406	531.5
474.625	446.5
474.844	407.5
475.063	383.5
475.282	405.5
475.501	397.5
475.72	385.5
475.939	397.5
476.158	417.5
476.377	406.5
476.596	381.5
476.814	398.5
477.033	386.5
477.252	414.5
477.471	389.5
477.69	403.5
477.908	394.5
478.127	399.5
478.346	410.5
478.564	433.5
478.783	428.5
479.002	427.5
479.22	435.5
479.439	451.5
479.658	438.5
479.876	418.5
480.095	445.5
480.313	476.5
480.532	487.5
480.751	449.5
480.969	467.5
481.188	495.5
481.406	536.5
481.624	491.5
481.843	449.5
482.061	442.5
482.28	452.5
482.498	432.5
482.717	446.5
482.935	461.5
483.153	454.5
483.372	471.5
483.59	447.5
483.808	441.5
484.027	439.5
484.245	455.5
484.463	425.5
484.681	457.5
484.9	453.5
485.118	430.5
485.336	452.5
485.554	454.5
485.772	450.5
485.99	441.5
486.209	449.5
486.427	463.5
486.645	458.5
486.863	465.5
487.081	480.5
487.299	478.5
487.517	477.5
487.735	481.5
487.953	454.5
488.171	495.5
488.389	476.5
488.607	501.5
488.825	474.5
489.043	455.5
489.261	459.5
489.479	455.5
489.696	477.5
489.914	497.5
490.132	487.5
490.35	499.5
490.568	482.5
490.786	501.5
491.003	531.5
491.221	523.5
491.439	517.5
491.657	543.5
491.874	553.5
492.092	547.5
492.31	565.5
492.527	584.5
492.745	557.5
492.963	556.5
493.18	560.5
493.398	564.5
493.615	566.5
493.833	547.5
494.05	573.5
494.268	550.5
494.485	576.5
494.703	554.5
494.92	551.5
495.138	561.5
495.355	581.5
495.573	566.5
495.79	563.5
496.008	573.5
496.225	567.5
496.442	564.5
496.66	573.5
496.877	569.5
497.094	587.5
497.312	555.5
497.529	575.5
497.746	596.5
497.963	569.5
498.181	605.5
498.398	584.5
498.615	618.5
498.832	628.5
499.049	635.5
499.267	643.5
499.484	657.5
499.701	671.5
499.918	687.5
500.135	724.5
500.352	728.5
500.569	749.5
500.786	756.5
501.003	759.5
501.22	728.5
501.437	699.5
501.654	701.5
501.871	711.5
502.088	682.5
502.305	639.5
502.522	637.5
502.739	606.5
502.956	603.5
503.172	578.5
503.389	568.5
503.606	591.5
503.823	585.5
504.04	547.5
504.256	555.5
504.473	562.5
504.69	556.5
504.907	569.5
505.123	549.5
505.34	536.5
505.557	528.5
505.773	540.5
505.99	532.5
506.207	531.5
506.423	556.5
506.64	527.5
506.856	538.5
507.073	544.5
507.289	527.5
507.506	524.5
507.722	527.5
507.939	538.5
508.155	496.5
508.372	506.5
508.588	515.5
508.805	502.5
509.021	528.5
509.238	531.5
509.454	542.5
509.67	525.5
509.887	536.5
510.103	535.5
510.319	535.5
510.536	572.5
510.752	884.5
510.968	732.5
511.184	510.5
511.401	509.5
511.617	501.5
511.833	491.5
512.049	485.5
512.265	482.5
512.481	487.5
512.698	475.5
512.914	477.5
513.13	482.5
513.346	467.5
513.562	478.5
513.778	484.5
513.994	502.5
514.21	475.5
514.426	499.5
514.642	562.5
514.858	536.5
515.074	587.5
515.29	686.5
515.506	927.5
515.721	738.5
515.937	564.5
516.153	517.5
516.369	498.5
516.585	497.5
516.801	493.5
517.016	495.5
517.232	494.5
517.448	494.5
517.664	497.5
517.879	479.5
518.095	480.5
518.311	476.5
518.527	461.5
518.742	493.5
518.958	466.5
519.173	473.5
519.389	466.5
519.605	471.5
519.82	460.5
