Data from 1971.PennyLincolnUp.Lamp.En5.5.200Scan.071719.P1.Scan 2. Changed Angle._HRD10591_15-23-07-843.txt Node
Date: Thu Jul 18 15:23:07 EDT 2019
User: cochatt
Spectrometer: HR+D1059
Trigger mode: 1
Integration Time (sec): 1.000000E-1
Scans to average: 1
Electric dark correction enabled: true
Nonlinearity correction enabled: false
Boxcar width: 0
XAxis mode: Wavelengths
Number of Pixels in Spectrum: 2048
>>>>>Begin Spectral Data<<<<<
223.165	-20.44
223.4	-20.44
223.635	-20.44
223.869	-23.44
224.104	-17.44
224.338	-12.44
224.573	-9.44
224.808	-12.44
225.042	-22.44
225.277	-14.44
225.511	-7.44
225.746	3.56
225.98	16.56
226.215	15.56
226.449	11.56
226.683	24.56
226.918	17.56
227.152	50.56
227.387	31.56
227.621	19.56
227.856	45.56
228.09	55.56
228.324	55.56
228.559	39.56
228.793	71.56
229.027	100.56
229.262	127.56
229.496	122.56
229.73	154.56
229.964	172.56
230.199	137.56
230.433	121.56
230.667	117.56
230.901	121.56
231.136	109.56
231.37	104.56
231.604	114.56
231.838	118.56
232.072	122.56
232.306	124.56
232.541	119.56
232.775	126.56
233.009	99.56
233.243	111.56
233.477	123.56
233.711	111.56
233.945	107.56
234.179	115.56
234.413	119.56
234.647	112.56
234.881	111.56
235.115	124.56
235.349	118.56
235.583	137.56
235.817	113.56
236.051	127.56
236.285	132.56
236.519	131.56
236.753	125.56
236.987	148.56
237.221	193.56
237.455	253.56
237.689	215.56
237.922	136.56
238.156	132.56
238.39	136.56
238.624	140.56
238.858	131.56
239.091	131.56
239.325	120.56
239.559	125.56
239.793	142.56
240.027	136.56
240.26	140.56
240.494	155.56
240.728	142.56
240.961	153.56
241.195	147.56
241.429	133.56
241.662	130.56
241.896	140.56
242.13	127.56
242.363	129.56
242.597	133.56
242.83	121.56
243.064	137.56
243.298	130.56
243.531	134.56
243.765	149.56
243.998	134.56
244.232	136.56
244.465	132.56
244.699	149.56
244.932	136.56
245.166	153.56
245.399	163.56
245.633	158.56
245.866	147.56
246.099	139.56
246.333	169.56
246.566	153.56
246.8	162.56
247.033	175.56
247.266	167.56
247.5	169.56
247.733	157.56
247.966	184.56
248.2	185.56
248.433	167.56
248.666	169.56
248.899	211.56
249.133	209.56
249.366	216.56
249.599	211.56
249.832	196.56
250.066	192.56
250.299	188.56
250.532	204.56
250.765	223.56
250.998	217.56
251.231	213.56
251.465	211.56
251.698	206.56
251.931	214.56
252.164	204.56
252.397	204.56
252.63	210.56
252.863	230.56
253.096	227.56
253.329	241.56
253.562	236.56
253.795	239.56
254.028	212.56
254.261	232.56
254.494	249.56
254.727	274.56
254.96	285.56
255.193	269.56
255.426	275.56
255.659	251.56
255.892	233.56
256.124	241.56
256.357	241.56
256.59	225.56
256.823	224.56
257.056	206.56
257.289	203.56
257.521	225.56
257.754	191.56
257.987	230.56
258.22	205.56
258.452	211.56
258.685	208.56
258.918	204.56
259.151	227.56
259.383	237.56
259.616	229.56
259.849	231.56
260.081	255.56
260.314	260.56
260.547	263.56
260.779	261.56
261.012	240.56
261.244	226.56
261.477	226.56
261.71	237.56
261.942	247.56
262.175	229.56
262.407	250.56
262.64	210.56
262.872	200.56
263.105	211.56
263.337	210.56
263.57	194.56
263.802	228.56
264.035	206.56
264.267	216.56
264.499	205.56
264.732	209.56
264.964	194.56
265.197	209.56
265.429	217.56
265.661	185.56
265.894	198.56
266.126	197.56
266.358	217.56
266.591	215.56
266.823	211.56
267.055	213.56
267.287	220.56
267.52	231.56
267.752	231.56
267.984	203.56
268.216	207.56
268.448	214.56
268.681	228.56
268.913	245.56
269.145	261.56
269.377	269.56
269.609	255.56
269.841	270.56
270.073	248.56
270.306	268.56
270.538	311.56
270.77	305.56
271.002	296.56
271.234	273.56
271.466	310.56
271.698	293.56
271.93	321.56
272.162	325.56
272.394	321.56
272.626	303.56
272.858	289.56
273.09	270.56
273.322	269.56
273.553	255.56
273.785	257.56
274.017	245.56
274.249	235.56
274.481	247.56
274.713	236.56
274.945	269.56
275.176	262.56
275.408	257.56
275.64	244.56
275.872	239.56
276.104	235.56
276.335	251.56
276.567	249.56
276.799	287.56
277.031	311.56
277.262	294.56
277.494	308.56
277.726	281.56
277.957	265.56
278.189	275.56
278.421	263.56
278.652	258.56
278.884	255.56
279.115	247.56
279.347	236.56
279.579	253.56
279.81	253.56
280.042	263.56
280.273	227.56
280.505	236.56
280.736	249.56
280.968	249.56
281.199	238.56
281.431	232.56
281.662	231.56
281.894	263.56
282.125	263.56
282.356	248.56
282.588	312.56
282.819	310.56
283.051	236.56
283.282	257.56
283.513	255.56
283.745	259.56
283.976	244.56
284.207	276.56
284.439	251.56
284.67	276.56
284.901	247.56
285.132	257.56
285.364	250.56
285.595	233.56
285.826	249.56
286.057	269.56
286.288	268.56
286.52	249.56
286.751	264.56
286.982	250.56
287.213	239.56
287.444	253.56
287.675	270.56
287.906	274.56
288.138	265.56
288.369	291.56
288.6	281.56
288.831	280.56
289.062	265.56
289.293	249.56
289.524	274.56
289.755	252.56
289.986	264.56
290.217	272.56
290.448	271.56
290.679	283.56
290.91	267.56
291.141	258.56
291.371	236.56
291.602	268.56
291.833	258.56
292.064	279.56
292.295	260.56
292.526	253.56
292.757	259.56
292.987	264.56
293.218	264.56
293.449	279.56
293.68	254.56
293.91	269.56
294.141	261.56
294.372	257.56
294.603	266.56
294.833	262.56
295.064	257.56
295.295	275.56
295.525	261.56
295.756	275.56
295.987	281.56
296.217	288.56
296.448	305.56
296.679	269.56
296.909	261.56
297.14	258.56
297.37	273.56
297.601	265.56
297.831	276.56
298.062	269.56
298.292	259.56
298.523	280.56
298.753	274.56
298.984	266.56
299.214	278.56
299.445	273.56
299.675	284.56
299.905	284.56
300.136	279.56
300.366	283.56
300.597	280.56
300.827	285.56
301.057	281.56
301.288	311.56
301.518	287.56
301.748	284.56
301.979	311.56
302.209	290.56
302.439	292.56
302.669	319.56
302.9	270.56
303.13	270.56
303.36	295.56
303.59	296.56
303.82	310.56
304.051	312.56
304.281	300.56
304.511	297.56
304.741	282.56
304.971	297.56
305.201	279.56
305.431	290.56
305.661	294.56
305.891	305.56
306.121	300.56
306.352	300.56
306.582	311.56
306.812	311.56
307.042	291.56
307.272	303.56
307.502	310.56
307.731	306.56
307.961	303.56
308.191	310.56
308.421	311.56
308.651	315.56
308.881	306.56
309.111	332.56
309.341	307.56
309.571	324.56
309.8	337.56
310.03	347.56
310.26	356.56
310.49	353.56
310.72	366.56
310.949	395.56
311.179	402.56
311.409	362.56
311.639	353.56
311.868	361.56
312.098	348.56
312.328	352.56
312.557	378.56
312.787	391.56
313.017	387.56
313.246	372.56
313.476	355.56
313.706	355.56
313.935	352.56
314.165	384.56
314.394	385.56
314.624	377.56
314.853	384.56
315.083	347.56
315.312	339.56
315.542	341.56
315.771	333.56
316.001	341.56
316.23	339.56
316.46	342.56
316.689	344.56
316.919	347.56
317.148	369.56
317.377	354.56
317.607	355.56
317.836	353.56
318.065	358.56
318.295	340.56
318.524	371.56
318.753	347.56
318.983	341.56
319.212	357.56
319.441	367.56
319.67	391.56
319.9	363.56
320.129	371.56
320.358	355.56
320.587	372.56
320.816	375.56
321.046	369.56
321.275	386.56
321.504	386.56
321.733	365.56
321.962	395.56
322.191	408.56
322.42	395.56
322.649	439.56
322.878	451.56
323.108	440.56
323.337	483.56
323.566	504.56
323.795	547.56
324.024	596.56
324.253	732.56
324.482	1095.56
324.71	1675.56
324.939	2402.56
325.168	2067.56
325.397	1051.56
325.626	689.56
325.855	557.56
326.084	529.56
326.313	500.56
326.542	506.56
326.77	587.56
326.999	666.56
327.228	954.56
327.457	1455.56
327.686	1841.56
327.914	1169.56
328.143	755.56
328.372	681.56
328.6	627.56
328.829	602.56
329.058	575.56
329.287	608.56
329.515	549.56
329.744	529.56
329.972	511.56
330.201	519.56
330.43	544.56
330.658	595.56
330.887	642.56
331.115	629.56
331.344	513.56
331.572	483.56
331.801	488.56
332.03	489.56
332.258	451.56
332.486	447.56
332.715	425.56
332.943	423.56
333.172	427.56
333.4	452.56
333.629	419.56
333.857	455.56
334.085	445.56
334.314	476.56
334.542	487.56
334.771	522.56
334.999	494.56
335.227	444.56
335.455	444.56
335.684	415.56
335.912	429.56
336.14	423.56
336.369	408.56
336.597	431.56
336.825	431.56
337.053	408.56
337.281	426.56
337.51	419.56
337.738	419.56
337.966	411.56
338.194	426.56
338.422	404.56
338.65	391.56
338.878	396.56
339.106	404.56
339.334	417.56
339.562	411.56
339.79	393.56
340.018	400.56
340.246	409.56
340.474	424.56
340.702	408.56
340.93	402.56
341.158	407.56
341.386	413.56
341.614	418.56
341.842	402.56
342.07	396.56
342.298	408.56
342.526	388.56
342.754	389.56
342.981	373.56
343.209	389.56
343.437	410.56
343.665	385.56
343.893	375.56
344.12	396.56
344.348	393.56
344.576	402.56
344.804	425.56
345.031	435.56
345.259	431.56
345.487	433.56
345.714	409.56
345.942	411.56
346.17	388.56
346.397	404.56
346.625	404.56
346.853	401.56
347.08	400.56
347.308	418.56
347.535	424.56
347.763	407.56
347.99	427.56
348.218	411.56
348.445	422.56
348.673	420.56
348.9	372.56
349.128	397.56
349.355	391.56
349.583	418.56
349.81	390.56
350.037	379.56
350.265	394.56
350.492	409.56
350.72	403.56
350.947	410.56
351.174	414.56
351.402	425.56
351.629	410.56
351.856	408.56
352.083	401.56
352.311	427.56
352.538	456.56
352.765	433.56
352.992	408.56
353.22	418.56
353.447	409.56
353.674	395.56
353.901	391.56
354.128	382.56
354.355	379.56
354.583	389.56
354.81	374.56
355.037	377.56
355.264	389.56
355.491	354.56
355.718	364.56
355.945	383.56
356.172	360.56
356.399	362.56
356.626	398.56
356.853	375.56
357.08	372.56
357.307	376.56
357.534	388.56
357.761	356.56
357.988	344.56
358.215	353.56
358.441	372.56
358.668	369.56
358.895	390.56
359.122	390.56
359.349	401.56
359.576	410.56
359.802	439.56
360.029	457.56
360.256	482.56
360.483	452.56
360.709	436.56
360.936	393.56
361.163	401.56
361.39	425.56
361.616	404.56
361.843	410.56
362.07	423.56
362.296	424.56
362.523	405.56
362.749	398.56
362.976	406.56
363.203	411.56
363.429	365.56
363.656	377.56
363.882	400.56
364.109	387.56
364.335	407.56
364.562	381.56
364.788	379.56
365.015	371.56
365.241	394.56
365.468	397.56
365.694	413.56
365.92	385.56
366.147	404.56
366.373	413.56
366.599	385.56
366.826	399.56
367.052	376.56
367.278	379.56
367.505	392.56
367.731	394.56
367.957	377.56
368.184	405.56
368.41	397.56
368.636	433.56
368.862	404.56
369.089	397.56
369.315	399.56
369.541	383.56
369.767	394.56
369.993	389.56
370.219	394.56
370.445	387.56
370.672	374.56
370.898	372.56
371.124	365.56
371.35	393.56
371.576	383.56
371.802	369.56
372.028	377.56
372.254	389.56
372.48	376.56
372.706	380.56
372.932	389.56
373.158	385.56
373.384	384.56
373.61	360.56
373.835	397.56
374.061	389.56
374.287	406.56
374.513	393.56
374.739	375.56
374.965	383.56
375.191	380.56
375.416	392.56
375.642	403.56
375.868	399.56
376.094	391.56
376.319	396.56
376.545	393.56
376.771	397.56
376.997	404.56
377.222	392.56
377.448	396.56
377.674	387.56
377.899	378.56
378.125	398.56
378.35	406.56
378.576	382.56
378.802	405.56
379.027	394.56
379.253	376.56
379.478	395.56
379.704	407.56
379.929	409.56
380.155	372.56
380.38	404.56
380.606	407.56
380.831	383.56
381.057	409.56
381.282	395.56
381.507	388.56
381.733	399.56
381.958	401.56
382.184	400.56
382.409	401.56
382.634	391.56
382.86	383.56
383.085	416.56
383.31	408.56
383.535	396.56
383.761	404.56
383.986	418.56
384.211	393.56
384.436	395.56
384.662	402.56
384.887	416.56
385.112	417.56
385.337	418.56
385.562	420.56
385.787	430.56
386.013	427.56
386.238	444.56
386.463	428.56
386.688	445.56
386.913	403.56
387.138	435.56
387.363	421.56
387.588	429.56
387.813	400.56
388.038	415.56
388.263	419.56
388.488	413.56
388.713	445.56
388.938	424.56
389.163	417.56
389.387	419.56
389.612	417.56
389.837	413.56
390.062	416.56
390.287	409.56
390.512	413.56
390.736	412.56
390.961	416.56
391.186	416.56
391.411	428.56
391.636	420.56
391.86	434.56
392.085	423.56
392.31	407.56
392.534	439.56
392.759	427.56
392.984	437.56
393.208	422.56
393.433	450.56
393.658	450.56
393.882	447.56
394.107	434.56
394.331	419.56
394.556	428.56
394.78	433.56
395.005	427.56
395.229	425.56
395.454	426.56
395.678	425.56
395.903	444.56
396.127	498.56
396.352	492.56
396.576	454.56
396.801	444.56
397.025	448.56
397.249	461.56
397.474	450.56
397.698	469.56
397.922	449.56
398.147	474.56
398.371	492.56
398.595	472.56
398.82	465.56
399.044	459.56
399.268	492.56
399.492	499.56
399.717	515.56
399.941	543.56
400.165	595.56
400.389	609.56
400.613	551.56
400.837	517.56
401.062	499.56
401.286	499.56
401.51	506.56
401.734	504.56
401.958	487.56
402.182	484.56
402.406	508.56
402.63	502.56
402.854	508.56
403.078	508.56
403.302	507.56
403.526	511.56
403.75	518.56
403.974	500.56
404.198	495.56
404.422	485.56
404.645	501.56
404.869	501.56
405.093	522.56
405.317	573.56
405.541	604.56
405.765	587.56
405.988	538.56
406.212	582.56
406.436	598.56
406.66	596.56
406.883	549.56
407.107	583.56
407.331	627.56
407.555	682.56
407.778	665.56
408.002	625.56
408.226	560.56
408.449	566.56
408.673	553.56
408.896	602.56
409.12	601.56
409.344	608.56
409.567	548.56
409.791	523.56
410.014	501.56
410.238	502.56
410.461	521.56
410.685	513.56
410.908	545.56
411.132	588.56
411.355	612.56
411.578	577.56
411.802	536.56
412.025	529.56
412.249	531.56
412.472	554.56
412.695	587.56
412.919	571.56
413.142	521.56
413.365	528.56
413.589	480.56
413.812	471.56
414.035	503.56
414.258	495.56
414.482	489.56
414.705	478.56
414.928	495.56
415.151	497.56
415.374	530.56
415.597	491.56
415.821	489.56
416.044	496.56
416.267	506.56
416.49	479.56
416.713	484.56
416.936	496.56
417.159	486.56
417.382	503.56
417.605	488.56
417.828	495.56
418.051	517.56
418.274	531.56
418.497	484.56
418.72	466.56
418.943	510.56
419.166	517.56
419.389	521.56
419.611	524.56
419.834	501.56
420.057	542.56
420.28	539.56
420.503	504.56
420.726	528.56
420.948	547.56
421.171	589.56
421.394	613.56
421.617	524.56
421.839	558.56
422.062	527.56
422.285	538.56
422.507	599.56
422.73	687.56
422.953	651.56
423.175	593.56
423.398	555.56
423.621	547.56
423.843	562.56
424.066	565.56
424.288	578.56
424.511	585.56
424.733	648.56
424.956	752.56
425.178	688.56
425.401	700.56
425.623	705.56
425.846	608.56
426.068	588.56
426.291	587.56
426.513	586.56
426.735	576.56
426.958	627.56
427.18	709.56
427.402	872.56
427.625	939.56
427.847	849.56
428.069	741.56
428.292	635.56
428.514	557.56
428.736	556.56
428.958	540.56
429.181	547.56
429.403	568.56
429.625	532.56
429.847	583.56
430.069	660.56
430.292	669.56
430.514	581.56
430.736	559.56
430.958	535.56
431.18	509.56
431.402	531.56
431.624	490.56
431.846	507.56
432.068	495.56
432.29	506.56
432.512	534.56
432.734	523.56
432.956	525.56
433.178	525.56
433.4	534.56
433.622	511.56
433.844	507.56
434.066	477.56
434.287	485.56
434.509	489.56
434.731	495.56
434.953	522.56
435.175	545.56
435.397	547.56
435.618	595.56
435.84	631.56
436.062	740.56
436.284	791.56
436.505	647.56
436.727	613.56
436.949	547.56
437.17	547.56
437.392	556.56
437.614	573.56
437.835	611.56
438.057	713.56
438.278	801.56
438.5	802.56
438.721	856.56
438.943	827.56
439.165	696.56
439.386	653.56
439.608	571.56
439.829	598.56
440.05	659.56
440.272	703.56
440.493	650.56
440.715	595.56
440.936	561.56
441.158	556.56
441.379	545.56
441.6	550.56
441.822	603.56
442.043	626.56
442.264	729.56
442.486	760.56
442.707	644.56
442.928	586.56
443.149	634.56
443.371	635.56
443.592	676.56
443.813	783.56
444.034	811.56
444.255	695.56
444.476	617.56
444.698	570.56
444.919	570.56
445.14	673.56
445.361	655.56
445.582	621.56
445.803	683.56
446.024	835.56
446.245	803.56
446.466	753.56
446.687	647.56
446.908	589.56
447.129	555.56
447.35	555.56
447.571	568.56
447.792	544.56
448.013	534.56
448.234	570.56
448.455	604.56
448.675	744.56
448.896	864.56
449.117	710.56
449.338	677.56
449.559	789.56
449.779	908.56
450	710.56
450.221	615.56
450.442	586.56
450.662	537.56
450.883	563.56
451.104	582.56
451.324	580.56
451.545	524.56
451.766	512.56
451.986	511.56
452.207	508.56
452.428	490.56
452.648	469.56
452.869	497.56
453.089	492.56
453.31	504.56
453.53	475.56
453.751	474.56
453.971	510.56
454.192	519.56
454.412	501.56
454.633	505.56
454.853	478.56
455.073	509.56
455.294	513.56
455.514	583.56
455.734	584.56
455.955	489.56
456.175	472.56
456.395	467.56
456.616	451.56
456.836	439.56
457.056	475.56
457.276	445.56
457.497	441.56
457.717	457.56
457.937	465.56
458.157	467.56
458.377	469.56
458.598	509.56
458.818	561.56
459.038	659.56
459.258	657.56
459.478	579.56
459.698	517.56
459.918	478.56
460.138	487.56
460.358	487.56
460.578	495.56
460.798	483.56
461.018	488.56
461.238	499.56
461.458	506.56
461.678	484.56
461.898	504.56
462.118	488.56
462.338	492.56
462.558	496.56
462.777	510.56
462.997	512.56
463.217	529.56
463.437	527.56
463.657	516.56
463.876	537.56
464.096	512.56
464.316	507.56
464.536	533.56
464.755	508.56
464.975	539.56
465.195	601.56
465.414	714.56
465.634	609.56
465.854	558.56
466.073	537.56
466.293	514.56
466.512	490.56
466.732	504.56
466.951	510.56
467.171	486.56
467.391	488.56
467.61	529.56
467.829	529.56
468.049	499.56
468.268	501.56
468.488	510.56
468.707	469.56
468.927	469.56
469.146	476.56
469.365	495.56
469.585	468.56
469.804	489.56
470.023	517.56
470.243	524.56
470.462	509.56
470.681	521.56
470.901	530.56
471.12	522.56
471.339	504.56
471.558	505.56
471.777	506.56
471.997	483.56
472.216	483.56
472.435	539.56
472.654	508.56
472.873	511.56
473.092	501.56
473.311	499.56
473.53	511.56
473.749	512.56
473.968	556.56
474.187	664.56
474.406	701.56
474.625	594.56
474.844	511.56
475.063	498.56
475.282	495.56
475.501	507.56
475.72	511.56
475.939	515.56
476.158	526.56
476.377	535.56
476.596	511.56
476.814	520.56
477.033	537.56
477.252	540.56
477.471	524.56
477.69	524.56
477.908	549.56
478.127	571.56
478.346	528.56
478.564	554.56
478.783	538.56
479.002	565.56
479.22	575.56
479.439	575.56
479.658	579.56
479.876	638.56
480.095	602.56
480.313	631.56
480.532	632.56
480.751	608.56
480.969	619.56
481.188	684.56
481.406	721.56
481.624	657.56
481.843	600.56
482.061	609.56
482.28	583.56
482.498	608.56
482.717	607.56
482.935	608.56
483.153	613.56
483.372	590.56
483.59	598.56
483.808	627.56
484.027	605.56
484.245	617.56
484.463	598.56
484.681	608.56
484.9	605.56
485.118	645.56
485.336	626.56
485.554	618.56
485.772	610.56
485.99	612.56
486.209	616.56
486.427	612.56
486.645	626.56
486.863	653.56
487.081	644.56
487.299	649.56
487.517	678.56
487.735	654.56
487.953	668.56
488.171	653.56
488.389	656.56
488.607	661.56
488.825	643.56
489.043	646.56
489.261	658.56
489.479	649.56
489.696	656.56
489.914	659.56
490.132	682.56
490.35	715.56
490.568	706.56
490.786	678.56
491.003	722.56
491.221	724.56
491.439	736.56
491.657	750.56
491.874	742.56
492.092	761.56
492.31	774.56
492.527	778.56
492.745	757.56
492.963	773.56
493.18	778.56
493.398	754.56
493.615	774.56
493.833	801.56
494.05	799.56
494.268	806.56
494.485	753.56
494.703	789.56
494.92	758.56
495.138	785.56
495.355	787.56
495.573	807.56
495.79	799.56
496.008	797.56
496.225	771.56
496.442	795.56
496.66	771.56
496.877	778.56
497.094	767.56
497.312	802.56
497.529	803.56
497.746	804.56
497.963	800.56
498.181	826.56
498.398	831.56
498.615	836.56
498.832	853.56
499.049	845.56
499.267	863.56
499.484	894.56
499.701	893.56
499.918	938.56
500.135	951.56
500.352	989.56
500.569	976.56
500.786	968.56
501.003	968.56
501.22	954.56
501.437	933.56
501.654	897.56
