Data from 1971.PennyLincolnUp.Lamp.En5.5.200Scan.071719.P1._HRD10591_15-19-26-841.txt Node
Date: Thu Jul 18 15:19:26 EDT 2019
User: cochatt
Spectrometer: HR+D1059
Trigger mode: 1
Integration Time (sec): 1.000000E-1
Scans to average: 1
Electric dark correction enabled: true
Nonlinearity correction enabled: false
Boxcar width: 0
XAxis mode: Wavelengths
Number of Pixels in Spectrum: 2048
>>>>>Begin Spectral Data<<<<<
223.165	-7.69
223.4	-7.69
223.635	-7.69
223.869	-33.69
224.104	-9.69
224.338	-17.69
224.573	-18.69
224.808	-7.69
225.042	1.31
225.277	-16.69
225.511	-4.69
225.746	10.31
225.98	2.31
226.215	13.31
226.449	28.31
226.683	3.31
226.918	17.31
227.152	40.31
227.387	22.31
227.621	26.31
227.856	38.31
228.09	31.31
228.324	58.31
228.559	59.31
228.793	52.31
229.027	93.31
229.262	116.31
229.496	115.31
229.73	125.31
229.964	137.31
230.199	126.31
230.433	119.31
230.667	104.31
230.901	119.31
231.136	102.31
231.37	106.31
231.604	110.31
231.838	115.31
232.072	113.31
232.306	102.31
232.541	111.31
232.775	119.31
233.009	113.31
233.243	100.31
233.477	97.31
233.711	115.31
233.945	107.31
234.179	109.31
234.413	113.31
234.647	117.31
234.881	101.31
235.115	117.31
235.349	109.31
235.583	127.31
235.817	109.31
236.051	114.31
236.285	117.31
236.519	130.31
236.753	126.31
236.987	140.31
237.221	181.31
237.455	213.31
237.689	177.31
237.922	143.31
238.156	117.31
238.39	142.31
238.624	118.31
238.858	114.31
239.091	116.31
239.325	125.31
239.559	108.31
239.793	129.31
240.027	123.31
240.26	145.31
240.494	183.31
240.728	157.31
240.961	150.31
241.195	141.31
241.429	149.31
241.662	126.31
241.896	142.31
242.13	136.31
242.363	132.31
242.597	133.31
242.83	131.31
243.064	155.31
243.298	141.31
243.531	141.31
243.765	138.31
243.998	141.31
244.232	138.31
244.465	140.31
244.699	155.31
244.932	152.31
245.166	163.31
245.399	150.31
245.633	140.31
245.866	156.31
246.099	157.31
246.333	150.31
246.566	144.31
246.8	142.31
247.033	158.31
247.266	154.31
247.5	165.31
247.733	174.31
247.966	178.31
248.2	169.31
248.433	189.31
248.666	184.31
248.899	195.31
249.133	202.31
249.366	209.31
249.599	192.31
249.832	193.31
250.066	179.31
250.299	192.31
250.532	195.31
250.765	206.31
250.998	224.31
251.231	241.31
251.465	215.31
251.698	213.31
251.931	212.31
252.164	199.31
252.397	204.31
252.63	206.31
252.863	212.31
253.096	227.31
253.329	219.31
253.562	230.31
253.795	224.31
254.028	226.31
254.261	233.31
254.494	221.31
254.727	250.31
254.96	267.31
255.193	283.31
255.426	249.31
255.659	265.31
255.892	251.31
256.124	240.31
256.357	230.31
256.59	235.31
256.823	228.31
257.056	209.31
257.289	211.31
257.521	216.31
257.754	224.31
257.987	210.31
258.22	219.31
258.452	220.31
258.685	217.31
258.918	202.31
259.151	206.31
259.383	224.31
259.616	211.31
259.849	233.31
260.081	261.31
260.314	269.31
260.547	270.31
260.779	253.31
261.012	249.31
261.244	238.31
261.477	244.31
261.71	243.31
261.942	239.31
262.175	221.31
262.407	245.31
262.64	224.31
262.872	223.31
263.105	220.31
263.337	219.31
263.57	211.31
263.802	218.31
264.035	225.31
264.267	241.31
264.499	228.31
264.732	240.31
264.964	213.31
265.197	219.31
265.429	222.31
265.661	220.31
265.894	208.31
266.126	213.31
266.358	231.31
266.591	224.31
266.823	229.31
267.055	217.31
267.287	250.31
267.52	247.31
267.752	231.31
267.984	224.31
268.216	225.31
268.448	246.31
268.681	233.31
268.913	262.31
269.145	277.31
269.377	291.31
269.609	290.31
269.841	283.31
270.073	275.31
270.306	306.31
270.538	314.31
270.77	319.31
271.002	299.31
271.234	296.31
271.466	308.31
271.698	323.31
271.93	333.31
272.162	317.31
272.394	301.31
272.626	305.31
272.858	295.31
273.09	313.31
273.322	303.31
273.553	250.31
273.785	293.31
274.017	275.31
274.249	270.31
274.481	273.31
274.713	260.31
274.945	276.31
275.176	276.31
275.408	273.31
275.64	275.31
275.872	267.31
276.104	281.31
276.335	289.31
276.567	283.31
276.799	273.31
277.031	308.31
277.262	325.31
277.494	318.31
277.726	297.31
277.957	295.31
278.189	301.31
278.421	295.31
278.652	289.31
278.884	273.31
279.115	287.31
279.347	282.31
279.579	266.31
279.81	267.31
280.042	279.31
280.273	284.31
280.505	273.31
280.736	268.31
280.968	267.31
281.199	285.31
281.431	276.31
281.662	274.31
281.894	259.31
282.125	282.31
282.356	302.31
282.588	310.31
282.819	307.31
283.051	297.31
283.282	278.31
283.513	295.31
283.745	282.31
283.976	286.31
284.207	293.31
284.439	297.31
284.67	305.31
284.901	291.31
285.132	308.31
285.364	283.31
285.595	298.31
285.826	290.31
286.057	293.31
286.288	300.31
286.52	297.31
286.751	307.31
286.982	301.31
287.213	309.31
287.444	309.31
287.675	293.31
287.906	299.31
288.138	313.31
288.369	327.31
288.6	311.31
288.831	317.31
289.062	318.31
289.293	297.31
289.524	305.31
289.755	307.31
289.986	282.31
290.217	290.31
290.448	295.31
290.679	307.31
290.91	286.31
291.141	297.31
291.371	307.31
291.602	297.31
291.833	301.31
292.064	298.31
292.295	300.31
292.526	306.31
292.757	296.31
292.987	312.31
293.218	299.31
293.449	313.31
293.68	302.31
293.91	294.31
294.141	305.31
294.372	306.31
294.603	308.31
294.833	311.31
295.064	302.31
295.295	298.31
295.525	293.31
295.756	311.31
295.987	309.31
296.217	324.31
296.448	333.31
296.679	310.31
296.909	307.31
297.14	325.31
297.37	307.31
297.601	329.31
297.831	288.31
298.062	307.31
298.292	324.31
298.523	322.31
298.753	306.31
298.984	329.31
299.214	343.31
299.445	345.31
299.675	317.31
299.905	324.31
300.136	322.31
300.366	317.31
300.597	317.31
300.827	332.31
301.057	334.31
301.288	339.31
301.518	327.31
301.748	327.31
301.979	347.31
302.209	328.31
302.439	335.31
302.669	342.31
302.9	333.31
303.13	332.31
303.36	362.31
303.59	348.31
303.82	348.31
304.051	330.31
304.281	348.31
304.511	321.31
304.741	314.31
304.971	342.31
305.201	338.31
305.431	343.31
305.661	332.31
305.891	322.31
306.121	342.31
306.352	370.31
306.582	349.31
306.812	339.31
307.042	347.31
307.272	333.31
307.502	341.31
307.731	354.31
307.961	339.31
308.191	346.31
308.421	338.31
308.651	360.31
308.881	349.31
309.111	351.31
309.341	347.31
309.571	340.31
309.8	357.31
310.03	371.31
310.26	382.31
310.49	375.31
310.72	370.31
310.949	401.31
311.179	387.31
311.409	375.31
311.639	375.31
311.868	379.31
312.098	372.31
312.328	366.31
312.557	391.31
312.787	398.31
313.017	413.31
313.246	373.31
313.476	386.31
313.706	391.31
313.935	371.31
314.165	407.31
314.394	402.31
314.624	410.31
314.853	390.31
315.083	388.31
315.312	395.31
315.542	389.31
315.771	374.31
316.001	396.31
316.23	375.31
316.46	396.31
316.689	370.31
316.919	397.31
317.148	399.31
317.377	398.31
317.607	386.31
317.836	391.31
318.065	386.31
318.295	389.31
318.524	373.31
318.753	365.31
318.983	391.31
319.212	390.31
319.441	384.31
319.67	385.31
319.9	398.31
320.129	399.31
320.358	400.31
320.587	381.31
320.816	406.31
321.046	399.31
321.275	428.31
321.504	426.31
321.733	442.31
321.962	438.31
322.191	414.31
322.42	436.31
322.649	428.31
322.878	481.31
323.108	460.31
323.337	482.31
323.566	487.31
323.795	518.31
324.024	571.31
324.253	689.31
324.482	970.31
324.71	1465.31
324.939	1961.31
325.168	1689.31
325.397	887.31
325.626	611.31
325.855	550.31
326.084	514.31
326.313	499.31
326.542	517.31
326.77	566.31
326.999	619.31
327.228	883.31
327.457	1258.31
327.686	1449.31
327.914	969.31
328.143	680.31
328.372	595.31
328.6	542.31
328.829	538.31
329.058	553.31
329.287	549.31
329.515	530.31
329.744	493.31
329.972	506.31
330.201	519.31
330.43	533.31
330.658	572.31
330.887	597.31
331.115	587.31
331.344	513.31
331.572	505.31
331.801	477.31
332.03	475.31
332.258	463.31
332.486	464.31
332.715	445.31
332.943	424.31
333.172	429.31
333.4	468.31
333.629	464.31
333.857	455.31
334.085	474.31
334.314	471.31
334.542	510.31
334.771	504.31
334.999	484.31
335.227	455.31
335.455	450.31
335.684	445.31
335.912	434.31
336.14	451.31
336.369	436.31
336.597	440.31
336.825	463.31
337.053	457.31
337.281	439.31
337.51	414.31
337.738	430.31
337.966	447.31
338.194	441.31
338.422	416.31
338.65	443.31
338.878	447.31
339.106	429.31
339.334	459.31
339.562	414.31
339.79	425.31
340.018	401.31
340.246	427.31
340.474	429.31
340.702	433.31
340.93	411.31
341.158	415.31
341.386	412.31
341.614	416.31
341.842	429.31
342.07	411.31
342.298	406.31
342.526	421.31
342.754	407.31
342.981	422.31
343.209	408.31
343.437	409.31
343.665	403.31
343.893	430.31
344.12	439.31
344.348	419.31
344.576	428.31
344.804	421.31
345.031	445.31
345.259	453.31
345.487	428.31
345.714	425.31
345.942	412.31
346.17	420.31
346.397	412.31
346.625	400.31
346.853	404.31
347.08	418.31
347.308	389.31
347.535	414.31
347.763	411.31
347.99	406.31
348.218	415.31
348.445	417.31
348.673	402.31
348.9	405.31
349.128	395.31
349.355	393.31
349.583	402.31
349.81	386.31
350.037	383.31
350.265	386.31
350.492	388.31
350.72	383.31
350.947	407.31
351.174	410.31
351.402	418.31
351.629	418.31
351.856	433.31
352.083	400.31
352.311	411.31
352.538	403.31
352.765	396.31
352.992	407.31
353.22	399.31
353.447	381.31
353.674	374.31
353.901	401.31
354.128	405.31
354.355	379.31
354.583	382.31
354.81	374.31
355.037	374.31
355.264	375.31
355.491	360.31
355.718	378.31
355.945	375.31
356.172	398.31
356.399	362.31
356.626	365.31
356.853	370.31
357.08	371.31
357.307	365.31
357.534	357.31
357.761	363.31
357.988	385.31
358.215	378.31
358.441	381.31
358.668	388.31
358.895	362.31
359.122	383.31
359.349	396.31
359.576	390.31
359.802	383.31
360.029	426.31
360.256	451.31
360.483	405.31
360.709	413.31
360.936	391.31
361.163	413.31
361.39	413.31
361.616	374.31
361.843	401.31
362.07	376.31
362.296	389.31
362.523	382.31
362.749	379.31
362.976	375.31
363.203	381.31
363.429	388.31
363.656	386.31
363.882	360.31
364.109	375.31
364.335	371.31
364.562	379.31
364.788	362.31
365.015	374.31
365.241	355.31
365.468	379.31
365.694	383.31
365.92	384.31
366.147	373.31
366.373	392.31
366.599	366.31
366.826	369.31
367.052	359.31
367.278	369.31
367.505	365.31
367.731	369.31
367.957	369.31
368.184	367.31
368.41	371.31
368.636	385.31
368.862	377.31
369.089	368.31
369.315	376.31
369.541	348.31
369.767	348.31
369.993	377.31
370.219	371.31
370.445	390.31
370.672	360.31
370.898	374.31
371.124	362.31
371.35	370.31
371.576	371.31
371.802	364.31
372.028	369.31
372.254	350.31
372.48	362.31
372.706	348.31
372.932	375.31
373.158	362.31
373.384	350.31
373.61	369.31
373.835	361.31
374.061	363.31
374.287	381.31
374.513	355.31
374.739	373.31
374.965	366.31
375.191	355.31
375.416	352.31
375.642	370.31
375.868	351.31
376.094	365.31
376.319	369.31
376.545	362.31
376.771	359.31
376.997	357.31
377.222	339.31
377.448	347.31
377.674	346.31
377.899	367.31
378.125	338.31
378.35	359.31
378.576	370.31
378.802	353.31
379.027	363.31
379.253	363.31
379.478	370.31
379.704	345.31
379.929	350.31
380.155	350.31
380.38	335.31
380.606	359.31
380.831	360.31
381.057	367.31
381.282	356.31
381.507	367.31
381.733	362.31
381.958	378.31
382.184	362.31
382.409	349.31
382.634	357.31
382.86	361.31
383.085	364.31
383.31	357.31
383.535	364.31
383.761	363.31
383.986	373.31
384.211	365.31
384.436	359.31
384.662	355.31
384.887	383.31
385.112	371.31
385.337	365.31
385.562	377.31
385.787	391.31
386.013	389.31
386.238	376.31
386.463	380.31
386.688	390.31
386.913	373.31
387.138	365.31
387.363	377.31
387.588	363.31
387.813	384.31
388.038	385.31
388.263	372.31
388.488	381.31
388.713	381.31
388.938	361.31
389.163	381.31
389.387	379.31
389.612	382.31
389.837	367.31
390.062	377.31
390.287	378.31
390.512	369.31
390.736	374.31
390.961	347.31
391.186	381.31
391.411	378.31
391.636	390.31
391.86	397.31
392.085	375.31
392.31	383.31
392.534	381.31
392.759	370.31
392.984	365.31
393.208	373.31
393.433	380.31
393.658	378.31
393.882	370.31
394.107	373.31
394.331	386.31
394.556	394.31
394.78	375.31
395.005	364.31
395.229	375.31
395.454	385.31
395.678	399.31
395.903	399.31
396.127	426.31
396.352	406.31
396.576	382.31
396.801	374.31
397.025	385.31
397.249	403.31
397.474	393.31
397.698	393.31
397.922	404.31
398.147	412.31
398.371	449.31
398.595	430.31
398.82	423.31
399.044	417.31
399.268	429.31
399.492	445.31
399.717	470.31
399.941	486.31
400.165	508.31
400.389	502.31
400.613	461.31
400.837	460.31
401.062	419.31
401.286	408.31
401.51	419.31
401.734	420.31
401.958	401.31
402.182	437.31
402.406	419.31
402.63	431.31
402.854	437.31
403.078	435.31
403.302	437.31
403.526	434.31
403.75	449.31
403.974	436.31
404.198	433.31
404.422	428.31
404.645	433.31
404.869	437.31
405.093	453.31
405.317	499.31
405.541	516.31
405.765	467.31
405.988	446.31
406.212	473.31
406.436	469.31
406.66	482.31
406.883	474.31
407.107	513.31
407.331	507.31
407.555	562.31
407.778	565.31
408.002	508.31
408.226	492.31
408.449	477.31
408.673	472.31
408.896	514.31
409.12	527.31
409.344	490.31
409.567	424.31
409.791	442.31
410.014	425.31
410.238	441.31
410.461	443.31
410.685	442.31
410.908	459.31
411.132	466.31
411.355	493.31
411.578	464.31
411.802	447.31
412.025	444.31
412.249	417.31
412.472	461.31
412.695	492.31
412.919	475.31
413.142	433.31
413.365	418.31
413.589	414.31
413.812	430.31
414.035	420.31
414.258	404.31
414.482	393.31
414.705	415.31
414.928	397.31
415.151	422.31
415.374	397.31
415.597	402.31
415.821	381.31
416.044	423.31
416.267	401.31
416.49	398.31
416.713	410.31
416.936	397.31
417.159	387.31
417.382	418.31
417.605	383.31
417.828	412.31
418.051	442.31
418.274	417.31
418.497	403.31
418.72	415.31
418.943	397.31
419.166	406.31
419.389	423.31
419.611	429.31
419.834	403.31
420.057	412.31
420.28	449.31
420.503	412.31
420.726	427.31
420.948	430.31
421.171	458.31
421.394	499.31
421.617	439.31
421.839	418.31
422.062	421.31
422.285	455.31
422.507	484.31
422.73	528.31
422.953	524.31
423.175	461.31
423.398	449.31
423.621	431.31
423.843	455.31
424.066	458.31
424.288	451.31
424.511	477.31
424.733	534.31
424.956	570.31
425.178	587.31
425.401	558.31
425.623	545.31
425.846	502.31
426.068	454.31
426.291	454.31
426.513	470.31
426.735	481.31
426.958	493.31
427.18	577.31
427.402	700.31
427.625	709.31
427.847	630.31
428.069	570.31
428.292	498.31
428.514	467.31
428.736	423.31
428.958	410.31
429.181	421.31
429.403	415.31
429.625	427.31
429.847	462.31
430.069	507.31
430.292	527.31
430.514	423.31
430.736	425.31
430.958	410.31
431.18	407.31
431.402	400.31
431.624	385.31
431.846	397.31
432.068	395.31
432.29	397.31
432.512	372.31
432.734	394.31
432.956	401.31
433.178	419.31
433.4	418.31
433.622	405.31
433.844	406.31
434.066	397.31
434.287	389.31
434.509	389.31
434.731	419.31
434.953	399.31
435.175	418.31
435.397	465.31
435.618	478.31
435.84	497.31
436.062	563.31
436.284	618.31
436.505	542.31
436.727	456.31
436.949	424.31
437.17	433.31
437.392	414.31
437.614	423.31
437.835	479.31
438.057	547.31
438.278	609.31
438.5	615.31
438.721	682.31
438.943	635.31
439.165	526.31
439.386	465.31
439.608	469.31
439.829	463.31
440.05	497.31
440.272	522.31
440.493	494.31
440.715	442.31
440.936	413.31
441.158	431.31
441.379	427.31
441.6	431.31
441.822	455.31
442.043	488.31
442.264	577.31
442.486	596.31
442.707	508.31
442.928	476.31
443.149	453.31
443.371	499.31
443.592	526.31
443.813	573.31
444.034	627.31
444.255	539.31
444.476	467.31
444.698	479.31
444.919	453.31
445.14	585.31
445.361	529.31
445.582	486.31
445.803	553.31
446.024	620.31
446.245	630.31
446.466	568.31
446.687	475.31
446.908	453.31
447.129	421.31
447.35	442.31
447.571	417.31
447.792	403.31
448.013	425.31
448.234	443.31
448.455	492.31
448.675	590.31
448.896	655.31
449.117	573.31
449.338	526.31
449.559	622.31
449.779	708.31
450	541.31
450.221	474.31
450.442	426.31
450.662	437.31
450.883	418.31
451.104	428.31
451.324	422.31
451.545	393.31
451.766	381.31
451.986	370.31
452.207	377.31
452.428	367.31
452.648	369.31
452.869	365.31
453.089	375.31
453.31	369.31
453.53	370.31
453.751	380.31
453.971	378.31
454.192	377.31
454.412	386.31
454.633	391.31
454.853	366.31
455.073	374.31
455.294	392.31
455.514	466.31
455.734	464.31
455.955	394.31
456.175	357.31
456.395	350.31
456.616	360.31
456.836	349.31
457.056	343.31
457.276	345.31
457.497	355.31
457.717	370.31
457.937	352.31
458.157	362.31
458.377	353.31
458.598	365.31
458.818	425.31
459.038	481.31
459.258	481.31
459.478	425.31
459.698	384.31
459.918	383.31
460.138	372.31
460.358	387.31
460.578	385.31
460.798	388.31
461.018	400.31
461.238	374.31
461.458	376.31
461.678	387.31
461.898	403.31
462.118	389.31
462.338	397.31
462.558	403.31
462.777	387.31
462.997	404.31
463.217	411.31
463.437	405.31
463.657	423.31
463.876	396.31
464.096	411.31
464.316	401.31
464.536	412.31
464.755	412.31
464.975	430.31
465.195	437.31
465.414	487.31
465.634	431.31
465.854	399.31
466.073	401.31
466.293	393.31
466.512	387.31
466.732	387.31
466.951	384.31
467.171	374.31
467.391	369.31
467.61	369.31
467.829	387.31
468.049	377.31
468.268	390.31
468.488	380.31
468.707	376.31
468.927	367.31
469.146	365.31
469.365	350.31
469.585	367.31
469.804	384.31
470.023	390.31
470.243	400.31
470.462	387.31
470.681	391.31
470.901	403.31
471.12	389.31
471.339	385.31
471.558	374.31
471.777	395.31
471.997	365.31
472.216	383.31
472.435	408.31
472.654	384.31
472.873	389.31
473.092	381.31
473.311	373.31
473.53	381.31
473.749	417.31
473.968	436.31
474.187	540.31
474.406	515.31
474.625	445.31
474.844	403.31
475.063	381.31
475.282	383.31
475.501	374.31
475.72	398.31
475.939	385.31
476.158	396.31
476.377	376.31
476.596	394.31
476.814	400.31
477.033	389.31
477.252	396.31
477.471	423.31
477.69	409.31
477.908	428.31
478.127	410.31
478.346	414.31
478.564	411.31
478.783	427.31
479.002	434.31
479.22	417.31
479.439	440.31
479.658	450.31
479.876	446.31
480.095	461.31
480.313	477.31
480.532	470.31
480.751	459.31
480.969	457.31
481.188	515.31
481.406	519.31
481.624	499.31
481.843	455.31
482.061	442.31
482.28	446.31
482.498	439.31
482.717	446.31
482.935	430.31
483.153	446.31
483.372	453.31
483.59	445.31
483.808	428.31
484.027	457.31
484.245	456.31
484.463	459.31
484.681	450.31
484.9	451.31
485.118	470.31
485.336	455.31
485.554	449.31
485.772	462.31
485.99	463.31
486.209	469.31
486.427	449.31
486.645	482.31
486.863	460.31
487.081	460.31
487.299	467.31
487.517	473.31
487.735	497.31
487.953	469.31
488.171	460.31
488.389	468.31
488.607	479.31
488.825	472.31
489.043	473.31
489.261	474.31
489.479	479.31
489.696	487.31
489.914	504.31
490.132	490.31
490.35	519.31
490.568	489.31
490.786	513.31
491.003	523.31
491.221	503.31
491.439	518.31
491.657	545.31
491.874	562.31
492.092	544.31
492.31	561.31
492.527	558.31
492.745	563.31
492.963	557.31
493.18	538.31
493.398	555.31
493.615	547.31
493.833	579.31
494.05	575.31
494.268	566.31
494.485	556.31
494.703	566.31
494.92	583.31
495.138	558.31
495.355	563.31
495.573	561.31
495.79	559.31
496.008	585.31
496.225	578.31
496.442	537.31
496.66	565.31
496.877	587.31
497.094	581.31
497.312	593.31
497.529	610.31
497.746	571.31
497.963	581.31
498.181	610.31
498.398	610.31
498.615	638.31
498.832	633.31
499.049	638.31
499.267	647.31
499.484	646.31
499.701	700.31
499.918	700.31
500.135	726.31
500.352	726.31
500.569	740.31
500.786	750.31
501.003	736.31
501.22	758.31
501.437	723.31
501.654	702.31
501.871	675.31
502.088	665.31
