Data from 1971.PennyLincolnUp.Lamp.En5.5.200Scan.071719.P1.Scan 2. Changed Angle._HRD10591_15-24-28-842.txt Node
Date: Thu Jul 18 15:24:28 EDT 2019
User: cochatt
Spectrometer: HR+D1059
Trigger mode: 1
Integration Time (sec): 1.000000E-1
Scans to average: 1
Electric dark correction enabled: true
Nonlinearity correction enabled: false
Boxcar width: 0
XAxis mode: Wavelengths
Number of Pixels in Spectrum: 2048
>>>>>Begin Spectral Data<<<<<
223.165	-11.25
223.4	-11.25
223.635	-11.25
223.869	-20.25
224.104	-15.25
224.338	-27.25
224.573	-5.25
224.808	-4.25
225.042	-22.25
225.277	-14.25
225.511	2.75
225.746	4.75
225.98	0.75
226.215	18.75
226.449	13.75
226.683	28.75
226.918	30.75
227.152	19.75
227.387	34.75
227.621	29.75
227.856	34.75
228.09	48.75
228.324	42.75
228.559	65.75
228.793	77.75
229.027	100.75
229.262	114.75
229.496	136.75
229.73	157.75
229.964	168.75
230.199	151.75
230.433	137.75
230.667	118.75
230.901	122.75
231.136	110.75
231.37	110.75
231.604	113.75
231.838	114.75
232.072	123.75
232.306	122.75
232.541	115.75
232.775	114.75
233.009	112.75
233.243	107.75
233.477	140.75
233.711	120.75
233.945	109.75
234.179	120.75
234.413	132.75
234.647	124.75
234.881	125.75
235.115	124.75
235.349	115.75
235.583	131.75
235.817	110.75
236.051	119.75
236.285	142.75
236.519	135.75
236.753	135.75
236.987	156.75
237.221	217.75
237.455	280.75
237.689	216.75
237.922	152.75
238.156	154.75
238.39	133.75
238.624	123.75
238.858	117.75
239.091	137.75
239.325	134.75
239.559	131.75
239.793	131.75
240.027	132.75
240.26	149.75
240.494	176.75
240.728	165.75
240.961	182.75
241.195	161.75
241.429	144.75
241.662	149.75
241.896	155.75
242.13	130.75
242.363	148.75
242.597	130.75
242.83	143.75
243.064	154.75
243.298	142.75
243.531	141.75
243.765	160.75
243.998	147.75
244.232	148.75
244.465	151.75
244.699	152.75
244.932	152.75
245.166	155.75
245.399	154.75
245.633	154.75
245.866	160.75
246.099	154.75
246.333	161.75
246.566	158.75
246.8	157.75
247.033	148.75
247.266	170.75
247.5	170.75
247.733	173.75
247.966	181.75
248.2	178.75
248.433	191.75
248.666	186.75
248.899	199.75
249.133	221.75
249.366	232.75
249.599	234.75
249.832	197.75
250.066	212.75
250.299	190.75
250.532	215.75
250.765	220.75
250.998	222.75
251.231	272.75
251.465	237.75
251.698	239.75
251.931	218.75
252.164	217.75
252.397	200.75
252.63	221.75
252.863	220.75
253.096	234.75
253.329	260.75
253.562	244.75
253.795	236.75
254.028	220.75
254.261	245.75
254.494	254.75
254.727	292.75
254.96	301.75
255.193	309.75
255.426	297.75
255.659	277.75
255.892	262.75
256.124	256.75
256.357	263.75
256.59	243.75
256.823	246.75
257.056	216.75
257.289	234.75
257.521	219.75
257.754	249.75
257.987	221.75
258.22	221.75
258.452	207.75
258.685	221.75
258.918	231.75
259.151	228.75
259.383	231.75
259.616	228.75
259.849	228.75
260.081	245.75
260.314	280.75
260.547	268.75
260.779	272.75
261.012	271.75
261.244	243.75
261.477	235.75
261.71	231.75
261.942	235.75
262.175	263.75
262.407	250.75
262.64	227.75
262.872	226.75
263.105	226.75
263.337	215.75
263.57	226.75
263.802	240.75
264.035	229.75
264.267	206.75
264.499	220.75
264.732	227.75
264.964	227.75
265.197	214.75
265.429	195.75
265.661	218.75
265.894	196.75
266.126	215.75
266.358	214.75
266.591	219.75
266.823	222.75
267.055	228.75
267.287	229.75
267.52	229.75
267.752	231.75
267.984	230.75
268.216	235.75
268.448	234.75
268.681	243.75
268.913	251.75
269.145	271.75
269.377	299.75
269.609	275.75
269.841	284.75
270.073	288.75
270.306	317.75
270.538	357.75
270.77	356.75
271.002	323.75
271.234	324.75
271.466	322.75
271.698	334.75
271.93	352.75
272.162	363.75
272.394	348.75
272.626	326.75
272.858	315.75
273.09	295.75
273.322	289.75
273.553	253.75
273.785	288.75
274.017	290.75
274.249	268.75
274.481	274.75
274.713	258.75
274.945	280.75
275.176	282.75
275.408	286.75
275.64	287.75
275.872	280.75
276.104	292.75
276.335	288.75
276.567	313.75
276.799	300.75
277.031	322.75
277.262	345.75
277.494	323.75
277.726	314.75
277.957	294.75
278.189	297.75
278.421	289.75
278.652	283.75
278.884	278.75
279.115	272.75
279.347	276.75
279.579	274.75
279.81	283.75
280.042	251.75
280.273	266.75
280.505	293.75
280.736	271.75
280.968	242.75
281.199	261.75
281.431	263.75
281.662	268.75
281.894	276.75
282.125	264.75
282.356	300.75
282.588	324.75
282.819	327.75
283.051	268.75
283.282	281.75
283.513	275.75
283.745	281.75
283.976	289.75
284.207	283.75
284.439	290.75
284.67	275.75
284.901	278.75
285.132	266.75
285.364	273.75
285.595	270.75
285.826	266.75
286.057	272.75
286.288	289.75
286.52	285.75
286.751	281.75
286.982	267.75
287.213	264.75
287.444	306.75
287.675	296.75
287.906	304.75
288.138	300.75
288.369	299.75
288.6	309.75
288.831	293.75
289.062	304.75
289.293	294.75
289.524	293.75
289.755	305.75
289.986	289.75
290.217	277.75
290.448	283.75
290.679	278.75
290.91	276.75
291.141	299.75
291.371	281.75
291.602	287.75
291.833	295.75
292.064	283.75
292.295	286.75
292.526	295.75
292.757	282.75
292.987	278.75
293.218	310.75
293.449	282.75
293.68	294.75
293.91	291.75
294.141	278.75
294.372	290.75
294.603	263.75
294.833	300.75
295.064	292.75
295.295	298.75
295.525	284.75
295.756	286.75
295.987	304.75
296.217	338.75
296.448	351.75
296.679	337.75
296.909	297.75
297.14	286.75
297.37	297.75
297.601	304.75
297.831	296.75
298.062	292.75
298.292	308.75
298.523	297.75
298.753	286.75
298.984	291.75
299.214	288.75
299.445	320.75
299.675	289.75
299.905	302.75
300.136	313.75
300.366	299.75
300.597	306.75
300.827	308.75
301.057	325.75
301.288	326.75
301.518	316.75
301.748	307.75
301.979	320.75
302.209	323.75
302.439	309.75
302.669	322.75
302.9	324.75
303.13	333.75
303.36	325.75
303.59	343.75
303.82	344.75
304.051	338.75
304.281	326.75
304.511	319.75
304.741	325.75
304.971	309.75
305.201	317.75
305.431	321.75
305.661	324.75
305.891	315.75
306.121	337.75
306.352	320.75
306.582	323.75
306.812	316.75
307.042	331.75
307.272	334.75
307.502	331.75
307.731	326.75
307.961	322.75
308.191	314.75
308.421	331.75
308.651	325.75
308.881	336.75
309.111	342.75
309.341	339.75
309.571	350.75
309.8	374.75
310.03	384.75
310.26	392.75
310.49	371.75
310.72	386.75
310.949	424.75
311.179	434.75
311.409	396.75
311.639	402.75
311.868	384.75
312.098	402.75
312.328	409.75
312.557	436.75
312.787	437.75
313.017	423.75
313.246	391.75
313.476	382.75
313.706	397.75
313.935	402.75
314.165	403.75
314.394	418.75
314.624	434.75
314.853	412.75
315.083	403.75
315.312	384.75
315.542	377.75
315.771	362.75
316.001	378.75
316.23	364.75
316.46	382.75
316.689	375.75
316.919	391.75
317.148	404.75
317.377	397.75
317.607	407.75
317.836	383.75
318.065	391.75
318.295	385.75
318.524	379.75
318.753	377.75
318.983	404.75
319.212	396.75
319.441	389.75
319.67	418.75
319.9	408.75
320.129	392.75
320.358	402.75
320.587	384.75
320.816	397.75
321.046	411.75
321.275	402.75
321.504	412.75
321.733	436.75
321.962	444.75
322.191	438.75
322.42	461.75
322.649	476.75
322.878	480.75
323.108	535.75
323.337	550.75
323.566	563.75
323.795	594.75
324.024	674.75
324.253	837.75
324.482	1217.75
324.71	1920.75
324.939	2749.75
325.168	2402.75
325.397	1210.75
325.626	818.75
325.855	654.75
326.084	583.75
326.313	579.75
326.542	587.75
326.77	633.75
326.999	770.75
327.228	1092.75
327.457	1689.75
327.686	2056.75
327.914	1385.75
328.143	890.75
328.372	775.75
328.6	712.75
328.829	650.75
329.058	695.75
329.287	693.75
329.515	634.75
329.744	595.75
329.972	590.75
330.201	593.75
330.43	664.75
330.658	682.75
330.887	711.75
331.115	724.75
331.344	616.75
331.572	520.75
331.801	545.75
332.03	552.75
332.258	496.75
332.486	486.75
332.715	457.75
332.943	458.75
333.172	475.75
333.4	472.75
333.629	478.75
333.857	498.75
334.085	510.75
334.314	516.75
334.542	550.75
334.771	586.75
334.999	545.75
335.227	493.75
335.455	486.75
335.684	459.75
335.912	435.75
336.14	448.75
336.369	457.75
336.597	486.75
336.825	466.75
337.053	448.75
337.281	428.75
337.51	449.75
337.738	453.75
337.966	456.75
338.194	452.75
338.422	460.75
338.65	442.75
338.878	439.75
339.106	437.75
339.334	438.75
339.562	439.75
339.79	432.75
340.018	445.75
340.246	436.75
340.474	454.75
340.702	446.75
340.93	450.75
341.158	439.75
341.386	440.75
341.614	438.75
341.842	429.75
342.07	453.75
342.298	450.75
342.526	416.75
342.754	441.75
342.981	434.75
343.209	444.75
343.437	412.75
343.665	425.75
343.893	436.75
344.12	436.75
344.348	454.75
344.576	434.75
344.804	446.75
345.031	451.75
345.259	468.75
345.487	462.75
345.714	454.75
345.942	461.75
346.17	434.75
346.397	434.75
346.625	460.75
346.853	447.75
347.08	432.75
347.308	443.75
347.535	466.75
347.763	456.75
347.99	457.75
348.218	462.75
348.445	457.75
348.673	470.75
348.9	464.75
349.128	428.75
349.355	402.75
349.583	433.75
349.81	427.75
350.037	413.75
350.265	428.75
350.492	407.75
350.72	423.75
350.947	415.75
351.174	452.75
351.402	457.75
351.629	440.75
351.856	425.75
352.083	479.75
352.311	470.75
352.538	468.75
352.765	486.75
352.992	473.75
353.22	455.75
353.447	439.75
353.674	436.75
353.901	424.75
354.128	409.75
354.355	405.75
354.583	390.75
354.81	408.75
355.037	434.75
355.264	396.75
355.491	385.75
355.718	395.75
355.945	414.75
356.172	404.75
356.399	389.75
356.626	411.75
356.853	393.75
357.08	387.75
357.307	412.75
357.534	416.75
357.761	380.75
357.988	435.75
358.215	417.75
358.441	408.75
358.668	391.75
358.895	413.75
359.122	421.75
359.349	446.75
359.576	450.75
359.802	489.75
360.029	540.75
360.256	553.75
360.483	485.75
360.709	455.75
360.936	453.75
361.163	429.75
361.39	457.75
361.616	462.75
361.843	459.75
362.07	427.75
362.296	436.75
362.523	453.75
362.749	434.75
362.976	469.75
363.203	436.75
363.429	425.75
363.656	426.75
363.882	429.75
364.109	423.75
364.335	417.75
364.562	420.75
364.788	419.75
365.015	433.75
365.241	425.75
365.468	446.75
365.694	431.75
365.92	430.75
366.147	427.75
366.373	426.75
366.599	437.75
366.826	423.75
367.052	420.75
367.278	422.75
367.505	419.75
367.731	420.75
367.957	424.75
368.184	424.75
368.41	407.75
368.636	426.75
368.862	456.75
369.089	425.75
369.315	429.75
369.541	422.75
369.767	416.75
369.993	409.75
370.219	438.75
370.445	413.75
370.672	405.75
370.898	418.75
371.124	411.75
371.35	427.75
371.576	407.75
371.802	423.75
372.028	420.75
372.254	410.75
372.48	427.75
372.706	410.75
372.932	410.75
373.158	401.75
373.384	423.75
373.61	415.75
373.835	414.75
374.061	421.75
374.287	416.75
374.513	419.75
374.739	421.75
374.965	422.75
375.191	424.75
375.416	418.75
375.642	423.75
375.868	424.75
376.094	436.75
376.319	398.75
376.545	413.75
376.771	417.75
376.997	458.75
377.222	402.75
377.448	413.75
377.674	422.75
377.899	428.75
378.125	416.75
378.35	411.75
378.576	408.75
378.802	418.75
379.027	401.75
379.253	395.75
379.478	404.75
379.704	406.75
379.929	392.75
380.155	424.75
380.38	426.75
380.606	443.75
380.831	406.75
381.057	407.75
381.282	413.75
381.507	416.75
381.733	437.75
381.958	429.75
382.184	442.75
382.409	436.75
382.634	428.75
382.86	415.75
383.085	431.75
383.31	443.75
383.535	428.75
383.761	430.75
383.986	442.75
384.211	428.75
384.436	426.75
384.662	443.75
384.887	442.75
385.112	434.75
385.337	457.75
385.562	424.75
385.787	448.75
386.013	472.75
386.238	465.75
386.463	449.75
386.688	464.75
386.913	446.75
387.138	451.75
387.363	425.75
387.588	413.75
387.813	441.75
388.038	435.75
388.263	454.75
388.488	436.75
388.713	459.75
388.938	460.75
389.163	446.75
389.387	457.75
389.612	451.75
389.837	449.75
390.062	420.75
390.287	448.75
390.512	444.75
390.736	420.75
390.961	444.75
391.186	443.75
391.411	440.75
391.636	426.75
391.86	458.75
392.085	458.75
392.31	452.75
392.534	451.75
392.759	456.75
392.984	448.75
393.208	471.75
393.433	470.75
393.658	460.75
393.882	459.75
394.107	451.75
394.331	440.75
394.556	435.75
394.78	454.75
395.005	439.75
395.229	464.75
395.454	454.75
395.678	462.75
395.903	484.75
396.127	487.75
396.352	488.75
396.576	482.75
396.801	478.75
397.025	470.75
397.249	467.75
397.474	489.75
397.698	484.75
397.922	481.75
398.147	511.75
398.371	516.75
398.595	485.75
398.82	500.75
399.044	516.75
399.268	528.75
399.492	537.75
399.717	562.75
399.941	620.75
400.165	621.75
400.389	615.75
400.613	592.75
400.837	536.75
401.062	526.75
401.286	536.75
401.51	534.75
401.734	535.75
401.958	506.75
402.182	534.75
402.406	555.75
402.63	558.75
402.854	549.75
403.078	527.75
403.302	542.75
403.526	530.75
403.75	545.75
403.974	548.75
404.198	535.75
404.422	532.75
404.645	563.75
404.869	573.75
405.093	574.75
405.317	607.75
405.541	666.75
405.765	620.75
405.988	572.75
406.212	606.75
406.436	612.75
406.66	634.75
406.883	597.75
407.107	606.75
407.331	678.75
407.555	729.75
407.778	743.75
408.002	673.75
408.226	629.75
408.449	589.75
408.673	609.75
408.896	622.75
409.12	704.75
409.344	642.75
409.567	587.75
409.791	576.75
410.014	564.75
410.238	562.75
410.461	561.75
410.685	560.75
410.908	575.75
411.132	621.75
411.355	637.75
411.578	625.75
411.802	578.75
412.025	579.75
412.249	556.75
412.472	570.75
412.695	615.75
412.919	626.75
413.142	591.75
413.365	532.75
413.589	550.75
413.812	516.75
414.035	547.75
414.258	534.75
414.482	501.75
414.705	538.75
414.928	531.75
415.151	529.75
415.374	496.75
415.597	502.75
415.821	523.75
416.044	516.75
416.267	553.75
416.49	533.75
416.713	535.75
416.936	522.75
417.159	531.75
417.382	509.75
417.605	526.75
417.828	561.75
418.051	592.75
418.274	547.75
418.497	551.75
418.72	544.75
418.943	524.75
419.166	544.75
419.389	575.75
419.611	567.75
419.834	554.75
420.057	551.75
420.28	581.75
420.503	564.75
420.726	583.75
420.948	571.75
421.171	635.75
421.394	649.75
421.617	617.75
421.839	586.75
422.062	578.75
422.285	569.75
422.507	627.75
422.73	727.75
422.953	716.75
423.175	629.75
423.398	593.75
423.621	595.75
423.843	609.75
424.066	608.75
424.288	610.75
424.511	636.75
424.733	707.75
424.956	793.75
425.178	760.75
425.401	750.75
425.623	786.75
425.846	680.75
426.068	613.75
426.291	621.75
426.513	603.75
426.735	635.75
426.958	664.75
427.18	776.75
427.402	916.75
427.625	1040.75
427.847	918.75
428.069	812.75
428.292	688.75
428.514	631.75
428.736	621.75
428.958	617.75
429.181	603.75
429.403	546.75
429.625	586.75
429.847	617.75
430.069	721.75
430.292	685.75
430.514	606.75
430.736	582.75
430.958	583.75
431.18	536.75
431.402	538.75
431.624	541.75
431.846	527.75
432.068	531.75
432.29	565.75
432.512	533.75
432.734	550.75
432.956	527.75
433.178	572.75
433.4	555.75
433.622	538.75
433.844	534.75
434.066	549.75
434.287	537.75
434.509	536.75
434.731	566.75
434.953	562.75
435.175	565.75
435.397	596.75
435.618	632.75
435.84	688.75
436.062	773.75
436.284	824.75
436.505	715.75
436.727	660.75
436.949	593.75
437.17	581.75
437.392	579.75
437.614	611.75
437.835	637.75
438.057	760.75
438.278	875.75
438.5	914.75
438.721	924.75
438.943	930.75
439.165	732.75
439.386	670.75
439.608	632.75
439.829	668.75
440.05	688.75
440.272	732.75
440.493	698.75
440.715	630.75
440.936	597.75
441.158	586.75
441.379	564.75
441.6	609.75
441.822	640.75
442.043	692.75
442.264	796.75
442.486	794.75
442.707	713.75
442.928	677.75
443.149	624.75
443.371	676.75
443.592	737.75
443.813	834.75
444.034	887.75
444.255	757.75
444.476	652.75
444.698	603.75
444.919	611.75
445.14	740.75
445.361	696.75
445.582	677.75
445.803	726.75
446.024	876.75
446.245	898.75
446.466	842.75
446.687	698.75
446.908	642.75
447.129	610.75
447.35	597.75
447.571	569.75
447.792	574.75
448.013	592.75
448.234	611.75
448.455	676.75
448.675	799.75
448.896	909.75
449.117	803.75
449.338	761.75
449.559	898.75
449.779	968.75
450	804.75
450.221	664.75
450.442	602.75
450.662	595.75
450.883	613.75
451.104	649.75
451.324	574.75
451.545	576.75
451.766	564.75
451.986	530.75
452.207	524.75
452.428	539.75
452.648	526.75
452.869	520.75
453.089	540.75
453.31	547.75
453.53	548.75
453.751	526.75
453.971	530.75
454.192	542.75
454.412	551.75
454.633	524.75
454.853	537.75
455.073	535.75
455.294	570.75
455.514	650.75
455.734	623.75
455.955	541.75
456.175	509.75
456.395	488.75
456.616	466.75
456.836	505.75
457.056	480.75
457.276	485.75
457.497	501.75
457.717	485.75
457.937	484.75
458.157	490.75
458.377	520.75
458.598	550.75
458.818	613.75
459.038	723.75
459.258	744.75
459.478	600.75
459.698	555.75
459.918	534.75
460.138	544.75
460.358	543.75
460.578	537.75
460.798	530.75
461.018	516.75
461.238	531.75
461.458	535.75
461.678	543.75
461.898	521.75
462.118	516.75
462.338	531.75
462.558	518.75
462.777	539.75
462.997	546.75
463.217	567.75
463.437	572.75
463.657	566.75
463.876	550.75
464.096	545.75
464.316	552.75
464.536	581.75
464.755	562.75
464.975	565.75
465.195	646.75
465.414	747.75
465.634	649.75
465.854	599.75
466.073	598.75
466.293	556.75
466.512	564.75
466.732	534.75
466.951	515.75
467.171	522.75
467.391	529.75
467.61	538.75
467.829	581.75
468.049	566.75
468.268	556.75
468.488	549.75
468.707	524.75
468.927	532.75
469.146	504.75
469.365	522.75
469.585	540.75
469.804	520.75
470.023	544.75
470.243	554.75
470.462	554.75
470.681	569.75
470.901	572.75
471.12	568.75
471.339	542.75
471.558	532.75
471.777	542.75
471.997	517.75
472.216	549.75
472.435	579.75
472.654	555.75
472.873	580.75
473.092	526.75
473.311	550.75
473.53	533.75
473.749	552.75
473.968	630.75
474.187	714.75
474.406	749.75
474.625	618.75
474.844	560.75
475.063	558.75
475.282	524.75
475.501	532.75
475.72	526.75
475.939	515.75
476.158	557.75
476.377	573.75
476.596	579.75
476.814	578.75
477.033	576.75
477.252	565.75
477.471	580.75
477.69	584.75
477.908	565.75
478.127	568.75
478.346	606.75
478.564	612.75
478.783	614.75
479.002	597.75
479.22	609.75
479.439	640.75
479.658	645.75
479.876	654.75
480.095	669.75
480.313	684.75
480.532	657.75
480.751	670.75
480.969	659.75
481.188	754.75
481.406	807.75
481.624	719.75
481.843	678.75
482.061	665.75
482.28	646.75
482.498	627.75
482.717	621.75
482.935	636.75
483.153	640.75
483.372	646.75
483.59	671.75
483.808	649.75
484.027	638.75
484.245	644.75
484.463	655.75
484.681	650.75
484.9	656.75
485.118	674.75
485.336	634.75
485.554	657.75
485.772	656.75
485.99	654.75
486.209	676.75
486.427	674.75
486.645	683.75
486.863	676.75
487.081	721.75
487.299	701.75
487.517	691.75
487.735	668.75
487.953	706.75
488.171	708.75
488.389	684.75
488.607	708.75
488.825	693.75
489.043	674.75
489.261	711.75
489.479	754.75
489.696	704.75
489.914	726.75
490.132	739.75
490.35	730.75
490.568	735.75
490.786	765.75
491.003	770.75
491.221	788.75
491.439	810.75
491.657	817.75
491.874	806.75
492.092	813.75
492.31	831.75
492.527	848.75
492.745	848.75
492.963	827.75
493.18	857.75
493.398	836.75
493.615	863.75
493.833	860.75
494.05	857.75
494.268	836.75
494.485	858.75
494.703	834.75
494.92	849.75
495.138	859.75
495.355	848.75
495.573	831.75
495.79	834.75
496.008	885.75
496.225	865.75
496.442	848.75
496.66	871.75
496.877	832.75
497.094	884.75
497.312	866.75
497.529	845.75
497.746	861.75
497.963	885.75
498.181	898.75
498.398	882.75
498.615	903.75
498.832	927.75
499.049	896.75
499.267	899.75
499.484	945.75
499.701	954.75
499.918	983.75
500.135	994.75
500.352	1035.75
500.569	1024.75
500.786	1033.75
501.003	1003.75
501.22	1024.75
501.437	1022.75
