Data from 1971.PennyLincolnUp.Lamp.En5.5.200Scan.071719.P1._HRD10591_15-19-44-842.txt Node
Date: Thu Jul 18 15:19:44 EDT 2019
User: cochatt
Spectrometer: HR+D1059
Trigger mode: 1
Integration Time (sec): 1.000000E-1
Scans to average: 1
Electric dark correction enabled: true
Nonlinearity correction enabled: false
Boxcar width: 0
XAxis mode: Wavelengths
Number of Pixels in Spectrum: 2048
>>>>>Begin Spectral Data<<<<<
223.165	-24.69
223.4	-24.69
223.635	-24.69
223.869	-28.69
224.104	-23.69
224.338	-19.69
224.573	1.31
224.808	-7.69
225.042	-2.69
225.277	-5.69
225.511	0.31
225.746	6.31
225.98	1.31
226.215	-1.69
226.449	31.31
226.683	24.31
226.918	21.31
227.152	28.31
227.387	26.31
227.621	40.31
227.856	37.31
228.09	33.31
228.324	50.31
228.559	48.31
228.793	61.31
229.027	97.31
229.262	89.31
229.496	117.31
229.73	132.31
229.964	131.31
230.199	118.31
230.433	98.31
230.667	118.31
230.901	116.31
231.136	108.31
231.37	108.31
231.604	112.31
231.838	106.31
232.072	112.31
232.306	100.31
232.541	110.31
232.775	110.31
233.009	118.31
233.243	110.31
233.477	110.31
233.711	105.31
233.945	116.31
234.179	108.31
234.413	121.31
234.647	118.31
234.881	107.31
235.115	114.31
235.349	118.31
235.583	127.31
235.817	118.31
236.051	116.31
236.285	130.31
236.519	126.31
236.753	139.31
236.987	147.31
237.221	174.31
237.455	201.31
237.689	167.31
237.922	134.31
238.156	122.31
238.39	126.31
238.624	112.31
238.858	118.31
239.091	131.31
239.325	130.31
239.559	124.31
239.793	126.31
240.027	122.31
240.26	142.31
240.494	139.31
240.728	132.31
240.961	152.31
241.195	142.31
241.429	135.31
241.662	137.31
241.896	131.31
242.13	118.31
242.363	126.31
242.597	133.31
242.83	128.31
243.064	147.31
243.298	124.31
243.531	140.31
243.765	137.31
243.998	143.31
244.232	134.31
244.465	151.31
244.699	160.31
244.932	144.31
245.166	163.31
245.399	143.31
245.633	142.31
245.866	153.31
246.099	158.31
246.333	156.31
246.566	133.31
246.8	140.31
247.033	147.31
247.266	156.31
247.5	170.31
247.733	182.31
247.966	178.31
248.2	181.31
248.433	171.31
248.666	178.31
248.899	182.31
249.133	190.31
249.366	214.31
249.599	193.31
249.832	183.31
250.066	177.31
250.299	196.31
250.532	190.31
250.765	202.31
250.998	214.31
251.231	234.31
251.465	208.31
251.698	217.31
251.931	207.31
252.164	206.31
252.397	202.31
252.63	210.31
252.863	214.31
253.096	221.31
253.329	229.31
253.562	248.31
253.795	237.31
254.028	233.31
254.261	214.31
254.494	233.31
254.727	259.31
254.96	290.31
255.193	265.31
255.426	259.31
255.659	247.31
255.892	237.31
256.124	241.31
256.357	237.31
256.59	226.31
256.823	226.31
257.056	233.31
257.289	228.31
257.521	225.31
257.754	231.31
257.987	233.31
258.22	221.31
258.452	209.31
258.685	219.31
258.918	211.31
259.151	223.31
259.383	221.31
259.616	235.31
259.849	236.31
260.081	230.31
260.314	268.31
260.547	263.31
260.779	274.31
261.012	253.31
261.244	234.31
261.477	227.31
261.71	220.31
261.942	237.31
262.175	252.31
262.407	230.31
262.64	238.31
262.872	220.31
263.105	210.31
263.337	212.31
263.57	222.31
263.802	216.31
264.035	233.31
264.267	214.31
264.499	228.31
264.732	215.31
264.964	238.31
265.197	217.31
265.429	225.31
265.661	224.31
265.894	236.31
266.126	216.31
266.358	229.31
266.591	235.31
266.823	244.31
267.055	240.31
267.287	246.31
267.52	250.31
267.752	248.31
267.984	234.31
268.216	241.31
268.448	244.31
268.681	270.31
268.913	265.31
269.145	277.31
269.377	302.31
269.609	277.31
269.841	279.31
270.073	262.31
270.306	288.31
270.538	335.31
270.77	337.31
271.002	333.31
271.234	297.31
271.466	315.31
271.698	318.31
271.93	334.31
272.162	329.31
272.394	331.31
272.626	313.31
272.858	324.31
273.09	304.31
273.322	283.31
273.553	274.31
273.785	277.31
274.017	281.31
274.249	262.31
274.481	286.31
274.713	270.31
274.945	295.31
275.176	275.31
275.408	288.31
275.64	273.31
275.872	293.31
276.104	272.31
276.335	274.31
276.567	293.31
276.799	286.31
277.031	298.31
277.262	322.31
277.494	325.31
277.726	312.31
277.957	295.31
278.189	290.31
278.421	280.31
278.652	283.31
278.884	280.31
279.115	283.31
279.347	269.31
279.579	283.31
279.81	269.31
280.042	268.31
280.273	292.31
280.505	278.31
280.736	267.31
280.968	286.31
281.199	290.31
281.431	276.31
281.662	260.31
281.894	282.31
282.125	290.31
282.356	299.31
282.588	317.31
282.819	306.31
283.051	298.31
283.282	291.31
283.513	268.31
283.745	288.31
283.976	289.31
284.207	301.31
284.439	295.31
284.67	289.31
284.901	294.31
285.132	283.31
285.364	286.31
285.595	284.31
285.826	305.31
286.057	297.31
286.288	290.31
286.52	284.31
286.751	299.31
286.982	297.31
287.213	291.31
287.444	286.31
287.675	296.31
287.906	320.31
288.138	295.31
288.369	295.31
288.6	317.31
288.831	318.31
289.062	299.31
289.293	300.31
289.524	305.31
289.755	286.31
289.986	276.31
290.217	300.31
290.448	286.31
290.679	320.31
290.91	296.31
291.141	315.31
291.371	296.31
291.602	304.31
291.833	291.31
292.064	306.31
292.295	296.31
292.526	304.31
292.757	327.31
292.987	307.31
293.218	299.31
293.449	288.31
293.68	310.31
293.91	305.31
294.141	301.31
294.372	305.31
294.603	297.31
294.833	296.31
295.064	303.31
295.295	301.31
295.525	317.31
295.756	322.31
295.987	314.31
296.217	330.31
296.448	326.31
296.679	320.31
296.909	308.31
297.14	320.31
297.37	318.31
297.601	316.31
297.831	310.31
298.062	316.31
298.292	314.31
298.523	334.31
298.753	324.31
298.984	331.31
299.214	331.31
299.445	307.31
299.675	324.31
299.905	326.31
300.136	334.31
300.366	324.31
300.597	321.31
300.827	335.31
301.057	325.31
301.288	331.31
301.518	336.31
301.748	336.31
301.979	341.31
302.209	337.31
302.439	342.31
302.669	335.31
302.9	338.31
303.13	338.31
303.36	350.31
303.59	351.31
303.82	352.31
304.051	339.31
304.281	338.31
304.511	360.31
304.741	326.31
304.971	346.31
305.201	321.31
305.431	330.31
305.661	344.31
305.891	350.31
306.121	333.31
306.352	340.31
306.582	359.31
306.812	343.31
307.042	351.31
307.272	350.31
307.502	358.31
307.731	382.31
307.961	362.31
308.191	356.31
308.421	352.31
308.651	353.31
308.881	359.31
309.111	353.31
309.341	367.31
309.571	375.31
309.8	372.31
310.03	377.31
310.26	378.31
310.49	390.31
310.72	380.31
310.949	405.31
311.179	424.31
311.409	380.31
311.639	382.31
311.868	377.31
312.098	382.31
312.328	386.31
312.557	411.31
312.787	423.31
313.017	406.31
313.246	396.31
313.476	388.31
313.706	369.31
313.935	407.31
314.165	410.31
314.394	420.31
314.624	403.31
314.853	403.31
315.083	392.31
315.312	390.31
315.542	377.31
315.771	389.31
316.001	376.31
316.23	376.31
316.46	375.31
316.689	397.31
316.919	387.31
317.148	398.31
317.377	411.31
317.607	409.31
317.836	390.31
318.065	382.31
318.295	379.31
318.524	398.31
318.753	398.31
318.983	408.31
319.212	384.31
319.441	393.31
319.67	407.31
319.9	380.31
320.129	386.31
320.358	369.31
320.587	381.31
320.816	410.31
321.046	417.31
321.275	435.31
321.504	405.31
321.733	416.31
321.962	412.31
322.191	424.31
322.42	430.31
322.649	453.31
322.878	489.31
323.108	469.31
323.337	475.31
323.566	537.31
323.795	521.31
324.024	571.31
324.253	695.31
324.482	994.31
324.71	1502.31
324.939	2029.31
325.168	1697.31
325.397	876.31
325.626	631.31
325.855	550.31
326.084	525.31
326.313	483.31
326.542	528.31
326.77	576.31
326.999	680.31
327.228	891.31
327.457	1286.31
327.686	1510.31
327.914	1028.31
328.143	688.31
328.372	607.31
328.6	570.31
328.829	548.31
329.058	554.31
329.287	556.31
329.515	544.31
329.744	501.31
329.972	522.31
330.201	531.31
330.43	558.31
330.658	570.31
330.887	583.31
331.115	570.31
331.344	538.31
331.572	480.31
331.801	473.31
332.03	485.31
332.258	468.31
332.486	461.31
332.715	452.31
332.943	461.31
333.172	484.31
333.4	460.31
333.629	466.31
333.857	476.31
334.085	500.31
334.314	532.31
334.542	532.31
334.771	531.31
334.999	510.31
335.227	464.31
335.455	462.31
335.684	458.31
335.912	440.31
336.14	449.31
336.369	445.31
336.597	438.31
336.825	463.31
337.053	437.31
337.281	448.31
337.51	454.31
337.738	456.31
337.966	440.31
338.194	447.31
338.422	443.31
338.65	433.31
338.878	427.31
339.106	429.31
339.334	454.31
339.562	421.31
339.79	452.31
340.018	445.31
340.246	410.31
340.474	427.31
340.702	452.31
340.93	415.31
341.158	444.31
341.386	437.31
341.614	442.31
341.842	425.31
342.07	405.31
342.298	419.31
342.526	421.31
342.754	423.31
342.981	398.31
343.209	411.31
343.437	415.31
343.665	424.31
343.893	424.31
344.12	425.31
344.348	429.31
344.576	426.31
344.804	429.31
345.031	430.31
345.259	439.31
345.487	429.31
345.714	426.31
345.942	421.31
346.17	422.31
346.397	417.31
346.625	419.31
346.853	413.31
347.08	418.31
347.308	412.31
347.535	429.31
347.763	415.31
347.99	428.31
348.218	414.31
348.445	400.31
348.673	407.31
348.9	421.31
349.128	402.31
349.355	396.31
349.583	413.31
349.81	382.31
350.037	395.31
350.265	380.31
350.492	398.31
350.72	376.31
350.947	409.31
351.174	412.31
351.402	411.31
351.629	404.31
351.856	385.31
352.083	398.31
352.311	430.31
352.538	412.31
352.765	411.31
352.992	423.31
353.22	395.31
353.447	395.31
353.674	401.31
353.901	392.31
354.128	373.31
354.355	348.31
354.583	395.31
354.81	380.31
355.037	364.31
355.264	389.31
355.491	396.31
355.718	375.31
355.945	372.31
356.172	379.31
356.399	358.31
356.626	374.31
356.853	387.31
357.08	382.31
357.307	359.31
357.534	368.31
357.761	370.31
357.988	367.31
358.215	369.31
358.441	380.31
358.668	374.31
358.895	380.31
359.122	393.31
359.349	381.31
359.576	407.31
359.802	413.31
360.029	429.31
360.256	458.31
360.483	424.31
360.709	416.31
360.936	412.31
361.163	393.31
361.39	399.31
361.616	408.31
361.843	380.31
362.07	397.31
362.296	385.31
362.523	381.31
362.749	385.31
362.976	384.31
363.203	368.31
363.429	366.31
363.656	366.31
363.882	381.31
364.109	378.31
364.335	372.31
364.562	367.31
364.788	368.31
365.015	363.31
365.241	368.31
365.468	394.31
365.694	365.31
365.92	372.31
366.147	370.31
366.373	383.31
366.599	386.31
366.826	377.31
367.052	356.31
367.278	356.31
367.505	379.31
367.731	361.31
367.957	380.31
368.184	368.31
368.41	381.31
368.636	388.31
368.862	377.31
369.089	387.31
369.315	372.31
369.541	354.31
369.767	384.31
369.993	362.31
370.219	360.31
370.445	383.31
370.672	392.31
370.898	368.31
371.124	358.31
371.35	357.31
371.576	359.31
371.802	378.31
372.028	378.31
372.254	369.31
372.48	357.31
372.706	381.31
372.932	356.31
373.158	370.31
373.384	378.31
373.61	365.31
373.835	362.31
374.061	363.31
374.287	378.31
374.513	387.31
374.739	374.31
374.965	381.31
375.191	368.31
375.416	368.31
375.642	371.31
375.868	366.31
376.094	341.31
376.319	363.31
376.545	376.31
376.771	376.31
376.997	361.31
377.222	370.31
377.448	377.31
377.674	355.31
377.899	368.31
378.125	364.31
378.35	357.31
378.576	353.31
378.802	340.31
379.027	366.31
379.253	377.31
379.478	353.31
379.704	361.31
379.929	352.31
380.155	342.31
380.38	352.31
380.606	382.31
380.831	347.31
381.057	366.31
381.282	365.31
381.507	358.31
381.733	366.31
381.958	356.31
382.184	369.31
382.409	354.31
382.634	361.31
382.86	375.31
383.085	364.31
383.31	372.31
383.535	373.31
383.761	352.31
383.986	371.31
384.211	386.31
384.436	380.31
384.662	381.31
384.887	377.31
385.112	372.31
385.337	374.31
385.562	393.31
385.787	392.31
386.013	383.31
386.238	384.31
386.463	393.31
386.688	372.31
386.913	367.31
387.138	389.31
387.363	377.31
387.588	382.31
387.813	396.31
388.038	366.31
388.263	370.31
388.488	380.31
388.713	384.31
388.938	409.31
389.163	384.31
389.387	364.31
389.612	382.31
389.837	390.31
390.062	396.31
390.287	400.31
390.512	376.31
390.736	398.31
390.961	396.31
391.186	398.31
391.411	374.31
391.636	355.31
391.86	384.31
392.085	392.31
392.31	388.31
392.534	405.31
392.759	393.31
392.984	389.31
393.208	391.31
393.433	387.31
393.658	378.31
393.882	352.31
394.107	360.31
394.331	389.31
394.556	376.31
394.78	393.31
395.005	388.31
395.229	380.31
395.454	386.31
395.678	396.31
395.903	409.31
396.127	395.31
396.352	428.31
396.576	389.31
396.801	391.31
397.025	376.31
397.249	391.31
397.474	400.31
397.698	405.31
397.922	401.31
398.147	423.31
398.371	428.31
398.595	440.31
398.82	419.31
399.044	418.31
399.268	436.31
399.492	462.31
399.717	496.31
399.941	496.31
400.165	518.31
400.389	532.31
400.613	463.31
400.837	461.31
401.062	420.31
401.286	440.31
401.51	428.31
401.734	429.31
401.958	436.31
402.182	418.31
402.406	440.31
402.63	440.31
402.854	442.31
403.078	427.31
403.302	430.31
403.526	434.31
403.75	449.31
403.974	423.31
404.198	455.31
404.422	444.31
404.645	441.31
404.869	453.31
405.093	497.31
405.317	503.31
405.541	523.31
405.765	500.31
405.988	479.31
406.212	467.31
406.436	476.31
406.66	476.31
406.883	461.31
407.107	489.31
407.331	526.31
407.555	581.31
407.778	588.31
408.002	524.31
408.226	476.31
408.449	452.31
408.673	470.31
408.896	514.31
409.12	531.31
409.344	509.31
409.567	435.31
409.791	456.31
410.014	436.31
410.238	411.31
410.461	412.31
410.685	434.31
410.908	440.31
411.132	467.31
411.355	520.31
411.578	491.31
411.802	455.31
412.025	441.31
412.249	431.31
412.472	456.31
412.695	477.31
412.919	467.31
413.142	418.31
413.365	434.31
413.589	445.31
413.812	410.31
414.035	410.31
414.258	417.31
414.482	420.31
414.705	422.31
414.928	425.31
415.151	403.31
415.374	424.31
415.597	408.31
415.821	394.31
416.044	396.31
416.267	397.31
416.49	402.31
416.713	408.31
416.936	415.31
417.159	395.31
417.382	418.31
417.605	428.31
417.828	424.31
418.051	429.31
418.274	438.31
418.497	418.31
418.72	396.31
418.943	394.31
419.166	430.31
419.389	450.31
419.611	434.31
419.834	433.31
420.057	442.31
420.28	436.31
420.503	438.31
420.726	444.31
420.948	437.31
421.171	485.31
421.394	506.31
421.617	461.31
421.839	433.31
422.062	428.31
422.285	457.31
422.507	501.31
422.73	552.31
422.953	518.31
423.175	469.31
423.398	459.31
423.621	454.31
423.843	470.31
424.066	485.31
424.288	446.31
424.511	490.31
424.733	519.31
424.956	591.31
425.178	553.31
425.401	573.31
425.623	572.31
425.846	495.31
426.068	481.31
426.291	438.31
426.513	475.31
426.735	482.31
426.958	524.31
427.18	578.31
427.402	706.31
427.625	744.31
427.847	633.31
428.069	548.31
428.292	480.31
428.514	464.31
428.736	434.31
428.958	440.31
429.181	414.31
429.403	412.31
429.625	422.31
429.847	464.31
430.069	527.31
430.292	500.31
430.514	449.31
430.736	429.31
430.958	413.31
431.18	423.31
431.402	402.31
431.624	400.31
431.846	417.31
432.068	390.31
432.29	390.31
432.512	380.31
432.734	409.31
432.956	409.31
433.178	407.31
433.4	399.31
433.622	394.31
433.844	395.31
434.066	393.31
434.287	404.31
434.509	411.31
434.731	424.31
434.953	418.31
435.175	437.31
435.397	466.31
435.618	445.31
435.84	502.31
436.062	561.31
436.284	632.31
436.505	505.31
436.727	472.31
436.949	449.31
437.17	427.31
437.392	420.31
437.614	442.31
437.835	477.31
438.057	540.31
438.278	642.31
438.5	631.31
438.721	688.31
438.943	644.31
439.165	537.31
439.386	488.31
439.608	475.31
439.829	463.31
440.05	482.31
440.272	536.31
440.493	479.31
440.715	445.31
440.936	452.31
441.158	438.31
441.379	433.31
441.6	455.31
441.822	459.31
442.043	505.31
442.264	552.31
442.486	606.31
442.707	520.31
442.928	486.31
443.149	482.31
443.371	472.31
443.592	544.31
443.813	600.31
444.034	638.31
444.255	527.31
444.476	488.31
444.698	464.31
444.919	428.31
445.14	587.31
445.361	536.31
445.582	505.31
445.803	539.31
446.024	642.31
446.245	638.31
446.466	574.31
446.687	492.31
446.908	480.31
447.129	453.31
447.35	446.31
447.571	444.31
447.792	426.31
448.013	416.31
448.234	463.31
448.455	505.31
448.675	590.31
448.896	651.31
449.117	576.31
449.338	549.31
449.559	631.31
449.779	698.31
450	573.31
450.221	456.31
450.442	442.31
450.662	429.31
450.883	432.31
451.104	437.31
451.324	437.31
451.545	403.31
451.766	399.31
451.986	388.31
452.207	385.31
452.428	380.31
452.648	386.31
452.869	381.31
453.089	397.31
453.31	398.31
453.53	386.31
453.751	372.31
453.971	388.31
454.192	390.31
454.412	382.31
454.633	363.31
454.853	364.31
455.073	365.31
455.294	398.31
455.514	448.31
455.734	454.31
455.955	361.31
456.175	356.31
456.395	368.31
456.616	372.31
456.836	349.31
457.056	355.31
457.276	348.31
457.497	357.31
457.717	359.31
457.937	362.31
458.157	352.31
458.377	384.31
458.598	402.31
458.818	434.31
459.038	495.31
459.258	503.31
459.478	432.31
459.698	417.31
459.918	390.31
460.138	398.31
460.358	382.31
460.578	376.31
460.798	402.31
461.018	398.31
461.238	410.31
461.458	393.31
461.678	408.31
461.898	393.31
462.118	410.31
462.338	418.31
462.558	407.31
462.777	406.31
462.997	409.31
463.217	435.31
463.437	418.31
463.657	422.31
463.876	426.31
464.096	428.31
464.316	410.31
464.536	423.31
464.755	423.31
464.975	422.31
465.195	476.31
465.414	489.31
465.634	452.31
465.854	436.31
466.073	414.31
466.293	394.31
466.512	394.31
466.732	382.31
466.951	376.31
467.171	372.31
467.391	388.31
467.61	380.31
467.829	410.31
468.049	381.31
468.268	394.31
468.488	380.31
468.707	373.31
468.927	380.31
469.146	361.31
469.365	368.31
469.585	376.31
469.804	387.31
470.023	392.31
470.243	388.31
470.462	392.31
470.681	423.31
470.901	418.31
471.12	376.31
471.339	394.31
471.558	422.31
471.777	407.31
471.997	377.31
472.216	409.31
472.435	420.31
472.654	405.31
472.873	378.31
473.092	388.31
473.311	378.31
473.53	390.31
473.749	410.31
473.968	452.31
474.187	539.31
474.406	539.31
474.625	452.31
474.844	411.31
475.063	384.31
475.282	407.31
475.501	390.31
475.72	409.31
475.939	396.31
476.158	414.31
476.377	386.31
476.596	386.31
476.814	392.31
477.033	408.31
477.252	418.31
477.471	423.31
477.69	424.31
477.908	416.31
478.127	418.31
478.346	413.31
478.564	434.31
478.783	418.31
479.002	439.31
479.22	434.31
479.439	442.31
479.658	454.31
479.876	470.31
480.095	470.31
480.313	505.31
480.532	474.31
480.751	468.31
480.969	472.31
481.188	516.31
481.406	512.31
481.624	466.31
481.843	458.31
482.061	456.31
482.28	460.31
482.498	453.31
482.717	420.31
482.935	438.31
483.153	457.31
483.372	479.31
483.59	472.31
483.808	439.31
484.027	452.31
484.245	460.31
484.463	452.31
484.681	474.31
484.9	461.31
485.118	492.31
485.336	476.31
485.554	451.31
485.772	473.31
485.99	466.31
486.209	475.31
486.427	463.31
486.645	480.31
486.863	482.31
487.081	475.31
487.299	496.31
487.517	488.31
487.735	480.31
487.953	500.31
488.171	489.31
488.389	506.31
488.607	474.31
488.825	489.31
489.043	504.31
489.261	492.31
489.479	477.31
489.696	483.31
489.914	497.31
490.132	500.31
490.35	509.31
490.568	513.31
490.786	522.31
491.003	536.31
491.221	536.31
491.439	536.31
491.657	566.31
491.874	566.31
492.092	593.31
492.31	571.31
492.527	569.31
492.745	564.31
492.963	594.31
493.18	574.31
493.398	564.31
493.615	582.31
493.833	554.31
494.05	589.31
494.268	560.31
494.485	588.31
494.703	589.31
494.92	589.31
495.138	575.31
495.355	557.31
495.573	587.31
495.79	575.31
496.008	587.31
496.225	590.31
496.442	585.31
496.66	591.31
496.877	562.31
497.094	581.31
497.312	592.31
497.529	593.31
497.746	561.31
497.963	597.31
498.181	629.31
498.398	608.31
498.615	625.31
498.832	616.31
499.049	660.31
499.267	657.31
499.484	706.31
499.701	672.31
499.918	685.31
500.135	719.31
500.352	742.31
500.569	745.31
500.786	786.31
501.003	768.31
501.22	761.31
501.437	726.31
501.654	709.31
501.871	706.31
502.088	684.31
