Data from 1971.PennyLincolnUp.Lamp.En5.5.200Scan.071719.P1._HRD10591_15-20-44-841.txt Node
Date: Thu Jul 18 15:20:44 EDT 2019
User: cochatt
Spectrometer: HR+D1059
Trigger mode: 1
Integration Time (sec): 1.000000E-1
Scans to average: 1
Electric dark correction enabled: true
Nonlinearity correction enabled: false
Boxcar width: 0
XAxis mode: Wavelengths
Number of Pixels in Spectrum: 2048
>>>>>Begin Spectral Data<<<<<
223.165	-16.06
223.4	-16.06
223.635	-16.06
223.869	-21.06
224.104	-25.06
224.338	-11.06
224.573	-7.06
224.808	-10.06
225.042	4.94
225.277	-7.06
225.511	-0.06
225.746	3.94
225.98	8.94
226.215	9.94
226.449	13.94
226.683	10.94
226.918	31.94
227.152	12.94
227.387	31.94
227.621	43.94
227.856	59.94
228.09	47.94
228.324	45.94
228.559	58.94
228.793	63.94
229.027	95.94
229.262	102.94
229.496	110.94
229.73	110.94
229.964	143.94
230.199	125.94
230.433	92.94
230.667	109.94
230.901	99.94
231.136	106.94
231.37	117.94
231.604	106.94
231.838	107.94
232.072	105.94
232.306	120.94
232.541	100.94
232.775	118.94
233.009	109.94
233.243	103.94
233.477	114.94
233.711	128.94
233.945	128.94
234.179	101.94
234.413	121.94
234.647	118.94
234.881	126.94
235.115	128.94
235.349	120.94
235.583	112.94
235.817	123.94
236.051	136.94
236.285	122.94
236.519	115.94
236.753	122.94
236.987	118.94
237.221	190.94
237.455	221.94
237.689	184.94
237.922	124.94
238.156	138.94
238.39	137.94
238.624	131.94
238.858	127.94
239.091	122.94
239.325	124.94
239.559	122.94
239.793	139.94
240.027	117.94
240.26	137.94
240.494	152.94
240.728	152.94
240.961	144.94
241.195	141.94
241.429	142.94
241.662	150.94
241.896	136.94
242.13	138.94
242.363	128.94
242.597	141.94
242.83	130.94
243.064	120.94
243.298	131.94
243.531	145.94
243.765	140.94
243.998	125.94
244.232	150.94
244.465	154.94
244.699	154.94
244.932	139.94
245.166	159.94
245.399	153.94
245.633	157.94
245.866	150.94
246.099	141.94
246.333	146.94
246.566	144.94
246.8	158.94
247.033	165.94
247.266	145.94
247.5	172.94
247.733	164.94
247.966	186.94
248.2	167.94
248.433	168.94
248.666	183.94
248.899	198.94
249.133	202.94
249.366	206.94
249.599	217.94
249.832	186.94
250.066	211.94
250.299	191.94
250.532	202.94
250.765	206.94
250.998	215.94
251.231	216.94
251.465	210.94
251.698	196.94
251.931	207.94
252.164	226.94
252.397	205.94
252.63	216.94
252.863	223.94
253.096	233.94
253.329	249.94
253.562	241.94
253.795	210.94
254.028	229.94
254.261	238.94
254.494	239.94
254.727	271.94
254.96	295.94
255.193	266.94
255.426	258.94
255.659	242.94
255.892	247.94
256.124	246.94
256.357	259.94
256.59	218.94
256.823	236.94
257.056	232.94
257.289	225.94
257.521	223.94
257.754	220.94
257.987	207.94
258.22	209.94
258.452	221.94
258.685	229.94
258.918	213.94
259.151	233.94
259.383	226.94
259.616	224.94
259.849	249.94
260.081	263.94
260.314	274.94
260.547	274.94
260.779	250.94
261.012	250.94
261.244	255.94
261.477	244.94
261.71	239.94
261.942	245.94
262.175	240.94
262.407	230.94
262.64	222.94
262.872	229.94
263.105	223.94
263.337	224.94
263.57	212.94
263.802	226.94
264.035	231.94
264.267	228.94
264.499	207.94
264.732	216.94
264.964	216.94
265.197	221.94
265.429	230.94
265.661	211.94
265.894	222.94
266.126	223.94
266.358	224.94
266.591	220.94
266.823	230.94
267.055	238.94
267.287	209.94
267.52	231.94
267.752	231.94
267.984	207.94
268.216	242.94
268.448	239.94
268.681	236.94
268.913	269.94
269.145	274.94
269.377	293.94
269.609	292.94
269.841	278.94
270.073	278.94
270.306	321.94
270.538	324.94
270.77	336.94
271.002	332.94
271.234	285.94
271.466	326.94
271.698	342.94
271.93	337.94
272.162	331.94
272.394	330.94
272.626	315.94
272.858	326.94
273.09	303.94
273.322	299.94
273.553	289.94
273.785	278.94
274.017	277.94
274.249	285.94
274.481	286.94
274.713	298.94
274.945	302.94
275.176	279.94
275.408	285.94
275.64	286.94
275.872	265.94
276.104	272.94
276.335	271.94
276.567	287.94
276.799	318.94
277.031	314.94
277.262	339.94
277.494	344.94
277.726	320.94
277.957	304.94
278.189	304.94
278.421	277.94
278.652	282.94
278.884	285.94
279.115	291.94
279.347	264.94
279.579	290.94
279.81	285.94
280.042	267.94
280.273	281.94
280.505	274.94
280.736	287.94
280.968	275.94
281.199	286.94
281.431	304.94
281.662	285.94
281.894	265.94
282.125	292.94
282.356	314.94
282.588	316.94
282.819	329.94
283.051	303.94
283.282	313.94
283.513	301.94
283.745	301.94
283.976	307.94
284.207	305.94
284.439	311.94
284.67	308.94
284.901	282.94
285.132	276.94
285.364	282.94
285.595	316.94
285.826	308.94
286.057	284.94
286.288	286.94
286.52	276.94
286.751	305.94
286.982	297.94
287.213	281.94
287.444	300.94
287.675	286.94
287.906	307.94
288.138	311.94
288.369	319.94
288.6	315.94
288.831	318.94
289.062	298.94
289.293	305.94
289.524	292.94
289.755	297.94
289.986	309.94
290.217	297.94
290.448	294.94
290.679	312.94
290.91	304.94
291.141	300.94
291.371	297.94
291.602	288.94
291.833	299.94
292.064	309.94
292.295	301.94
292.526	306.94
292.757	318.94
292.987	306.94
293.218	315.94
293.449	306.94
293.68	291.94
293.91	282.94
294.141	316.94
294.372	309.94
294.603	322.94
294.833	312.94
295.064	309.94
295.295	301.94
295.525	310.94
295.756	325.94
295.987	327.94
296.217	341.94
296.448	341.94
296.679	312.94
296.909	306.94
297.14	307.94
297.37	322.94
297.601	331.94
297.831	323.94
298.062	312.94
298.292	301.94
298.523	318.94
298.753	329.94
298.984	310.94
299.214	322.94
299.445	316.94
299.675	340.94
299.905	326.94
300.136	312.94
300.366	314.94
300.597	324.94
300.827	344.94
301.057	358.94
301.288	339.94
301.518	325.94
301.748	325.94
301.979	338.94
302.209	331.94
302.439	355.94
302.669	356.94
302.9	342.94
303.13	331.94
303.36	344.94
303.59	363.94
303.82	366.94
304.051	352.94
304.281	346.94
304.511	336.94
304.741	345.94
304.971	358.94
305.201	354.94
305.431	322.94
305.661	331.94
305.891	334.94
306.121	349.94
306.352	344.94
306.582	350.94
306.812	348.94
307.042	371.94
307.272	340.94
307.502	340.94
307.731	335.94
307.961	328.94
308.191	350.94
308.421	349.94
308.651	341.94
308.881	345.94
309.111	348.94
309.341	358.94
309.571	366.94
309.8	370.94
310.03	371.94
310.26	397.94
310.49	379.94
310.72	398.94
310.949	408.94
311.179	408.94
311.409	405.94
311.639	408.94
311.868	392.94
312.098	397.94
312.328	360.94
312.557	404.94
312.787	424.94
313.017	392.94
313.246	383.94
313.476	400.94
313.706	386.94
313.935	390.94
314.165	399.94
314.394	414.94
314.624	414.94
314.853	386.94
315.083	404.94
315.312	408.94
315.542	399.94
315.771	385.94
316.001	379.94
316.23	382.94
316.46	381.94
316.689	385.94
316.919	398.94
317.148	421.94
317.377	424.94
317.607	394.94
317.836	405.94
318.065	381.94
318.295	405.94
318.524	407.94
318.753	405.94
318.983	407.94
319.212	402.94
319.441	411.94
319.67	395.94
319.9	399.94
320.129	391.94
320.358	402.94
320.587	427.94
320.816	412.94
321.046	411.94
321.275	428.94
321.504	420.94
321.733	410.94
321.962	422.94
322.191	431.94
322.42	468.94
322.649	477.94
322.878	477.94
323.108	477.94
323.337	510.94
323.566	527.94
323.795	551.94
324.024	602.94
324.253	721.94
324.482	1032.94
324.71	1540.94
324.939	2061.94
325.168	1748.94
325.397	926.94
325.626	639.94
325.855	555.94
326.084	528.94
326.313	518.94
326.542	509.94
326.77	567.94
326.999	689.94
327.228	897.94
327.457	1317.94
327.686	1518.94
327.914	1044.94
328.143	700.94
328.372	617.94
328.6	588.94
328.829	592.94
329.058	584.94
329.287	580.94
329.515	555.94
329.744	538.94
329.972	525.94
330.201	550.94
330.43	575.94
330.658	589.94
330.887	577.94
331.115	573.94
331.344	536.94
331.572	503.94
331.801	495.94
332.03	487.94
332.258	493.94
332.486	464.94
332.715	459.94
332.943	467.94
333.172	459.94
333.4	454.94
333.629	470.94
333.857	494.94
334.085	484.94
334.314	496.94
334.542	496.94
334.771	515.94
334.999	494.94
335.227	471.94
335.455	454.94
335.684	460.94
335.912	466.94
336.14	442.94
336.369	460.94
336.597	462.94
336.825	445.94
337.053	433.94
337.281	421.94
337.51	423.94
337.738	422.94
337.966	442.94
338.194	433.94
338.422	450.94
338.65	447.94
338.878	419.94
339.106	416.94
339.334	439.94
339.562	443.94
339.79	415.94
340.018	443.94
340.246	428.94
340.474	427.94
340.702	435.94
340.93	429.94
341.158	433.94
341.386	435.94
341.614	410.94
341.842	413.94
342.07	409.94
342.298	429.94
342.526	438.94
342.754	417.94
342.981	416.94
343.209	410.94
343.437	439.94
343.665	426.94
343.893	422.94
344.12	450.94
344.348	435.94
344.576	450.94
344.804	434.94
345.031	444.94
345.259	424.94
345.487	430.94
345.714	455.94
345.942	417.94
346.17	433.94
346.397	407.94
346.625	440.94
346.853	421.94
347.08	411.94
347.308	429.94
347.535	418.94
347.763	415.94
347.99	428.94
348.218	424.94
348.445	410.94
348.673	422.94
348.9	415.94
349.128	398.94
349.355	399.94
349.583	411.94
349.81	403.94
350.037	396.94
350.265	388.94
350.492	385.94
350.72	407.94
350.947	399.94
351.174	411.94
351.402	397.94
351.629	392.94
351.856	403.94
352.083	402.94
352.311	420.94
352.538	433.94
352.765	441.94
352.992	413.94
353.22	402.94
353.447	391.94
353.674	394.94
353.901	401.94
354.128	372.94
354.355	383.94
354.583	382.94
354.81	386.94
355.037	381.94
355.264	390.94
355.491	352.94
355.718	387.94
355.945	377.94
356.172	383.94
356.399	367.94
356.626	366.94
356.853	350.94
357.08	376.94
357.307	396.94
357.534	368.94
357.761	369.94
357.988	383.94
358.215	363.94
358.441	372.94
358.668	376.94
358.895	366.94
359.122	405.94
359.349	386.94
359.576	384.94
359.802	405.94
360.029	440.94
360.256	446.94
360.483	436.94
360.709	410.94
360.936	435.94
361.163	406.94
361.39	390.94
361.616	404.94
361.843	391.94
362.07	383.94
362.296	395.94
362.523	391.94
362.749	394.94
362.976	376.94
363.203	372.94
363.429	352.94
363.656	378.94
363.882	376.94
364.109	373.94
364.335	377.94
364.562	367.94
364.788	372.94
365.015	370.94
365.241	366.94
365.468	358.94
365.694	390.94
365.92	369.94
366.147	381.94
366.373	388.94
366.599	394.94
366.826	388.94
367.052	363.94
367.278	386.94
367.505	376.94
367.731	378.94
367.957	383.94
368.184	388.94
368.41	388.94
368.636	385.94
368.862	387.94
369.089	373.94
369.315	363.94
369.541	364.94
369.767	364.94
369.993	374.94
370.219	356.94
370.445	386.94
370.672	365.94
370.898	392.94
371.124	364.94
371.35	379.94
371.576	365.94
371.802	385.94
372.028	390.94
372.254	365.94
372.48	341.94
372.706	371.94
372.932	359.94
373.158	380.94
373.384	376.94
373.61	356.94
373.835	358.94
374.061	364.94
374.287	358.94
374.513	384.94
374.739	382.94
374.965	370.94
375.191	361.94
375.416	355.94
375.642	358.94
375.868	375.94
376.094	370.94
376.319	361.94
376.545	372.94
376.771	370.94
376.997	392.94
377.222	380.94
377.448	376.94
377.674	345.94
377.899	374.94
378.125	355.94
378.35	347.94
378.576	361.94
378.802	362.94
379.027	344.94
379.253	381.94
379.478	337.94
379.704	354.94
379.929	356.94
380.155	360.94
380.38	354.94
380.606	350.94
380.831	360.94
381.057	384.94
381.282	366.94
381.507	351.94
381.733	352.94
381.958	358.94
382.184	358.94
382.409	346.94
382.634	364.94
382.86	369.94
383.085	356.94
383.31	370.94
383.535	361.94
383.761	354.94
383.986	376.94
384.211	350.94
384.436	379.94
384.662	371.94
384.887	384.94
385.112	372.94
385.337	376.94
385.562	373.94
385.787	379.94
386.013	383.94
386.238	401.94
386.463	391.94
386.688	382.94
386.913	376.94
387.138	382.94
387.363	374.94
387.588	388.94
387.813	383.94
388.038	378.94
388.263	391.94
388.488	395.94
388.713	382.94
388.938	362.94
389.163	380.94
389.387	381.94
389.612	400.94
389.837	392.94
390.062	400.94
390.287	389.94
390.512	378.94
390.736	378.94
390.961	373.94
391.186	370.94
391.411	376.94
391.636	356.94
391.86	367.94
392.085	377.94
392.31	394.94
392.534	392.94
392.759	395.94
392.984	383.94
393.208	374.94
393.433	394.94
393.658	386.94
393.882	396.94
394.107	376.94
394.331	365.94
394.556	386.94
394.78	420.94
395.005	401.94
395.229	386.94
395.454	379.94
395.678	396.94
395.903	393.94
396.127	410.94
396.352	410.94
396.576	386.94
396.801	400.94
397.025	388.94
397.249	384.94
397.474	399.94
397.698	390.94
397.922	411.94
398.147	429.94
398.371	440.94
398.595	431.94
398.82	418.94
399.044	425.94
399.268	432.94
399.492	453.94
399.717	479.94
399.941	495.94
400.165	515.94
400.389	518.94
400.613	471.94
400.837	450.94
401.062	460.94
401.286	434.94
401.51	421.94
401.734	404.94
401.958	449.94
402.182	409.94
402.406	429.94
402.63	445.94
402.854	436.94
403.078	438.94
403.302	442.94
403.526	426.94
403.75	463.94
403.974	429.94
404.198	437.94
404.422	450.94
404.645	448.94
404.869	446.94
405.093	489.94
405.317	494.94
405.541	554.94
405.765	472.94
405.988	456.94
406.212	468.94
406.436	493.94
406.66	494.94
406.883	495.94
407.107	477.94
407.331	505.94
407.555	583.94
407.778	577.94
408.002	504.94
408.226	483.94
408.449	471.94
408.673	491.94
408.896	510.94
409.12	530.94
409.344	517.94
409.567	453.94
409.791	460.94
410.014	447.94
410.238	428.94
410.461	422.94
410.685	438.94
410.908	462.94
411.132	479.94
411.355	496.94
411.578	493.94
411.802	454.94
412.025	418.94
412.249	442.94
412.472	462.94
412.695	499.94
412.919	480.94
413.142	436.94
413.365	442.94
413.589	428.94
413.812	432.94
414.035	416.94
414.258	419.94
414.482	403.94
414.705	404.94
414.928	422.94
415.151	415.94
415.374	394.94
415.597	423.94
415.821	398.94
416.044	411.94
416.267	411.94
416.49	421.94
416.713	420.94
416.936	423.94
417.159	406.94
417.382	423.94
417.605	433.94
417.828	435.94
418.051	422.94
418.274	401.94
418.497	413.94
418.72	422.94
418.943	416.94
419.166	421.94
419.389	444.94
419.611	428.94
419.834	442.94
420.057	423.94
420.28	430.94
420.503	427.94
420.726	437.94
420.948	452.94
421.171	492.94
421.394	499.94
421.617	448.94
421.839	419.94
422.062	447.94
422.285	446.94
422.507	481.94
422.73	542.94
422.953	548.94
423.175	479.94
423.398	448.94
423.621	460.94
423.843	477.94
424.066	459.94
424.288	471.94
424.511	489.94
424.733	515.94
424.956	604.94
425.178	580.94
425.401	565.94
425.623	586.94
425.846	499.94
426.068	476.94
426.291	456.94
426.513	476.94
426.735	484.94
426.958	520.94
427.18	596.94
427.402	673.94
427.625	749.94
427.847	658.94
428.069	559.94
428.292	516.94
428.514	458.94
428.736	432.94
428.958	438.94
429.181	424.94
429.403	436.94
429.625	434.94
429.847	475.94
430.069	509.94
430.292	504.94
430.514	429.94
430.736	436.94
430.958	406.94
431.18	405.94
431.402	400.94
431.624	393.94
431.846	389.94
432.068	382.94
432.29	399.94
432.512	399.94
432.734	426.94
432.956	414.94
433.178	422.94
433.4	419.94
433.622	412.94
433.844	418.94
434.066	400.94
434.287	378.94
434.509	384.94
434.731	409.94
434.953	406.94
435.175	429.94
435.397	439.94
435.618	451.94
435.84	497.94
436.062	548.94
436.284	641.94
436.505	514.94
436.727	490.94
436.949	445.94
437.17	428.94
437.392	423.94
437.614	422.94
437.835	454.94
438.057	569.94
438.278	634.94
438.5	644.94
438.721	696.94
438.943	640.94
439.165	544.94
439.386	480.94
439.608	476.94
439.829	465.94
440.05	506.94
440.272	534.94
440.493	505.94
440.715	462.94
440.936	431.94
441.158	458.94
441.379	433.94
441.6	445.94
441.822	462.94
442.043	489.94
442.264	590.94
442.486	603.94
442.707	512.94
442.928	490.94
443.149	478.94
443.371	502.94
443.592	520.94
443.813	635.94
444.034	658.94
444.255	566.94
444.476	478.94
444.698	478.94
444.919	480.94
445.14	542.94
445.361	533.94
445.582	498.94
445.803	561.94
446.024	636.94
446.245	647.94
446.466	582.94
446.687	498.94
446.908	476.94
447.129	446.94
447.35	445.94
447.571	423.94
447.792	423.94
448.013	440.94
448.234	440.94
448.455	510.94
448.675	568.94
448.896	681.94
449.117	578.94
449.338	538.94
449.559	641.94
449.779	724.94
450	559.94
450.221	482.94
450.442	453.94
450.662	415.94
450.883	437.94
451.104	447.94
451.324	422.94
451.545	410.94
451.766	391.94
451.986	367.94
452.207	368.94
452.428	356.94
452.648	382.94
452.869	382.94
453.089	396.94
453.31	392.94
453.53	413.94
453.751	386.94
453.971	407.94
454.192	368.94
454.412	375.94
454.633	380.94
454.853	364.94
455.073	398.94
455.294	404.94
455.514	458.94
455.734	446.94
455.955	358.94
456.175	374.94
456.395	384.94
456.616	355.94
456.836	365.94
457.056	348.94
457.276	353.94
457.497	349.94
457.717	342.94
457.937	368.94
458.157	365.94
458.377	387.94
458.598	390.94
458.818	442.94
459.038	485.94
459.258	511.94
459.478	436.94
459.698	421.94
459.918	384.94
460.138	376.94
460.358	404.94
460.578	400.94
460.798	403.94
461.018	392.94
461.238	405.94
461.458	400.94
461.678	398.94
461.898	395.94
462.118	384.94
462.338	392.94
462.558	408.94
462.777	407.94
462.997	438.94
463.217	427.94
463.437	424.94
463.657	421.94
463.876	404.94
464.096	398.94
464.316	384.94
464.536	436.94
464.755	424.94
464.975	422.94
465.195	467.94
465.414	520.94
465.634	438.94
465.854	401.94
466.073	393.94
466.293	406.94
466.512	378.94
466.732	384.94
466.951	366.94
467.171	382.94
467.391	385.94
467.61	414.94
467.829	396.94
468.049	411.94
468.268	387.94
468.488	375.94
468.707	386.94
468.927	391.94
469.146	381.94
469.365	378.94
469.585	375.94
469.804	386.94
470.023	396.94
470.243	384.94
470.462	408.94
470.681	383.94
470.901	402.94
471.12	389.94
471.339	390.94
471.558	382.94
471.777	392.94
471.997	392.94
472.216	405.94
472.435	414.94
472.654	386.94
472.873	386.94
473.092	386.94
473.311	391.94
473.53	398.94
473.749	399.94
473.968	451.94
474.187	546.94
474.406	533.94
474.625	434.94
474.844	414.94
475.063	395.94
475.282	381.94
475.501	384.94
475.72	397.94
475.939	400.94
476.158	402.94
476.377	407.94
476.596	412.94
476.814	400.94
477.033	428.94
477.252	404.94
477.471	436.94
477.69	421.94
477.908	408.94
478.127	435.94
478.346	406.94
478.564	436.94
478.783	436.94
479.002	427.94
479.22	448.94
479.439	461.94
479.658	468.94
479.876	473.94
480.095	477.94
480.313	516.94
480.532	465.94
480.751	454.94
480.969	457.94
481.188	527.94
481.406	511.94
481.624	474.94
481.843	447.94
482.061	455.94
482.28	459.94
482.498	452.94
482.717	453.94
482.935	461.94
483.153	452.94
483.372	422.94
483.59	468.94
483.808	457.94
484.027	440.94
484.245	428.94
484.463	454.94
484.681	450.94
484.9	498.94
485.118	456.94
485.336	461.94
485.554	463.94
485.772	468.94
485.99	468.94
486.209	456.94
486.427	469.94
486.645	477.94
486.863	496.94
487.081	491.94
487.299	493.94
487.517	490.94
487.735	487.94
487.953	493.94
488.171	522.94
488.389	473.94
488.607	479.94
488.825	478.94
489.043	510.94
489.261	482.94
489.479	488.94
489.696	490.94
489.914	496.94
490.132	504.94
490.35	515.94
490.568	518.94
490.786	526.94
491.003	542.94
491.221	546.94
491.439	538.94
491.657	562.94
491.874	544.94
492.092	577.94
492.31	585.94
492.527	569.94
492.745	591.94
492.963	564.94
493.18	601.94
493.398	574.94
493.615	587.94
493.833	569.94
494.05	589.94
494.268	589.94
494.485	580.94
494.703	556.94
494.92	559.94
495.138	568.94
495.355	591.94
495.573	584.94
495.79	584.94
496.008	584.94
496.225	588.94
496.442	587.94
496.66	582.94
496.877	579.94
497.094	578.94
497.312	574.94
497.529	604.94
497.746	602.94
497.963	599.94
498.181	618.94
498.398	628.94
498.615	622.94
498.832	630.94
499.049	652.94
499.267	645.94
499.484	679.94
499.701	684.94
499.918	709.94
500.135	727.94
500.352	764.94
500.569	751.94
500.786	772.94
501.003	772.94
501.22	747.94
501.437	712.94
501.654	702.94
501.871	701.94
