Data from 1971.PennyLincolnUp.Lamp.En5.5.200Scan.071719.P1.Scan 2. Changed Angle._HRD10591_15-22-41-841.txt Node
Date: Thu Jul 18 15:22:41 EDT 2019
User: cochatt
Spectrometer: HR+D1059
Trigger mode: 1
Integration Time (sec): 1.000000E-1
Scans to average: 1
Electric dark correction enabled: true
Nonlinearity correction enabled: false
Boxcar width: 0
XAxis mode: Wavelengths
Number of Pixels in Spectrum: 2048
>>>>>Begin Spectral Data<<<<<
223.165	-19.12
223.4	-19.12
223.635	-19.12
223.869	-5.12
224.104	-6.12
224.338	-15.12
224.573	-0.12
224.808	-21.12
225.042	-17.12
225.277	-10.12
225.511	-8.12
225.746	10.88
225.98	6.88
226.215	4.88
226.449	-4.12
226.683	30.88
226.918	17.88
227.152	34.88
227.387	43.88
227.621	27.88
227.856	35.88
228.09	37.88
228.324	64.88
228.559	49.88
228.793	71.88
229.027	79.88
229.262	102.88
229.496	111.88
229.73	132.88
229.964	141.88
230.199	130.88
230.433	129.88
230.667	104.88
230.901	107.88
231.136	113.88
231.37	121.88
231.604	112.88
231.838	107.88
232.072	104.88
232.306	107.88
232.541	120.88
232.775	108.88
233.009	107.88
233.243	103.88
233.477	106.88
233.711	113.88
233.945	102.88
234.179	116.88
234.413	110.88
234.647	111.88
234.881	110.88
235.115	110.88
235.349	107.88
235.583	122.88
235.817	119.88
236.051	124.88
236.285	104.88
236.519	124.88
236.753	128.88
236.987	126.88
237.221	182.88
237.455	224.88
237.689	184.88
237.922	135.88
238.156	126.88
238.39	121.88
238.624	119.88
238.858	119.88
239.091	124.88
239.325	119.88
239.559	129.88
239.793	112.88
240.027	143.88
240.26	142.88
240.494	147.88
240.728	150.88
240.961	143.88
241.195	153.88
241.429	157.88
241.662	126.88
241.896	140.88
242.13	143.88
242.363	133.88
242.597	139.88
242.83	132.88
243.064	136.88
243.298	131.88
243.531	139.88
243.765	124.88
243.998	133.88
244.232	135.88
244.465	148.88
244.699	151.88
244.932	129.88
245.166	144.88
245.399	129.88
245.633	133.88
245.866	147.88
246.099	141.88
246.333	150.88
246.566	139.88
246.8	137.88
247.033	162.88
247.266	162.88
247.5	157.88
247.733	147.88
247.966	150.88
248.2	179.88
248.433	170.88
248.666	162.88
248.899	164.88
249.133	195.88
249.366	204.88
249.599	185.88
249.832	177.88
250.066	175.88
250.299	167.88
250.532	181.88
250.765	183.88
250.998	192.88
251.231	215.88
251.465	214.88
251.698	184.88
251.931	193.88
252.164	196.88
252.397	207.88
252.63	195.88
252.863	202.88
253.096	217.88
253.329	222.88
253.562	222.88
253.795	222.88
254.028	198.88
254.261	206.88
254.494	215.88
254.727	250.88
254.96	255.88
255.193	282.88
255.426	231.88
255.659	225.88
255.892	224.88
256.124	213.88
256.357	217.88
256.59	222.88
256.823	209.88
257.056	185.88
257.289	191.88
257.521	197.88
257.754	189.88
257.987	188.88
258.22	214.88
258.452	195.88
258.685	199.88
258.918	188.88
259.151	198.88
259.383	205.88
259.616	228.88
259.849	200.88
260.081	204.88
260.314	246.88
260.547	229.88
260.779	228.88
261.012	227.88
261.244	193.88
261.477	227.88
261.71	223.88
261.942	208.88
262.175	206.88
262.407	198.88
262.64	204.88
262.872	200.88
263.105	199.88
263.337	203.88
263.57	195.88
263.802	197.88
264.035	199.88
264.267	203.88
264.499	202.88
264.732	183.88
264.964	191.88
265.197	191.88
265.429	190.88
265.661	170.88
265.894	199.88
266.126	194.88
266.358	198.88
266.591	188.88
266.823	187.88
267.055	215.88
267.287	197.88
267.52	195.88
267.752	211.88
267.984	210.88
268.216	206.88
268.448	215.88
268.681	221.88
268.913	209.88
269.145	218.88
269.377	221.88
269.609	243.88
269.841	228.88
270.073	254.88
270.306	271.88
270.538	271.88
270.77	281.88
271.002	252.88
271.234	246.88
271.466	277.88
271.698	282.88
271.93	284.88
272.162	283.88
272.394	285.88
272.626	277.88
272.858	269.88
273.09	247.88
273.322	235.88
273.553	247.88
273.785	230.88
274.017	249.88
274.249	228.88
274.481	231.88
274.713	240.88
274.945	243.88
275.176	245.88
275.408	227.88
275.64	214.88
275.872	238.88
276.104	223.88
276.335	230.88
276.567	243.88
276.799	240.88
277.031	273.88
277.262	293.88
277.494	290.88
277.726	254.88
277.957	256.88
278.189	230.88
278.421	239.88
278.652	250.88
278.884	221.88
279.115	240.88
279.347	265.88
279.579	234.88
279.81	221.88
280.042	237.88
280.273	223.88
280.505	233.88
280.736	239.88
280.968	232.88
281.199	232.88
281.431	233.88
281.662	225.88
281.894	248.88
282.125	252.88
282.356	250.88
282.588	257.88
282.819	270.88
283.051	229.88
283.282	230.88
283.513	240.88
283.745	229.88
283.976	259.88
284.207	257.88
284.439	251.88
284.67	241.88
284.901	234.88
285.132	222.88
285.364	245.88
285.595	230.88
285.826	226.88
286.057	243.88
286.288	224.88
286.52	219.88
286.751	232.88
286.982	233.88
287.213	238.88
287.444	254.88
287.675	236.88
287.906	238.88
288.138	248.88
288.369	243.88
288.6	263.88
288.831	235.88
289.062	251.88
289.293	247.88
289.524	245.88
289.755	245.88
289.986	252.88
290.217	244.88
290.448	245.88
290.679	245.88
290.91	236.88
291.141	249.88
291.371	241.88
291.602	249.88
291.833	248.88
292.064	245.88
292.295	233.88
292.526	238.88
292.757	248.88
292.987	251.88
293.218	237.88
293.449	257.88
293.68	231.88
293.91	229.88
294.141	245.88
294.372	243.88
294.603	260.88
294.833	231.88
295.064	219.88
295.295	232.88
295.525	253.88
295.756	265.88
295.987	252.88
296.217	271.88
296.448	270.88
296.679	266.88
296.909	249.88
297.14	243.88
297.37	245.88
297.601	245.88
297.831	255.88
298.062	248.88
298.292	266.88
298.523	259.88
298.753	273.88
298.984	275.88
299.214	241.88
299.445	268.88
299.675	259.88
299.905	244.88
300.136	265.88
300.366	268.88
300.597	277.88
300.827	247.88
301.057	263.88
301.288	284.88
301.518	288.88
301.748	284.88
301.979	251.88
302.209	272.88
302.439	265.88
302.669	273.88
302.9	264.88
303.13	287.88
303.36	279.88
303.59	263.88
303.82	294.88
304.051	287.88
304.281	291.88
304.511	245.88
304.741	276.88
304.971	275.88
305.201	276.88
305.431	259.88
305.661	270.88
305.891	275.88
306.121	269.88
306.352	278.88
306.582	297.88
306.812	275.88
307.042	274.88
307.272	272.88
307.502	278.88
307.731	283.88
307.961	271.88
308.191	275.88
308.421	271.88
308.651	263.88
308.881	278.88
309.111	297.88
309.341	283.88
309.571	306.88
309.8	311.88
310.03	299.88
310.26	308.88
310.49	304.88
310.72	316.88
310.949	341.88
311.179	329.88
311.409	333.88
311.639	302.88
311.868	316.88
312.098	322.88
312.328	334.88
312.557	355.88
312.787	348.88
313.017	360.88
313.246	340.88
313.476	319.88
313.706	342.88
313.935	324.88
314.165	329.88
314.394	353.88
314.624	336.88
314.853	327.88
315.083	322.88
315.312	327.88
315.542	304.88
315.771	329.88
316.001	321.88
316.23	312.88
316.46	312.88
316.689	316.88
316.919	325.88
317.148	335.88
317.377	345.88
317.607	334.88
317.836	354.88
318.065	311.88
318.295	337.88
318.524	321.88
318.753	311.88
318.983	322.88
319.212	312.88
319.441	333.88
319.67	323.88
319.9	334.88
320.129	330.88
320.358	344.88
320.587	326.88
320.816	336.88
321.046	348.88
321.275	354.88
321.504	330.88
321.733	339.88
321.962	366.88
322.191	375.88
322.42	359.88
322.649	356.88
322.878	408.88
323.108	404.88
323.337	419.88
323.566	427.88
323.795	465.88
324.024	501.88
324.253	660.88
324.482	880.88
324.71	1367.88
324.939	1975.88
325.168	1702.88
325.397	869.88
325.626	600.88
325.855	481.88
326.084	430.88
326.313	437.88
326.542	433.88
326.77	502.88
326.999	566.88
327.228	793.88
327.457	1211.88
327.686	1483.88
327.914	1019.88
328.143	662.88
328.372	558.88
328.6	521.88
328.829	520.88
329.058	516.88
329.287	512.88
329.515	481.88
329.744	444.88
329.972	446.88
330.201	451.88
330.43	499.88
330.658	499.88
330.887	522.88
331.115	518.88
331.344	453.88
331.572	428.88
331.801	428.88
332.03	409.88
332.258	391.88
332.486	405.88
332.715	383.88
332.943	386.88
333.172	379.88
333.4	383.88
333.629	406.88
333.857	385.88
334.085	390.88
334.314	407.88
334.542	409.88
334.771	435.88
334.999	405.88
335.227	394.88
335.455	392.88
335.684	376.88
335.912	367.88
336.14	371.88
336.369	365.88
336.597	389.88
336.825	397.88
337.053	380.88
337.281	361.88
337.51	360.88
337.738	366.88
337.966	384.88
338.194	375.88
338.422	372.88
338.65	349.88
338.878	362.88
339.106	348.88
339.334	380.88
339.562	360.88
339.79	368.88
340.018	377.88
340.246	366.88
340.474	389.88
340.702	376.88
340.93	358.88
341.158	364.88
341.386	377.88
341.614	361.88
341.842	376.88
342.07	377.88
342.298	372.88
342.526	356.88
342.754	353.88
342.981	373.88
343.209	371.88
343.437	366.88
343.665	367.88
343.893	368.88
344.12	366.88
344.348	356.88
344.576	376.88
344.804	391.88
345.031	390.88
345.259	394.88
345.487	385.88
345.714	380.88
345.942	355.88
346.17	373.88
346.397	362.88
346.625	375.88
346.853	364.88
347.08	364.88
347.308	358.88
347.535	377.88
347.763	391.88
347.99	389.88
348.218	355.88
348.445	379.88
348.673	385.88
348.9	375.88
349.128	362.88
349.355	349.88
349.583	356.88
349.81	342.88
350.037	361.88
350.265	332.88
350.492	363.88
350.72	372.88
350.947	340.88
351.174	360.88
351.402	387.88
351.629	409.88
351.856	382.88
352.083	365.88
352.311	368.88
352.538	394.88
352.765	383.88
352.992	347.88
353.22	360.88
353.447	338.88
353.674	369.88
353.901	366.88
354.128	342.88
354.355	342.88
354.583	343.88
354.81	334.88
355.037	353.88
355.264	346.88
355.491	349.88
355.718	325.88
355.945	348.88
356.172	349.88
356.399	332.88
356.626	342.88
356.853	356.88
357.08	348.88
357.307	336.88
357.534	341.88
357.761	330.88
357.988	341.88
358.215	341.88
358.441	341.88
358.668	337.88
358.895	350.88
359.122	358.88
359.349	371.88
359.576	383.88
359.802	394.88
360.029	427.88
360.256	413.88
360.483	402.88
360.709	382.88
360.936	381.88
361.163	371.88
361.39	373.88
361.616	371.88
361.843	366.88
362.07	373.88
362.296	381.88
362.523	368.88
362.749	369.88
362.976	388.88
363.203	359.88
363.429	339.88
363.656	356.88
363.882	339.88
364.109	329.88
364.335	360.88
364.562	349.88
364.788	357.88
365.015	364.88
365.241	356.88
365.468	376.88
365.694	361.88
365.92	370.88
366.147	364.88
366.373	353.88
366.599	360.88
366.826	367.88
367.052	356.88
367.278	363.88
367.505	365.88
367.731	376.88
367.957	371.88
368.184	367.88
368.41	353.88
368.636	386.88
368.862	371.88
369.089	375.88
369.315	348.88
369.541	371.88
369.767	343.88
369.993	358.88
370.219	353.88
370.445	360.88
370.672	368.88
370.898	372.88
371.124	347.88
371.35	373.88
371.576	359.88
371.802	350.88
372.028	357.88
372.254	373.88
372.48	356.88
372.706	368.88
372.932	362.88
373.158	358.88
373.384	372.88
373.61	367.88
373.835	368.88
374.061	389.88
374.287	362.88
374.513	373.88
374.739	362.88
374.965	378.88
375.191	343.88
375.416	367.88
375.642	367.88
375.868	376.88
376.094	381.88
376.319	384.88
376.545	367.88
376.771	364.88
376.997	356.88
377.222	380.88
377.448	355.88
377.674	373.88
377.899	369.88
378.125	341.88
378.35	383.88
378.576	347.88
378.802	362.88
379.027	375.88
379.253	357.88
379.478	342.88
379.704	373.88
379.929	364.88
380.155	363.88
380.38	375.88
380.606	379.88
380.831	387.88
381.057	363.88
381.282	374.88
381.507	356.88
381.733	373.88
381.958	379.88
382.184	359.88
382.409	391.88
382.634	389.88
382.86	389.88
383.085	390.88
383.31	379.88
383.535	368.88
383.761	381.88
383.986	377.88
384.211	396.88
384.436	371.88
384.662	375.88
384.887	367.88
385.112	389.88
385.337	372.88
385.562	393.88
385.787	375.88
386.013	376.88
386.238	389.88
386.463	421.88
386.688	400.88
386.913	399.88
387.138	391.88
387.363	390.88
387.588	397.88
387.813	404.88
388.038	374.88
388.263	391.88
388.488	390.88
388.713	410.88
388.938	397.88
389.163	375.88
389.387	399.88
389.612	398.88
389.837	405.88
390.062	393.88
390.287	383.88
390.512	375.88
390.736	389.88
390.961	379.88
391.186	397.88
391.411	413.88
391.636	392.88
391.86	395.88
392.085	412.88
392.31	404.88
392.534	392.88
392.759	397.88
392.984	397.88
393.208	401.88
393.433	443.88
393.658	437.88
393.882	391.88
394.107	399.88
394.331	392.88
394.556	402.88
394.78	402.88
395.005	410.88
395.229	385.88
395.454	414.88
395.678	416.88
395.903	403.88
396.127	451.88
396.352	434.88
396.576	442.88
396.801	423.88
397.025	437.88
397.249	446.88
397.474	423.88
397.698	408.88
397.922	413.88
398.147	443.88
398.371	446.88
398.595	443.88
398.82	433.88
399.044	467.88
399.268	464.88
399.492	478.88
399.717	495.88
399.941	512.88
400.165	545.88
400.389	570.88
400.613	512.88
400.837	479.88
401.062	447.88
401.286	447.88
401.51	431.88
401.734	443.88
401.958	456.88
402.182	448.88
402.406	474.88
402.63	469.88
402.854	471.88
403.078	462.88
403.302	460.88
403.526	462.88
403.75	454.88
403.974	472.88
404.198	476.88
404.422	464.88
404.645	481.88
404.869	484.88
405.093	521.88
405.317	532.88
405.541	571.88
405.765	513.88
405.988	529.88
406.212	501.88
406.436	527.88
406.66	540.88
406.883	524.88
407.107	530.88
407.331	566.88
407.555	614.88
407.778	649.88
408.002	584.88
408.226	552.88
408.449	537.88
408.673	524.88
408.896	543.88
409.12	588.88
409.344	558.88
409.567	513.88
409.791	502.88
410.014	494.88
410.238	492.88
410.461	487.88
410.685	498.88
410.908	487.88
411.132	503.88
411.355	558.88
411.578	529.88
411.802	470.88
412.025	476.88
412.249	480.88
412.472	477.88
412.695	508.88
412.919	529.88
413.142	477.88
413.365	479.88
413.589	476.88
413.812	461.88
414.035	457.88
414.258	454.88
414.482	464.88
414.705	453.88
414.928	449.88
415.151	443.88
415.374	449.88
415.597	432.88
415.821	460.88
416.044	463.88
416.267	475.88
416.49	489.88
416.713	469.88
416.936	435.88
417.159	444.88
417.382	461.88
417.605	457.88
417.828	475.88
418.051	463.88
418.274	470.88
418.497	468.88
418.72	464.88
418.943	455.88
419.166	476.88
419.389	484.88
419.611	494.88
419.834	482.88
420.057	515.88
420.28	467.88
420.503	480.88
420.726	458.88
420.948	491.88
421.171	544.88
421.394	571.88
421.617	505.88
421.839	497.88
422.062	491.88
422.285	517.88
422.507	535.88
422.73	618.88
422.953	603.88
423.175	523.88
423.398	512.88
423.621	517.88
423.843	509.88
424.066	543.88
424.288	533.88
424.511	543.88
424.733	589.88
424.956	649.88
425.178	649.88
425.401	627.88
425.623	659.88
425.846	585.88
426.068	553.88
426.291	534.88
426.513	529.88
426.735	519.88
426.958	565.88
427.18	644.88
427.402	761.88
427.625	869.88
427.847	737.88
428.069	651.88
428.292	560.88
428.514	550.88
428.736	507.88
428.958	515.88
429.181	486.88
429.403	460.88
429.625	478.88
429.847	548.88
430.069	588.88
430.292	587.88
430.514	526.88
430.736	492.88
430.958	500.88
431.18	463.88
431.402	478.88
431.624	464.88
431.846	463.88
432.068	463.88
432.29	457.88
432.512	467.88
432.734	500.88
432.956	463.88
433.178	473.88
433.4	499.88
433.622	488.88
433.844	454.88
434.066	464.88
434.287	459.88
434.509	481.88
434.731	473.88
434.953	470.88
435.175	489.88
435.397	523.88
435.618	542.88
435.84	576.88
436.062	657.88
436.284	720.88
436.505	615.88
436.727	548.88
436.949	515.88
437.17	505.88
437.392	495.88
437.614	536.88
437.835	527.88
438.057	620.88
438.278	730.88
438.5	737.88
438.721	795.88
438.943	764.88
439.165	627.88
439.386	569.88
439.608	563.88
439.829	544.88
440.05	582.88
440.272	613.88
440.493	601.88
440.715	520.88
440.936	491.88
441.158	486.88
441.379	515.88
441.6	518.88
441.822	542.88
442.043	565.88
442.264	667.88
442.486	678.88
442.707	579.88
442.928	561.88
443.149	589.88
443.371	582.88
443.592	622.88
443.813	691.88
444.034	754.88
444.255	638.88
444.476	561.88
444.698	542.88
444.919	528.88
445.14	630.88
445.361	621.88
445.582	579.88
445.803	647.88
446.024	735.88
446.245	742.88
446.466	684.88
446.687	577.88
446.908	554.88
447.129	541.88
447.35	512.88
447.571	530.88
447.792	499.88
448.013	477.88
448.234	513.88
448.455	595.88
448.675	685.88
448.896	759.88
449.117	667.88
449.338	638.88
449.559	740.88
449.779	819.88
450	674.88
450.221	561.88
450.442	515.88
450.662	466.88
450.883	509.88
451.104	485.88
451.324	505.88
451.545	469.88
451.766	469.88
451.986	464.88
452.207	446.88
452.428	442.88
452.648	452.88
452.869	461.88
453.089	458.88
453.31	476.88
453.53	446.88
453.751	454.88
453.971	484.88
454.192	481.88
454.412	471.88
454.633	447.88
454.853	426.88
455.073	430.88
455.294	485.88
455.514	529.88
455.734	533.88
455.955	447.88
456.175	427.88
456.395	437.88
456.616	433.88
456.836	429.88
457.056	420.88
457.276	393.88
457.497	407.88
457.717	419.88
457.937	432.88
458.157	427.88
458.377	421.88
458.598	455.88
458.818	489.88
459.038	584.88
459.258	602.88
459.478	512.88
459.698	489.88
459.918	454.88
460.138	442.88
460.358	458.88
460.578	454.88
460.798	471.88
461.018	484.88
461.238	467.88
461.458	462.88
461.678	462.88
461.898	474.88
462.118	469.88
462.338	489.88
462.558	473.88
462.777	480.88
462.997	477.88
463.217	486.88
463.437	496.88
463.657	475.88
463.876	464.88
464.096	482.88
464.316	489.88
464.536	507.88
464.755	514.88
464.975	513.88
465.195	543.88
465.414	615.88
465.634	569.88
465.854	515.88
466.073	492.88
466.293	465.88
466.512	475.88
466.732	466.88
466.951	458.88
467.171	462.88
467.391	463.88
467.61	461.88
467.829	472.88
468.049	471.88
468.268	463.88
468.488	441.88
468.707	435.88
468.927	451.88
469.146	424.88
469.365	456.88
469.585	440.88
469.804	443.88
470.023	462.88
470.243	461.88
470.462	486.88
470.681	481.88
470.901	485.88
471.12	475.88
471.339	457.88
471.558	461.88
471.777	470.88
471.997	488.88
472.216	464.88
472.435	484.88
472.654	465.88
472.873	463.88
473.092	464.88
473.311	437.88
473.53	454.88
473.749	483.88
473.968	506.88
474.187	603.88
474.406	609.88
474.625	540.88
474.844	482.88
475.063	468.88
475.282	463.88
475.501	456.88
475.72	489.88
475.939	483.88
476.158	479.88
476.377	477.88
476.596	496.88
476.814	490.88
477.033	499.88
477.252	493.88
477.471	479.88
477.69	490.88
477.908	500.88
478.127	517.88
478.346	521.88
478.564	529.88
478.783	512.88
479.002	529.88
479.22	529.88
479.439	530.88
479.658	544.88
479.876	560.88
480.095	550.88
480.313	587.88
480.532	567.88
480.751	544.88
480.969	558.88
481.188	596.88
481.406	628.88
481.624	587.88
481.843	563.88
482.061	567.88
482.28	545.88
482.498	541.88
482.717	541.88
482.935	566.88
483.153	550.88
483.372	568.88
483.59	568.88
483.808	547.88
484.027	541.88
484.245	565.88
484.463	542.88
484.681	571.88
484.9	577.88
485.118	563.88
485.336	551.88
485.554	571.88
485.772	590.88
485.99	561.88
486.209	592.88
486.427	591.88
486.645	566.88
486.863	619.88
487.081	606.88
487.299	613.88
487.517	585.88
487.735	563.88
487.953	608.88
488.171	612.88
488.389	590.88
488.607	620.88
488.825	597.88
489.043	602.88
489.261	594.88
489.479	627.88
489.696	583.88
489.914	619.88
490.132	639.88
490.35	633.88
490.568	663.88
490.786	656.88
491.003	660.88
491.221	638.88
491.439	653.88
491.657	678.88
491.874	703.88
492.092	683.88
492.31	677.88
492.527	693.88
492.745	699.88
492.963	694.88
493.18	702.88
493.398	682.88
493.615	697.88
493.833	697.88
494.05	702.88
494.268	704.88
494.485	684.88
494.703	714.88
494.92	706.88
495.138	709.88
495.355	707.88
495.573	740.88
495.79	701.88
496.008	704.88
496.225	681.88
496.442	691.88
496.66	729.88
496.877	709.88
497.094	725.88
497.312	715.88
497.529	729.88
497.746	730.88
497.963	764.88
498.181	773.88
498.398	765.88
498.615	774.88
498.832	771.88
499.049	783.88
499.267	813.88
499.484	836.88
499.701	869.88
499.918	876.88
500.135	874.88
500.352	919.88
500.569	924.88
500.786	931.88
501.003	941.88
501.22	901.88
501.437	879.88
501.654	855.88
