Data from 1971.PennyLincolnUp.Lamp.En5.5.200Scan.071719.P1._HRD10591_15-18-02-842.txt Node
Date: Thu Jul 18 15:18:02 EDT 2019
User: cochatt
Spectrometer: HR+D1059
Trigger mode: 1
Integration Time (sec): 1.000000E-1
Scans to average: 1
Electric dark correction enabled: true
Nonlinearity correction enabled: false
Boxcar width: 0
XAxis mode: Wavelengths
Number of Pixels in Spectrum: 2048
>>>>>Begin Spectral Data<<<<<
223.165	-20.12
223.4	-20.12
223.635	-20.12
223.869	-10.12
224.104	-27.12
224.338	-7.12
224.573	-14.12
224.808	-15.12
225.042	-2.12
225.277	-5.12
225.511	-4.12
225.746	-8.12
225.98	9.88
226.215	9.88
226.449	23.88
226.683	2.88
226.918	28.88
227.152	37.88
227.387	28.88
227.621	46.88
227.856	36.88
228.09	49.88
228.324	46.88
228.559	45.88
228.793	67.88
229.027	90.88
229.262	101.88
229.496	109.88
229.73	106.88
229.964	125.88
230.199	105.88
230.433	101.88
230.667	93.88
230.901	91.88
231.136	92.88
231.37	110.88
231.604	109.88
231.838	84.88
232.072	120.88
232.306	93.88
232.541	116.88
232.775	116.88
233.009	97.88
233.243	106.88
233.477	108.88
233.711	100.88
233.945	114.88
234.179	113.88
234.413	111.88
234.647	100.88
234.881	114.88
235.115	107.88
235.349	118.88
235.583	124.88
235.817	116.88
236.051	114.88
236.285	118.88
236.519	106.88
236.753	111.88
236.987	134.88
237.221	134.88
237.455	164.88
237.689	163.88
237.922	128.88
238.156	132.88
238.39	108.88
238.624	110.88
238.858	122.88
239.091	130.88
239.325	125.88
239.559	113.88
239.793	115.88
240.027	123.88
240.26	123.88
240.494	137.88
240.728	133.88
240.961	130.88
241.195	134.88
241.429	131.88
241.662	124.88
241.896	124.88
242.13	125.88
242.363	130.88
242.597	136.88
242.83	127.88
243.064	127.88
243.298	124.88
243.531	125.88
243.765	134.88
243.998	112.88
244.232	132.88
244.465	130.88
244.699	144.88
244.932	123.88
245.166	132.88
245.399	134.88
245.633	145.88
245.866	151.88
246.099	139.88
246.333	130.88
246.566	148.88
246.8	153.88
247.033	142.88
247.266	157.88
247.5	154.88
247.733	149.88
247.966	163.88
248.2	154.88
248.433	162.88
248.666	148.88
248.899	172.88
249.133	170.88
249.366	184.88
249.599	182.88
249.832	181.88
250.066	177.88
250.299	163.88
250.532	155.88
250.765	183.88
250.998	194.88
251.231	198.88
251.465	194.88
251.698	189.88
251.931	184.88
252.164	166.88
252.397	161.88
252.63	188.88
252.863	178.88
253.096	192.88
253.329	206.88
253.562	202.88
253.795	185.88
254.028	202.88
254.261	196.88
254.494	211.88
254.727	238.88
254.96	228.88
255.193	228.88
255.426	205.88
255.659	204.88
255.892	198.88
256.124	202.88
256.357	180.88
256.59	194.88
256.823	187.88
257.056	195.88
257.289	187.88
257.521	187.88
257.754	189.88
257.987	188.88
258.22	193.88
258.452	198.88
258.685	194.88
258.918	179.88
259.151	191.88
259.383	196.88
259.616	218.88
259.849	199.88
260.081	212.88
260.314	212.88
260.547	214.88
260.779	217.88
261.012	203.88
261.244	215.88
261.477	195.88
261.71	212.88
261.942	197.88
262.175	208.88
262.407	197.88
262.64	206.88
262.872	197.88
263.105	196.88
263.337	206.88
263.57	192.88
263.802	190.88
264.035	194.88
264.267	200.88
264.499	205.88
264.732	187.88
264.964	191.88
265.197	197.88
265.429	196.88
265.661	198.88
265.894	190.88
266.126	198.88
266.358	210.88
266.591	187.88
266.823	210.88
267.055	202.88
267.287	203.88
267.52	208.88
267.752	188.88
267.984	220.88
268.216	219.88
268.448	209.88
268.681	213.88
268.913	218.88
269.145	226.88
269.377	222.88
269.609	246.88
269.841	232.88
270.073	228.88
270.306	267.88
270.538	262.88
270.77	241.88
271.002	260.88
271.234	247.88
271.466	252.88
271.698	287.88
271.93	266.88
272.162	268.88
272.394	278.88
272.626	276.88
272.858	248.88
273.09	244.88
273.322	246.88
273.553	245.88
273.785	234.88
274.017	244.88
274.249	231.88
274.481	222.88
274.713	248.88
274.945	244.88
275.176	227.88
275.408	265.88
275.64	237.88
275.872	244.88
276.104	247.88
276.335	219.88
276.567	225.88
276.799	246.88
277.031	277.88
277.262	278.88
277.494	278.88
277.726	252.88
277.957	261.88
278.189	264.88
278.421	238.88
278.652	226.88
278.884	241.88
279.115	256.88
279.347	236.88
279.579	248.88
279.81	241.88
280.042	269.88
280.273	264.88
280.505	238.88
280.736	241.88
280.968	240.88
281.199	231.88
281.431	234.88
281.662	218.88
281.894	246.88
282.125	244.88
282.356	242.88
282.588	258.88
282.819	251.88
283.051	235.88
283.282	256.88
283.513	250.88
283.745	230.88
283.976	258.88
284.207	245.88
284.439	251.88
284.67	276.88
284.901	246.88
285.132	266.88
285.364	276.88
285.595	248.88
285.826	241.88
286.057	261.88
286.288	255.88
286.52	257.88
286.751	271.88
286.982	259.88
287.213	262.88
287.444	258.88
287.675	249.88
287.906	247.88
288.138	263.88
288.369	276.88
288.6	276.88
288.831	270.88
289.062	249.88
289.293	259.88
289.524	263.88
289.755	270.88
289.986	266.88
290.217	266.88
290.448	265.88
290.679	253.88
290.91	256.88
291.141	260.88
291.371	249.88
291.602	255.88
291.833	265.88
292.064	271.88
292.295	240.88
292.526	265.88
292.757	276.88
292.987	245.88
293.218	259.88
293.449	268.88
293.68	269.88
293.91	262.88
294.141	261.88
294.372	276.88
294.603	258.88
294.833	285.88
295.064	269.88
295.295	259.88
295.525	277.88
295.756	280.88
295.987	249.88
296.217	280.88
296.448	279.88
296.679	269.88
296.909	261.88
297.14	265.88
297.37	255.88
297.601	260.88
297.831	257.88
298.062	268.88
298.292	282.88
298.523	267.88
298.753	272.88
298.984	265.88
299.214	270.88
299.445	285.88
299.675	273.88
299.905	285.88
300.136	282.88
300.366	252.88
300.597	274.88
300.827	264.88
301.057	290.88
301.288	289.88
301.518	271.88
301.748	284.88
301.979	281.88
302.209	293.88
302.439	277.88
302.669	272.88
302.9	284.88
303.13	300.88
303.36	308.88
303.59	301.88
303.82	312.88
304.051	301.88
304.281	310.88
304.511	291.88
304.741	313.88
304.971	288.88
305.201	308.88
305.431	288.88
305.661	293.88
305.891	294.88
306.121	284.88
306.352	307.88
306.582	304.88
306.812	284.88
307.042	308.88
307.272	285.88
307.502	288.88
307.731	300.88
307.961	294.88
308.191	304.88
308.421	302.88
308.651	294.88
308.881	293.88
309.111	308.88
309.341	315.88
309.571	286.88
309.8	302.88
310.03	311.88
310.26	331.88
310.49	325.88
310.72	314.88
310.949	333.88
311.179	343.88
311.409	312.88
311.639	320.88
311.868	343.88
312.098	313.88
312.328	341.88
312.557	327.88
312.787	342.88
313.017	336.88
313.246	332.88
313.476	329.88
313.706	337.88
313.935	342.88
314.165	333.88
314.394	332.88
314.624	329.88
314.853	326.88
315.083	339.88
315.312	312.88
315.542	330.88
315.771	328.88
316.001	316.88
316.23	331.88
316.46	333.88
316.689	347.88
316.919	320.88
317.148	348.88
317.377	333.88
317.607	320.88
317.836	323.88
318.065	330.88
318.295	313.88
318.524	328.88
318.753	322.88
318.983	329.88
319.212	317.88
319.441	334.88
319.67	326.88
319.9	333.88
320.129	326.88
320.358	325.88
320.587	342.88
320.816	344.88
321.046	331.88
321.275	345.88
321.504	328.88
321.733	330.88
321.962	342.88
322.191	360.88
322.42	369.88
322.649	342.88
322.878	354.88
323.108	393.88
323.337	389.88
323.566	390.88
323.795	423.88
324.024	431.88
324.253	541.88
324.482	733.88
324.71	1074.88
324.939	1419.88
325.168	1239.88
325.397	682.88
325.626	484.88
325.855	421.88
326.084	395.88
326.313	409.88
326.542	406.88
326.77	432.88
326.999	485.88
327.228	652.88
327.457	952.88
327.686	1066.88
327.914	732.88
328.143	538.88
328.372	475.88
328.6	453.88
328.829	446.88
329.058	451.88
329.287	438.88
329.515	429.88
329.744	394.88
329.972	385.88
330.201	430.88
330.43	436.88
330.658	460.88
330.887	442.88
331.115	455.88
331.344	410.88
331.572	394.88
331.801	408.88
332.03	391.88
332.258	378.88
332.486	389.88
332.715	385.88
332.943	372.88
333.172	380.88
333.4	382.88
333.629	384.88
333.857	384.88
334.085	388.88
334.314	413.88
334.542	405.88
334.771	443.88
334.999	402.88
335.227	407.88
335.455	390.88
335.684	377.88
335.912	364.88
336.14	375.88
336.369	378.88
336.597	377.88
336.825	387.88
337.053	359.88
337.281	363.88
337.51	358.88
337.738	358.88
337.966	372.88
338.194	378.88
338.422	376.88
338.65	361.88
338.878	362.88
339.106	368.88
339.334	370.88
339.562	369.88
339.79	373.88
340.018	350.88
340.246	360.88
340.474	351.88
340.702	369.88
340.93	351.88
341.158	362.88
341.386	371.88
341.614	372.88
341.842	350.88
342.07	354.88
342.298	357.88
342.526	344.88
342.754	337.88
342.981	334.88
343.209	362.88
343.437	348.88
343.665	340.88
343.893	358.88
344.12	389.88
344.348	356.88
344.576	371.88
344.804	377.88
345.031	347.88
345.259	369.88
345.487	363.88
345.714	349.88
345.942	372.88
346.17	363.88
346.397	354.88
346.625	363.88
346.853	349.88
347.08	338.88
347.308	341.88
347.535	365.88
347.763	355.88
347.99	344.88
348.218	320.88
348.445	329.88
348.673	363.88
348.9	356.88
349.128	359.88
349.355	347.88
349.583	337.88
349.81	340.88
350.037	333.88
350.265	325.88
350.492	335.88
350.72	340.88
350.947	338.88
351.174	348.88
351.402	351.88
351.629	351.88
351.856	342.88
352.083	332.88
352.311	352.88
352.538	352.88
352.765	323.88
352.992	362.88
353.22	348.88
353.447	333.88
353.674	328.88
353.901	320.88
354.128	324.88
354.355	339.88
354.583	338.88
354.81	327.88
355.037	310.88
355.264	319.88
355.491	306.88
355.718	337.88
355.945	322.88
356.172	317.88
356.399	307.88
356.626	318.88
356.853	336.88
357.08	317.88
357.307	310.88
357.534	309.88
357.761	329.88
357.988	336.88
358.215	331.88
358.441	325.88
358.668	333.88
358.895	324.88
359.122	309.88
359.349	329.88
359.576	335.88
359.802	339.88
360.029	352.88
360.256	365.88
360.483	366.88
360.709	346.88
360.936	338.88
361.163	335.88
361.39	324.88
361.616	342.88
361.843	329.88
362.07	329.88
362.296	332.88
362.523	325.88
362.749	327.88
362.976	334.88
363.203	337.88
363.429	318.88
363.656	334.88
363.882	305.88
364.109	315.88
364.335	325.88
364.562	333.88
364.788	326.88
365.015	302.88
365.241	319.88
365.468	312.88
365.694	313.88
365.92	321.88
366.147	325.88
366.373	318.88
366.599	310.88
366.826	295.88
367.052	313.88
367.278	330.88
367.505	331.88
367.731	340.88
367.957	314.88
368.184	316.88
368.41	333.88
368.636	323.88
368.862	332.88
369.089	311.88
369.315	323.88
369.541	320.88
369.767	326.88
369.993	312.88
370.219	321.88
370.445	336.88
370.672	318.88
370.898	327.88
371.124	315.88
371.35	332.88
371.576	333.88
371.802	314.88
372.028	332.88
372.254	310.88
372.48	325.88
372.706	308.88
372.932	309.88
373.158	326.88
373.384	328.88
373.61	320.88
373.835	317.88
374.061	315.88
374.287	317.88
374.513	318.88
374.739	304.88
374.965	330.88
375.191	324.88
375.416	328.88
375.642	326.88
375.868	324.88
376.094	340.88
376.319	311.88
376.545	334.88
376.771	326.88
376.997	328.88
377.222	310.88
377.448	325.88
377.674	315.88
377.899	334.88
378.125	309.88
378.35	319.88
378.576	317.88
378.802	310.88
379.027	320.88
379.253	324.88
379.478	285.88
379.704	312.88
379.929	321.88
380.155	308.88
380.38	316.88
380.606	327.88
380.831	327.88
381.057	330.88
381.282	324.88
381.507	322.88
381.733	310.88
381.958	321.88
382.184	312.88
382.409	330.88
382.634	324.88
382.86	331.88
383.085	322.88
383.31	320.88
383.535	329.88
383.761	315.88
383.986	327.88
384.211	317.88
384.436	324.88
384.662	320.88
384.887	328.88
385.112	332.88
385.337	325.88
385.562	333.88
385.787	343.88
386.013	329.88
386.238	347.88
386.463	347.88
386.688	347.88
386.913	348.88
387.138	341.88
387.363	330.88
387.588	346.88
387.813	339.88
388.038	329.88
388.263	340.88
388.488	332.88
388.713	322.88
388.938	338.88
389.163	340.88
389.387	339.88
389.612	329.88
389.837	323.88
390.062	347.88
390.287	324.88
390.512	335.88
390.736	336.88
390.961	323.88
391.186	342.88
391.411	332.88
391.636	331.88
391.86	356.88
392.085	347.88
392.31	344.88
392.534	338.88
392.759	359.88
392.984	348.88
393.208	333.88
393.433	328.88
393.658	346.88
393.882	338.88
394.107	316.88
394.331	344.88
394.556	314.88
394.78	331.88
395.005	338.88
395.229	339.88
395.454	342.88
395.678	335.88
395.903	355.88
396.127	363.88
396.352	347.88
396.576	363.88
396.801	368.88
397.025	359.88
397.249	355.88
397.474	363.88
397.698	357.88
397.922	368.88
398.147	378.88
398.371	372.88
398.595	358.88
398.82	372.88
399.044	399.88
399.268	395.88
399.492	398.88
399.717	437.88
399.941	444.88
400.165	441.88
400.389	462.88
400.613	405.88
400.837	372.88
401.062	401.88
401.286	373.88
401.51	370.88
401.734	363.88
401.958	374.88
402.182	367.88
402.406	388.88
402.63	390.88
402.854	376.88
403.078	376.88
403.302	362.88
403.526	383.88
403.75	374.88
403.974	371.88
404.198	379.88
404.422	400.88
404.645	384.88
404.869	397.88
405.093	384.88
405.317	421.88
405.541	428.88
405.765	429.88
405.988	414.88
406.212	396.88
406.436	412.88
406.66	411.88
406.883	405.88
407.107	433.88
407.331	429.88
407.555	480.88
407.778	500.88
408.002	452.88
408.226	410.88
408.449	416.88
408.673	402.88
408.896	426.88
409.12	454.88
409.344	430.88
409.567	396.88
409.791	371.88
410.014	388.88
410.238	373.88
410.461	374.88
410.685	388.88
410.908	397.88
411.132	420.88
411.355	440.88
411.578	414.88
411.802	390.88
412.025	388.88
412.249	386.88
412.472	389.88
412.695	418.88
412.919	414.88
413.142	380.88
413.365	366.88
413.589	377.88
413.812	359.88
414.035	359.88
414.258	326.88
414.482	355.88
414.705	352.88
414.928	353.88
415.151	356.88
415.374	369.88
415.597	356.88
415.821	345.88
416.044	351.88
416.267	356.88
416.49	368.88
416.713	357.88
416.936	350.88
417.159	368.88
417.382	358.88
417.605	363.88
417.828	371.88
418.051	360.88
418.274	372.88
418.497	354.88
418.72	371.88
418.943	354.88
419.166	386.88
419.389	392.88
419.611	385.88
419.834	365.88
420.057	363.88
420.28	378.88
420.503	373.88
420.726	370.88
420.948	394.88
421.171	391.88
421.394	407.88
421.617	392.88
421.839	382.88
422.062	377.88
422.285	409.88
422.507	418.88
422.73	469.88
422.953	458.88
423.175	390.88
423.398	376.88
423.621	388.88
423.843	394.88
424.066	380.88
424.288	385.88
424.511	411.88
424.733	432.88
424.956	503.88
425.178	467.88
425.401	470.88
425.623	510.88
425.846	433.88
426.068	413.88
426.291	392.88
426.513	386.88
426.735	398.88
426.958	440.88
427.18	494.88
427.402	588.88
427.625	612.88
427.847	530.88
428.069	463.88
428.292	408.88
428.514	392.88
428.736	382.88
428.958	373.88
429.181	360.88
429.403	349.88
429.625	354.88
429.847	402.88
430.069	438.88
430.292	432.88
430.514	376.88
430.736	371.88
430.958	357.88
431.18	351.88
431.402	340.88
431.624	363.88
431.846	348.88
432.068	337.88
432.29	351.88
432.512	347.88
432.734	361.88
432.956	361.88
433.178	357.88
433.4	352.88
433.622	360.88
433.844	362.88
434.066	328.88
434.287	333.88
434.509	347.88
434.731	353.88
434.953	357.88
435.175	369.88
435.397	370.88
435.618	385.88
435.84	432.88
436.062	450.88
436.284	534.88
436.505	435.88
436.727	410.88
436.949	380.88
437.17	368.88
437.392	362.88
437.614	365.88
437.835	386.88
438.057	452.88
438.278	510.88
438.5	511.88
438.721	560.88
438.943	540.88
439.165	437.88
439.386	402.88
439.608	407.88
439.829	384.88
440.05	386.88
440.272	456.88
440.493	422.88
440.715	384.88
440.936	380.88
441.158	375.88
441.379	374.88
441.6	389.88
441.822	398.88
442.043	396.88
442.264	455.88
442.486	484.88
442.707	427.88
442.928	392.88
443.149	407.88
443.371	420.88
443.592	460.88
443.813	523.88
444.034	549.88
444.255	474.88
444.476	390.88
444.698	393.88
444.919	385.88
445.14	529.88
445.361	465.88
445.582	412.88
445.803	450.88
446.024	531.88
446.245	514.88
446.466	490.88
446.687	432.88
446.908	405.88
447.129	386.88
447.35	378.88
447.571	358.88
447.792	361.88
448.013	369.88
448.234	389.88
448.455	421.88
448.675	482.88
448.896	517.88
449.117	493.88
449.338	474.88
449.559	528.88
449.779	568.88
450	467.88
450.221	416.88
450.442	374.88
450.662	359.88
450.883	368.88
451.104	361.88
451.324	352.88
451.545	327.88
451.766	345.88
451.986	347.88
452.207	329.88
452.428	318.88
452.648	332.88
452.869	316.88
453.089	333.88
453.31	329.88
453.53	321.88
453.751	317.88
453.971	306.88
454.192	336.88
454.412	329.88
454.633	337.88
454.853	325.88
455.073	324.88
455.294	360.88
455.514	382.88
455.734	363.88
455.955	330.88
456.175	291.88
456.395	315.88
456.616	312.88
456.836	308.88
457.056	306.88
457.276	289.88
457.497	294.88
457.717	310.88
457.937	301.88
458.157	299.88
458.377	325.88
458.598	324.88
458.818	376.88
459.038	402.88
459.258	417.88
459.478	358.88
459.698	347.88
459.918	316.88
460.138	333.88
460.358	333.88
460.578	347.88
460.798	360.88
461.018	341.88
461.238	343.88
461.458	346.88
461.678	331.88
461.898	346.88
462.118	334.88
462.338	353.88
462.558	340.88
462.777	352.88
462.997	370.88
463.217	354.88
463.437	359.88
463.657	368.88
463.876	357.88
464.096	364.88
464.316	346.88
464.536	357.88
464.755	379.88
464.975	363.88
465.195	379.88
465.414	405.88
465.634	382.88
465.854	333.88
466.073	356.88
466.293	349.88
466.512	348.88
466.732	320.88
466.951	340.88
467.171	316.88
467.391	347.88
467.61	330.88
467.829	342.88
468.049	337.88
468.268	340.88
468.488	336.88
468.707	313.88
468.927	330.88
469.146	339.88
469.365	336.88
469.585	320.88
469.804	342.88
470.023	317.88
470.243	331.88
470.462	333.88
470.681	362.88
470.901	347.88
471.12	329.88
471.339	349.88
471.558	334.88
471.777	349.88
471.997	337.88
472.216	318.88
472.435	350.88
472.654	322.88
472.873	346.88
473.092	332.88
473.311	314.88
473.53	325.88
473.749	363.88
473.968	371.88
474.187	443.88
474.406	438.88
474.625	368.88
474.844	368.88
475.063	357.88
475.282	364.88
475.501	348.88
475.72	348.88
475.939	344.88
476.158	352.88
476.377	342.88
476.596	334.88
476.814	343.88
477.033	342.88
477.252	358.88
477.471	344.88
477.69	368.88
477.908	361.88
478.127	370.88
478.346	368.88
478.564	363.88
478.783	346.88
479.002	374.88
479.22	374.88
479.439	366.88
479.658	400.88
479.876	394.88
480.095	388.88
480.313	407.88
480.532	412.88
480.751	374.88
480.969	398.88
481.188	440.88
481.406	430.88
481.624	386.88
481.843	393.88
482.061	388.88
482.28	393.88
482.498	383.88
482.717	370.88
482.935	384.88
483.153	397.88
483.372	378.88
483.59	382.88
483.808	379.88
484.027	375.88
484.245	386.88
484.463	398.88
484.681	419.88
484.9	399.88
485.118	403.88
485.336	387.88
485.554	386.88
485.772	403.88
485.99	395.88
486.209	395.88
486.427	407.88
486.645	390.88
486.863	398.88
487.081	434.88
487.299	425.88
487.517	404.88
487.735	427.88
487.953	429.88
488.171	422.88
488.389	421.88
488.607	411.88
488.825	430.88
489.043	429.88
489.261	403.88
489.479	414.88
489.696	436.88
489.914	425.88
490.132	429.88
490.35	428.88
490.568	454.88
490.786	435.88
491.003	437.88
491.221	455.88
491.439	466.88
491.657	471.88
491.874	488.88
492.092	486.88
492.31	457.88
492.527	480.88
492.745	458.88
492.963	467.88
493.18	469.88
493.398	483.88
493.615	475.88
493.833	469.88
494.05	485.88
494.268	481.88
494.485	486.88
494.703	465.88
494.92	460.88
495.138	471.88
495.355	480.88
495.573	492.88
495.79	474.88
496.008	487.88
496.225	502.88
496.442	499.88
496.66	486.88
496.877	499.88
497.094	492.88
497.312	474.88
497.529	482.88
497.746	515.88
497.963	503.88
498.181	525.88
498.398	520.88
498.615	534.88
498.832	533.88
499.049	523.88
499.267	553.88
499.484	585.88
499.701	610.88
499.918	615.88
500.135	640.88
500.352	667.88
500.569	633.88
500.786	652.88
501.003	644.88
501.22	614.88
501.437	606.88
501.654	621.88
501.871	601.88
502.088	578.88
