Data from 1971.PennyLincolnUp.Lamp.En5.5.200Scan.071719.P1._HRD10591_15-20-18-841.txt Node
Date: Thu Jul 18 15:20:18 EDT 2019
User: cochatt
Spectrometer: HR+D1059
Trigger mode: 1
Integration Time (sec): 1.000000E-1
Scans to average: 1
Electric dark correction enabled: true
Nonlinearity correction enabled: false
Boxcar width: 0
XAxis mode: Wavelengths
Number of Pixels in Spectrum: 2048
>>>>>Begin Spectral Data<<<<<
223.165	-11.88
223.4	-11.88
223.635	-11.88
223.869	-23.88
224.104	-17.88
224.338	-3.88
224.573	-21.88
224.808	-14.88
225.042	-14.88
225.277	8.12
225.511	-1.88
225.746	-10.88
225.98	21.12
226.215	7.12
226.449	9.12
226.683	27.12
226.918	20.12
227.152	29.12
227.387	46.12
227.621	38.12
227.856	39.12
228.09	45.12
228.324	43.12
228.559	57.12
228.793	67.12
229.027	83.12
229.262	98.12
229.496	113.12
229.73	131.12
229.964	143.12
230.199	116.12
230.433	115.12
230.667	116.12
230.901	111.12
231.136	88.12
231.37	108.12
231.604	109.12
231.838	120.12
232.072	101.12
232.306	116.12
232.541	118.12
232.775	86.12
233.009	109.12
233.243	111.12
233.477	108.12
233.711	121.12
233.945	109.12
234.179	139.12
234.413	121.12
234.647	109.12
234.881	108.12
235.115	113.12
235.349	125.12
235.583	125.12
235.817	108.12
236.051	125.12
236.285	116.12
236.519	125.12
236.753	126.12
236.987	143.12
237.221	164.12
237.455	211.12
237.689	187.12
237.922	136.12
238.156	127.12
238.39	118.12
238.624	139.12
238.858	133.12
239.091	129.12
239.325	122.12
239.559	118.12
239.793	123.12
240.027	136.12
240.26	133.12
240.494	137.12
240.728	143.12
240.961	155.12
241.195	149.12
241.429	123.12
241.662	133.12
241.896	125.12
242.13	136.12
242.363	137.12
242.597	133.12
242.83	139.12
243.064	156.12
243.298	137.12
243.531	150.12
243.765	142.12
243.998	122.12
244.232	130.12
244.465	141.12
244.699	150.12
244.932	138.12
245.166	137.12
245.399	150.12
245.633	148.12
245.866	157.12
246.099	151.12
246.333	150.12
246.566	150.12
246.8	155.12
247.033	159.12
247.266	155.12
247.5	170.12
247.733	177.12
247.966	165.12
248.2	175.12
248.433	178.12
248.666	179.12
248.899	182.12
249.133	197.12
249.366	193.12
249.599	194.12
249.832	163.12
250.066	173.12
250.299	171.12
250.532	207.12
250.765	186.12
250.998	227.12
251.231	209.12
251.465	211.12
251.698	209.12
251.931	209.12
252.164	196.12
252.397	204.12
252.63	190.12
252.863	207.12
253.096	221.12
253.329	237.12
253.562	231.12
253.795	225.12
254.028	234.12
254.261	247.12
254.494	243.12
254.727	250.12
254.96	278.12
255.193	282.12
255.426	262.12
255.659	246.12
255.892	219.12
256.124	243.12
256.357	255.12
256.59	245.12
256.823	248.12
257.056	219.12
257.289	198.12
257.521	241.12
257.754	224.12
257.987	223.12
258.22	207.12
258.452	207.12
258.685	220.12
258.918	219.12
259.151	230.12
259.383	232.12
259.616	230.12
259.849	237.12
260.081	238.12
260.314	263.12
260.547	272.12
260.779	274.12
261.012	255.12
261.244	241.12
261.477	217.12
261.71	228.12
261.942	228.12
262.175	234.12
262.407	224.12
262.64	222.12
262.872	219.12
263.105	210.12
263.337	222.12
263.57	223.12
263.802	227.12
264.035	212.12
264.267	226.12
264.499	220.12
264.732	231.12
264.964	218.12
265.197	220.12
265.429	212.12
265.661	212.12
265.894	223.12
266.126	214.12
266.358	229.12
266.591	239.12
266.823	227.12
267.055	250.12
267.287	242.12
267.52	214.12
267.752	219.12
267.984	231.12
268.216	224.12
268.448	261.12
268.681	260.12
268.913	250.12
269.145	271.12
269.377	281.12
269.609	294.12
269.841	295.12
270.073	291.12
270.306	306.12
270.538	312.12
270.77	329.12
271.002	305.12
271.234	303.12
271.466	295.12
271.698	314.12
271.93	352.12
272.162	330.12
272.394	337.12
272.626	311.12
272.858	309.12
273.09	292.12
273.322	287.12
273.553	285.12
273.785	268.12
274.017	265.12
274.249	287.12
274.481	271.12
274.713	264.12
274.945	293.12
275.176	283.12
275.408	270.12
275.64	279.12
275.872	271.12
276.104	267.12
276.335	282.12
276.567	289.12
276.799	308.12
277.031	321.12
277.262	321.12
277.494	327.12
277.726	319.12
277.957	295.12
278.189	300.12
278.421	298.12
278.652	275.12
278.884	277.12
279.115	277.12
279.347	289.12
279.579	266.12
279.81	302.12
280.042	277.12
280.273	262.12
280.505	291.12
280.736	291.12
280.968	273.12
281.199	272.12
281.431	272.12
281.662	285.12
281.894	279.12
282.125	278.12
282.356	284.12
282.588	322.12
282.819	316.12
283.051	293.12
283.282	270.12
283.513	283.12
283.745	275.12
283.976	287.12
284.207	302.12
284.439	292.12
284.67	290.12
284.901	284.12
285.132	283.12
285.364	289.12
285.595	291.12
285.826	292.12
286.057	307.12
286.288	301.12
286.52	294.12
286.751	282.12
286.982	298.12
287.213	294.12
287.444	293.12
287.675	323.12
287.906	308.12
288.138	322.12
288.369	322.12
288.6	308.12
288.831	312.12
289.062	301.12
289.293	315.12
289.524	296.12
289.755	278.12
289.986	302.12
290.217	310.12
290.448	309.12
290.679	311.12
290.91	295.12
291.141	293.12
291.371	286.12
291.602	297.12
291.833	301.12
292.064	311.12
292.295	311.12
292.526	314.12
292.757	307.12
292.987	281.12
293.218	287.12
293.449	317.12
293.68	303.12
293.91	308.12
294.141	311.12
294.372	314.12
294.603	308.12
294.833	301.12
295.064	294.12
295.295	318.12
295.525	292.12
295.756	294.12
295.987	306.12
296.217	342.12
296.448	346.12
296.679	315.12
296.909	313.12
297.14	296.12
297.37	293.12
297.601	299.12
297.831	331.12
298.062	298.12
298.292	312.12
298.523	303.12
298.753	330.12
298.984	299.12
299.214	297.12
299.445	320.12
299.675	313.12
299.905	322.12
300.136	301.12
300.366	309.12
300.597	319.12
300.827	327.12
301.057	341.12
301.288	340.12
301.518	335.12
301.748	321.12
301.979	344.12
302.209	326.12
302.439	320.12
302.669	317.12
302.9	334.12
303.13	334.12
303.36	323.12
303.59	334.12
303.82	344.12
304.051	362.12
304.281	335.12
304.511	346.12
304.741	340.12
304.971	348.12
305.201	339.12
305.431	322.12
305.661	333.12
305.891	358.12
306.121	332.12
306.352	334.12
306.582	350.12
306.812	321.12
307.042	353.12
307.272	358.12
307.502	329.12
307.731	342.12
307.961	363.12
308.191	348.12
308.421	336.12
308.651	354.12
308.881	321.12
309.111	360.12
309.341	344.12
309.571	349.12
309.8	381.12
310.03	377.12
310.26	375.12
310.49	385.12
310.72	388.12
310.949	372.12
311.179	395.12
311.409	387.12
311.639	373.12
311.868	385.12
312.098	382.12
312.328	390.12
312.557	409.12
312.787	397.12
313.017	412.12
313.246	395.12
313.476	387.12
313.706	389.12
313.935	389.12
314.165	402.12
314.394	389.12
314.624	388.12
314.853	399.12
315.083	401.12
315.312	375.12
315.542	375.12
315.771	382.12
316.001	394.12
316.23	394.12
316.46	398.12
316.689	378.12
316.919	391.12
317.148	388.12
317.377	396.12
317.607	407.12
317.836	417.12
318.065	379.12
318.295	377.12
318.524	399.12
318.753	402.12
318.983	391.12
319.212	382.12
319.441	385.12
319.67	396.12
319.9	405.12
320.129	382.12
320.358	395.12
320.587	393.12
320.816	392.12
321.046	412.12
321.275	426.12
321.504	419.12
321.733	429.12
321.962	381.12
322.191	432.12
322.42	429.12
322.649	443.12
322.878	457.12
323.108	449.12
323.337	490.12
323.566	500.12
323.795	543.12
324.024	580.12
324.253	712.12
324.482	1007.12
324.71	1549.12
324.939	2070.12
325.168	1726.12
325.397	881.12
325.626	645.12
325.855	563.12
326.084	517.12
326.313	497.12
326.542	503.12
326.77	558.12
326.999	675.12
327.228	906.12
327.457	1300.12
327.686	1502.12
327.914	1003.12
328.143	694.12
328.372	637.12
328.6	579.12
328.829	584.12
329.058	561.12
329.287	573.12
329.515	545.12
329.744	497.12
329.972	498.12
330.201	519.12
330.43	553.12
330.658	584.12
330.887	591.12
331.115	586.12
331.344	511.12
331.572	481.12
331.801	489.12
332.03	484.12
332.258	460.12
332.486	452.12
332.715	461.12
332.943	452.12
333.172	462.12
333.4	450.12
333.629	487.12
333.857	464.12
334.085	499.12
334.314	489.12
334.542	518.12
334.771	528.12
334.999	486.12
335.227	469.12
335.455	470.12
335.684	460.12
335.912	452.12
336.14	441.12
336.369	438.12
336.597	439.12
336.825	427.12
337.053	434.12
337.281	437.12
337.51	436.12
337.738	438.12
337.966	420.12
338.194	425.12
338.422	420.12
338.65	427.12
338.878	450.12
339.106	416.12
339.334	424.12
339.562	444.12
339.79	433.12
340.018	416.12
340.246	414.12
340.474	414.12
340.702	429.12
340.93	421.12
341.158	408.12
341.386	409.12
341.614	425.12
341.842	440.12
342.07	406.12
342.298	399.12
342.526	419.12
342.754	415.12
342.981	392.12
343.209	421.12
343.437	399.12
343.665	410.12
343.893	442.12
344.12	434.12
344.348	434.12
344.576	430.12
344.804	443.12
345.031	446.12
345.259	457.12
345.487	421.12
345.714	416.12
345.942	405.12
346.17	403.12
346.397	399.12
346.625	390.12
346.853	414.12
347.08	405.12
347.308	398.12
347.535	397.12
347.763	399.12
347.99	419.12
348.218	427.12
348.445	399.12
348.673	405.12
348.9	418.12
349.128	401.12
349.355	398.12
349.583	378.12
349.81	384.12
350.037	379.12
350.265	405.12
350.492	390.12
350.72	398.12
350.947	407.12
351.174	421.12
351.402	405.12
351.629	414.12
351.856	411.12
352.083	411.12
352.311	404.12
352.538	412.12
352.765	429.12
352.992	393.12
353.22	396.12
353.447	382.12
353.674	408.12
353.901	393.12
354.128	374.12
354.355	379.12
354.583	371.12
354.81	373.12
355.037	389.12
355.264	348.12
355.491	365.12
355.718	370.12
355.945	379.12
356.172	357.12
356.399	375.12
356.626	357.12
356.853	358.12
357.08	366.12
357.307	375.12
357.534	363.12
357.761	367.12
357.988	384.12
358.215	373.12
358.441	360.12
358.668	361.12
358.895	376.12
359.122	377.12
359.349	386.12
359.576	397.12
359.802	425.12
360.029	404.12
360.256	448.12
360.483	418.12
360.709	393.12
360.936	381.12
361.163	377.12
361.39	399.12
361.616	401.12
361.843	391.12
362.07	390.12
362.296	404.12
362.523	363.12
362.749	405.12
362.976	397.12
363.203	375.12
363.429	372.12
363.656	375.12
363.882	355.12
364.109	369.12
364.335	378.12
364.562	383.12
364.788	377.12
365.015	379.12
365.241	363.12
365.468	378.12
365.694	379.12
365.92	377.12
366.147	382.12
366.373	378.12
366.599	365.12
366.826	351.12
367.052	367.12
367.278	365.12
367.505	359.12
367.731	355.12
367.957	372.12
368.184	373.12
368.41	375.12
368.636	375.12
368.862	385.12
369.089	366.12
369.315	362.12
369.541	372.12
369.767	346.12
369.993	358.12
370.219	359.12
370.445	358.12
370.672	366.12
370.898	347.12
371.124	348.12
371.35	373.12
371.576	375.12
371.802	359.12
372.028	372.12
372.254	363.12
372.48	377.12
372.706	358.12
372.932	351.12
373.158	374.12
373.384	358.12
373.61	356.12
373.835	365.12
374.061	354.12
374.287	351.12
374.513	356.12
374.739	359.12
374.965	376.12
375.191	350.12
375.416	385.12
375.642	369.12
375.868	357.12
376.094	385.12
376.319	349.12
376.545	352.12
376.771	367.12
376.997	356.12
377.222	349.12
377.448	348.12
377.674	365.12
377.899	339.12
378.125	348.12
378.35	362.12
378.576	346.12
378.802	377.12
379.027	340.12
379.253	354.12
379.478	358.12
379.704	352.12
379.929	349.12
380.155	362.12
380.38	349.12
380.606	354.12
380.831	332.12
381.057	352.12
381.282	350.12
381.507	357.12
381.733	355.12
381.958	364.12
382.184	375.12
382.409	376.12
382.634	356.12
382.86	341.12
383.085	357.12
383.31	349.12
383.535	371.12
383.761	389.12
383.986	386.12
384.211	358.12
384.436	374.12
384.662	374.12
384.887	367.12
385.112	369.12
385.337	367.12
385.562	359.12
385.787	388.12
386.013	380.12
386.238	382.12
386.463	392.12
386.688	375.12
386.913	386.12
387.138	353.12
387.363	369.12
387.588	358.12
387.813	379.12
388.038	382.12
388.263	345.12
388.488	389.12
388.713	379.12
388.938	376.12
389.163	372.12
389.387	385.12
389.612	359.12
389.837	369.12
390.062	371.12
390.287	371.12
390.512	395.12
390.736	373.12
390.961	371.12
391.186	380.12
391.411	380.12
391.636	374.12
391.86	367.12
392.085	377.12
392.31	379.12
392.534	380.12
392.759	384.12
392.984	396.12
393.208	381.12
393.433	388.12
393.658	389.12
393.882	361.12
394.107	372.12
394.331	375.12
394.556	386.12
394.78	382.12
395.005	379.12
395.229	371.12
395.454	403.12
395.678	376.12
395.903	379.12
396.127	395.12
396.352	418.12
396.576	419.12
396.801	371.12
397.025	373.12
397.249	403.12
397.474	389.12
397.698	379.12
397.922	413.12
398.147	413.12
398.371	418.12
398.595	413.12
398.82	389.12
399.044	415.12
399.268	412.12
399.492	439.12
399.717	492.12
399.941	513.12
400.165	490.12
400.389	519.12
400.613	474.12
400.837	438.12
401.062	425.12
401.286	414.12
401.51	412.12
401.734	408.12
401.958	422.12
402.182	426.12
402.406	428.12
402.63	433.12
402.854	421.12
403.078	410.12
403.302	424.12
403.526	435.12
403.75	426.12
403.974	428.12
404.198	422.12
404.422	426.12
404.645	429.12
404.869	445.12
405.093	458.12
405.317	497.12
405.541	500.12
405.765	470.12
405.988	451.12
406.212	434.12
406.436	457.12
406.66	497.12
406.883	454.12
407.107	478.12
407.331	510.12
407.555	562.12
407.778	562.12
408.002	509.12
408.226	470.12
408.449	471.12
408.673	482.12
408.896	487.12
409.12	525.12
409.344	507.12
409.567	442.12
409.791	430.12
410.014	413.12
410.238	435.12
410.461	426.12
410.685	435.12
410.908	442.12
411.132	462.12
411.355	470.12
411.578	486.12
411.802	454.12
412.025	423.12
412.249	437.12
412.472	442.12
412.695	471.12
412.919	475.12
413.142	423.12
413.365	450.12
413.589	420.12
413.812	419.12
414.035	399.12
414.258	398.12
414.482	405.12
414.705	407.12
414.928	389.12
415.151	380.12
415.374	391.12
415.597	391.12
415.821	383.12
416.044	392.12
416.267	389.12
416.49	391.12
416.713	395.12
416.936	393.12
417.159	383.12
417.382	386.12
417.605	399.12
417.828	407.12
418.051	438.12
418.274	408.12
418.497	388.12
418.72	410.12
418.943	403.12
419.166	416.12
419.389	423.12
419.611	434.12
419.834	426.12
420.057	438.12
420.28	416.12
420.503	410.12
420.726	418.12
420.948	441.12
421.171	489.12
421.394	478.12
421.617	447.12
421.839	415.12
422.062	438.12
422.285	415.12
422.507	469.12
422.73	565.12
422.953	514.12
423.175	447.12
423.398	423.12
423.621	459.12
423.843	474.12
424.066	460.12
424.288	469.12
424.511	490.12
424.733	517.12
424.956	571.12
425.178	544.12
425.401	549.12
425.623	564.12
425.846	485.12
426.068	447.12
426.291	459.12
426.513	451.12
426.735	458.12
426.958	512.12
427.18	572.12
427.402	662.12
427.625	722.12
427.847	629.12
428.069	556.12
428.292	501.12
428.514	469.12
428.736	456.12
428.958	438.12
429.181	411.12
429.403	407.12
429.625	413.12
429.847	445.12
430.069	493.12
430.292	507.12
430.514	439.12
430.736	411.12
430.958	403.12
431.18	414.12
431.402	404.12
431.624	382.12
431.846	391.12
432.068	378.12
432.29	390.12
432.512	385.12
432.734	415.12
432.956	404.12
433.178	424.12
433.4	396.12
433.622	391.12
433.844	402.12
434.066	375.12
434.287	401.12
434.509	418.12
434.731	402.12
434.953	419.12
435.175	428.12
435.397	440.12
435.618	438.12
435.84	471.12
436.062	558.12
436.284	606.12
436.505	506.12
436.727	457.12
436.949	449.12
437.17	448.12
437.392	419.12
437.614	433.12
437.835	477.12
438.057	530.12
438.278	635.12
438.5	629.12
438.721	673.12
438.943	647.12
439.165	518.12
439.386	471.12
439.608	472.12
439.829	460.12
440.05	500.12
440.272	521.12
440.493	506.12
440.715	472.12
440.936	430.12
441.158	428.12
441.379	424.12
441.6	472.12
441.822	450.12
442.043	493.12
442.264	551.12
442.486	593.12
442.707	501.12
442.928	444.12
443.149	468.12
443.371	490.12
443.592	518.12
443.813	614.12
444.034	636.12
444.255	537.12
444.476	463.12
444.698	462.12
444.919	458.12
445.14	543.12
445.361	519.12
445.582	488.12
445.803	549.12
446.024	646.12
446.245	627.12
446.466	579.12
446.687	470.12
446.908	469.12
447.129	430.12
447.35	399.12
447.571	419.12
447.792	413.12
448.013	425.12
448.234	441.12
448.455	497.12
448.675	585.12
448.896	671.12
449.117	575.12
449.338	535.12
449.559	624.12
449.779	680.12
450	565.12
450.221	469.12
450.442	418.12
450.662	441.12
450.883	425.12
451.104	426.12
451.324	422.12
451.545	395.12
451.766	383.12
451.986	382.12
452.207	388.12
452.428	375.12
452.648	378.12
452.869	403.12
453.089	381.12
453.31	393.12
453.53	375.12
453.751	376.12
453.971	363.12
454.192	383.12
454.412	387.12
454.633	379.12
454.853	381.12
455.073	391.12
455.294	409.12
455.514	445.12
455.734	434.12
455.955	361.12
456.175	354.12
456.395	350.12
456.616	369.12
456.836	345.12
457.056	353.12
457.276	337.12
457.497	341.12
457.717	340.12
457.937	349.12
458.157	364.12
458.377	361.12
458.598	379.12
458.818	418.12
459.038	482.12
459.258	489.12
459.478	424.12
459.698	398.12
459.918	393.12
460.138	381.12
460.358	381.12
460.578	386.12
460.798	379.12
461.018	411.12
461.238	392.12
461.458	386.12
461.678	400.12
461.898	388.12
462.118	370.12
462.338	405.12
462.558	397.12
462.777	393.12
462.997	392.12
463.217	403.12
463.437	417.12
463.657	409.12
463.876	410.12
464.096	413.12
464.316	409.12
464.536	434.12
464.755	420.12
464.975	417.12
465.195	446.12
465.414	475.12
465.634	449.12
465.854	403.12
466.073	401.12
466.293	414.12
466.512	387.12
466.732	385.12
466.951	378.12
467.171	365.12
467.391	360.12
467.61	375.12
467.829	389.12
468.049	388.12
468.268	389.12
468.488	381.12
468.707	371.12
468.927	379.12
469.146	354.12
469.365	362.12
469.585	370.12
469.804	362.12
470.023	378.12
470.243	379.12
470.462	392.12
470.681	413.12
470.901	405.12
471.12	402.12
471.339	378.12
471.558	390.12
471.777	380.12
471.997	377.12
472.216	375.12
472.435	408.12
472.654	386.12
472.873	394.12
473.092	384.12
473.311	382.12
473.53	408.12
473.749	412.12
473.968	444.12
474.187	523.12
474.406	545.12
474.625	419.12
474.844	416.12
475.063	405.12
475.282	394.12
475.501	398.12
475.72	377.12
475.939	399.12
476.158	403.12
476.377	399.12
476.596	393.12
476.814	403.12
477.033	411.12
477.252	390.12
477.471	414.12
477.69	401.12
477.908	399.12
478.127	410.12
478.346	433.12
478.564	411.12
478.783	410.12
479.002	422.12
479.22	444.12
479.439	451.12
479.658	450.12
479.876	463.12
480.095	467.12
480.313	477.12
480.532	468.12
480.751	470.12
480.969	468.12
481.188	511.12
481.406	531.12
481.624	490.12
481.843	469.12
482.061	452.12
482.28	437.12
482.498	428.12
482.717	435.12
482.935	453.12
483.153	445.12
483.372	443.12
483.59	420.12
483.808	431.12
484.027	434.12
484.245	447.12
484.463	456.12
484.681	460.12
484.9	472.12
485.118	453.12
485.336	471.12
485.554	465.12
485.772	455.12
485.99	448.12
486.209	467.12
486.427	456.12
486.645	471.12
486.863	478.12
487.081	488.12
487.299	484.12
487.517	477.12
487.735	477.12
487.953	479.12
488.171	490.12
488.389	465.12
488.607	487.12
488.825	482.12
489.043	480.12
489.261	486.12
489.479	497.12
489.696	491.12
489.914	482.12
490.132	490.12
490.35	489.12
490.568	509.12
490.786	523.12
491.003	506.12
491.221	534.12
491.439	520.12
491.657	546.12
491.874	563.12
492.092	555.12
492.31	548.12
492.527	563.12
492.745	553.12
492.963	550.12
493.18	549.12
493.398	578.12
493.615	581.12
493.833	567.12
494.05	571.12
494.268	581.12
494.485	558.12
494.703	564.12
494.92	574.12
495.138	569.12
495.355	533.12
495.573	546.12
495.79	581.12
496.008	588.12
496.225	598.12
496.442	574.12
496.66	558.12
496.877	581.12
497.094	577.12
497.312	563.12
497.529	567.12
497.746	572.12
497.963	590.12
498.181	607.12
498.398	606.12
498.615	606.12
498.832	605.12
499.049	594.12
499.267	653.12
499.484	638.12
499.701	694.12
499.918	686.12
500.135	707.12
500.352	704.12
500.569	726.12
500.786	718.12
501.003	733.12
501.22	718.12
501.437	685.12
501.654	704.12
501.871	699.12
