Data from 1971.PennyLincolnUp.Lamp.En5.5.200Scan.071719.P1._HRD10591_15-20-09-841.txt Node
Date: Thu Jul 18 15:20:09 EDT 2019
User: cochatt
Spectrometer: HR+D1059
Trigger mode: 1
Integration Time (sec): 1.000000E-1
Scans to average: 1
Electric dark correction enabled: true
Nonlinearity correction enabled: false
Boxcar width: 0
XAxis mode: Wavelengths
Number of Pixels in Spectrum: 2048
>>>>>Begin Spectral Data<<<<<
223.165	-14.75
223.4	-14.75
223.635	-14.75
223.869	-14.75
224.104	-12.75
224.338	-8.75
224.573	0.25
224.808	-14.75
225.042	-17.75
225.277	-1.75
225.511	-4.75
225.746	0.25
225.98	-5.75
226.215	15.25
226.449	12.25
226.683	18.25
226.918	21.25
227.152	28.25
227.387	28.25
227.621	53.25
227.856	54.25
228.09	35.25
228.324	40.25
228.559	58.25
228.793	55.25
229.027	91.25
229.262	96.25
229.496	119.25
229.73	138.25
229.964	162.25
230.199	133.25
230.433	112.25
230.667	103.25
230.901	114.25
231.136	95.25
231.37	102.25
231.604	103.25
231.838	99.25
232.072	105.25
232.306	111.25
232.541	116.25
232.775	108.25
233.009	96.25
233.243	113.25
233.477	124.25
233.711	114.25
233.945	120.25
234.179	111.25
234.413	119.25
234.647	123.25
234.881	118.25
235.115	109.25
235.349	123.25
235.583	127.25
235.817	109.25
236.051	120.25
236.285	125.25
236.519	128.25
236.753	136.25
236.987	132.25
237.221	168.25
237.455	205.25
237.689	171.25
237.922	156.25
238.156	149.25
238.39	127.25
238.624	134.25
238.858	118.25
239.091	120.25
239.325	129.25
239.559	133.25
239.793	118.25
240.027	138.25
240.26	128.25
240.494	160.25
240.728	150.25
240.961	142.25
241.195	152.25
241.429	135.25
241.662	136.25
241.896	140.25
242.13	140.25
242.363	155.25
242.597	119.25
242.83	133.25
243.064	132.25
243.298	154.25
243.531	142.25
243.765	130.25
243.998	142.25
244.232	132.25
244.465	149.25
244.699	144.25
244.932	142.25
245.166	139.25
245.399	142.25
245.633	144.25
245.866	163.25
246.099	128.25
246.333	152.25
246.566	150.25
246.8	153.25
247.033	168.25
247.266	158.25
247.5	164.25
247.733	176.25
247.966	165.25
248.2	165.25
248.433	173.25
248.666	177.25
248.899	202.25
249.133	191.25
249.366	211.25
249.599	210.25
249.832	189.25
250.066	200.25
250.299	193.25
250.532	205.25
250.765	207.25
250.998	227.25
251.231	229.25
251.465	217.25
251.698	233.25
251.931	189.25
252.164	208.25
252.397	195.25
252.63	203.25
252.863	200.25
253.096	228.25
253.329	217.25
253.562	250.25
253.795	222.25
254.028	220.25
254.261	229.25
254.494	233.25
254.727	253.25
254.96	292.25
255.193	281.25
255.426	248.25
255.659	226.25
255.892	230.25
256.124	244.25
256.357	250.25
256.59	241.25
256.823	242.25
257.056	222.25
257.289	233.25
257.521	231.25
257.754	221.25
257.987	228.25
258.22	234.25
258.452	215.25
258.685	208.25
258.918	214.25
259.151	217.25
259.383	225.25
259.616	223.25
259.849	243.25
260.081	246.25
260.314	267.25
260.547	276.25
260.779	255.25
261.012	262.25
261.244	252.25
261.477	230.25
261.71	230.25
261.942	245.25
262.175	247.25
262.407	235.25
262.64	232.25
262.872	215.25
263.105	224.25
263.337	223.25
263.57	217.25
263.802	250.25
264.035	206.25
264.267	218.25
264.499	206.25
264.732	220.25
264.964	221.25
265.197	222.25
265.429	222.25
265.661	235.25
265.894	217.25
266.126	213.25
266.358	219.25
266.591	233.25
266.823	243.25
267.055	240.25
267.287	230.25
267.52	220.25
267.752	255.25
267.984	248.25
268.216	232.25
268.448	258.25
268.681	248.25
268.913	271.25
269.145	282.25
269.377	283.25
269.609	291.25
269.841	279.25
270.073	290.25
270.306	290.25
270.538	338.25
270.77	320.25
271.002	306.25
271.234	311.25
271.466	309.25
271.698	319.25
271.93	325.25
272.162	325.25
272.394	329.25
272.626	321.25
272.858	308.25
273.09	284.25
273.322	286.25
273.553	277.25
273.785	294.25
274.017	273.25
274.249	279.25
274.481	267.25
274.713	285.25
274.945	272.25
275.176	268.25
275.408	283.25
275.64	284.25
275.872	284.25
276.104	279.25
276.335	276.25
276.567	281.25
276.799	293.25
277.031	305.25
277.262	339.25
277.494	309.25
277.726	301.25
277.957	278.25
278.189	302.25
278.421	277.25
278.652	277.25
278.884	300.25
279.115	282.25
279.347	277.25
279.579	286.25
279.81	248.25
280.042	265.25
280.273	266.25
280.505	290.25
280.736	267.25
280.968	284.25
281.199	270.25
281.431	269.25
281.662	298.25
281.894	286.25
282.125	302.25
282.356	293.25
282.588	309.25
282.819	306.25
283.051	288.25
283.282	294.25
283.513	286.25
283.745	281.25
283.976	293.25
284.207	278.25
284.439	296.25
284.67	285.25
284.901	287.25
285.132	290.25
285.364	293.25
285.595	294.25
285.826	280.25
286.057	294.25
286.288	292.25
286.52	286.25
286.751	294.25
286.982	296.25
287.213	294.25
287.444	294.25
287.675	304.25
287.906	311.25
288.138	322.25
288.369	311.25
288.6	298.25
288.831	312.25
289.062	288.25
289.293	301.25
289.524	306.25
289.755	288.25
289.986	293.25
290.217	284.25
290.448	292.25
290.679	290.25
290.91	295.25
291.141	294.25
291.371	294.25
291.602	299.25
291.833	299.25
292.064	308.25
292.295	309.25
292.526	297.25
292.757	306.25
292.987	306.25
293.218	290.25
293.449	315.25
293.68	296.25
293.91	299.25
294.141	311.25
294.372	290.25
294.603	283.25
294.833	294.25
295.064	306.25
295.295	282.25
295.525	308.25
295.756	312.25
295.987	322.25
296.217	332.25
296.448	335.25
296.679	313.25
296.909	298.25
297.14	314.25
297.37	322.25
297.601	322.25
297.831	322.25
298.062	312.25
298.292	314.25
298.523	278.25
298.753	321.25
298.984	309.25
299.214	315.25
299.445	306.25
299.675	301.25
299.905	311.25
300.136	300.25
300.366	322.25
300.597	329.25
300.827	330.25
301.057	326.25
301.288	336.25
301.518	341.25
301.748	318.25
301.979	321.25
302.209	326.25
302.439	322.25
302.669	336.25
302.9	333.25
303.13	333.25
303.36	347.25
303.59	348.25
303.82	362.25
304.051	353.25
304.281	357.25
304.511	343.25
304.741	344.25
304.971	334.25
305.201	320.25
305.431	339.25
305.661	360.25
305.891	334.25
306.121	333.25
306.352	352.25
306.582	339.25
306.812	349.25
307.042	330.25
307.272	336.25
307.502	350.25
307.731	355.25
307.961	349.25
308.191	347.25
308.421	350.25
308.651	348.25
308.881	356.25
309.111	356.25
309.341	336.25
309.571	379.25
309.8	374.25
310.03	354.25
310.26	357.25
310.49	386.25
310.72	370.25
310.949	408.25
311.179	404.25
311.409	394.25
311.639	373.25
311.868	378.25
312.098	391.25
312.328	378.25
312.557	414.25
312.787	390.25
313.017	412.25
313.246	390.25
313.476	385.25
313.706	397.25
313.935	392.25
314.165	398.25
314.394	422.25
314.624	401.25
314.853	406.25
315.083	389.25
315.312	377.25
315.542	369.25
315.771	388.25
316.001	382.25
316.23	381.25
316.46	408.25
316.689	376.25
316.919	408.25
317.148	398.25
317.377	377.25
317.607	388.25
317.836	397.25
318.065	392.25
318.295	379.25
318.524	382.25
318.753	370.25
318.983	386.25
319.212	380.25
319.441	380.25
319.67	431.25
319.9	396.25
320.129	380.25
320.358	379.25
320.587	394.25
320.816	396.25
321.046	396.25
321.275	405.25
321.504	410.25
321.733	386.25
321.962	411.25
322.191	411.25
322.42	440.25
322.649	451.25
322.878	464.25
323.108	480.25
323.337	498.25
323.566	505.25
323.795	535.25
324.024	574.25
324.253	717.25
324.482	1035.25
324.71	1481.25
324.939	2007.25
325.168	1694.25
325.397	924.25
325.626	653.25
325.855	548.25
326.084	519.25
326.313	525.25
326.542	527.25
326.77	555.25
326.999	670.25
327.228	875.25
327.457	1250.25
327.686	1460.25
327.914	1012.25
328.143	701.25
328.372	606.25
328.6	555.25
328.829	549.25
329.058	562.25
329.287	554.25
329.515	523.25
329.744	504.25
329.972	518.25
330.201	514.25
330.43	548.25
330.658	576.25
330.887	586.25
331.115	567.25
331.344	504.25
331.572	492.25
331.801	495.25
332.03	483.25
332.258	471.25
332.486	451.25
332.715	448.25
332.943	438.25
333.172	438.25
333.4	438.25
333.629	463.25
333.857	488.25
334.085	459.25
334.314	488.25
334.542	496.25
334.771	521.25
334.999	496.25
335.227	456.25
335.455	445.25
335.684	455.25
335.912	472.25
336.14	443.25
336.369	435.25
336.597	429.25
336.825	447.25
337.053	438.25
337.281	427.25
337.51	434.25
337.738	414.25
337.966	436.25
338.194	440.25
338.422	432.25
338.65	437.25
338.878	436.25
339.106	415.25
339.334	421.25
339.562	436.25
339.79	442.25
340.018	421.25
340.246	416.25
340.474	422.25
340.702	444.25
340.93	430.25
341.158	411.25
341.386	412.25
341.614	419.25
341.842	428.25
342.07	406.25
342.298	428.25
342.526	412.25
342.754	407.25
342.981	412.25
343.209	405.25
343.437	424.25
343.665	404.25
343.893	428.25
344.12	421.25
344.348	414.25
344.576	420.25
344.804	425.25
345.031	419.25
345.259	421.25
345.487	425.25
345.714	418.25
345.942	398.25
346.17	413.25
346.397	415.25
346.625	396.25
346.853	390.25
347.08	386.25
347.308	410.25
347.535	410.25
347.763	433.25
347.99	413.25
348.218	419.25
348.445	411.25
348.673	425.25
348.9	415.25
349.128	390.25
349.355	390.25
349.583	383.25
349.81	391.25
350.037	397.25
350.265	385.25
350.492	386.25
350.72	409.25
350.947	404.25
351.174	399.25
351.402	393.25
351.629	413.25
351.856	410.25
352.083	401.25
352.311	392.25
352.538	425.25
352.765	407.25
352.992	392.25
353.22	395.25
353.447	415.25
353.674	387.25
353.901	373.25
354.128	372.25
354.355	372.25
354.583	367.25
354.81	400.25
355.037	365.25
355.264	368.25
355.491	393.25
355.718	366.25
355.945	367.25
356.172	353.25
356.399	376.25
356.626	380.25
356.853	375.25
357.08	346.25
357.307	349.25
357.534	382.25
357.761	354.25
357.988	374.25
358.215	375.25
358.441	372.25
358.668	374.25
358.895	374.25
359.122	368.25
359.349	379.25
359.576	386.25
359.802	426.25
360.029	420.25
360.256	448.25
360.483	413.25
360.709	388.25
360.936	391.25
361.163	382.25
361.39	368.25
361.616	404.25
361.843	406.25
362.07	384.25
362.296	388.25
362.523	416.25
362.749	387.25
362.976	373.25
363.203	364.25
363.429	379.25
363.656	362.25
363.882	374.25
364.109	378.25
364.335	365.25
364.562	359.25
364.788	369.25
365.015	370.25
365.241	378.25
365.468	388.25
365.694	363.25
365.92	368.25
366.147	365.25
366.373	366.25
366.599	362.25
366.826	369.25
367.052	377.25
367.278	356.25
367.505	364.25
367.731	363.25
367.957	362.25
368.184	350.25
368.41	361.25
368.636	378.25
368.862	381.25
369.089	368.25
369.315	373.25
369.541	380.25
369.767	365.25
369.993	356.25
370.219	374.25
370.445	355.25
370.672	374.25
370.898	355.25
371.124	375.25
371.35	351.25
371.576	372.25
371.802	370.25
372.028	367.25
372.254	378.25
372.48	381.25
372.706	356.25
372.932	352.25
373.158	351.25
373.384	379.25
373.61	383.25
373.835	366.25
374.061	362.25
374.287	373.25
374.513	380.25
374.739	364.25
374.965	352.25
375.191	371.25
375.416	382.25
375.642	376.25
375.868	350.25
376.094	364.25
376.319	368.25
376.545	344.25
376.771	344.25
376.997	339.25
377.222	354.25
377.448	361.25
377.674	352.25
377.899	356.25
378.125	351.25
378.35	360.25
378.576	348.25
378.802	346.25
379.027	364.25
379.253	371.25
379.478	346.25
379.704	349.25
379.929	371.25
380.155	351.25
380.38	363.25
380.606	365.25
380.831	358.25
381.057	340.25
381.282	358.25
381.507	361.25
381.733	361.25
381.958	376.25
382.184	363.25
382.409	348.25
382.634	370.25
382.86	366.25
383.085	355.25
383.31	348.25
383.535	347.25
383.761	356.25
383.986	365.25
384.211	364.25
384.436	384.25
384.662	380.25
384.887	374.25
385.112	368.25
385.337	362.25
385.562	346.25
385.787	360.25
386.013	397.25
386.238	380.25
386.463	384.25
386.688	394.25
386.913	355.25
387.138	380.25
387.363	379.25
387.588	380.25
387.813	364.25
388.038	370.25
388.263	388.25
388.488	383.25
388.713	375.25
388.938	387.25
389.163	374.25
389.387	398.25
389.612	372.25
389.837	379.25
390.062	378.25
390.287	362.25
390.512	357.25
390.736	362.25
390.961	365.25
391.186	379.25
391.411	372.25
391.636	407.25
391.86	372.25
392.085	384.25
392.31	388.25
392.534	359.25
392.759	375.25
392.984	374.25
393.208	395.25
393.433	370.25
393.658	362.25
393.882	358.25
394.107	376.25
394.331	362.25
394.556	382.25
394.78	390.25
395.005	374.25
395.229	388.25
395.454	384.25
395.678	405.25
395.903	386.25
396.127	409.25
396.352	410.25
396.576	386.25
396.801	389.25
397.025	388.25
397.249	379.25
397.474	383.25
397.698	381.25
397.922	400.25
398.147	424.25
398.371	421.25
398.595	402.25
398.82	406.25
399.044	432.25
399.268	432.25
399.492	434.25
399.717	470.25
399.941	486.25
400.165	500.25
400.389	493.25
400.613	470.25
400.837	452.25
401.062	429.25
401.286	431.25
401.51	399.25
401.734	419.25
401.958	431.25
402.182	431.25
402.406	420.25
402.63	422.25
402.854	410.25
403.078	411.25
403.302	409.25
403.526	427.25
403.75	441.25
403.974	434.25
404.198	428.25
404.422	438.25
404.645	431.25
404.869	459.25
405.093	476.25
405.317	490.25
405.541	513.25
405.765	468.25
405.988	470.25
406.212	474.25
406.436	454.25
406.66	467.25
406.883	455.25
407.107	482.25
407.331	502.25
407.555	560.25
407.778	563.25
408.002	527.25
408.226	493.25
408.449	468.25
408.673	482.25
408.896	528.25
409.12	524.25
409.344	479.25
409.567	477.25
409.791	439.25
410.014	430.25
410.238	416.25
410.461	403.25
410.685	450.25
410.908	452.25
411.132	479.25
411.355	500.25
411.578	472.25
411.802	445.25
412.025	424.25
412.249	436.25
412.472	448.25
412.695	509.25
412.919	478.25
413.142	427.25
413.365	418.25
413.589	412.25
413.812	394.25
414.035	410.25
414.258	388.25
414.482	407.25
414.705	392.25
414.928	393.25
415.151	396.25
415.374	399.25
415.597	403.25
415.821	399.25
416.044	393.25
416.267	405.25
416.49	390.25
416.713	395.25
416.936	390.25
417.159	418.25
417.382	401.25
417.605	396.25
417.828	412.25
418.051	414.25
418.274	424.25
418.497	412.25
418.72	401.25
418.943	391.25
419.166	403.25
419.389	434.25
419.611	410.25
419.834	413.25
420.057	430.25
420.28	428.25
420.503	425.25
420.726	434.25
420.948	436.25
421.171	470.25
421.394	494.25
421.617	444.25
421.839	442.25
422.062	406.25
422.285	443.25
422.507	478.25
422.73	523.25
422.953	504.25
423.175	472.25
423.398	439.25
423.621	438.25
423.843	447.25
424.066	452.25
424.288	484.25
424.511	481.25
424.733	500.25
424.956	589.25
425.178	579.25
425.401	578.25
425.623	596.25
425.846	495.25
426.068	469.25
426.291	456.25
426.513	443.25
426.735	470.25
426.958	524.25
427.18	564.25
427.402	663.25
427.625	715.25
427.847	639.25
428.069	544.25
428.292	485.25
428.514	462.25
428.736	424.25
428.958	446.25
429.181	430.25
429.403	395.25
429.625	432.25
429.847	453.25
430.069	531.25
430.292	508.25
430.514	444.25
430.736	438.25
430.958	418.25
431.18	407.25
431.402	378.25
431.624	406.25
431.846	368.25
432.068	393.25
432.29	396.25
432.512	414.25
432.734	401.25
432.956	429.25
433.178	420.25
433.4	423.25
433.622	388.25
433.844	406.25
434.066	377.25
434.287	390.25
434.509	406.25
434.731	419.25
434.953	400.25
435.175	423.25
435.397	431.25
435.618	443.25
435.84	494.25
436.062	559.25
436.284	612.25
436.505	520.25
436.727	475.25
436.949	420.25
437.17	424.25
437.392	430.25
437.614	442.25
437.835	459.25
438.057	529.25
438.278	615.25
438.5	610.25
438.721	672.25
438.943	636.25
439.165	500.25
439.386	486.25
439.608	468.25
439.829	465.25
440.05	496.25
440.272	529.25
440.493	476.25
440.715	451.25
440.936	429.25
441.158	439.25
441.379	436.25
441.6	444.25
441.822	466.25
442.043	491.25
442.264	553.25
442.486	593.25
442.707	480.25
442.928	462.25
443.149	467.25
443.371	497.25
443.592	532.25
443.813	607.25
444.034	629.25
444.255	548.25
444.476	492.25
444.698	456.25
444.919	452.25
445.14	552.25
445.361	495.25
445.582	498.25
445.803	559.25
446.024	632.25
446.245	638.25
446.466	572.25
446.687	502.25
446.908	453.25
447.129	436.25
447.35	423.25
447.571	428.25
447.792	423.25
448.013	445.25
448.234	454.25
448.455	487.25
448.675	600.25
448.896	662.25
449.117	579.25
449.338	545.25
449.559	648.25
449.779	711.25
450	559.25
450.221	463.25
450.442	423.25
450.662	418.25
450.883	440.25
451.104	428.25
451.324	411.25
451.545	386.25
451.766	390.25
451.986	373.25
452.207	370.25
452.428	384.25
452.648	367.25
452.869	376.25
453.089	376.25
453.31	380.25
453.53	378.25
453.751	382.25
453.971	361.25
454.192	402.25
454.412	383.25
454.633	384.25
454.853	365.25
455.073	380.25
455.294	400.25
455.514	462.25
455.734	443.25
455.955	393.25
456.175	383.25
456.395	353.25
456.616	362.25
456.836	340.25
457.056	349.25
457.276	331.25
457.497	330.25
457.717	353.25
457.937	358.25
458.157	344.25
458.377	358.25
458.598	387.25
458.818	406.25
459.038	458.25
459.258	479.25
459.478	429.25
459.698	414.25
459.918	387.25
460.138	374.25
460.358	392.25
460.578	391.25
460.798	374.25
461.018	407.25
461.238	404.25
461.458	396.25
461.678	376.25
461.898	382.25
462.118	408.25
462.338	400.25
462.558	382.25
462.777	414.25
462.997	391.25
463.217	400.25
463.437	434.25
463.657	419.25
463.876	395.25
464.096	410.25
464.316	419.25
464.536	417.25
464.755	404.25
464.975	423.25
465.195	442.25
465.414	506.25
465.634	451.25
465.854	414.25
466.073	414.25
466.293	395.25
466.512	379.25
466.732	396.25
466.951	382.25
467.171	379.25
467.391	392.25
467.61	396.25
467.829	392.25
468.049	386.25
468.268	383.25
468.488	376.25
468.707	375.25
468.927	376.25
469.146	375.25
469.365	364.25
469.585	383.25
469.804	382.25
470.023	373.25
470.243	380.25
470.462	391.25
470.681	408.25
470.901	390.25
471.12	376.25
471.339	394.25
471.558	384.25
471.777	391.25
471.997	384.25
472.216	399.25
472.435	405.25
472.654	382.25
472.873	381.25
473.092	382.25
473.311	381.25
473.53	376.25
473.749	399.25
473.968	430.25
474.187	518.25
474.406	568.25
474.625	445.25
474.844	392.25
475.063	403.25
475.282	398.25
475.501	395.25
475.72	392.25
475.939	404.25
476.158	400.25
476.377	395.25
476.596	405.25
476.814	400.25
477.033	406.25
477.252	424.25
477.471	398.25
477.69	399.25
477.908	424.25
478.127	434.25
478.346	406.25
478.564	414.25
478.783	439.25
479.002	436.25
479.22	448.25
479.439	430.25
479.658	448.25
479.876	450.25
480.095	467.25
480.313	465.25
480.532	475.25
480.751	462.25
480.969	456.25
481.188	506.25
481.406	520.25
481.624	480.25
481.843	456.25
482.061	460.25
482.28	441.25
482.498	451.25
482.717	442.25
482.935	436.25
483.153	443.25
483.372	453.25
483.59	425.25
483.808	424.25
484.027	438.25
484.245	460.25
484.463	446.25
484.681	443.25
484.9	454.25
485.118	462.25
485.336	455.25
485.554	446.25
485.772	450.25
485.99	462.25
486.209	458.25
486.427	455.25
486.645	455.25
486.863	454.25
487.081	461.25
487.299	476.25
487.517	475.25
487.735	460.25
487.953	478.25
488.171	485.25
488.389	471.25
488.607	468.25
488.825	472.25
489.043	461.25
489.261	500.25
489.479	490.25
489.696	482.25
489.914	468.25
490.132	507.25
490.35	502.25
490.568	512.25
490.786	501.25
491.003	537.25
491.221	550.25
491.439	536.25
491.657	546.25
491.874	541.25
492.092	536.25
492.31	555.25
492.527	570.25
492.745	554.25
492.963	557.25
493.18	571.25
493.398	564.25
493.615	570.25
493.833	544.25
494.05	564.25
494.268	570.25
494.485	565.25
494.703	554.25
494.92	576.25
495.138	565.25
495.355	557.25
495.573	563.25
495.79	556.25
496.008	584.25
496.225	579.25
496.442	567.25
496.66	590.25
496.877	568.25
497.094	548.25
497.312	584.25
497.529	571.25
497.746	593.25
497.963	580.25
498.181	597.25
498.398	607.25
498.615	605.25
498.832	636.25
499.049	641.25
499.267	654.25
499.484	685.25
499.701	668.25
499.918	669.25
500.135	720.25
500.352	730.25
500.569	749.25
500.786	754.25
501.003	737.25
501.22	724.25
501.437	724.25
501.654	700.25
501.871	685.25
