Data from 1971.PennyLincolnUp.Lamp.En5.5.200Scan.071719.P1.Scan 2. Changed Angle._HRD10591_15-23-41-841.txt Node
Date: Thu Jul 18 15:23:41 EDT 2019
User: cochatt
Spectrometer: HR+D1059
Trigger mode: 1
Integration Time (sec): 1.000000E-1
Scans to average: 1
Electric dark correction enabled: true
Nonlinearity correction enabled: false
Boxcar width: 0
XAxis mode: Wavelengths
Number of Pixels in Spectrum: 2048
>>>>>Begin Spectral Data<<<<<
223.165	-9.69
223.4	-9.69
223.635	-9.69
223.869	-14.69
224.104	-25.69
224.338	-12.69
224.573	-23.69
224.808	-21.69
225.042	-11.69
225.277	-14.69
225.511	3.31
225.746	9.31
225.98	3.31
226.215	20.31
226.449	17.31
226.683	17.31
226.918	30.31
227.152	33.31
227.387	20.31
227.621	37.31
227.856	34.31
228.09	39.31
228.324	47.31
228.559	50.31
228.793	68.31
229.027	99.31
229.262	113.31
229.496	130.31
229.73	150.31
229.964	178.31
230.199	142.31
230.433	129.31
230.667	115.31
230.901	109.31
231.136	116.31
231.37	120.31
231.604	112.31
231.838	102.31
232.072	124.31
232.306	120.31
232.541	121.31
232.775	114.31
233.009	111.31
233.243	111.31
233.477	125.31
233.711	139.31
233.945	119.31
234.179	116.31
234.413	120.31
234.647	104.31
234.881	115.31
235.115	124.31
235.349	124.31
235.583	122.31
235.817	125.31
236.051	129.31
236.285	135.31
236.519	144.31
236.753	137.31
236.987	157.31
237.221	201.31
237.455	259.31
237.689	191.31
237.922	147.31
238.156	148.31
238.39	123.31
238.624	134.31
238.858	132.31
239.091	132.31
239.325	139.31
239.559	141.31
239.793	134.31
240.027	142.31
240.26	145.31
240.494	171.31
240.728	170.31
240.961	170.31
241.195	149.31
241.429	155.31
241.662	141.31
241.896	143.31
242.13	129.31
242.363	147.31
242.597	131.31
242.83	139.31
243.064	135.31
243.298	141.31
243.531	156.31
243.765	139.31
243.998	139.31
244.232	155.31
244.465	136.31
244.699	141.31
244.932	151.31
245.166	157.31
245.399	148.31
245.633	166.31
245.866	142.31
246.099	135.31
246.333	149.31
246.566	165.31
246.8	145.31
247.033	168.31
247.266	164.31
247.5	159.31
247.733	193.31
247.966	185.31
248.2	202.31
248.433	179.31
248.666	189.31
248.899	190.31
249.133	199.31
249.366	228.31
249.599	221.31
249.832	195.31
250.066	192.31
250.299	188.31
250.532	197.31
250.765	230.31
250.998	233.31
251.231	262.31
251.465	246.31
251.698	210.31
251.931	213.31
252.164	206.31
252.397	216.31
252.63	210.31
252.863	223.31
253.096	231.31
253.329	242.31
253.562	247.31
253.795	235.31
254.028	233.31
254.261	233.31
254.494	255.31
254.727	275.31
254.96	295.31
255.193	304.31
255.426	273.31
255.659	247.31
255.892	254.31
256.124	243.31
256.357	252.31
256.59	240.31
256.823	231.31
257.056	248.31
257.289	211.31
257.521	219.31
257.754	222.31
257.987	218.31
258.22	232.31
258.452	219.31
258.685	208.31
258.918	213.31
259.151	201.31
259.383	222.31
259.616	221.31
259.849	235.31
260.081	249.31
260.314	252.31
260.547	264.31
260.779	266.31
261.012	238.31
261.244	224.31
261.477	217.31
261.71	224.31
261.942	234.31
262.175	255.31
262.407	245.31
262.64	227.31
262.872	220.31
263.105	222.31
263.337	213.31
263.57	209.31
263.802	211.31
264.035	205.31
264.267	214.31
264.499	216.31
264.732	210.31
264.964	217.31
265.197	221.31
265.429	232.31
265.661	215.31
265.894	213.31
266.126	214.31
266.358	225.31
266.591	203.31
266.823	213.31
267.055	215.31
267.287	242.31
267.52	233.31
267.752	213.31
267.984	219.31
268.216	221.31
268.448	242.31
268.681	217.31
268.913	235.31
269.145	285.31
269.377	283.31
269.609	268.31
269.841	275.31
270.073	285.31
270.306	284.31
270.538	310.31
270.77	320.31
271.002	291.31
271.234	285.31
271.466	312.31
271.698	315.31
271.93	331.31
272.162	313.31
272.394	331.31
272.626	312.31
272.858	293.31
273.09	279.31
273.322	271.31
273.553	274.31
273.785	265.31
274.017	249.31
274.249	278.31
274.481	259.31
274.713	265.31
274.945	278.31
275.176	264.31
275.408	277.31
275.64	268.31
275.872	267.31
276.104	278.31
276.335	268.31
276.567	284.31
276.799	278.31
277.031	325.31
277.262	323.31
277.494	315.31
277.726	309.31
277.957	294.31
278.189	291.31
278.421	289.31
278.652	268.31
278.884	262.31
279.115	259.31
279.347	258.31
279.579	265.31
279.81	261.31
280.042	257.31
280.273	259.31
280.505	263.31
280.736	245.31
280.968	251.31
281.199	242.31
281.431	268.31
281.662	249.31
281.894	256.31
282.125	253.31
282.356	290.31
282.588	295.31
282.819	311.31
283.051	266.31
283.282	266.31
283.513	275.31
283.745	275.31
283.976	256.31
284.207	271.31
284.439	269.31
284.67	269.31
284.901	260.31
285.132	262.31
285.364	286.31
285.595	283.31
285.826	256.31
286.057	250.31
286.288	257.31
286.52	272.31
286.751	265.31
286.982	256.31
287.213	272.31
287.444	287.31
287.675	274.31
287.906	282.31
288.138	270.31
288.369	276.31
288.6	279.31
288.831	297.31
289.062	276.31
289.293	261.31
289.524	283.31
289.755	288.31
289.986	271.31
290.217	270.31
290.448	269.31
290.679	285.31
290.91	266.31
291.141	264.31
291.371	270.31
291.602	288.31
291.833	266.31
292.064	265.31
292.295	276.31
292.526	263.31
292.757	277.31
292.987	268.31
293.218	249.31
293.449	274.31
293.68	283.31
293.91	274.31
294.141	246.31
294.372	253.31
294.603	266.31
294.833	275.31
295.064	268.31
295.295	262.31
295.525	251.31
295.756	281.31
295.987	295.31
296.217	329.31
296.448	331.31
296.679	291.31
296.909	273.31
297.14	292.31
297.37	285.31
297.601	296.31
297.831	272.31
298.062	276.31
298.292	296.31
298.523	288.31
298.753	286.31
298.984	305.31
299.214	273.31
299.445	285.31
299.675	290.31
299.905	307.31
300.136	305.31
300.366	280.31
300.597	277.31
300.827	275.31
301.057	300.31
301.288	310.31
301.518	292.31
301.748	289.31
301.979	304.31
302.209	314.31
302.439	323.31
302.669	314.31
302.9	307.31
303.13	308.31
303.36	313.31
303.59	319.31
303.82	315.31
304.051	320.31
304.281	323.31
304.511	306.31
304.741	310.31
304.971	310.31
305.201	296.31
305.431	303.31
305.661	303.31
305.891	312.31
306.121	310.31
306.352	320.31
306.582	309.31
306.812	321.31
307.042	318.31
307.272	314.31
307.502	320.31
307.731	319.31
307.961	312.31
308.191	304.31
308.421	326.31
308.651	323.31
308.881	328.31
309.111	319.31
309.341	320.31
309.571	324.31
309.8	346.31
310.03	379.31
310.26	386.31
310.49	352.31
310.72	356.31
310.949	405.31
311.179	389.31
311.409	372.31
311.639	389.31
311.868	382.31
312.098	375.31
312.328	376.31
312.557	406.31
312.787	411.31
313.017	429.31
313.246	376.31
313.476	379.31
313.706	354.31
313.935	361.31
314.165	397.31
314.394	385.31
314.624	399.31
314.853	393.31
315.083	376.31
315.312	342.31
315.542	357.31
315.771	346.31
316.001	359.31
316.23	359.31
316.46	360.31
316.689	368.31
316.919	363.31
317.148	373.31
317.377	387.31
317.607	366.31
317.836	369.31
318.065	377.31
318.295	352.31
318.524	357.31
318.753	350.31
318.983	367.31
319.212	372.31
319.441	379.31
319.67	372.31
319.9	376.31
320.129	374.31
320.358	406.31
320.587	385.31
320.816	391.31
321.046	404.31
321.275	403.31
321.504	407.31
321.733	388.31
321.962	396.31
322.191	417.31
322.42	435.31
322.649	461.31
322.878	488.31
323.108	460.31
323.337	509.31
323.566	530.31
323.795	566.31
324.024	632.31
324.253	790.31
324.482	1153.31
324.71	1763.31
324.939	2551.31
325.168	2223.31
325.397	1135.31
325.626	738.31
325.855	607.31
326.084	543.31
326.313	551.31
326.542	525.31
326.77	596.31
326.999	717.31
327.228	1033.31
327.457	1545.31
327.686	1916.31
327.914	1305.31
328.143	810.31
328.372	715.31
328.6	645.31
328.829	616.31
329.058	611.31
329.287	656.31
329.515	587.31
329.744	545.31
329.972	543.31
330.201	555.31
330.43	620.31
330.658	643.31
330.887	673.31
331.115	689.31
331.344	545.31
331.572	498.31
331.801	521.31
332.03	480.31
332.258	455.31
332.486	453.31
332.715	455.31
332.943	457.31
333.172	447.31
333.4	453.31
333.629	445.31
333.857	474.31
334.085	476.31
334.314	499.31
334.542	513.31
334.771	533.31
334.999	502.31
335.227	481.31
335.455	456.31
335.684	413.31
335.912	431.31
336.14	409.31
336.369	416.31
336.597	442.31
336.825	435.31
337.053	428.31
337.281	417.31
337.51	439.31
337.738	440.31
337.966	431.31
338.194	437.31
338.422	448.31
338.65	405.31
338.878	427.31
339.106	420.31
339.334	420.31
339.562	421.31
339.79	429.31
340.018	411.31
340.246	414.31
340.474	444.31
340.702	439.31
340.93	400.31
341.158	405.31
341.386	415.31
341.614	417.31
341.842	415.31
342.07	441.31
342.298	425.31
342.526	415.31
342.754	397.31
342.981	409.31
343.209	389.31
343.437	398.31
343.665	417.31
343.893	412.31
344.12	406.31
344.348	416.31
344.576	436.31
344.804	440.31
345.031	447.31
345.259	449.31
345.487	425.31
345.714	431.31
345.942	424.31
346.17	440.31
346.397	415.31
346.625	416.31
346.853	418.31
347.08	396.31
347.308	421.31
347.535	428.31
347.763	437.31
347.99	436.31
348.218	432.31
348.445	426.31
348.673	421.31
348.9	411.31
349.128	415.31
349.355	409.31
349.583	406.31
349.81	402.31
350.037	416.31
350.265	401.31
350.492	392.31
350.72	425.31
350.947	410.31
351.174	395.31
351.402	442.31
351.629	444.31
351.856	408.31
352.083	419.31
352.311	439.31
352.538	465.31
352.765	453.31
352.992	435.31
353.22	408.31
353.447	428.31
353.674	414.31
353.901	409.31
354.128	417.31
354.355	390.31
354.583	383.31
354.81	398.31
355.037	376.31
355.264	368.31
355.491	380.31
355.718	370.31
355.945	377.31
356.172	390.31
356.399	371.31
356.626	384.31
356.853	398.31
357.08	385.31
357.307	383.31
357.534	393.31
357.761	364.31
357.988	392.31
358.215	375.31
358.441	373.31
358.668	404.31
358.895	388.31
359.122	392.31
359.349	397.31
359.576	408.31
359.802	449.31
360.029	481.31
360.256	496.31
360.483	474.31
360.709	438.31
360.936	432.31
361.163	410.31
361.39	457.31
361.616	426.31
361.843	429.31
362.07	424.31
362.296	437.31
362.523	412.31
362.749	429.31
362.976	427.31
363.203	416.31
363.429	408.31
363.656	381.31
363.882	402.31
364.109	411.31
364.335	408.31
364.562	398.31
364.788	394.31
365.015	396.31
365.241	402.31
365.468	406.31
365.694	426.31
365.92	406.31
366.147	396.31
366.373	377.31
366.599	390.31
366.826	402.31
367.052	391.31
367.278	399.31
367.505	380.31
367.731	404.31
367.957	386.31
368.184	407.31
368.41	417.31
368.636	403.31
368.862	434.31
369.089	424.31
369.315	394.31
369.541	416.31
369.767	404.31
369.993	409.31
370.219	411.31
370.445	416.31
370.672	393.31
370.898	380.31
371.124	401.31
371.35	401.31
371.576	407.31
371.802	391.31
372.028	393.31
372.254	402.31
372.48	403.31
372.706	391.31
372.932	402.31
373.158	416.31
373.384	420.31
373.61	407.31
373.835	398.31
374.061	394.31
374.287	415.31
374.513	419.31
374.739	401.31
374.965	405.31
375.191	391.31
375.416	393.31
375.642	411.31
375.868	420.31
376.094	410.31
376.319	402.31
376.545	386.31
376.771	434.31
376.997	391.31
377.222	400.31
377.448	398.31
377.674	396.31
377.899	375.31
378.125	390.31
378.35	396.31
378.576	384.31
378.802	409.31
379.027	376.31
379.253	381.31
379.478	387.31
379.704	396.31
379.929	414.31
380.155	411.31
380.38	401.31
380.606	415.31
380.831	401.31
381.057	418.31
381.282	395.31
381.507	401.31
381.733	397.31
381.958	395.31
382.184	415.31
382.409	401.31
382.634	407.31
382.86	425.31
383.085	402.31
383.31	421.31
383.535	412.31
383.761	411.31
383.986	411.31
384.211	415.31
384.436	405.31
384.662	396.31
384.887	416.31
385.112	407.31
385.337	428.31
385.562	425.31
385.787	420.31
386.013	437.31
386.238	451.31
386.463	450.31
386.688	421.31
386.913	421.31
387.138	412.31
387.363	431.31
387.588	431.31
387.813	419.31
388.038	428.31
388.263	408.31
388.488	431.31
388.713	433.31
388.938	431.31
389.163	433.31
389.387	441.31
389.612	429.31
389.837	424.31
390.062	410.31
390.287	431.31
390.512	415.31
390.736	420.31
390.961	433.31
391.186	440.31
391.411	440.31
391.636	430.31
391.86	452.31
392.085	422.31
392.31	443.31
392.534	437.31
392.759	437.31
392.984	423.31
393.208	440.31
393.433	456.31
393.658	456.31
393.882	434.31
394.107	450.31
394.331	432.31
394.556	429.31
394.78	428.31
395.005	449.31
395.229	431.31
395.454	453.31
395.678	458.31
395.903	464.31
396.127	474.31
396.352	460.31
396.576	469.31
396.801	466.31
397.025	451.31
397.249	445.31
397.474	456.31
397.698	463.31
397.922	472.31
398.147	473.31
398.371	513.31
398.595	492.31
398.82	487.31
399.044	467.31
399.268	504.31
399.492	521.31
399.717	535.31
399.941	564.31
400.165	608.31
400.389	623.31
400.613	554.31
400.837	533.31
401.062	495.31
401.286	509.31
401.51	492.31
401.734	472.31
401.958	496.31
402.182	487.31
402.406	501.31
402.63	531.31
402.854	500.31
403.078	517.31
403.302	524.31
403.526	525.31
403.75	506.31
403.974	532.31
404.198	512.31
404.422	524.31
404.645	532.31
404.869	545.31
405.093	571.31
405.317	593.31
405.541	624.31
405.765	599.31
405.988	547.31
406.212	583.31
406.436	580.31
406.66	633.31
406.883	593.31
407.107	621.31
407.331	633.31
407.555	729.31
407.778	716.31
408.002	660.31
408.226	590.31
408.449	581.31
408.673	559.31
408.896	600.31
409.12	641.31
409.344	621.31
409.567	543.31
409.791	551.31
410.014	531.31
410.238	533.31
410.461	530.31
410.685	545.31
410.908	541.31
411.132	587.31
411.355	616.31
411.578	594.31
411.802	552.31
412.025	527.31
412.249	527.31
412.472	566.31
412.695	607.31
412.919	604.31
413.142	539.31
413.365	519.31
413.589	552.31
413.812	514.31
414.035	491.31
414.258	485.31
414.482	509.31
414.705	484.31
414.928	492.31
415.151	483.31
415.374	487.31
415.597	495.31
415.821	478.31
416.044	472.31
416.267	491.31
416.49	485.31
416.713	498.31
416.936	472.31
417.159	497.31
417.382	519.31
417.605	523.31
417.828	501.31
418.051	534.31
418.274	519.31
418.497	511.31
418.72	511.31
418.943	487.31
419.166	509.31
419.389	539.31
419.611	524.31
419.834	520.31
420.057	548.31
420.28	548.31
420.503	546.31
420.726	543.31
420.948	544.31
421.171	616.31
421.394	614.31
421.617	555.31
421.839	540.31
422.062	557.31
422.285	555.31
422.507	629.31
422.73	697.31
422.953	700.31
423.175	637.31
423.398	576.31
423.621	570.31
423.843	594.31
424.066	577.31
424.288	573.31
424.511	587.31
424.733	671.31
424.956	753.31
425.178	746.31
425.401	730.31
425.623	759.31
425.846	663.31
426.068	602.31
426.291	615.31
426.513	581.31
426.735	616.31
426.958	658.31
427.18	723.31
427.402	873.31
427.625	962.31
427.847	886.31
428.069	755.31
428.292	652.31
428.514	592.31
428.736	590.31
428.958	573.31
429.181	540.31
429.403	550.31
429.625	595.31
429.847	600.31
430.069	666.31
430.292	693.31
430.514	574.31
430.736	539.31
430.958	541.31
431.18	516.31
431.402	527.31
431.624	502.31
431.846	499.31
432.068	493.31
432.29	501.31
432.512	477.31
432.734	527.31
432.956	534.31
433.178	515.31
433.4	536.31
433.622	546.31
433.844	517.31
434.066	502.31
434.287	541.31
434.509	511.31
434.731	523.31
434.953	529.31
435.175	559.31
435.397	573.31
435.618	591.31
435.84	631.31
436.062	744.31
436.284	829.31
436.505	697.31
436.727	622.31
436.949	585.31
437.17	555.31
437.392	567.31
437.614	568.31
437.835	624.31
438.057	719.31
438.278	837.31
438.5	861.31
438.721	891.31
438.943	884.31
439.165	679.31
439.386	628.31
439.608	591.31
439.829	625.31
440.05	645.31
440.272	677.31
440.493	643.31
440.715	603.31
440.936	578.31
441.158	557.31
441.379	566.31
441.6	557.31
441.822	591.31
442.043	637.31
442.264	756.31
442.486	777.31
442.707	686.31
442.928	627.31
443.149	633.31
443.371	632.31
443.592	683.31
443.813	791.31
444.034	863.31
444.255	706.31
444.476	625.31
444.698	593.31
444.919	597.31
445.14	665.31
445.361	633.31
445.582	624.31
445.803	715.31
446.024	851.31
446.245	870.31
446.466	771.31
446.687	659.31
446.908	620.31
447.129	569.31
447.35	553.31
447.571	559.31
447.792	563.31
448.013	564.31
448.234	602.31
448.455	662.31
448.675	754.31
448.896	891.31
449.117	759.31
449.338	731.31
449.559	843.31
449.779	936.31
450	746.31
450.221	639.31
450.442	579.31
450.662	533.31
450.883	579.31
451.104	620.31
451.324	596.31
451.545	534.31
451.766	526.31
451.986	499.31
452.207	487.31
452.428	495.31
452.648	489.31
452.869	507.31
453.089	517.31
453.31	542.31
453.53	525.31
453.751	505.31
453.971	502.31
454.192	545.31
454.412	508.31
454.633	506.31
454.853	499.31
455.073	496.31
455.294	538.31
455.514	604.31
455.734	577.31
455.955	497.31
456.175	475.31
456.395	473.31
456.616	460.31
456.836	474.31
457.056	465.31
457.276	447.31
457.497	448.31
457.717	472.31
457.937	455.31
458.157	457.31
458.377	498.31
458.598	524.31
458.818	578.31
459.038	698.31
459.258	694.31
459.478	577.31
459.698	531.31
459.918	506.31
460.138	525.31
460.358	501.31
460.578	532.31
460.798	517.31
461.018	509.31
461.238	495.31
461.458	504.31
461.678	507.31
461.898	518.31
462.118	481.31
462.338	506.31
462.558	492.31
462.777	491.31
462.997	515.31
463.217	511.31
463.437	517.31
463.657	532.31
463.876	519.31
464.096	543.31
464.316	564.31
464.536	557.31
464.755	550.31
464.975	567.31
465.195	611.31
465.414	735.31
465.634	640.31
465.854	559.31
466.073	561.31
466.293	534.31
466.512	530.31
466.732	523.31
466.951	521.31
467.171	495.31
467.391	520.31
467.61	498.31
467.829	557.31
468.049	539.31
468.268	526.31
468.488	495.31
468.707	517.31
468.927	505.31
469.146	486.31
469.365	502.31
469.585	479.31
469.804	515.31
470.023	519.31
470.243	505.31
470.462	532.31
470.681	563.31
470.901	541.31
471.12	522.31
471.339	528.31
471.558	498.31
471.777	524.31
471.997	507.31
472.216	512.31
472.435	544.31
472.654	539.31
472.873	519.31
473.092	502.31
473.311	508.31
473.53	507.31
473.749	536.31
473.968	579.31
474.187	679.31
474.406	713.31
474.625	586.31
474.844	561.31
475.063	517.31
475.282	524.31
475.501	519.31
475.72	509.31
475.939	523.31
476.158	551.31
476.377	521.31
476.596	501.31
476.814	544.31
477.033	567.31
477.252	557.31
477.471	567.31
477.69	540.31
477.908	567.31
478.127	563.31
478.346	568.31
478.564	577.31
478.783	576.31
479.002	578.31
479.22	579.31
479.439	601.31
479.658	607.31
479.876	620.31
480.095	607.31
480.313	632.31
480.532	625.31
480.751	616.31
480.969	649.31
481.188	705.31
481.406	755.31
481.624	690.31
481.843	645.31
482.061	645.31
482.28	600.31
482.498	607.31
482.717	619.31
482.935	629.31
483.153	629.31
483.372	624.31
483.59	627.31
483.808	600.31
484.027	601.31
484.245	597.31
484.463	614.31
484.681	643.31
484.9	640.31
485.118	633.31
485.336	638.31
485.554	625.31
485.772	608.31
485.99	639.31
486.209	639.31
486.427	646.31
486.645	667.31
486.863	689.31
487.081	685.31
487.299	666.31
487.517	633.31
487.735	658.31
487.953	657.31
488.171	687.31
488.389	669.31
488.607	659.31
488.825	662.31
489.043	669.31
489.261	676.31
489.479	672.31
489.696	696.31
489.914	693.31
490.132	705.31
490.35	681.31
490.568	711.31
490.786	723.31
491.003	739.31
491.221	748.31
491.439	764.31
491.657	767.31
491.874	825.31
492.092	754.31
492.31	788.31
492.527	796.31
492.745	792.31
492.963	810.31
493.18	810.31
493.398	812.31
493.615	806.31
493.833	807.31
494.05	796.31
494.268	809.31
494.485	820.31
494.703	825.31
494.92	802.31
495.138	815.31
495.355	817.31
495.573	816.31
495.79	830.31
496.008	828.31
496.225	827.31
496.442	813.31
496.66	836.31
496.877	827.31
497.094	817.31
497.312	810.31
497.529	802.31
497.746	847.31
497.963	837.31
498.181	847.31
498.398	863.31
498.615	887.31
498.832	895.31
499.049	891.31
499.267	894.31
499.484	895.31
499.701	911.31
499.918	931.31
500.135	960.31
500.352	977.31
500.569	1013.31
500.786	998.31
501.003	991.31
501.22	987.31
501.437	967.31
501.654	982.31
