Data from 1971.PennyLincolnUp.Lamp.En5.5.200Scan.071719.P1._HRD10591_15-19-49-841.txt Node
Date: Thu Jul 18 15:19:49 EDT 2019
User: cochatt
Spectrometer: HR+D1059
Trigger mode: 1
Integration Time (sec): 1.000000E-1
Scans to average: 1
Electric dark correction enabled: true
Nonlinearity correction enabled: false
Boxcar width: 0
XAxis mode: Wavelengths
Number of Pixels in Spectrum: 2048
>>>>>Begin Spectral Data<<<<<
223.165	-6.44
223.4	-6.44
223.635	-6.44
223.869	-13.44
224.104	-27.44
224.338	-15.44
224.573	-2.44
224.808	-12.44
225.042	-10.44
225.277	-8.44
225.511	-3.44
225.746	7.56
225.98	3.56
226.215	13.56
226.449	11.56
226.683	19.56
226.918	17.56
227.152	26.56
227.387	20.56
227.621	33.56
227.856	37.56
228.09	32.56
228.324	54.56
228.559	45.56
228.793	64.56
229.027	97.56
229.262	93.56
229.496	109.56
229.73	140.56
229.964	124.56
230.199	106.56
230.433	102.56
230.667	121.56
230.901	112.56
231.136	110.56
231.37	117.56
231.604	83.56
231.838	103.56
232.072	110.56
232.306	120.56
232.541	121.56
232.775	111.56
233.009	101.56
233.243	101.56
233.477	111.56
233.711	126.56
233.945	105.56
234.179	116.56
234.413	117.56
234.647	111.56
234.881	115.56
235.115	123.56
235.349	128.56
235.583	125.56
235.817	113.56
236.051	114.56
236.285	134.56
236.519	129.56
236.753	128.56
236.987	135.56
237.221	176.56
237.455	214.56
237.689	177.56
237.922	139.56
238.156	137.56
238.39	118.56
238.624	129.56
238.858	119.56
239.091	128.56
239.325	127.56
239.559	125.56
239.793	127.56
240.027	145.56
240.26	151.56
240.494	158.56
240.728	147.56
240.961	137.56
241.195	145.56
241.429	129.56
241.662	123.56
241.896	123.56
242.13	134.56
242.363	140.56
242.597	141.56
242.83	149.56
243.064	129.56
243.298	140.56
243.531	126.56
243.765	133.56
243.998	134.56
244.232	147.56
244.465	164.56
244.699	150.56
244.932	139.56
245.166	157.56
245.399	147.56
245.633	149.56
245.866	146.56
246.099	153.56
246.333	133.56
246.566	143.56
246.8	161.56
247.033	161.56
247.266	163.56
247.5	165.56
247.733	173.56
247.966	155.56
248.2	163.56
248.433	154.56
248.666	167.56
248.899	195.56
249.133	199.56
249.366	199.56
249.599	206.56
249.832	193.56
250.066	187.56
250.299	181.56
250.532	189.56
250.765	212.56
250.998	228.56
251.231	234.56
251.465	207.56
251.698	214.56
251.931	223.56
252.164	188.56
252.397	198.56
252.63	221.56
252.863	214.56
253.096	220.56
253.329	231.56
253.562	237.56
253.795	233.56
254.028	224.56
254.261	208.56
254.494	248.56
254.727	279.56
254.96	289.56
255.193	276.56
255.426	246.56
255.659	227.56
255.892	243.56
256.124	239.56
256.357	231.56
256.59	244.56
256.823	231.56
257.056	202.56
257.289	211.56
257.521	226.56
257.754	217.56
257.987	204.56
258.22	212.56
258.452	219.56
258.685	230.56
258.918	230.56
259.151	223.56
259.383	219.56
259.616	238.56
259.849	230.56
260.081	249.56
260.314	253.56
260.547	270.56
260.779	259.56
261.012	260.56
261.244	229.56
261.477	225.56
261.71	232.56
261.942	237.56
262.175	254.56
262.407	232.56
262.64	217.56
262.872	230.56
263.105	231.56
263.337	226.56
263.57	225.56
263.802	227.56
264.035	230.56
264.267	227.56
264.499	221.56
264.732	232.56
264.964	227.56
265.197	229.56
265.429	213.56
265.661	225.56
265.894	211.56
266.126	221.56
266.358	232.56
266.591	232.56
266.823	233.56
267.055	242.56
267.287	225.56
267.52	236.56
267.752	225.56
267.984	235.56
268.216	230.56
268.448	247.56
268.681	242.56
268.913	228.56
269.145	269.56
269.377	289.56
269.609	304.56
269.841	281.56
270.073	281.56
270.306	309.56
270.538	321.56
270.77	331.56
271.002	312.56
271.234	317.56
271.466	318.56
271.698	299.56
271.93	331.56
272.162	336.56
272.394	313.56
272.626	298.56
272.858	295.56
273.09	277.56
273.322	274.56
273.553	263.56
273.785	291.56
274.017	275.56
274.249	282.56
274.481	286.56
274.713	306.56
274.945	302.56
275.176	285.56
275.408	279.56
275.64	287.56
275.872	268.56
276.104	275.56
276.335	273.56
276.567	296.56
276.799	301.56
277.031	302.56
277.262	336.56
277.494	327.56
277.726	314.56
277.957	314.56
278.189	294.56
278.421	288.56
278.652	287.56
278.884	279.56
279.115	296.56
279.347	285.56
279.579	277.56
279.81	268.56
280.042	278.56
280.273	280.56
280.505	293.56
280.736	277.56
280.968	283.56
281.199	281.56
281.431	279.56
281.662	279.56
281.894	277.56
282.125	287.56
282.356	294.56
282.588	312.56
282.819	321.56
283.051	295.56
283.282	277.56
283.513	287.56
283.745	296.56
283.976	284.56
284.207	297.56
284.439	302.56
284.67	288.56
284.901	289.56
285.132	285.56
285.364	293.56
285.595	301.56
285.826	282.56
286.057	281.56
286.288	290.56
286.52	307.56
286.751	298.56
286.982	297.56
287.213	292.56
287.444	289.56
287.675	290.56
287.906	293.56
288.138	303.56
288.369	310.56
288.6	325.56
288.831	300.56
289.062	305.56
289.293	301.56
289.524	302.56
289.755	298.56
289.986	296.56
290.217	292.56
290.448	285.56
290.679	310.56
290.91	295.56
291.141	311.56
291.371	299.56
291.602	285.56
291.833	282.56
292.064	279.56
292.295	316.56
292.526	297.56
292.757	305.56
292.987	288.56
293.218	292.56
293.449	308.56
293.68	317.56
293.91	297.56
294.141	296.56
294.372	301.56
294.603	292.56
294.833	307.56
295.064	296.56
295.295	303.56
295.525	303.56
295.756	329.56
295.987	322.56
296.217	317.56
296.448	339.56
296.679	309.56
296.909	293.56
297.14	313.56
297.37	308.56
297.601	310.56
297.831	298.56
298.062	321.56
298.292	321.56
298.523	316.56
298.753	334.56
298.984	327.56
299.214	326.56
299.445	315.56
299.675	330.56
299.905	312.56
300.136	317.56
300.366	329.56
300.597	309.56
300.827	306.56
301.057	309.56
301.288	330.56
301.518	345.56
301.748	340.56
301.979	353.56
302.209	328.56
302.439	343.56
302.669	332.56
302.9	345.56
303.13	348.56
303.36	321.56
303.59	321.56
303.82	352.56
304.051	342.56
304.281	350.56
304.511	333.56
304.741	342.56
304.971	344.56
305.201	331.56
305.431	331.56
305.661	333.56
305.891	314.56
306.121	351.56
306.352	347.56
306.582	356.56
306.812	323.56
307.042	350.56
307.272	346.56
307.502	339.56
307.731	344.56
307.961	317.56
308.191	338.56
308.421	341.56
308.651	360.56
308.881	341.56
309.111	354.56
309.341	349.56
309.571	366.56
309.8	372.56
310.03	367.56
310.26	389.56
310.49	379.56
310.72	409.56
310.949	411.56
311.179	409.56
311.409	383.56
311.639	373.56
311.868	379.56
312.098	390.56
312.328	395.56
312.557	410.56
312.787	420.56
313.017	415.56
313.246	408.56
313.476	377.56
313.706	410.56
313.935	385.56
314.165	388.56
314.394	402.56
314.624	437.56
314.853	403.56
315.083	385.56
315.312	372.56
315.542	389.56
315.771	397.56
316.001	374.56
316.23	382.56
316.46	396.56
316.689	362.56
316.919	392.56
317.148	394.56
317.377	397.56
317.607	385.56
317.836	398.56
318.065	379.56
318.295	389.56
318.524	406.56
318.753	362.56
318.983	398.56
319.212	401.56
319.441	399.56
319.67	403.56
319.9	397.56
320.129	395.56
320.358	386.56
320.587	377.56
320.816	405.56
321.046	421.56
321.275	394.56
321.504	403.56
321.733	424.56
321.962	427.56
322.191	454.56
322.42	455.56
322.649	452.56
322.878	463.56
323.108	473.56
323.337	475.56
323.566	508.56
323.795	535.56
324.024	579.56
324.253	726.56
324.482	972.56
324.71	1499.56
324.939	2054.56
325.168	1728.56
325.397	915.56
325.626	629.56
325.855	531.56
326.084	522.56
326.313	511.56
326.542	523.56
326.77	547.56
326.999	649.56
327.228	892.56
327.457	1259.56
327.686	1501.56
327.914	989.56
328.143	695.56
328.372	612.56
328.6	588.56
328.829	562.56
329.058	561.56
329.287	568.56
329.515	549.56
329.744	523.56
329.972	503.56
330.201	531.56
330.43	547.56
330.658	575.56
330.887	596.56
331.115	582.56
331.344	521.56
331.572	487.56
331.801	515.56
332.03	504.56
332.258	472.56
332.486	467.56
332.715	445.56
332.943	457.56
333.172	454.56
333.4	441.56
333.629	469.56
333.857	467.56
334.085	492.56
334.314	476.56
334.542	517.56
334.771	509.56
334.999	470.56
335.227	486.56
335.455	462.56
335.684	451.56
335.912	454.56
336.14	425.56
336.369	440.56
336.597	479.56
336.825	444.56
337.053	439.56
337.281	451.56
337.51	433.56
337.738	422.56
337.966	438.56
338.194	442.56
338.422	435.56
338.65	423.56
338.878	422.56
339.106	416.56
339.334	423.56
339.562	437.56
339.79	451.56
340.018	399.56
340.246	429.56
340.474	450.56
340.702	457.56
340.93	410.56
341.158	431.56
341.386	449.56
341.614	422.56
341.842	421.56
342.07	414.56
342.298	399.56
342.526	398.56
342.754	398.56
342.981	415.56
343.209	397.56
343.437	423.56
343.665	417.56
343.893	438.56
344.12	435.56
344.348	423.56
344.576	412.56
344.804	438.56
345.031	414.56
345.259	428.56
345.487	431.56
345.714	413.56
345.942	412.56
346.17	408.56
346.397	426.56
346.625	402.56
346.853	402.56
347.08	398.56
347.308	400.56
347.535	412.56
347.763	422.56
347.99	417.56
348.218	406.56
348.445	425.56
348.673	401.56
348.9	409.56
349.128	390.56
349.355	395.56
349.583	402.56
349.81	394.56
350.037	393.56
350.265	414.56
350.492	411.56
350.72	376.56
350.947	399.56
351.174	407.56
351.402	389.56
351.629	410.56
351.856	431.56
352.083	403.56
352.311	394.56
352.538	412.56
352.765	411.56
352.992	406.56
353.22	403.56
353.447	386.56
353.674	387.56
353.901	386.56
354.128	369.56
354.355	367.56
354.583	379.56
354.81	381.56
355.037	360.56
355.264	360.56
355.491	365.56
355.718	365.56
355.945	356.56
356.172	347.56
356.399	365.56
356.626	380.56
356.853	361.56
357.08	371.56
357.307	391.56
357.534	347.56
357.761	370.56
357.988	368.56
358.215	376.56
358.441	362.56
358.668	347.56
358.895	367.56
359.122	397.56
359.349	363.56
359.576	395.56
359.802	422.56
360.029	424.56
360.256	443.56
360.483	443.56
360.709	408.56
360.936	378.56
361.163	394.56
361.39	389.56
361.616	396.56
361.843	395.56
362.07	362.56
362.296	409.56
362.523	377.56
362.749	358.56
362.976	370.56
363.203	357.56
363.429	385.56
363.656	379.56
363.882	356.56
364.109	360.56
364.335	375.56
364.562	369.56
364.788	371.56
365.015	381.56
365.241	365.56
365.468	387.56
365.694	369.56
365.92	391.56
366.147	370.56
366.373	373.56
366.599	361.56
366.826	375.56
367.052	345.56
367.278	377.56
367.505	364.56
367.731	367.56
367.957	359.56
368.184	365.56
368.41	359.56
368.636	376.56
368.862	373.56
369.089	392.56
369.315	366.56
369.541	377.56
369.767	360.56
369.993	361.56
370.219	378.56
370.445	371.56
370.672	371.56
370.898	360.56
371.124	365.56
371.35	355.56
371.576	372.56
371.802	342.56
372.028	363.56
372.254	373.56
372.48	353.56
372.706	373.56
372.932	362.56
373.158	377.56
373.384	367.56
373.61	367.56
373.835	360.56
374.061	372.56
374.287	366.56
374.513	374.56
374.739	369.56
374.965	379.56
375.191	364.56
375.416	366.56
375.642	357.56
375.868	359.56
376.094	355.56
376.319	356.56
376.545	349.56
376.771	345.56
376.997	366.56
377.222	375.56
377.448	369.56
377.674	341.56
377.899	360.56
378.125	364.56
378.35	356.56
378.576	356.56
378.802	357.56
379.027	366.56
379.253	365.56
379.478	349.56
379.704	342.56
379.929	358.56
380.155	337.56
380.38	373.56
380.606	347.56
380.831	347.56
381.057	363.56
381.282	354.56
381.507	366.56
381.733	355.56
381.958	355.56
382.184	346.56
382.409	361.56
382.634	362.56
382.86	349.56
383.085	349.56
383.31	357.56
383.535	360.56
383.761	360.56
383.986	369.56
384.211	371.56
384.436	367.56
384.662	360.56
384.887	383.56
385.112	385.56
385.337	381.56
385.562	358.56
385.787	366.56
386.013	397.56
386.238	383.56
386.463	396.56
386.688	398.56
386.913	364.56
387.138	381.56
387.363	375.56
387.588	382.56
387.813	377.56
388.038	377.56
388.263	382.56
388.488	366.56
388.713	393.56
388.938	385.56
389.163	382.56
389.387	397.56
389.612	382.56
389.837	377.56
390.062	379.56
390.287	407.56
390.512	377.56
390.736	364.56
390.961	371.56
391.186	366.56
391.411	389.56
391.636	390.56
391.86	382.56
392.085	399.56
392.31	374.56
392.534	387.56
392.759	391.56
392.984	377.56
393.208	378.56
393.433	386.56
393.658	361.56
393.882	375.56
394.107	383.56
394.331	380.56
394.556	375.56
394.78	393.56
395.005	376.56
395.229	372.56
395.454	387.56
395.678	394.56
395.903	400.56
396.127	424.56
396.352	420.56
396.576	389.56
396.801	402.56
397.025	392.56
397.249	382.56
397.474	379.56
397.698	387.56
397.922	396.56
398.147	405.56
398.371	417.56
398.595	417.56
398.82	408.56
399.044	440.56
399.268	439.56
399.492	428.56
399.717	462.56
399.941	488.56
400.165	514.56
400.389	527.56
400.613	483.56
400.837	444.56
401.062	435.56
401.286	427.56
401.51	428.56
401.734	428.56
401.958	421.56
402.182	412.56
402.406	435.56
402.63	426.56
402.854	443.56
403.078	422.56
403.302	433.56
403.526	433.56
403.75	448.56
403.974	428.56
404.198	439.56
404.422	417.56
404.645	445.56
404.869	440.56
405.093	453.56
405.317	516.56
405.541	512.56
405.765	467.56
405.988	439.56
406.212	467.56
406.436	455.56
406.66	470.56
406.883	463.56
407.107	484.56
407.331	531.56
407.555	559.56
407.778	546.56
408.002	507.56
408.226	474.56
408.449	460.56
408.673	470.56
408.896	499.56
409.12	513.56
409.344	506.56
409.567	468.56
409.791	452.56
410.014	443.56
410.238	437.56
410.461	399.56
410.685	424.56
410.908	452.56
411.132	499.56
411.355	498.56
411.578	481.56
411.802	437.56
412.025	439.56
412.249	442.56
412.472	454.56
412.695	481.56
412.919	450.56
413.142	434.56
413.365	440.56
413.589	414.56
413.812	408.56
414.035	403.56
414.258	415.56
414.482	406.56
414.705	381.56
414.928	385.56
415.151	396.56
415.374	419.56
415.597	399.56
415.821	391.56
416.044	409.56
416.267	424.56
416.49	403.56
416.713	373.56
416.936	415.56
417.159	417.56
417.382	399.56
417.605	418.56
417.828	439.56
418.051	408.56
418.274	416.56
418.497	408.56
418.72	419.56
418.943	410.56
419.166	390.56
419.389	428.56
419.611	417.56
419.834	419.56
420.057	441.56
420.28	428.56
420.503	405.56
420.726	416.56
420.948	433.56
421.171	474.56
421.394	500.56
421.617	431.56
421.839	429.56
422.062	441.56
422.285	446.56
422.507	485.56
422.73	543.56
422.953	507.56
423.175	462.56
423.398	443.56
423.621	450.56
423.843	452.56
424.066	452.56
424.288	459.56
424.511	473.56
424.733	539.56
424.956	588.56
425.178	548.56
425.401	531.56
425.623	558.56
425.846	486.56
426.068	462.56
426.291	457.56
426.513	450.56
426.735	503.56
426.958	518.56
427.18	569.56
427.402	661.56
427.625	727.56
427.847	634.56
428.069	586.56
428.292	494.56
428.514	437.56
428.736	428.56
428.958	424.56
429.181	414.56
429.403	402.56
429.625	438.56
429.847	463.56
430.069	515.56
430.292	499.56
430.514	458.56
430.736	415.56
430.958	399.56
431.18	393.56
431.402	407.56
431.624	390.56
431.846	381.56
432.068	386.56
432.29	399.56
432.512	383.56
432.734	392.56
432.956	392.56
433.178	405.56
433.4	409.56
433.622	392.56
433.844	397.56
434.066	421.56
434.287	395.56
434.509	377.56
434.731	395.56
434.953	426.56
435.175	430.56
435.397	452.56
435.618	471.56
435.84	514.56
436.062	591.56
436.284	597.56
436.505	517.56
436.727	453.56
436.949	461.56
437.17	431.56
437.392	411.56
437.614	431.56
437.835	459.56
438.057	561.56
438.278	627.56
438.5	616.56
438.721	685.56
438.943	641.56
439.165	515.56
439.386	483.56
439.608	466.56
439.829	461.56
440.05	477.56
440.272	548.56
440.493	502.56
440.715	454.56
440.936	441.56
441.158	433.56
441.379	446.56
441.6	443.56
441.822	465.56
442.043	478.56
442.264	561.56
442.486	575.56
442.707	523.56
442.928	482.56
443.149	476.56
443.371	500.56
443.592	531.56
443.813	596.56
444.034	638.56
444.255	533.56
444.476	493.56
444.698	463.56
444.919	461.56
445.14	564.56
445.361	513.56
445.582	525.56
445.803	559.56
446.024	632.56
446.245	636.56
446.466	575.56
446.687	483.56
446.908	474.56
447.129	431.56
447.35	417.56
447.571	406.56
447.792	401.56
448.013	411.56
448.234	452.56
448.455	500.56
448.675	587.56
448.896	650.56
449.117	554.56
449.338	543.56
449.559	620.56
449.779	716.56
450	563.56
450.221	453.56
450.442	445.56
450.662	430.56
450.883	426.56
451.104	411.56
451.324	412.56
451.545	403.56
451.766	407.56
451.986	389.56
452.207	364.56
452.428	373.56
452.648	394.56
452.869	360.56
453.089	390.56
453.31	389.56
453.53	366.56
453.751	374.56
453.971	371.56
454.192	367.56
454.412	379.56
454.633	354.56
454.853	360.56
455.073	365.56
455.294	400.56
455.514	447.56
455.734	418.56
455.955	380.56
456.175	369.56
456.395	360.56
456.616	339.56
456.836	359.56
457.056	350.56
457.276	334.56
457.497	345.56
457.717	362.56
457.937	363.56
458.157	355.56
458.377	356.56
458.598	366.56
458.818	429.56
459.038	485.56
459.258	493.56
459.478	441.56
459.698	388.56
459.918	411.56
460.138	383.56
460.358	389.56
460.578	387.56
460.798	387.56
461.018	415.56
461.238	393.56
461.458	400.56
461.678	373.56
461.898	401.56
462.118	376.56
462.338	389.56
462.558	394.56
462.777	399.56
462.997	377.56
463.217	424.56
463.437	445.56
463.657	421.56
463.876	399.56
464.096	424.56
464.316	409.56
464.536	403.56
464.755	436.56
464.975	430.56
465.195	435.56
465.414	500.56
465.634	437.56
465.854	433.56
466.073	409.56
466.293	405.56
466.512	384.56
466.732	381.56
466.951	387.56
467.171	387.56
467.391	378.56
467.61	390.56
467.829	400.56
468.049	391.56
468.268	389.56
468.488	377.56
468.707	383.56
468.927	388.56
469.146	381.56
469.365	378.56
469.585	383.56
469.804	386.56
470.023	385.56
470.243	369.56
470.462	397.56
470.681	406.56
470.901	415.56
471.12	377.56
471.339	391.56
471.558	389.56
471.777	391.56
471.997	388.56
472.216	385.56
472.435	425.56
472.654	424.56
472.873	379.56
473.092	374.56
473.311	370.56
473.53	398.56
473.749	394.56
473.968	436.56
474.187	520.56
474.406	513.56
474.625	460.56
474.844	409.56
475.063	375.56
475.282	393.56
475.501	397.56
475.72	400.56
475.939	378.56
476.158	394.56
476.377	387.56
476.596	396.56
476.814	388.56
477.033	400.56
477.252	409.56
477.471	383.56
477.69	414.56
477.908	407.56
478.127	415.56
478.346	422.56
478.564	424.56
478.783	427.56
479.002	434.56
479.22	419.56
479.439	430.56
479.658	453.56
479.876	463.56
480.095	469.56
480.313	481.56
480.532	465.56
480.751	447.56
480.969	469.56
481.188	527.56
481.406	525.56
481.624	466.56
481.843	463.56
482.061	474.56
482.28	461.56
482.498	454.56
482.717	448.56
482.935	457.56
483.153	483.56
483.372	446.56
483.59	459.56
483.808	441.56
484.027	474.56
484.245	435.56
484.463	437.56
484.681	437.56
484.9	467.56
485.118	445.56
485.336	444.56
485.554	451.56
485.772	453.56
485.99	472.56
486.209	460.56
486.427	447.56
486.645	454.56
486.863	473.56
487.081	494.56
487.299	490.56
487.517	476.56
487.735	480.56
487.953	475.56
488.171	513.56
488.389	480.56
488.607	479.56
488.825	457.56
489.043	469.56
489.261	486.56
489.479	451.56
489.696	478.56
489.914	516.56
490.132	508.56
490.35	497.56
490.568	507.56
490.786	526.56
491.003	515.56
491.221	528.56
491.439	536.56
491.657	567.56
491.874	548.56
492.092	578.56
492.31	567.56
492.527	564.56
492.745	552.56
492.963	558.56
493.18	570.56
493.398	572.56
493.615	562.56
493.833	583.56
494.05	550.56
494.268	564.56
494.485	582.56
494.703	563.56
494.92	577.56
495.138	558.56
495.355	569.56
495.573	554.56
495.79	559.56
496.008	593.56
496.225	590.56
496.442	581.56
496.66	599.56
496.877	581.56
497.094	571.56
497.312	571.56
497.529	599.56
497.746	578.56
497.963	589.56
498.181	636.56
498.398	622.56
498.615	608.56
498.832	630.56
499.049	620.56
499.267	657.56
499.484	651.56
499.701	692.56
499.918	686.56
500.135	714.56
500.352	741.56
500.569	743.56
500.786	753.56
501.003	742.56
501.22	723.56
501.437	716.56
501.654	697.56
501.871	694.56
502.088	651.56
