Data from 1971.PennyLincolnUp.Lamp.En5.5.200Scan.071719.P1._HRD10591_15-18-32-841.txt Node
Date: Thu Jul 18 15:18:32 EDT 2019
User: cochatt
Spectrometer: HR+D1059
Trigger mode: 1
Integration Time (sec): 1.000000E-1
Scans to average: 1
Electric dark correction enabled: true
Nonlinearity correction enabled: false
Boxcar width: 0
XAxis mode: Wavelengths
Number of Pixels in Spectrum: 2048
>>>>>Begin Spectral Data<<<<<
223.165	-23.44
223.4	-23.44
223.635	-23.44
223.869	0.56
224.104	-14.44
224.338	-12.44
224.573	-19.44
224.808	-11.44
225.042	-10.44
225.277	-8.44
225.511	-4.44
225.746	15.56
225.98	6.56
226.215	12.56
226.449	0.56
226.683	10.56
226.918	31.56
227.152	26.56
227.387	26.56
227.621	43.56
227.856	49.56
228.09	32.56
228.324	55.56
228.559	55.56
228.793	59.56
229.027	100.56
229.262	97.56
229.496	95.56
229.73	117.56
229.964	137.56
230.199	132.56
230.433	120.56
230.667	112.56
230.901	108.56
231.136	102.56
231.37	85.56
231.604	105.56
231.838	95.56
232.072	99.56
232.306	92.56
232.541	117.56
232.775	107.56
233.009	114.56
233.243	106.56
233.477	118.56
233.711	116.56
233.945	106.56
234.179	121.56
234.413	119.56
234.647	94.56
234.881	113.56
235.115	111.56
235.349	123.56
235.583	112.56
235.817	108.56
236.051	127.56
236.285	121.56
236.519	118.56
236.753	123.56
236.987	129.56
237.221	158.56
237.455	204.56
237.689	167.56
237.922	135.56
238.156	131.56
238.39	135.56
238.624	119.56
238.858	122.56
239.091	104.56
239.325	115.56
239.559	111.56
239.793	127.56
240.027	119.56
240.26	135.56
240.494	151.56
240.728	137.56
240.961	149.56
241.195	143.56
241.429	139.56
241.662	132.56
241.896	139.56
242.13	120.56
242.363	129.56
242.597	127.56
242.83	140.56
243.064	138.56
243.298	140.56
243.531	128.56
243.765	143.56
243.998	152.56
244.232	139.56
244.465	133.56
244.699	148.56
244.932	135.56
245.166	123.56
245.399	137.56
245.633	149.56
245.866	150.56
246.099	131.56
246.333	149.56
246.566	154.56
246.8	149.56
247.033	153.56
247.266	150.56
247.5	145.56
247.733	155.56
247.966	176.56
248.2	173.56
248.433	169.56
248.666	166.56
248.899	199.56
249.133	174.56
249.366	210.56
249.599	199.56
249.832	174.56
250.066	184.56
250.299	181.56
250.532	199.56
250.765	203.56
250.998	201.56
251.231	223.56
251.465	216.56
251.698	189.56
251.931	198.56
252.164	195.56
252.397	200.56
252.63	193.56
252.863	198.56
253.096	208.56
253.329	211.56
253.562	230.56
253.795	217.56
254.028	212.56
254.261	210.56
254.494	231.56
254.727	249.56
254.96	252.56
255.193	255.56
255.426	243.56
255.659	238.56
255.892	226.56
256.124	224.56
256.357	226.56
256.59	223.56
256.823	208.56
257.056	205.56
257.289	207.56
257.521	202.56
257.754	209.56
257.987	191.56
258.22	224.56
258.452	210.56
258.685	204.56
258.918	208.56
259.151	215.56
259.383	207.56
259.616	200.56
259.849	223.56
260.081	230.56
260.314	255.56
260.547	245.56
260.779	248.56
261.012	231.56
261.244	215.56
261.477	219.56
261.71	215.56
261.942	212.56
262.175	218.56
262.407	232.56
262.64	225.56
262.872	224.56
263.105	224.56
263.337	206.56
263.57	208.56
263.802	224.56
264.035	226.56
264.267	209.56
264.499	210.56
264.732	224.56
264.964	229.56
265.197	221.56
265.429	217.56
265.661	205.56
265.894	209.56
266.126	209.56
266.358	213.56
266.591	218.56
266.823	231.56
267.055	226.56
267.287	249.56
267.52	227.56
267.752	209.56
267.984	216.56
268.216	215.56
268.448	238.56
268.681	250.56
268.913	248.56
269.145	273.56
269.377	255.56
269.609	265.56
269.841	247.56
270.073	249.56
270.306	284.56
270.538	295.56
270.77	302.56
271.002	291.56
271.234	298.56
271.466	272.56
271.698	300.56
271.93	313.56
272.162	307.56
272.394	281.56
272.626	298.56
272.858	291.56
273.09	274.56
273.322	272.56
273.553	269.56
273.785	259.56
274.017	258.56
274.249	256.56
274.481	260.56
274.713	265.56
274.945	268.56
275.176	262.56
275.408	261.56
275.64	251.56
275.872	268.56
276.104	269.56
276.335	244.56
276.567	276.56
276.799	274.56
277.031	316.56
277.262	297.56
277.494	299.56
277.726	310.56
277.957	276.56
278.189	277.56
278.421	269.56
278.652	291.56
278.884	256.56
279.115	280.56
279.347	275.56
279.579	255.56
279.81	263.56
280.042	261.56
280.273	272.56
280.505	273.56
280.736	273.56
280.968	260.56
281.199	257.56
281.431	283.56
281.662	279.56
281.894	279.56
282.125	255.56
282.356	283.56
282.588	293.56
282.819	285.56
283.051	277.56
283.282	271.56
283.513	286.56
283.745	269.56
283.976	271.56
284.207	287.56
284.439	288.56
284.67	273.56
284.901	282.56
285.132	284.56
285.364	288.56
285.595	285.56
285.826	276.56
286.057	264.56
286.288	295.56
286.52	275.56
286.751	270.56
286.982	273.56
287.213	287.56
287.444	282.56
287.675	303.56
287.906	292.56
288.138	287.56
288.369	297.56
288.6	312.56
288.831	291.56
289.062	309.56
289.293	296.56
289.524	289.56
289.755	286.56
289.986	291.56
290.217	288.56
290.448	295.56
290.679	282.56
290.91	285.56
291.141	279.56
291.371	296.56
291.602	283.56
291.833	291.56
292.064	289.56
292.295	296.56
292.526	291.56
292.757	281.56
292.987	278.56
293.218	288.56
293.449	291.56
293.68	294.56
293.91	286.56
294.141	284.56
294.372	275.56
294.603	293.56
294.833	283.56
295.064	281.56
295.295	291.56
295.525	275.56
295.756	289.56
295.987	292.56
296.217	302.56
296.448	322.56
296.679	299.56
296.909	296.56
297.14	301.56
297.37	309.56
297.601	302.56
297.831	281.56
298.062	309.56
298.292	284.56
298.523	295.56
298.753	299.56
298.984	309.56
299.214	319.56
299.445	295.56
299.675	298.56
299.905	307.56
300.136	319.56
300.366	291.56
300.597	304.56
300.827	311.56
301.057	324.56
301.288	323.56
301.518	302.56
301.748	323.56
301.979	329.56
302.209	313.56
302.439	329.56
302.669	318.56
302.9	330.56
303.13	334.56
303.36	325.56
303.59	309.56
303.82	315.56
304.051	336.56
304.281	324.56
304.511	314.56
304.741	312.56
304.971	309.56
305.201	320.56
305.431	318.56
305.661	307.56
305.891	311.56
306.121	319.56
306.352	344.56
306.582	336.56
306.812	312.56
307.042	334.56
307.272	333.56
307.502	321.56
307.731	336.56
307.961	338.56
308.191	321.56
308.421	331.56
308.651	317.56
308.881	329.56
309.111	343.56
309.341	333.56
309.571	337.56
309.8	350.56
310.03	323.56
310.26	375.56
310.49	362.56
310.72	368.56
310.949	378.56
311.179	374.56
311.409	377.56
311.639	334.56
311.868	373.56
312.098	369.56
312.328	375.56
312.557	381.56
312.787	391.56
313.017	399.56
313.246	371.56
313.476	359.56
313.706	354.56
313.935	377.56
314.165	385.56
314.394	386.56
314.624	389.56
314.853	376.56
315.083	376.56
315.312	344.56
315.542	373.56
315.771	350.56
316.001	368.56
316.23	361.56
316.46	361.56
316.689	352.56
316.919	372.56
317.148	376.56
317.377	379.56
317.607	357.56
317.836	357.56
318.065	356.56
318.295	371.56
318.524	361.56
318.753	367.56
318.983	379.56
319.212	356.56
319.441	383.56
319.67	368.56
319.9	368.56
320.129	363.56
320.358	356.56
320.587	371.56
320.816	383.56
321.046	396.56
321.275	386.56
321.504	386.56
321.733	392.56
321.962	380.56
322.191	392.56
322.42	408.56
322.649	416.56
322.878	423.56
323.108	416.56
323.337	441.56
323.566	461.56
323.795	508.56
324.024	521.56
324.253	623.56
324.482	862.56
324.71	1230.56
324.939	1671.56
325.168	1449.56
325.397	792.56
325.626	558.56
325.855	494.56
326.084	462.56
326.313	455.56
326.542	460.56
326.77	507.56
326.999	608.56
327.228	784.56
327.457	1109.56
327.686	1276.56
327.914	855.56
328.143	588.56
328.372	519.56
328.6	500.56
328.829	507.56
329.058	526.56
329.287	526.56
329.515	474.56
329.744	469.56
329.972	458.56
330.201	476.56
330.43	523.56
330.658	521.56
330.887	515.56
331.115	534.56
331.344	461.56
331.572	453.56
331.801	438.56
332.03	441.56
332.258	441.56
332.486	429.56
332.715	424.56
332.943	418.56
333.172	421.56
333.4	404.56
333.629	418.56
333.857	438.56
334.085	449.56
334.314	453.56
334.542	464.56
334.771	464.56
334.999	459.56
335.227	423.56
335.455	414.56
335.684	418.56
335.912	423.56
336.14	423.56
336.369	404.56
336.597	430.56
336.825	421.56
337.053	415.56
337.281	392.56
337.51	386.56
337.738	434.56
337.966	399.56
338.194	420.56
338.422	413.56
338.65	416.56
338.878	395.56
339.106	391.56
339.334	378.56
339.562	400.56
339.79	392.56
340.018	417.56
340.246	391.56
340.474	399.56
340.702	392.56
340.93	398.56
341.158	412.56
341.386	414.56
341.614	416.56
341.842	403.56
342.07	400.56
342.298	413.56
342.526	405.56
342.754	384.56
342.981	389.56
343.209	389.56
343.437	388.56
343.665	401.56
343.893	405.56
344.12	413.56
344.348	401.56
344.576	397.56
344.804	390.56
345.031	406.56
345.259	396.56
345.487	407.56
345.714	403.56
345.942	391.56
346.17	388.56
346.397	396.56
346.625	394.56
346.853	386.56
347.08	375.56
347.308	387.56
347.535	375.56
347.763	373.56
347.99	378.56
348.218	368.56
348.445	395.56
348.673	380.56
348.9	382.56
349.128	394.56
349.355	342.56
349.583	366.56
349.81	389.56
350.037	400.56
350.265	369.56
350.492	379.56
350.72	381.56
350.947	378.56
351.174	390.56
351.402	380.56
351.629	380.56
351.856	368.56
352.083	384.56
352.311	400.56
352.538	401.56
352.765	387.56
352.992	398.56
353.22	367.56
353.447	381.56
353.674	374.56
353.901	349.56
354.128	364.56
354.355	346.56
354.583	355.56
354.81	353.56
355.037	342.56
355.264	366.56
355.491	339.56
355.718	352.56
355.945	337.56
356.172	337.56
356.399	337.56
356.626	344.56
356.853	366.56
357.08	338.56
357.307	344.56
357.534	348.56
357.761	348.56
357.988	341.56
358.215	383.56
358.441	357.56
358.668	342.56
358.895	352.56
359.122	348.56
359.349	349.56
359.576	365.56
359.802	380.56
360.029	393.56
360.256	415.56
360.483	387.56
360.709	365.56
360.936	376.56
361.163	380.56
361.39	374.56
361.616	368.56
361.843	363.56
362.07	373.56
362.296	369.56
362.523	360.56
362.749	382.56
362.976	365.56
363.203	343.56
363.429	368.56
363.656	372.56
363.882	364.56
364.109	374.56
364.335	357.56
364.562	360.56
364.788	348.56
365.015	350.56
365.241	350.56
365.468	356.56
365.694	357.56
365.92	377.56
366.147	371.56
366.373	343.56
366.599	358.56
366.826	354.56
367.052	340.56
367.278	334.56
367.505	363.56
367.731	347.56
367.957	373.56
368.184	364.56
368.41	343.56
368.636	379.56
368.862	371.56
369.089	355.56
369.315	349.56
369.541	330.56
369.767	351.56
369.993	325.56
370.219	345.56
370.445	333.56
370.672	354.56
370.898	371.56
371.124	331.56
371.35	333.56
371.576	350.56
371.802	337.56
372.028	353.56
372.254	347.56
372.48	350.56
372.706	341.56
372.932	355.56
373.158	348.56
373.384	353.56
373.61	358.56
373.835	349.56
374.061	340.56
374.287	348.56
374.513	356.56
374.739	344.56
374.965	351.56
375.191	363.56
375.416	364.56
375.642	349.56
375.868	344.56
376.094	335.56
376.319	367.56
376.545	348.56
376.771	344.56
376.997	351.56
377.222	339.56
377.448	361.56
377.674	351.56
377.899	342.56
378.125	339.56
378.35	327.56
378.576	345.56
378.802	336.56
379.027	327.56
379.253	337.56
379.478	324.56
379.704	337.56
379.929	351.56
380.155	359.56
380.38	348.56
380.606	354.56
380.831	343.56
381.057	355.56
381.282	325.56
381.507	330.56
381.733	347.56
381.958	336.56
382.184	349.56
382.409	351.56
382.634	345.56
382.86	357.56
383.085	345.56
383.31	340.56
383.535	366.56
383.761	348.56
383.986	347.56
384.211	333.56
384.436	347.56
384.662	364.56
384.887	357.56
385.112	364.56
385.337	361.56
385.562	373.56
385.787	353.56
386.013	379.56
386.238	380.56
386.463	358.56
386.688	389.56
386.913	357.56
387.138	361.56
387.363	367.56
387.588	353.56
387.813	359.56
388.038	350.56
388.263	365.56
388.488	361.56
388.713	363.56
388.938	359.56
389.163	386.56
389.387	376.56
389.612	360.56
389.837	385.56
390.062	353.56
390.287	356.56
390.512	355.56
390.736	349.56
390.961	371.56
391.186	375.56
391.411	371.56
391.636	364.56
391.86	383.56
392.085	371.56
392.31	364.56
392.534	375.56
392.759	369.56
392.984	349.56
393.208	377.56
393.433	369.56
393.658	377.56
393.882	356.56
394.107	356.56
394.331	353.56
394.556	375.56
394.78	370.56
395.005	361.56
395.229	350.56
395.454	366.56
395.678	372.56
395.903	393.56
396.127	383.56
396.352	383.56
396.576	374.56
396.801	350.56
397.025	372.56
397.249	375.56
397.474	365.56
397.698	381.56
397.922	393.56
398.147	398.56
398.371	394.56
398.595	391.56
398.82	427.56
399.044	386.56
399.268	421.56
399.492	438.56
399.717	453.56
399.941	481.56
400.165	491.56
400.389	470.56
400.613	457.56
400.837	421.56
401.062	393.56
401.286	390.56
401.51	395.56
401.734	405.56
401.958	393.56
402.182	395.56
402.406	400.56
402.63	402.56
402.854	401.56
403.078	420.56
403.302	408.56
403.526	407.56
403.75	396.56
403.974	414.56
404.198	402.56
404.422	411.56
404.645	414.56
404.869	410.56
405.093	433.56
405.317	460.56
405.541	479.56
405.765	462.56
405.988	461.56
406.212	440.56
406.436	447.56
406.66	475.56
406.883	440.56
407.107	442.56
407.331	517.56
407.555	548.56
407.778	537.56
408.002	513.56
408.226	447.56
408.449	453.56
408.673	460.56
408.896	470.56
409.12	517.56
409.344	460.56
409.567	439.56
409.791	405.56
410.014	418.56
410.238	409.56
410.461	424.56
410.685	419.56
410.908	425.56
411.132	453.56
411.355	473.56
411.578	435.56
411.802	420.56
412.025	395.56
412.249	439.56
412.472	430.56
412.695	469.56
412.919	447.56
413.142	419.56
413.365	389.56
413.589	397.56
413.812	382.56
414.035	383.56
414.258	380.56
414.482	374.56
414.705	382.56
414.928	404.56
415.151	393.56
415.374	381.56
415.597	408.56
415.821	383.56
416.044	373.56
416.267	375.56
416.49	383.56
416.713	376.56
416.936	409.56
417.159	408.56
417.382	392.56
417.605	401.56
417.828	385.56
418.051	409.56
418.274	396.56
418.497	391.56
418.72	393.56
418.943	382.56
419.166	402.56
419.389	419.56
419.611	423.56
419.834	412.56
420.057	414.56
420.28	404.56
420.503	398.56
420.726	401.56
420.948	400.56
421.171	435.56
421.394	476.56
421.617	427.56
421.839	401.56
422.062	428.56
422.285	425.56
422.507	453.56
422.73	512.56
422.953	483.56
423.175	435.56
423.398	440.56
423.621	423.56
423.843	435.56
424.066	436.56
424.288	452.56
424.511	451.56
424.733	479.56
424.956	546.56
425.178	533.56
425.401	532.56
425.623	548.56
425.846	477.56
426.068	429.56
426.291	446.56
426.513	439.56
426.735	427.56
426.958	479.56
427.18	530.56
427.402	613.56
427.625	667.56
427.847	593.56
428.069	505.56
428.292	479.56
428.514	417.56
428.736	415.56
428.958	415.56
429.181	401.56
429.403	414.56
429.625	404.56
429.847	433.56
430.069	478.56
430.292	459.56
430.514	401.56
430.736	391.56
430.958	393.56
431.18	360.56
431.402	391.56
431.624	379.56
431.846	369.56
432.068	364.56
432.29	367.56
432.512	372.56
432.734	387.56
432.956	390.56
433.178	380.56
433.4	391.56
433.622	381.56
433.844	365.56
434.066	368.56
434.287	377.56
434.509	375.56
434.731	373.56
434.953	369.56
435.175	410.56
435.397	442.56
435.618	408.56
435.84	455.56
436.062	545.56
436.284	574.56
436.505	492.56
436.727	444.56
436.949	416.56
437.17	377.56
437.392	399.56
437.614	408.56
437.835	436.56
438.057	487.56
438.278	553.56
438.5	556.56
438.721	618.56
438.943	603.56
439.165	473.56
439.386	431.56
439.608	443.56
439.829	430.56
440.05	455.56
440.272	492.56
440.493	461.56
440.715	428.56
440.936	407.56
441.158	413.56
441.379	387.56
441.6	431.56
441.822	428.56
442.043	457.56
442.264	505.56
442.486	541.56
442.707	454.56
442.928	437.56
443.149	433.56
443.371	467.56
443.592	490.56
443.813	562.56
444.034	593.56
444.255	505.56
444.476	452.56
444.698	454.56
444.919	441.56
445.14	574.56
445.361	526.56
445.582	457.56
445.803	529.56
446.024	597.56
446.245	565.56
446.466	535.56
446.687	456.56
446.908	409.56
447.129	391.56
447.35	415.56
447.571	409.56
447.792	393.56
448.013	395.56
448.234	413.56
448.455	446.56
448.675	551.56
448.896	622.56
449.117	538.56
449.338	500.56
449.559	599.56
449.779	631.56
450	543.56
450.221	444.56
450.442	390.56
450.662	389.56
450.883	401.56
451.104	402.56
451.324	392.56
451.545	365.56
451.766	367.56
451.986	366.56
452.207	353.56
452.428	350.56
452.648	346.56
452.869	349.56
453.089	351.56
453.31	369.56
453.53	353.56
453.751	354.56
453.971	348.56
454.192	369.56
454.412	342.56
454.633	356.56
454.853	334.56
455.073	351.56
455.294	364.56
455.514	416.56
455.734	427.56
455.955	356.56
456.175	326.56
456.395	318.56
456.616	314.56
456.836	350.56
457.056	337.56
457.276	328.56
457.497	342.56
457.717	326.56
457.937	329.56
458.157	340.56
458.377	350.56
458.598	354.56
458.818	385.56
459.038	443.56
459.258	471.56
459.478	428.56
459.698	387.56
459.918	370.56
460.138	360.56
460.358	374.56
460.578	365.56
460.798	389.56
461.018	379.56
461.238	385.56
461.458	401.56
461.678	363.56
461.898	378.56
462.118	362.56
462.338	372.56
462.558	383.56
462.777	379.56
462.997	388.56
463.217	410.56
463.437	399.56
463.657	393.56
463.876	401.56
464.096	387.56
464.316	382.56
464.536	391.56
464.755	401.56
464.975	405.56
465.195	406.56
465.414	483.56
465.634	415.56
465.854	390.56
466.073	381.56
466.293	369.56
466.512	389.56
466.732	354.56
466.951	365.56
467.171	369.56
467.391	367.56
467.61	389.56
467.829	390.56
468.049	362.56
468.268	348.56
468.488	378.56
468.707	345.56
468.927	369.56
469.146	365.56
469.365	366.56
469.585	364.56
469.804	359.56
470.023	391.56
470.243	373.56
470.462	375.56
470.681	379.56
470.901	389.56
471.12	363.56
471.339	359.56
471.558	380.56
471.777	355.56
471.997	364.56
472.216	377.56
472.435	372.56
472.654	394.56
472.873	359.56
473.092	350.56
473.311	355.56
473.53	371.56
473.749	392.56
473.968	423.56
474.187	483.56
474.406	493.56
474.625	413.56
474.844	398.56
475.063	379.56
475.282	362.56
475.501	367.56
475.72	384.56
475.939	375.56
476.158	384.56
476.377	388.56
476.596	372.56
476.814	393.56
477.033	381.56
477.252	376.56
477.471	371.56
477.69	389.56
477.908	383.56
478.127	417.56
478.346	399.56
478.564	414.56
478.783	426.56
479.002	398.56
479.22	411.56
479.439	421.56
479.658	427.56
479.876	448.56
480.095	429.56
480.313	447.56
480.532	459.56
480.751	440.56
480.969	452.56
481.188	470.56
481.406	487.56
481.624	447.56
481.843	419.56
482.061	419.56
482.28	431.56
482.498	419.56
482.717	427.56
482.935	398.56
483.153	413.56
483.372	416.56
483.59	424.56
483.808	422.56
484.027	425.56
484.245	427.56
484.463	439.56
484.681	427.56
484.9	428.56
485.118	423.56
485.336	431.56
485.554	428.56
485.772	438.56
485.99	414.56
486.209	436.56
486.427	441.56
486.645	428.56
486.863	460.56
487.081	459.56
487.299	468.56
487.517	459.56
487.735	459.56
487.953	444.56
488.171	468.56
488.389	465.56
488.607	483.56
488.825	451.56
489.043	465.56
489.261	439.56
489.479	469.56
489.696	500.56
489.914	460.56
490.132	467.56
490.35	473.56
490.568	475.56
490.786	478.56
491.003	494.56
491.221	518.56
491.439	484.56
491.657	523.56
491.874	522.56
492.092	517.56
492.31	514.56
492.527	529.56
492.745	523.56
492.963	523.56
493.18	524.56
493.398	527.56
493.615	537.56
493.833	536.56
494.05	530.56
494.268	537.56
494.485	552.56
494.703	546.56
494.92	540.56
495.138	553.56
495.355	553.56
495.573	537.56
495.79	518.56
496.008	559.56
496.225	564.56
496.442	553.56
496.66	532.56
496.877	533.56
497.094	560.56
497.312	547.56
497.529	527.56
497.746	557.56
497.963	566.56
498.181	584.56
498.398	585.56
498.615	569.56
498.832	582.56
499.049	601.56
499.267	604.56
499.484	622.56
499.701	650.56
499.918	672.56
500.135	711.56
500.352	723.56
500.569	700.56
500.786	700.56
501.003	720.56
501.22	699.56
501.437	679.56
501.654	667.56
501.871	660.56
502.088	632.56
