Data from 1971.PennyLincolnUp.Lamp.En5.5.200Scan.071719.P1._HRD10591_15-20-32-841.txt Node
Date: Thu Jul 18 15:20:32 EDT 2019
User: cochatt
Spectrometer: HR+D1059
Trigger mode: 1
Integration Time (sec): 1.000000E-1
Scans to average: 1
Electric dark correction enabled: true
Nonlinearity correction enabled: false
Boxcar width: 0
XAxis mode: Wavelengths
Number of Pixels in Spectrum: 2048
>>>>>Begin Spectral Data<<<<<
223.165	-12.25
223.4	-12.25
223.635	-12.25
223.869	-16.25
224.104	-8.25
224.338	-30.25
224.573	-14.25
224.808	-8.25
225.042	-26.25
225.277	2.75
225.511	8.75
225.746	4.75
225.98	18.75
226.215	10.75
226.449	15.75
226.683	11.75
226.918	20.75
227.152	21.75
227.387	41.75
227.621	31.75
227.856	65.75
228.09	58.75
228.324	60.75
228.559	64.75
228.793	64.75
229.027	79.75
229.262	112.75
229.496	106.75
229.73	123.75
229.964	139.75
230.199	120.75
230.433	129.75
230.667	121.75
230.901	99.75
231.136	115.75
231.37	95.75
231.604	114.75
231.838	96.75
232.072	114.75
232.306	119.75
232.541	116.75
232.775	122.75
233.009	116.75
233.243	101.75
233.477	104.75
233.711	115.75
233.945	112.75
234.179	111.75
234.413	102.75
234.647	124.75
234.881	123.75
235.115	119.75
235.349	118.75
235.583	122.75
235.817	125.75
236.051	133.75
236.285	122.75
236.519	124.75
236.753	118.75
236.987	139.75
237.221	189.75
237.455	232.75
237.689	163.75
237.922	127.75
238.156	120.75
238.39	127.75
238.624	131.75
238.858	120.75
239.091	130.75
239.325	137.75
239.559	124.75
239.793	133.75
240.027	156.75
240.26	137.75
240.494	163.75
240.728	143.75
240.961	167.75
241.195	160.75
241.429	131.75
241.662	135.75
241.896	130.75
242.13	128.75
242.363	131.75
242.597	131.75
242.83	120.75
243.064	132.75
243.298	131.75
243.531	123.75
243.765	144.75
243.998	139.75
244.232	151.75
244.465	139.75
244.699	136.75
244.932	137.75
245.166	149.75
245.399	160.75
245.633	164.75
245.866	153.75
246.099	157.75
246.333	155.75
246.566	153.75
246.8	182.75
247.033	166.75
247.266	159.75
247.5	195.75
247.733	164.75
247.966	173.75
248.2	180.75
248.433	171.75
248.666	177.75
248.899	188.75
249.133	196.75
249.366	190.75
249.599	209.75
249.832	174.75
250.066	169.75
250.299	186.75
250.532	203.75
250.765	214.75
250.998	221.75
251.231	241.75
251.465	205.75
251.698	211.75
251.931	206.75
252.164	204.75
252.397	212.75
252.63	213.75
252.863	210.75
253.096	212.75
253.329	221.75
253.562	231.75
253.795	247.75
254.028	223.75
254.261	216.75
254.494	238.75
254.727	272.75
254.96	301.75
255.193	270.75
255.426	264.75
255.659	256.75
255.892	235.75
256.124	239.75
256.357	240.75
256.59	203.75
256.823	227.75
257.056	231.75
257.289	227.75
257.521	205.75
257.754	214.75
257.987	212.75
258.22	229.75
258.452	220.75
258.685	208.75
258.918	220.75
259.151	212.75
259.383	206.75
259.616	216.75
259.849	227.75
260.081	249.75
260.314	264.75
260.547	263.75
260.779	259.75
261.012	235.75
261.244	228.75
261.477	233.75
261.71	220.75
261.942	234.75
262.175	233.75
262.407	236.75
262.64	232.75
262.872	235.75
263.105	228.75
263.337	213.75
263.57	228.75
263.802	208.75
264.035	230.75
264.267	209.75
264.499	219.75
264.732	229.75
264.964	211.75
265.197	224.75
265.429	236.75
265.661	225.75
265.894	208.75
266.126	239.75
266.358	215.75
266.591	229.75
266.823	235.75
267.055	248.75
267.287	225.75
267.52	220.75
267.752	215.75
267.984	239.75
268.216	255.75
268.448	248.75
268.681	237.75
268.913	259.75
269.145	283.75
269.377	285.75
269.609	292.75
269.841	289.75
270.073	285.75
270.306	296.75
270.538	334.75
270.77	331.75
271.002	328.75
271.234	308.75
271.466	297.75
271.698	313.75
271.93	319.75
272.162	326.75
272.394	316.75
272.626	314.75
272.858	311.75
273.09	288.75
273.322	291.75
273.553	279.75
273.785	287.75
274.017	280.75
274.249	274.75
274.481	270.75
274.713	269.75
274.945	276.75
275.176	265.75
275.408	288.75
275.64	282.75
275.872	263.75
276.104	278.75
276.335	283.75
276.567	287.75
276.799	311.75
277.031	320.75
277.262	319.75
277.494	339.75
277.726	306.75
277.957	305.75
278.189	283.75
278.421	288.75
278.652	276.75
278.884	271.75
279.115	293.75
279.347	288.75
279.579	285.75
279.81	273.75
280.042	287.75
280.273	279.75
280.505	284.75
280.736	287.75
280.968	293.75
281.199	279.75
281.431	282.75
281.662	284.75
281.894	283.75
282.125	287.75
282.356	292.75
282.588	321.75
282.819	308.75
283.051	280.75
283.282	291.75
283.513	287.75
283.745	277.75
283.976	281.75
284.207	306.75
284.439	297.75
284.67	297.75
284.901	293.75
285.132	281.75
285.364	290.75
285.595	290.75
285.826	281.75
286.057	282.75
286.288	309.75
286.52	298.75
286.751	281.75
286.982	282.75
287.213	277.75
287.444	295.75
287.675	294.75
287.906	296.75
288.138	293.75
288.369	313.75
288.6	305.75
288.831	311.75
289.062	293.75
289.293	292.75
289.524	299.75
289.755	292.75
289.986	289.75
290.217	297.75
290.448	286.75
290.679	289.75
290.91	288.75
291.141	286.75
291.371	292.75
291.602	287.75
291.833	304.75
292.064	294.75
292.295	293.75
292.526	293.75
292.757	308.75
292.987	292.75
293.218	285.75
293.449	314.75
293.68	282.75
293.91	288.75
294.141	290.75
294.372	297.75
294.603	312.75
294.833	296.75
295.064	297.75
295.295	326.75
295.525	321.75
295.756	298.75
295.987	320.75
296.217	344.75
296.448	316.75
296.679	307.75
296.909	311.75
297.14	305.75
297.37	323.75
297.601	328.75
297.831	321.75
298.062	307.75
298.292	313.75
298.523	315.75
298.753	325.75
298.984	307.75
299.214	327.75
299.445	300.75
299.675	307.75
299.905	321.75
300.136	315.75
300.366	318.75
300.597	325.75
300.827	301.75
301.057	333.75
301.288	344.75
301.518	317.75
301.748	349.75
301.979	330.75
302.209	340.75
302.439	345.75
302.669	350.75
302.9	341.75
303.13	337.75
303.36	338.75
303.59	337.75
303.82	341.75
304.051	352.75
304.281	325.75
304.511	328.75
304.741	332.75
304.971	324.75
305.201	354.75
305.431	355.75
305.661	338.75
305.891	332.75
306.121	331.75
306.352	339.75
306.582	337.75
306.812	320.75
307.042	357.75
307.272	342.75
307.502	357.75
307.731	356.75
307.961	345.75
308.191	346.75
308.421	350.75
308.651	340.75
308.881	362.75
309.111	357.75
309.341	350.75
309.571	346.75
309.8	342.75
310.03	347.75
310.26	376.75
310.49	381.75
310.72	367.75
310.949	389.75
311.179	399.75
311.409	389.75
311.639	374.75
311.868	387.75
312.098	388.75
312.328	393.75
312.557	408.75
312.787	403.75
313.017	384.75
313.246	391.75
313.476	383.75
313.706	393.75
313.935	388.75
314.165	402.75
314.394	413.75
314.624	412.75
314.853	404.75
315.083	398.75
315.312	371.75
315.542	384.75
315.771	381.75
316.001	386.75
316.23	374.75
316.46	385.75
316.689	366.75
316.919	399.75
317.148	395.75
317.377	387.75
317.607	396.75
317.836	373.75
318.065	391.75
318.295	385.75
318.524	387.75
318.753	376.75
318.983	385.75
319.212	363.75
319.441	387.75
319.67	384.75
319.9	410.75
320.129	386.75
320.358	387.75
320.587	401.75
320.816	415.75
321.046	408.75
321.275	441.75
321.504	397.75
321.733	392.75
321.962	422.75
322.191	411.75
322.42	433.75
322.649	441.75
322.878	478.75
323.108	457.75
323.337	475.75
323.566	508.75
323.795	511.75
324.024	582.75
324.253	710.75
324.482	975.75
324.71	1494.75
324.939	2002.75
325.168	1695.75
325.397	909.75
325.626	618.75
325.855	552.75
326.084	519.75
326.313	513.75
326.542	497.75
326.77	541.75
326.999	647.75
327.228	885.75
327.457	1293.75
327.686	1480.75
327.914	983.75
328.143	680.75
328.372	567.75
328.6	555.75
328.829	565.75
329.058	593.75
329.287	568.75
329.515	517.75
329.744	496.75
329.972	515.75
330.201	521.75
330.43	558.75
330.658	572.75
330.887	565.75
331.115	564.75
331.344	519.75
331.572	491.75
331.801	481.75
332.03	486.75
332.258	445.75
332.486	433.75
332.715	442.75
332.943	450.75
333.172	473.75
333.4	446.75
333.629	464.75
333.857	465.75
334.085	477.75
334.314	486.75
334.542	518.75
334.771	528.75
334.999	474.75
335.227	463.75
335.455	449.75
335.684	458.75
335.912	455.75
336.14	425.75
336.369	467.75
336.597	444.75
336.825	449.75
337.053	432.75
337.281	435.75
337.51	431.75
337.738	453.75
337.966	430.75
338.194	431.75
338.422	442.75
338.65	443.75
338.878	425.75
339.106	411.75
339.334	411.75
339.562	423.75
339.79	421.75
340.018	443.75
340.246	455.75
340.474	431.75
340.702	425.75
340.93	424.75
341.158	408.75
341.386	410.75
341.614	430.75
341.842	420.75
342.07	441.75
342.298	414.75
342.526	422.75
342.754	416.75
342.981	409.75
343.209	404.75
343.437	416.75
343.665	387.75
343.893	407.75
344.12	431.75
344.348	418.75
344.576	423.75
344.804	412.75
345.031	422.75
345.259	434.75
345.487	424.75
345.714	406.75
345.942	411.75
346.17	425.75
346.397	402.75
346.625	410.75
346.853	409.75
347.08	413.75
347.308	429.75
347.535	433.75
347.763	419.75
347.99	411.75
348.218	397.75
348.445	395.75
348.673	403.75
348.9	405.75
349.128	400.75
349.355	385.75
349.583	397.75
349.81	388.75
350.037	373.75
350.265	393.75
350.492	405.75
350.72	363.75
350.947	383.75
351.174	414.75
351.402	410.75
351.629	392.75
351.856	395.75
352.083	434.75
352.311	405.75
352.538	415.75
352.765	383.75
352.992	400.75
353.22	388.75
353.447	396.75
353.674	396.75
353.901	388.75
354.128	374.75
354.355	388.75
354.583	374.75
354.81	364.75
355.037	377.75
355.264	373.75
355.491	378.75
355.718	361.75
355.945	378.75
356.172	371.75
356.399	381.75
356.626	358.75
356.853	358.75
357.08	364.75
357.307	368.75
357.534	375.75
357.761	381.75
357.988	371.75
358.215	355.75
358.441	379.75
358.668	363.75
358.895	377.75
359.122	382.75
359.349	376.75
359.576	391.75
359.802	407.75
360.029	420.75
360.256	452.75
360.483	428.75
360.709	382.75
360.936	398.75
361.163	394.75
361.39	391.75
361.616	396.75
361.843	414.75
362.07	404.75
362.296	402.75
362.523	399.75
362.749	391.75
362.976	380.75
363.203	389.75
363.429	372.75
363.656	390.75
363.882	377.75
364.109	374.75
364.335	356.75
364.562	359.75
364.788	389.75
365.015	364.75
365.241	364.75
365.468	385.75
365.694	366.75
365.92	376.75
366.147	376.75
366.373	381.75
366.599	359.75
366.826	371.75
367.052	357.75
367.278	360.75
367.505	355.75
367.731	362.75
367.957	350.75
368.184	369.75
368.41	376.75
368.636	385.75
368.862	391.75
369.089	379.75
369.315	364.75
369.541	351.75
369.767	378.75
369.993	371.75
370.219	355.75
370.445	365.75
370.672	369.75
370.898	376.75
371.124	381.75
371.35	373.75
371.576	358.75
371.802	373.75
372.028	362.75
372.254	360.75
372.48	348.75
372.706	364.75
372.932	367.75
373.158	361.75
373.384	366.75
373.61	366.75
373.835	373.75
374.061	358.75
374.287	358.75
374.513	363.75
374.739	375.75
374.965	375.75
375.191	372.75
375.416	379.75
375.642	367.75
375.868	361.75
376.094	345.75
376.319	350.75
376.545	351.75
376.771	345.75
376.997	348.75
377.222	346.75
377.448	345.75
377.674	358.75
377.899	339.75
378.125	345.75
378.35	343.75
378.576	360.75
378.802	334.75
379.027	363.75
379.253	359.75
379.478	368.75
379.704	360.75
379.929	354.75
380.155	354.75
380.38	367.75
380.606	369.75
380.831	348.75
381.057	369.75
381.282	347.75
381.507	359.75
381.733	369.75
381.958	357.75
382.184	362.75
382.409	360.75
382.634	366.75
382.86	357.75
383.085	363.75
383.31	341.75
383.535	375.75
383.761	352.75
383.986	375.75
384.211	381.75
384.436	348.75
384.662	367.75
384.887	383.75
385.112	377.75
385.337	361.75
385.562	360.75
385.787	372.75
386.013	387.75
386.238	358.75
386.463	373.75
386.688	384.75
386.913	379.75
387.138	379.75
387.363	372.75
387.588	382.75
387.813	366.75
388.038	360.75
388.263	377.75
388.488	379.75
388.713	395.75
388.938	388.75
389.163	385.75
389.387	394.75
389.612	375.75
389.837	378.75
390.062	364.75
390.287	364.75
390.512	375.75
390.736	389.75
390.961	388.75
391.186	368.75
391.411	371.75
391.636	383.75
391.86	377.75
392.085	371.75
392.31	379.75
392.534	393.75
392.759	385.75
392.984	384.75
393.208	376.75
393.433	382.75
393.658	357.75
393.882	379.75
394.107	357.75
394.331	365.75
394.556	363.75
394.78	375.75
395.005	363.75
395.229	375.75
395.454	381.75
395.678	393.75
395.903	382.75
396.127	437.75
396.352	406.75
396.576	389.75
396.801	382.75
397.025	388.75
397.249	376.75
397.474	390.75
397.698	385.75
397.922	393.75
398.147	413.75
398.371	421.75
398.595	414.75
398.82	402.75
399.044	439.75
399.268	417.75
399.492	443.75
399.717	473.75
399.941	491.75
400.165	503.75
400.389	506.75
400.613	465.75
400.837	429.75
401.062	425.75
401.286	430.75
401.51	421.75
401.734	393.75
401.958	414.75
402.182	407.75
402.406	406.75
402.63	443.75
402.854	416.75
403.078	430.75
403.302	423.75
403.526	424.75
403.75	415.75
403.974	423.75
404.198	440.75
404.422	444.75
404.645	453.75
404.869	449.75
405.093	443.75
405.317	492.75
405.541	519.75
405.765	465.75
405.988	446.75
406.212	468.75
406.436	465.75
406.66	469.75
406.883	467.75
407.107	483.75
407.331	526.75
407.555	550.75
407.778	554.75
408.002	495.75
408.226	475.75
408.449	472.75
408.673	492.75
408.896	499.75
409.12	505.75
409.344	483.75
409.567	467.75
409.791	445.75
410.014	438.75
410.238	423.75
410.461	441.75
410.685	430.75
410.908	428.75
411.132	462.75
411.355	463.75
411.578	487.75
411.802	453.75
412.025	435.75
412.249	435.75
412.472	446.75
412.695	450.75
412.919	466.75
413.142	438.75
413.365	429.75
413.589	425.75
413.812	414.75
414.035	421.75
414.258	382.75
414.482	406.75
414.705	407.75
414.928	399.75
415.151	410.75
415.374	396.75
415.597	383.75
415.821	391.75
416.044	405.75
416.267	389.75
416.49	402.75
416.713	408.75
416.936	405.75
417.159	417.75
417.382	403.75
417.605	423.75
417.828	410.75
418.051	417.75
418.274	430.75
418.497	391.75
418.72	416.75
418.943	415.75
419.166	411.75
419.389	419.75
419.611	429.75
419.834	416.75
420.057	443.75
420.28	423.75
420.503	405.75
420.726	423.75
420.948	424.75
421.171	469.75
421.394	476.75
421.617	431.75
421.839	450.75
422.062	432.75
422.285	431.75
422.507	458.75
422.73	557.75
422.953	529.75
423.175	465.75
423.398	438.75
423.621	436.75
423.843	454.75
424.066	443.75
424.288	441.75
424.511	471.75
424.733	506.75
424.956	571.75
425.178	565.75
425.401	554.75
425.623	568.75
425.846	474.75
426.068	467.75
426.291	436.75
426.513	440.75
426.735	463.75
426.958	504.75
427.18	589.75
427.402	655.75
427.625	725.75
427.847	620.75
428.069	544.75
428.292	484.75
428.514	447.75
428.736	444.75
428.958	431.75
429.181	411.75
429.403	416.75
429.625	419.75
429.847	447.75
430.069	478.75
430.292	490.75
430.514	418.75
430.736	420.75
430.958	429.75
431.18	393.75
431.402	401.75
431.624	387.75
431.846	391.75
432.068	393.75
432.29	398.75
432.512	379.75
432.734	389.75
432.956	400.75
433.178	389.75
433.4	404.75
433.622	408.75
433.844	415.75
434.066	388.75
434.287	395.75
434.509	389.75
434.731	403.75
434.953	412.75
435.175	421.75
435.397	442.75
435.618	454.75
435.84	491.75
436.062	598.75
436.284	597.75
436.505	483.75
436.727	457.75
436.949	439.75
437.17	412.75
437.392	431.75
437.614	425.75
437.835	456.75
438.057	526.75
438.278	604.75
438.5	624.75
438.721	665.75
438.943	637.75
439.165	528.75
439.386	465.75
439.608	460.75
439.829	452.75
440.05	460.75
440.272	522.75
440.493	512.75
440.715	447.75
440.936	418.75
441.158	417.75
441.379	424.75
441.6	428.75
441.822	457.75
442.043	489.75
442.264	552.75
442.486	567.75
442.707	491.75
442.928	448.75
443.149	464.75
443.371	485.75
443.592	512.75
443.813	600.75
444.034	626.75
444.255	530.75
444.476	468.75
444.698	459.75
444.919	464.75
445.14	554.75
445.361	507.75
445.582	487.75
445.803	532.75
446.024	639.75
446.245	631.75
446.466	600.75
446.687	529.75
446.908	464.75
447.129	444.75
447.35	431.75
447.571	447.75
447.792	397.75
448.013	413.75
448.234	442.75
448.455	475.75
448.675	571.75
448.896	639.75
449.117	580.75
449.338	565.75
449.559	625.75
449.779	699.75
450	550.75
450.221	471.75
450.442	438.75
450.662	402.75
450.883	421.75
451.104	407.75
451.324	419.75
451.545	395.75
451.766	366.75
451.986	396.75
452.207	361.75
452.428	352.75
452.648	387.75
452.869	377.75
453.089	396.75
453.31	388.75
453.53	393.75
453.751	358.75
453.971	373.75
454.192	379.75
454.412	376.75
454.633	379.75
454.853	381.75
455.073	381.75
455.294	410.75
455.514	438.75
455.734	422.75
455.955	371.75
456.175	359.75
456.395	341.75
456.616	348.75
456.836	350.75
457.056	336.75
457.276	351.75
457.497	346.75
457.717	341.75
457.937	349.75
458.157	349.75
458.377	379.75
458.598	413.75
458.818	425.75
459.038	481.75
459.258	476.75
459.478	410.75
459.698	401.75
459.918	390.75
460.138	382.75
460.358	376.75
460.578	356.75
460.798	356.75
461.018	403.75
461.238	387.75
461.458	382.75
461.678	365.75
461.898	389.75
462.118	395.75
462.338	377.75
462.558	391.75
462.777	404.75
462.997	396.75
463.217	402.75
463.437	405.75
463.657	433.75
463.876	408.75
464.096	392.75
464.316	424.75
464.536	399.75
464.755	428.75
464.975	419.75
465.195	425.75
465.414	494.75
465.634	440.75
465.854	417.75
466.073	403.75
466.293	377.75
466.512	363.75
466.732	375.75
466.951	379.75
467.171	385.75
467.391	385.75
467.61	379.75
467.829	385.75
468.049	392.75
468.268	377.75
468.488	348.75
468.707	383.75
468.927	379.75
469.146	348.75
469.365	364.75
469.585	369.75
469.804	353.75
470.023	383.75
470.243	383.75
470.462	398.75
470.681	390.75
470.901	404.75
471.12	395.75
471.339	394.75
471.558	388.75
471.777	392.75
471.997	388.75
472.216	380.75
472.435	413.75
472.654	389.75
472.873	370.75
473.092	374.75
473.311	381.75
473.53	397.75
473.749	399.75
473.968	436.75
474.187	526.75
474.406	521.75
474.625	441.75
474.844	382.75
475.063	384.75
475.282	399.75
475.501	407.75
475.72	401.75
475.939	389.75
476.158	389.75
476.377	400.75
476.596	399.75
476.814	397.75
477.033	421.75
477.252	404.75
477.471	380.75
477.69	397.75
477.908	401.75
478.127	428.75
478.346	415.75
478.564	419.75
478.783	404.75
479.002	415.75
479.22	427.75
479.439	437.75
479.658	446.75
479.876	448.75
480.095	473.75
480.313	483.75
480.532	471.75
480.751	480.75
480.969	462.75
481.188	502.75
481.406	522.75
481.624	477.75
481.843	461.75
482.061	449.75
482.28	439.75
482.498	443.75
482.717	442.75
482.935	433.75
483.153	438.75
483.372	427.75
483.59	441.75
483.808	442.75
484.027	431.75
484.245	414.75
484.463	442.75
484.681	456.75
484.9	443.75
485.118	482.75
485.336	473.75
485.554	452.75
485.772	463.75
485.99	456.75
486.209	459.75
486.427	441.75
486.645	481.75
486.863	459.75
487.081	455.75
487.299	455.75
487.517	476.75
487.735	483.75
487.953	456.75
488.171	520.75
488.389	470.75
488.607	485.75
488.825	472.75
489.043	471.75
489.261	477.75
489.479	459.75
489.696	471.75
489.914	492.75
490.132	488.75
490.35	500.75
490.568	486.75
490.786	500.75
491.003	523.75
491.221	533.75
491.439	537.75
491.657	536.75
491.874	549.75
492.092	559.75
492.31	567.75
492.527	549.75
492.745	553.75
492.963	553.75
493.18	556.75
493.398	552.75
493.615	568.75
493.833	545.75
494.05	577.75
494.268	549.75
494.485	560.75
494.703	545.75
494.92	569.75
495.138	558.75
495.355	571.75
495.573	604.75
495.79	561.75
496.008	592.75
496.225	565.75
496.442	556.75
496.66	575.75
496.877	549.75
497.094	564.75
497.312	582.75
497.529	595.75
497.746	561.75
497.963	588.75
498.181	599.75
498.398	619.75
498.615	617.75
498.832	618.75
499.049	607.75
499.267	645.75
499.484	655.75
499.701	673.75
499.918	693.75
500.135	704.75
500.352	748.75
500.569	744.75
500.786	733.75
501.003	735.75
501.22	742.75
501.437	699.75
501.654	695.75
501.871	697.75
502.088	654.75
