Data from 1971.PennyLincolnUp.Lamp.En5.5.200Scan.071719.P1.Scan 2. Changed Angle._HRD10591_15-22-58-842.txt Node
Date: Thu Jul 18 15:22:58 EDT 2019
User: cochatt
Spectrometer: HR+D1059
Trigger mode: 1
Integration Time (sec): 1.000000E-1
Scans to average: 1
Electric dark correction enabled: true
Nonlinearity correction enabled: false
Boxcar width: 0
XAxis mode: Wavelengths
Number of Pixels in Spectrum: 2048
>>>>>Begin Spectral Data<<<<<
223.165	-10.5
223.4	-10.5
223.635	-10.5
223.869	-19.5
224.104	-12.5
224.338	-7.5
224.573	-13.5
224.808	-13.5
225.042	-5.5
225.277	-5.5
225.511	-9.5
225.746	-4.5
225.98	6.5
226.215	1.5
226.449	11.5
226.683	24.5
226.918	26.5
227.152	31.5
227.387	37.5
227.621	40.5
227.856	48.5
228.09	50.5
228.324	42.5
228.559	61.5
228.793	77.5
229.027	89.5
229.262	126.5
229.496	124.5
229.73	128.5
229.964	160.5
230.199	144.5
230.433	110.5
230.667	120.5
230.901	134.5
231.136	107.5
231.37	116.5
231.604	126.5
231.838	112.5
232.072	123.5
232.306	108.5
232.541	113.5
232.775	118.5
233.009	123.5
233.243	128.5
233.477	117.5
233.711	123.5
233.945	114.5
234.179	123.5
234.413	122.5
234.647	118.5
234.881	117.5
235.115	114.5
235.349	111.5
235.583	121.5
235.817	125.5
236.051	129.5
236.285	116.5
236.519	129.5
236.753	137.5
236.987	162.5
237.221	192.5
237.455	238.5
237.689	195.5
237.922	144.5
238.156	150.5
238.39	136.5
238.624	131.5
238.858	125.5
239.091	121.5
239.325	129.5
239.559	126.5
239.793	127.5
240.027	148.5
240.26	154.5
240.494	161.5
240.728	153.5
240.961	161.5
241.195	149.5
241.429	149.5
241.662	137.5
241.896	136.5
242.13	134.5
242.363	141.5
242.597	128.5
242.83	135.5
243.064	138.5
243.298	147.5
243.531	130.5
243.765	128.5
243.998	136.5
244.232	148.5
244.465	144.5
244.699	134.5
244.932	146.5
245.166	139.5
245.399	135.5
245.633	149.5
245.866	167.5
246.099	150.5
246.333	133.5
246.566	155.5
246.8	158.5
247.033	143.5
247.266	159.5
247.5	152.5
247.733	182.5
247.966	177.5
248.2	160.5
248.433	166.5
248.666	174.5
248.899	184.5
249.133	181.5
249.366	195.5
249.599	180.5
249.832	190.5
250.066	182.5
250.299	194.5
250.532	210.5
250.765	188.5
250.998	220.5
251.231	238.5
251.465	230.5
251.698	223.5
251.931	209.5
252.164	229.5
252.397	204.5
252.63	202.5
252.863	196.5
253.096	218.5
253.329	226.5
253.562	219.5
253.795	224.5
254.028	235.5
254.261	216.5
254.494	240.5
254.727	272.5
254.96	288.5
255.193	274.5
255.426	258.5
255.659	242.5
255.892	233.5
256.124	248.5
256.357	215.5
256.59	220.5
256.823	235.5
257.056	224.5
257.289	209.5
257.521	212.5
257.754	196.5
257.987	193.5
258.22	221.5
258.452	193.5
258.685	206.5
258.918	212.5
259.151	221.5
259.383	225.5
259.616	225.5
259.849	223.5
260.081	239.5
260.314	239.5
260.547	259.5
260.779	237.5
261.012	238.5
261.244	227.5
261.477	222.5
261.71	210.5
261.942	229.5
262.175	230.5
262.407	223.5
262.64	211.5
262.872	192.5
263.105	196.5
263.337	193.5
263.57	194.5
263.802	206.5
264.035	216.5
264.267	209.5
264.499	203.5
264.732	197.5
264.964	206.5
265.197	198.5
265.429	221.5
265.661	204.5
265.894	192.5
266.126	196.5
266.358	208.5
266.591	202.5
266.823	200.5
267.055	224.5
267.287	224.5
267.52	217.5
267.752	220.5
267.984	202.5
268.216	207.5
268.448	232.5
268.681	229.5
268.913	250.5
269.145	245.5
269.377	249.5
269.609	248.5
269.841	258.5
270.073	260.5
270.306	285.5
270.538	304.5
270.77	305.5
271.002	290.5
271.234	276.5
271.466	274.5
271.698	314.5
271.93	293.5
272.162	310.5
272.394	329.5
272.626	290.5
272.858	282.5
273.09	283.5
273.322	273.5
273.553	249.5
273.785	256.5
274.017	225.5
274.249	251.5
274.481	236.5
274.713	236.5
274.945	241.5
275.176	246.5
275.408	242.5
275.64	241.5
275.872	235.5
276.104	249.5
276.335	268.5
276.567	263.5
276.799	281.5
277.031	268.5
277.262	310.5
277.494	318.5
277.726	302.5
277.957	261.5
278.189	269.5
278.421	263.5
278.652	268.5
278.884	261.5
279.115	279.5
279.347	243.5
279.579	256.5
279.81	251.5
280.042	238.5
280.273	248.5
280.505	247.5
280.736	241.5
280.968	241.5
281.199	228.5
281.431	225.5
281.662	253.5
281.894	227.5
282.125	240.5
282.356	254.5
282.588	273.5
282.819	272.5
283.051	264.5
283.282	228.5
283.513	260.5
283.745	246.5
283.976	237.5
284.207	249.5
284.439	248.5
284.67	260.5
284.901	245.5
285.132	249.5
285.364	246.5
285.595	252.5
285.826	244.5
286.057	267.5
286.288	261.5
286.52	267.5
286.751	258.5
286.982	252.5
287.213	242.5
287.444	264.5
287.675	252.5
287.906	274.5
288.138	284.5
288.369	272.5
288.6	273.5
288.831	264.5
289.062	279.5
289.293	278.5
289.524	256.5
289.755	264.5
289.986	254.5
290.217	266.5
290.448	265.5
290.679	266.5
290.91	263.5
291.141	254.5
291.371	265.5
291.602	252.5
291.833	244.5
292.064	244.5
292.295	255.5
292.526	251.5
292.757	268.5
292.987	272.5
293.218	271.5
293.449	262.5
293.68	260.5
293.91	273.5
294.141	268.5
294.372	237.5
294.603	277.5
294.833	266.5
295.064	256.5
295.295	256.5
295.525	267.5
295.756	266.5
295.987	273.5
296.217	312.5
296.448	297.5
296.679	279.5
296.909	264.5
297.14	273.5
297.37	274.5
297.601	274.5
297.831	267.5
298.062	259.5
298.292	280.5
298.523	270.5
298.753	274.5
298.984	255.5
299.214	279.5
299.445	270.5
299.675	259.5
299.905	272.5
300.136	274.5
300.366	293.5
300.597	280.5
300.827	269.5
301.057	279.5
301.288	292.5
301.518	312.5
301.748	292.5
301.979	295.5
302.209	296.5
302.439	309.5
302.669	288.5
302.9	302.5
303.13	294.5
303.36	302.5
303.59	304.5
303.82	289.5
304.051	293.5
304.281	288.5
304.511	298.5
304.741	288.5
304.971	292.5
305.201	279.5
305.431	290.5
305.661	301.5
305.891	301.5
306.121	270.5
306.352	303.5
306.582	304.5
306.812	274.5
307.042	293.5
307.272	288.5
307.502	282.5
307.731	277.5
307.961	300.5
308.191	292.5
308.421	295.5
308.651	311.5
308.881	317.5
309.111	301.5
309.341	321.5
309.571	329.5
309.8	344.5
310.03	345.5
310.26	358.5
310.49	351.5
310.72	335.5
310.949	356.5
311.179	376.5
311.409	358.5
311.639	335.5
311.868	337.5
312.098	358.5
312.328	351.5
312.557	384.5
312.787	375.5
313.017	386.5
313.246	380.5
313.476	351.5
313.706	328.5
313.935	355.5
314.165	361.5
314.394	366.5
314.624	372.5
314.853	347.5
315.083	339.5
315.312	351.5
315.542	334.5
315.771	337.5
316.001	342.5
316.23	337.5
316.46	335.5
316.689	343.5
316.919	365.5
317.148	372.5
317.377	356.5
317.607	357.5
317.836	362.5
318.065	343.5
318.295	339.5
318.524	353.5
318.753	341.5
318.983	348.5
319.212	340.5
319.441	365.5
319.67	375.5
319.9	368.5
320.129	364.5
320.358	349.5
320.587	360.5
320.816	350.5
321.046	379.5
321.275	379.5
321.504	364.5
321.733	370.5
321.962	370.5
322.191	396.5
322.42	400.5
322.649	397.5
322.878	432.5
323.108	424.5
323.337	444.5
323.566	473.5
323.795	511.5
324.024	558.5
324.253	714.5
324.482	1006.5
324.71	1542.5
324.939	2244.5
325.168	1910.5
325.397	1006.5
325.626	651.5
325.855	556.5
326.084	502.5
326.313	487.5
326.542	484.5
326.77	524.5
326.999	644.5
327.228	882.5
327.457	1376.5
327.686	1653.5
327.914	1116.5
328.143	737.5
328.372	642.5
328.6	591.5
328.829	578.5
329.058	561.5
329.287	587.5
329.515	540.5
329.744	492.5
329.972	502.5
330.201	518.5
330.43	567.5
330.658	575.5
330.887	603.5
331.115	600.5
331.344	490.5
331.572	480.5
331.801	468.5
332.03	467.5
332.258	414.5
332.486	426.5
332.715	402.5
332.943	417.5
333.172	400.5
333.4	436.5
333.629	430.5
333.857	427.5
334.085	441.5
334.314	463.5
334.542	492.5
334.771	497.5
334.999	444.5
335.227	445.5
335.455	422.5
335.684	408.5
335.912	404.5
336.14	410.5
336.369	401.5
336.597	414.5
336.825	438.5
337.053	421.5
337.281	409.5
337.51	396.5
337.738	418.5
337.966	401.5
338.194	425.5
338.422	405.5
338.65	411.5
338.878	406.5
339.106	397.5
339.334	394.5
339.562	392.5
339.79	397.5
340.018	387.5
340.246	397.5
340.474	412.5
340.702	412.5
340.93	398.5
341.158	397.5
341.386	403.5
341.614	410.5
341.842	398.5
342.07	393.5
342.298	406.5
342.526	386.5
342.754	383.5
342.981	390.5
343.209	369.5
343.437	374.5
343.665	382.5
343.893	378.5
344.12	393.5
344.348	396.5
344.576	396.5
344.804	397.5
345.031	430.5
345.259	430.5
345.487	412.5
345.714	419.5
345.942	409.5
346.17	405.5
346.397	403.5
346.625	378.5
346.853	397.5
347.08	394.5
347.308	401.5
347.535	413.5
347.763	394.5
347.99	388.5
348.218	386.5
348.445	418.5
348.673	413.5
348.9	383.5
349.128	386.5
349.355	389.5
349.583	401.5
349.81	385.5
350.037	384.5
350.265	395.5
350.492	398.5
350.72	388.5
350.947	396.5
351.174	380.5
351.402	414.5
351.629	388.5
351.856	421.5
352.083	424.5
352.311	412.5
352.538	421.5
352.765	436.5
352.992	425.5
353.22	403.5
353.447	386.5
353.674	395.5
353.901	398.5
354.128	365.5
354.355	378.5
354.583	384.5
354.81	385.5
355.037	380.5
355.264	376.5
355.491	371.5
355.718	356.5
355.945	365.5
356.172	366.5
356.399	370.5
356.626	379.5
356.853	374.5
357.08	380.5
357.307	366.5
357.534	359.5
357.761	356.5
357.988	362.5
358.215	358.5
358.441	370.5
358.668	354.5
358.895	389.5
359.122	378.5
359.349	403.5
359.576	402.5
359.802	427.5
360.029	456.5
360.256	456.5
360.483	465.5
360.709	408.5
360.936	406.5
361.163	394.5
361.39	410.5
361.616	425.5
361.843	410.5
362.07	395.5
362.296	390.5
362.523	404.5
362.749	393.5
362.976	392.5
363.203	406.5
363.429	384.5
363.656	389.5
363.882	380.5
364.109	380.5
364.335	368.5
364.562	384.5
364.788	392.5
365.015	396.5
365.241	368.5
365.468	400.5
365.694	418.5
365.92	385.5
366.147	374.5
366.373	380.5
366.599	390.5
366.826	387.5
367.052	391.5
367.278	380.5
367.505	386.5
367.731	408.5
367.957	380.5
368.184	390.5
368.41	402.5
368.636	387.5
368.862	398.5
369.089	405.5
369.315	401.5
369.541	362.5
369.767	395.5
369.993	395.5
370.219	379.5
370.445	377.5
370.672	377.5
370.898	386.5
371.124	378.5
371.35	386.5
371.576	368.5
371.802	380.5
372.028	382.5
372.254	381.5
372.48	389.5
372.706	383.5
372.932	400.5
373.158	375.5
373.384	372.5
373.61	398.5
373.835	379.5
374.061	360.5
374.287	390.5
374.513	390.5
374.739	357.5
374.965	392.5
375.191	380.5
375.416	392.5
375.642	384.5
375.868	385.5
376.094	399.5
376.319	399.5
376.545	394.5
376.771	396.5
376.997	390.5
377.222	385.5
377.448	378.5
377.674	395.5
377.899	385.5
378.125	374.5
378.35	392.5
378.576	388.5
378.802	388.5
379.027	354.5
379.253	388.5
379.478	380.5
379.704	373.5
379.929	370.5
380.155	386.5
380.38	383.5
380.606	390.5
380.831	388.5
381.057	409.5
381.282	386.5
381.507	388.5
381.733	390.5
381.958	399.5
382.184	380.5
382.409	398.5
382.634	406.5
382.86	395.5
383.085	387.5
383.31	385.5
383.535	372.5
383.761	381.5
383.986	412.5
384.211	394.5
384.436	403.5
384.662	389.5
384.887	405.5
385.112	414.5
385.337	406.5
385.562	421.5
385.787	416.5
386.013	417.5
386.238	426.5
386.463	413.5
386.688	416.5
386.913	405.5
387.138	392.5
387.363	410.5
387.588	397.5
387.813	418.5
388.038	409.5
388.263	406.5
388.488	425.5
388.713	418.5
388.938	415.5
389.163	407.5
389.387	420.5
389.612	420.5
389.837	436.5
390.062	409.5
390.287	409.5
390.512	411.5
390.736	411.5
390.961	409.5
391.186	410.5
391.411	414.5
391.636	441.5
391.86	424.5
392.085	433.5
392.31	423.5
392.534	429.5
392.759	434.5
392.984	433.5
393.208	414.5
393.433	442.5
393.658	458.5
393.882	429.5
394.107	422.5
394.331	408.5
394.556	414.5
394.78	429.5
395.005	415.5
395.229	419.5
395.454	434.5
395.678	438.5
395.903	441.5
396.127	462.5
396.352	470.5
396.576	431.5
396.801	452.5
397.025	444.5
397.249	460.5
397.474	439.5
397.698	468.5
397.922	455.5
398.147	447.5
398.371	467.5
398.595	464.5
398.82	465.5
399.044	454.5
399.268	479.5
399.492	513.5
399.717	521.5
399.941	560.5
400.165	583.5
400.389	582.5
400.613	531.5
400.837	500.5
401.062	519.5
401.286	482.5
401.51	469.5
401.734	473.5
401.958	478.5
402.182	472.5
402.406	489.5
402.63	501.5
402.854	484.5
403.078	489.5
403.302	485.5
403.526	503.5
403.75	514.5
403.974	479.5
404.198	454.5
404.422	489.5
404.645	503.5
404.869	510.5
405.093	550.5
405.317	577.5
405.541	621.5
405.765	571.5
405.988	566.5
406.212	553.5
406.436	585.5
406.66	587.5
406.883	553.5
407.107	573.5
407.331	616.5
407.555	679.5
407.778	648.5
408.002	606.5
408.226	546.5
408.449	540.5
408.673	558.5
408.896	565.5
409.12	630.5
409.344	602.5
409.567	530.5
409.791	514.5
410.014	508.5
410.238	514.5
410.461	514.5
410.685	506.5
410.908	541.5
411.132	564.5
411.355	601.5
411.578	574.5
411.802	538.5
412.025	500.5
412.249	501.5
412.472	525.5
412.695	553.5
412.919	590.5
413.142	519.5
413.365	496.5
413.589	492.5
413.812	444.5
414.035	486.5
414.258	455.5
414.482	464.5
414.705	477.5
414.928	477.5
415.151	457.5
415.374	474.5
415.597	453.5
415.821	469.5
416.044	472.5
416.267	484.5
416.49	467.5
416.713	496.5
416.936	475.5
417.159	476.5
417.382	487.5
417.605	486.5
417.828	489.5
418.051	527.5
418.274	490.5
418.497	469.5
418.72	489.5
418.943	477.5
419.166	511.5
419.389	526.5
419.611	503.5
419.834	500.5
420.057	520.5
420.28	509.5
420.503	512.5
420.726	522.5
420.948	518.5
421.171	576.5
421.394	592.5
421.617	531.5
421.839	512.5
422.062	512.5
422.285	520.5
422.507	586.5
422.73	658.5
422.953	636.5
423.175	568.5
423.398	524.5
423.621	544.5
423.843	559.5
424.066	561.5
424.288	552.5
424.511	583.5
424.733	632.5
424.956	708.5
425.178	676.5
425.401	667.5
425.623	706.5
425.846	609.5
426.068	593.5
426.291	578.5
426.513	571.5
426.735	578.5
426.958	606.5
427.18	672.5
427.402	827.5
427.625	910.5
427.847	799.5
428.069	690.5
428.292	624.5
428.514	592.5
428.736	581.5
428.958	545.5
429.181	496.5
429.403	536.5
429.625	543.5
429.847	573.5
430.069	668.5
430.292	624.5
430.514	555.5
430.736	516.5
430.958	518.5
431.18	495.5
431.402	531.5
431.624	480.5
431.846	494.5
432.068	488.5
432.29	479.5
432.512	484.5
432.734	488.5
432.956	488.5
433.178	523.5
433.4	529.5
433.622	508.5
433.844	489.5
434.066	484.5
434.287	474.5
434.509	478.5
434.731	498.5
434.953	519.5
435.175	516.5
435.397	562.5
435.618	573.5
435.84	611.5
436.062	717.5
436.284	774.5
436.505	646.5
436.727	603.5
436.949	568.5
437.17	536.5
437.392	525.5
437.614	548.5
437.835	576.5
438.057	687.5
438.278	776.5
438.5	794.5
438.721	842.5
438.943	796.5
439.165	648.5
439.386	593.5
439.608	617.5
439.829	592.5
440.05	612.5
440.272	642.5
440.493	624.5
440.715	576.5
440.936	555.5
441.158	540.5
441.379	541.5
441.6	549.5
441.822	571.5
442.043	599.5
442.264	696.5
442.486	736.5
442.707	615.5
442.928	587.5
443.149	619.5
443.371	643.5
443.592	662.5
443.813	746.5
444.034	780.5
444.255	661.5
444.476	596.5
444.698	574.5
444.919	546.5
445.14	678.5
445.361	634.5
445.582	623.5
445.803	652.5
446.024	769.5
446.245	801.5
446.466	733.5
446.687	631.5
446.908	602.5
447.129	542.5
447.35	542.5
447.571	534.5
447.792	530.5
448.013	528.5
448.234	552.5
448.455	620.5
448.675	717.5
448.896	817.5
449.117	715.5
449.338	666.5
449.559	768.5
449.779	865.5
450	693.5
450.221	593.5
450.442	555.5
450.662	515.5
450.883	530.5
451.104	548.5
451.324	516.5
451.545	523.5
451.766	500.5
451.986	470.5
452.207	466.5
452.428	483.5
452.648	476.5
452.869	488.5
453.089	480.5
453.31	488.5
453.53	492.5
453.751	470.5
453.971	479.5
454.192	491.5
454.412	481.5
454.633	463.5
454.853	483.5
455.073	454.5
455.294	491.5
455.514	561.5
455.734	561.5
455.955	498.5
456.175	464.5
456.395	461.5
456.616	441.5
456.836	440.5
457.056	455.5
457.276	443.5
457.497	440.5
457.717	442.5
457.937	440.5
458.157	450.5
458.377	436.5
458.598	482.5
458.818	573.5
459.038	654.5
459.258	657.5
459.478	568.5
459.698	501.5
459.918	503.5
460.138	487.5
460.358	500.5
460.578	474.5
460.798	472.5
461.018	475.5
461.238	492.5
461.458	473.5
461.678	480.5
461.898	487.5
462.118	477.5
462.338	493.5
462.558	504.5
462.777	510.5
462.997	494.5
463.217	526.5
463.437	515.5
463.657	520.5
463.876	505.5
464.096	488.5
464.316	518.5
464.536	531.5
464.755	530.5
464.975	509.5
465.195	585.5
465.414	666.5
465.634	595.5
465.854	546.5
466.073	493.5
466.293	503.5
466.512	490.5
466.732	478.5
466.951	485.5
467.171	455.5
467.391	477.5
467.61	488.5
467.829	516.5
468.049	507.5
468.268	487.5
468.488	492.5
468.707	469.5
468.927	464.5
469.146	464.5
469.365	480.5
469.585	463.5
469.804	476.5
470.023	504.5
470.243	505.5
470.462	502.5
470.681	545.5
470.901	510.5
471.12	493.5
471.339	506.5
471.558	482.5
471.777	486.5
471.997	488.5
472.216	470.5
472.435	503.5
472.654	522.5
472.873	480.5
473.092	501.5
473.311	491.5
473.53	512.5
473.749	513.5
473.968	548.5
474.187	638.5
474.406	687.5
474.625	566.5
474.844	526.5
475.063	490.5
475.282	509.5
475.501	492.5
475.72	524.5
475.939	498.5
476.158	520.5
476.377	522.5
476.596	524.5
476.814	515.5
477.033	530.5
477.252	513.5
477.471	514.5
477.69	521.5
477.908	546.5
478.127	545.5
478.346	551.5
478.564	553.5
478.783	574.5
479.002	548.5
479.22	562.5
479.439	573.5
479.658	566.5
479.876	584.5
480.095	577.5
480.313	612.5
480.532	622.5
480.751	598.5
480.969	595.5
481.188	657.5
481.406	702.5
481.624	637.5
481.843	606.5
482.061	594.5
482.28	589.5
482.498	571.5
482.717	574.5
482.935	597.5
483.153	588.5
483.372	599.5
483.59	582.5
483.808	596.5
484.027	570.5
484.245	564.5
484.463	598.5
484.681	604.5
484.9	612.5
485.118	584.5
485.336	584.5
485.554	597.5
485.772	607.5
485.99	583.5
486.209	620.5
486.427	619.5
486.645	632.5
486.863	644.5
487.081	641.5
487.299	640.5
487.517	633.5
487.735	632.5
487.953	623.5
488.171	652.5
488.389	624.5
488.607	631.5
488.825	658.5
489.043	629.5
489.261	645.5
489.479	643.5
489.696	645.5
489.914	674.5
490.132	654.5
490.35	668.5
490.568	668.5
490.786	697.5
491.003	704.5
491.221	710.5
491.439	718.5
491.657	730.5
491.874	770.5
492.092	750.5
492.31	741.5
492.527	743.5
492.745	744.5
492.963	762.5
493.18	760.5
493.398	752.5
493.615	769.5
493.833	791.5
494.05	765.5
494.268	767.5
494.485	767.5
494.703	765.5
494.92	742.5
495.138	744.5
495.355	775.5
495.573	764.5
495.79	764.5
496.008	748.5
496.225	756.5
496.442	753.5
496.66	760.5
496.877	745.5
497.094	764.5
497.312	778.5
497.529	772.5
497.746	780.5
497.963	812.5
498.181	793.5
498.398	830.5
498.615	822.5
498.832	820.5
499.049	842.5
499.267	853.5
499.484	855.5
499.701	884.5
499.918	908.5
500.135	916.5
500.352	941.5
500.569	957.5
500.786	952.5
501.003	933.5
501.22	948.5
501.437	900.5
501.654	916.5
501.871	919.5
502.088	918.5
502.305	869.5
502.522	849.5
502.739	856.5
502.956	798.5
503.172	779.5
503.389	775.5
503.606	801.5
503.823	802.5
504.04	797.5
504.256	799.5
504.473	747.5
504.69	742.5
504.907	734.5
505.123	751.5
505.34	741.5
505.557	728.5
505.773	744.5
505.99	738.5
506.207	725.5
506.423	745.5
506.64	736.5
506.856	717.5
507.073	735.5
507.289	711.5
507.506	702.5
507.722	737.5
507.939	737.5
508.155	714.5
508.372	729.5
508.588	712.5
508.805	716.5
509.021	706.5
509.238	718.5
509.454	723.5
509.67	702.5
509.887	700.5
510.103	693.5
510.319	710.5
510.536	841.5
510.752	1385.5
510.968	1142.5
511.184	734.5
511.401	695.5
511.617	682.5
511.833	673.5
512.049	673.5
512.265	664.5
512.481	657.5
512.698	685.5
512.914	676.5
513.13	658.5
513.346	669.5
513.562	668.5
513.778	689.5
513.994	703.5
514.21	698.5
514.426	760.5
514.642	798.5
514.858	802.5
515.074	837.5
515.29	1062.5
515.506	1558.5
515.721	1294.5
515.937	838.5
516.153	753.5
516.369	732.5
516.585	729.5
516.801	692.5
517.016	684.5
517.232	689.5
517.448	688.5
517.664	666.5
517.879	654.5
518.095	658.5
518.311	686.5
518.527	696.5
518.742	664.5
518.958	684.5
519.173	663.5
519.389	656.5
