Data from 1971.PennyLincolnUp.Lamp.En5.5.200Scan.071719.P1._HRD10591_15-17-56-842.txt Node
Date: Thu Jul 18 15:17:56 EDT 2019
User: cochatt
Spectrometer: HR+D1059
Trigger mode: 1
Integration Time (sec): 1.000000E-1
Scans to average: 1
Electric dark correction enabled: true
Nonlinearity correction enabled: false
Boxcar width: 0
XAxis mode: Wavelengths
Number of Pixels in Spectrum: 2048
>>>>>Begin Spectral Data<<<<<
223.165	-22.44
223.4	-22.44
223.635	-22.44
223.869	-16.44
224.104	-15.44
224.338	-15.44
224.573	-3.44
224.808	-22.44
225.042	-9.44
225.277	-7.44
225.511	-7.44
225.746	9.56
225.98	0.56
226.215	11.56
226.449	8.56
226.683	24.56
226.918	25.56
227.152	39.56
227.387	31.56
227.621	21.56
227.856	19.56
228.09	29.56
228.324	38.56
228.559	39.56
228.793	53.56
229.027	91.56
229.262	97.56
229.496	97.56
229.73	92.56
229.964	121.56
230.199	117.56
230.433	104.56
230.667	96.56
230.901	99.56
231.136	91.56
231.37	77.56
231.604	98.56
231.838	101.56
232.072	87.56
232.306	112.56
232.541	115.56
232.775	108.56
233.009	115.56
233.243	92.56
233.477	95.56
233.711	95.56
233.945	97.56
234.179	103.56
234.413	101.56
234.647	121.56
234.881	96.56
235.115	112.56
235.349	97.56
235.583	105.56
235.817	103.56
236.051	102.56
236.285	120.56
236.519	111.56
236.753	113.56
236.987	118.56
237.221	150.56
237.455	153.56
237.689	141.56
237.922	126.56
238.156	123.56
238.39	112.56
238.624	121.56
238.858	112.56
239.091	116.56
239.325	105.56
239.559	113.56
239.793	120.56
240.027	113.56
240.26	123.56
240.494	124.56
240.728	129.56
240.961	133.56
241.195	115.56
241.429	117.56
241.662	122.56
241.896	125.56
242.13	126.56
242.363	127.56
242.597	131.56
242.83	117.56
243.064	135.56
243.298	134.56
243.531	124.56
243.765	132.56
243.998	124.56
244.232	127.56
244.465	129.56
244.699	129.56
244.932	132.56
245.166	133.56
245.399	135.56
245.633	135.56
245.866	128.56
246.099	120.56
246.333	131.56
246.566	126.56
246.8	131.56
247.033	127.56
247.266	140.56
247.5	135.56
247.733	147.56
247.966	153.56
248.2	144.56
248.433	153.56
248.666	148.56
248.899	143.56
249.133	147.56
249.366	174.56
249.599	163.56
249.832	164.56
250.066	149.56
250.299	166.56
250.532	168.56
250.765	161.56
250.998	187.56
251.231	183.56
251.465	170.56
251.698	183.56
251.931	183.56
252.164	165.56
252.397	173.56
252.63	159.56
252.863	177.56
253.096	179.56
253.329	193.56
253.562	179.56
253.795	187.56
254.028	185.56
254.261	202.56
254.494	209.56
254.727	218.56
254.96	215.56
255.193	211.56
255.426	202.56
255.659	199.56
255.892	203.56
256.124	203.56
256.357	210.56
256.59	197.56
256.823	201.56
257.056	182.56
257.289	180.56
257.521	187.56
257.754	191.56
257.987	168.56
258.22	183.56
258.452	197.56
258.685	192.56
258.918	181.56
259.151	177.56
259.383	200.56
259.616	216.56
259.849	187.56
260.081	201.56
260.314	209.56
260.547	219.56
260.779	227.56
261.012	213.56
261.244	187.56
261.477	204.56
261.71	188.56
261.942	211.56
262.175	199.56
262.407	195.56
262.64	188.56
262.872	196.56
263.105	197.56
263.337	210.56
263.57	183.56
263.802	205.56
264.035	197.56
264.267	183.56
264.499	173.56
264.732	207.56
264.964	186.56
265.197	183.56
265.429	189.56
265.661	194.56
265.894	195.56
266.126	191.56
266.358	195.56
266.591	193.56
266.823	200.56
267.055	197.56
267.287	206.56
267.52	185.56
267.752	208.56
267.984	191.56
268.216	203.56
268.448	193.56
268.681	201.56
268.913	230.56
269.145	225.56
269.377	242.56
269.609	228.56
269.841	241.56
270.073	248.56
270.306	253.56
270.538	264.56
270.77	255.56
271.002	242.56
271.234	241.56
271.466	258.56
271.698	266.56
271.93	262.56
272.162	257.56
272.394	256.56
272.626	251.56
272.858	239.56
273.09	226.56
273.322	250.56
273.553	213.56
273.785	230.56
274.017	224.56
274.249	231.56
274.481	229.56
274.713	235.56
274.945	216.56
275.176	224.56
275.408	221.56
275.64	235.56
275.872	228.56
276.104	245.56
276.335	247.56
276.567	231.56
276.799	269.56
277.031	265.56
277.262	258.56
277.494	255.56
277.726	263.56
277.957	235.56
278.189	245.56
278.421	253.56
278.652	236.56
278.884	241.56
279.115	211.56
279.347	245.56
279.579	232.56
279.81	247.56
280.042	255.56
280.273	241.56
280.505	251.56
280.736	232.56
280.968	245.56
281.199	230.56
281.431	236.56
281.662	246.56
281.894	239.56
282.125	244.56
282.356	242.56
282.588	268.56
282.819	278.56
283.051	251.56
283.282	241.56
283.513	252.56
283.745	249.56
283.976	234.56
284.207	246.56
284.439	239.56
284.67	254.56
284.901	250.56
285.132	251.56
285.364	250.56
285.595	248.56
285.826	253.56
286.057	257.56
286.288	234.56
286.52	255.56
286.751	255.56
286.982	279.56
287.213	259.56
287.444	247.56
287.675	265.56
287.906	249.56
288.138	271.56
288.369	255.56
288.6	265.56
288.831	264.56
289.062	269.56
289.293	241.56
289.524	260.56
289.755	258.56
289.986	260.56
290.217	252.56
290.448	262.56
290.679	259.56
290.91	255.56
291.141	241.56
291.371	257.56
291.602	247.56
291.833	257.56
292.064	249.56
292.295	268.56
292.526	258.56
292.757	266.56
292.987	244.56
293.218	273.56
293.449	271.56
293.68	277.56
293.91	267.56
294.141	246.56
294.372	261.56
294.603	243.56
294.833	272.56
295.064	256.56
295.295	261.56
295.525	263.56
295.756	272.56
295.987	277.56
296.217	266.56
296.448	295.56
296.679	251.56
296.909	276.56
297.14	255.56
297.37	282.56
297.601	255.56
297.831	253.56
298.062	264.56
298.292	267.56
298.523	278.56
298.753	266.56
298.984	265.56
299.214	272.56
299.445	271.56
299.675	281.56
299.905	268.56
300.136	269.56
300.366	265.56
300.597	262.56
300.827	283.56
301.057	275.56
301.288	289.56
301.518	286.56
301.748	294.56
301.979	280.56
302.209	284.56
302.439	278.56
302.669	291.56
302.9	297.56
303.13	287.56
303.36	279.56
303.59	277.56
303.82	303.56
304.051	291.56
304.281	285.56
304.511	278.56
304.741	290.56
304.971	268.56
305.201	298.56
305.431	284.56
305.661	293.56
305.891	303.56
306.121	303.56
306.352	297.56
306.582	284.56
306.812	266.56
307.042	288.56
307.272	283.56
307.502	291.56
307.731	285.56
307.961	273.56
308.191	287.56
308.421	321.56
308.651	286.56
308.881	312.56
309.111	300.56
309.341	291.56
309.571	300.56
309.8	320.56
310.03	300.56
310.26	317.56
310.49	316.56
310.72	344.56
310.949	336.56
311.179	342.56
311.409	344.56
311.639	324.56
311.868	311.56
312.098	319.56
312.328	318.56
312.557	338.56
312.787	343.56
313.017	341.56
313.246	324.56
313.476	323.56
313.706	313.56
313.935	330.56
314.165	337.56
314.394	339.56
314.624	323.56
314.853	327.56
315.083	323.56
315.312	321.56
315.542	329.56
315.771	326.56
316.001	323.56
316.23	311.56
316.46	321.56
316.689	334.56
316.919	338.56
317.148	334.56
317.377	351.56
317.607	333.56
317.836	337.56
318.065	339.56
318.295	320.56
318.524	320.56
318.753	320.56
318.983	338.56
319.212	315.56
319.441	331.56
319.67	307.56
319.9	330.56
320.129	335.56
320.358	347.56
320.587	326.56
320.816	317.56
321.046	332.56
321.275	336.56
321.504	348.56
321.733	356.56
321.962	346.56
322.191	373.56
322.42	347.56
322.649	348.56
322.878	358.56
323.108	393.56
323.337	362.56
323.566	407.56
323.795	425.56
324.024	459.56
324.253	528.56
324.482	703.56
324.71	1029.56
324.939	1379.56
325.168	1175.56
325.397	655.56
325.626	485.56
325.855	411.56
326.084	387.56
326.313	403.56
326.542	422.56
326.77	436.56
326.999	478.56
327.228	635.56
327.457	905.56
327.686	1059.56
327.914	720.56
328.143	493.56
328.372	454.56
328.6	445.56
328.829	402.56
329.058	423.56
329.287	425.56
329.515	398.56
329.744	383.56
329.972	395.56
330.201	410.56
330.43	417.56
330.658	413.56
330.887	455.56
331.115	435.56
331.344	414.56
331.572	398.56
331.801	396.56
332.03	387.56
332.258	367.56
332.486	356.56
332.715	371.56
332.943	362.56
333.172	360.56
333.4	386.56
333.629	393.56
333.857	385.56
334.085	397.56
334.314	385.56
334.542	407.56
334.771	393.56
334.999	395.56
335.227	385.56
335.455	384.56
335.684	382.56
335.912	376.56
336.14	371.56
336.369	381.56
336.597	371.56
336.825	377.56
337.053	372.56
337.281	370.56
337.51	379.56
337.738	369.56
337.966	387.56
338.194	351.56
338.422	351.56
338.65	371.56
338.878	371.56
339.106	369.56
339.334	361.56
339.562	353.56
339.79	361.56
340.018	332.56
340.246	371.56
340.474	368.56
340.702	347.56
340.93	357.56
341.158	355.56
341.386	358.56
341.614	365.56
341.842	367.56
342.07	349.56
342.298	363.56
342.526	335.56
342.754	338.56
342.981	351.56
343.209	358.56
343.437	354.56
343.665	359.56
343.893	379.56
344.12	376.56
344.348	370.56
344.576	365.56
344.804	367.56
345.031	367.56
345.259	374.56
345.487	354.56
345.714	361.56
345.942	362.56
346.17	344.56
346.397	354.56
346.625	347.56
346.853	341.56
347.08	345.56
347.308	354.56
347.535	340.56
347.763	352.56
347.99	333.56
348.218	339.56
348.445	337.56
348.673	337.56
348.9	348.56
349.128	324.56
349.355	343.56
349.583	347.56
349.81	343.56
350.037	338.56
350.265	338.56
350.492	339.56
350.72	333.56
350.947	336.56
351.174	345.56
351.402	352.56
351.629	353.56
351.856	352.56
352.083	344.56
352.311	328.56
352.538	347.56
352.765	338.56
352.992	342.56
353.22	348.56
353.447	324.56
353.674	317.56
353.901	343.56
354.128	313.56
354.355	326.56
354.583	319.56
354.81	333.56
355.037	321.56
355.264	323.56
355.491	337.56
355.718	329.56
355.945	317.56
356.172	300.56
356.399	324.56
356.626	320.56
356.853	309.56
357.08	301.56
357.307	324.56
357.534	314.56
357.761	325.56
357.988	320.56
358.215	314.56
358.441	319.56
358.668	324.56
358.895	343.56
359.122	321.56
359.349	322.56
359.576	350.56
359.802	357.56
360.029	367.56
360.256	355.56
360.483	346.56
360.709	347.56
360.936	320.56
361.163	321.56
361.39	328.56
361.616	320.56
361.843	325.56
362.07	350.56
362.296	327.56
362.523	330.56
362.749	313.56
362.976	337.56
363.203	327.56
363.429	321.56
363.656	323.56
363.882	307.56
364.109	314.56
364.335	314.56
364.562	302.56
364.788	328.56
365.015	319.56
365.241	312.56
365.468	316.56
365.694	314.56
365.92	307.56
366.147	321.56
366.373	333.56
366.599	316.56
366.826	292.56
367.052	320.56
367.278	321.56
367.505	314.56
367.731	319.56
367.957	319.56
368.184	320.56
368.41	335.56
368.636	320.56
368.862	324.56
369.089	313.56
369.315	331.56
369.541	311.56
369.767	305.56
369.993	315.56
370.219	319.56
370.445	309.56
370.672	296.56
370.898	309.56
371.124	331.56
371.35	313.56
371.576	339.56
371.802	332.56
372.028	304.56
372.254	304.56
372.48	318.56
372.706	304.56
372.932	316.56
373.158	311.56
373.384	324.56
373.61	332.56
373.835	320.56
374.061	325.56
374.287	340.56
374.513	313.56
374.739	336.56
374.965	333.56
375.191	312.56
375.416	323.56
375.642	330.56
375.868	309.56
376.094	317.56
376.319	316.56
376.545	314.56
376.771	340.56
376.997	327.56
377.222	333.56
377.448	320.56
377.674	311.56
377.899	319.56
378.125	347.56
378.35	285.56
378.576	311.56
378.802	315.56
379.027	317.56
379.253	312.56
379.478	323.56
379.704	323.56
379.929	318.56
380.155	316.56
380.38	301.56
380.606	307.56
380.831	303.56
381.057	324.56
381.282	296.56
381.507	329.56
381.733	305.56
381.958	315.56
382.184	309.56
382.409	341.56
382.634	311.56
382.86	335.56
383.085	320.56
383.31	336.56
383.535	343.56
383.761	319.56
383.986	320.56
384.211	325.56
384.436	332.56
384.662	338.56
384.887	333.56
385.112	327.56
385.337	320.56
385.562	326.56
385.787	327.56
386.013	337.56
386.238	317.56
386.463	334.56
386.688	348.56
386.913	335.56
387.138	328.56
387.363	333.56
387.588	321.56
387.813	356.56
388.038	308.56
388.263	342.56
388.488	337.56
388.713	316.56
388.938	318.56
389.163	326.56
389.387	340.56
389.612	360.56
389.837	344.56
390.062	339.56
390.287	333.56
390.512	333.56
390.736	323.56
390.961	329.56
391.186	342.56
391.411	333.56
391.636	359.56
391.86	344.56
392.085	336.56
392.31	341.56
392.534	327.56
392.759	328.56
392.984	341.56
393.208	342.56
393.433	350.56
393.658	347.56
393.882	341.56
394.107	332.56
394.331	319.56
394.556	311.56
394.78	325.56
395.005	355.56
395.229	319.56
395.454	333.56
395.678	334.56
395.903	357.56
396.127	340.56
396.352	367.56
396.576	339.56
396.801	351.56
397.025	368.56
397.249	348.56
397.474	348.56
397.698	341.56
397.922	351.56
398.147	365.56
398.371	360.56
398.595	343.56
398.82	378.56
399.044	384.56
399.268	379.56
399.492	399.56
399.717	414.56
399.941	427.56
400.165	442.56
400.389	436.56
400.613	406.56
400.837	397.56
401.062	359.56
401.286	363.56
401.51	367.56
401.734	363.56
401.958	357.56
402.182	364.56
402.406	370.56
402.63	361.56
402.854	387.56
403.078	371.56
403.302	381.56
403.526	383.56
403.75	383.56
403.974	384.56
404.198	351.56
404.422	404.56
404.645	362.56
404.869	399.56
405.093	412.56
405.317	424.56
405.541	426.56
405.765	403.56
405.988	412.56
406.212	408.56
406.436	412.56
406.66	404.56
406.883	420.56
407.107	412.56
407.331	461.56
407.555	467.56
407.778	505.56
408.002	454.56
408.226	405.56
408.449	403.56
408.673	406.56
408.896	425.56
409.12	472.56
409.344	437.56
409.567	405.56
409.791	393.56
410.014	370.56
410.238	355.56
410.461	393.56
410.685	385.56
410.908	391.56
411.132	420.56
411.355	428.56
411.578	448.56
411.802	396.56
412.025	382.56
412.249	391.56
412.472	383.56
412.695	406.56
412.919	383.56
413.142	375.56
413.365	378.56
413.589	377.56
413.812	353.56
414.035	345.56
414.258	362.56
414.482	345.56
414.705	356.56
414.928	356.56
415.151	329.56
415.374	355.56
415.597	349.56
415.821	363.56
416.044	344.56
416.267	365.56
416.49	358.56
416.713	363.56
416.936	370.56
417.159	360.56
417.382	368.56
417.605	361.56
417.828	372.56
418.051	375.56
418.274	378.56
418.497	341.56
418.72	350.56
418.943	357.56
419.166	376.56
419.389	366.56
419.611	377.56
419.834	382.56
420.057	360.56
420.28	377.56
420.503	368.56
420.726	386.56
420.948	385.56
421.171	394.56
421.394	411.56
421.617	390.56
421.839	367.56
422.062	393.56
422.285	385.56
422.507	417.56
422.73	461.56
422.953	451.56
423.175	395.56
423.398	383.56
423.621	389.56
423.843	406.56
424.066	403.56
424.288	383.56
424.511	403.56
424.733	443.56
424.956	475.56
425.178	481.56
425.401	477.56
425.623	498.56
425.846	423.56
426.068	403.56
426.291	392.56
426.513	396.56
426.735	415.56
426.958	418.56
427.18	472.56
427.402	557.56
427.625	602.56
427.847	531.56
428.069	441.56
428.292	427.56
428.514	379.56
428.736	372.56
428.958	371.56
429.181	364.56
429.403	353.56
429.625	373.56
429.847	361.56
430.069	431.56
430.292	435.56
430.514	367.56
430.736	354.56
430.958	359.56
431.18	349.56
431.402	332.56
431.624	329.56
431.846	328.56
432.068	337.56
432.29	339.56
432.512	338.56
432.734	356.56
432.956	360.56
433.178	382.56
433.4	373.56
433.622	347.56
433.844	347.56
434.066	341.56
434.287	340.56
434.509	355.56
434.731	345.56
434.953	348.56
435.175	373.56
435.397	374.56
435.618	382.56
435.84	413.56
436.062	481.56
436.284	523.56
436.505	439.56
436.727	393.56
436.949	367.56
437.17	352.56
437.392	363.56
437.614	366.56
437.835	403.56
438.057	441.56
438.278	517.56
438.5	511.56
438.721	533.56
438.943	531.56
439.165	434.56
439.386	393.56
439.608	395.56
439.829	395.56
440.05	401.56
440.272	430.56
440.493	413.56
440.715	391.56
440.936	382.56
441.158	365.56
441.379	358.56
441.6	382.56
441.822	394.56
442.043	412.56
442.264	492.56
442.486	486.56
442.707	431.56
442.928	404.56
443.149	419.56
443.371	399.56
443.592	439.56
443.813	484.56
444.034	538.56
444.255	456.56
444.476	402.56
444.698	405.56
444.919	401.56
445.14	529.56
445.361	455.56
445.582	416.56
445.803	460.56
446.024	512.56
446.245	502.56
446.466	464.56
446.687	408.56
446.908	393.56
447.129	390.56
447.35	397.56
447.571	358.56
447.792	373.56
448.013	359.56
448.234	377.56
448.455	428.56
448.675	462.56
448.896	565.56
449.117	485.56
449.338	456.56
449.559	525.56
449.779	563.56
450	490.56
450.221	390.56
450.442	385.56
450.662	351.56
450.883	367.56
451.104	343.56
451.324	339.56
451.545	337.56
451.766	351.56
451.986	349.56
452.207	337.56
452.428	325.56
452.648	310.56
452.869	318.56
453.089	338.56
453.31	325.56
453.53	326.56
453.751	324.56
453.971	322.56
454.192	329.56
454.412	322.56
454.633	332.56
454.853	296.56
455.073	320.56
455.294	333.56
455.514	364.56
455.734	362.56
455.955	315.56
456.175	292.56
456.395	307.56
456.616	305.56
456.836	292.56
457.056	293.56
457.276	294.56
457.497	295.56
457.717	306.56
457.937	336.56
458.157	316.56
458.377	289.56
458.598	321.56
458.818	343.56
459.038	401.56
459.258	395.56
459.478	369.56
459.698	328.56
459.918	323.56
460.138	346.56
460.358	331.56
460.578	354.56
460.798	364.56
461.018	347.56
461.238	336.56
461.458	341.56
461.678	339.56
461.898	358.56
462.118	359.56
462.338	362.56
462.558	367.56
462.777	354.56
462.997	360.56
463.217	391.56
463.437	383.56
463.657	351.56
463.876	373.56
464.096	344.56
464.316	346.56
464.536	355.56
464.755	369.56
464.975	348.56
465.195	387.56
465.414	404.56
465.634	372.56
465.854	333.56
466.073	355.56
466.293	335.56
466.512	337.56
466.732	333.56
466.951	339.56
467.171	306.56
467.391	344.56
467.61	339.56
467.829	320.56
468.049	347.56
468.268	333.56
468.488	327.56
468.707	322.56
468.927	330.56
469.146	312.56
469.365	326.56
469.585	326.56
469.804	324.56
470.023	354.56
470.243	337.56
470.462	335.56
470.681	354.56
470.901	333.56
471.12	335.56
471.339	329.56
471.558	332.56
471.777	348.56
471.997	341.56
472.216	325.56
472.435	339.56
472.654	340.56
472.873	313.56
473.092	336.56
473.311	311.56
473.53	323.56
473.749	335.56
473.968	383.56
474.187	415.56
474.406	448.56
474.625	367.56
474.844	338.56
475.063	335.56
475.282	348.56
475.501	353.56
475.72	337.56
475.939	346.56
476.158	356.56
476.377	341.56
476.596	347.56
476.814	370.56
477.033	335.56
477.252	345.56
477.471	337.56
477.69	371.56
477.908	337.56
478.127	357.56
478.346	353.56
478.564	361.56
478.783	351.56
479.002	368.56
479.22	373.56
479.439	391.56
479.658	402.56
479.876	381.56
480.095	391.56
480.313	415.56
480.532	404.56
480.751	407.56
480.969	395.56
481.188	417.56
481.406	442.56
481.624	405.56
481.843	385.56
482.061	411.56
482.28	387.56
482.498	383.56
482.717	371.56
482.935	395.56
483.153	384.56
483.372	379.56
483.59	377.56
483.808	381.56
484.027	393.56
484.245	382.56
484.463	392.56
484.681	403.56
484.9	395.56
485.118	396.56
485.336	381.56
485.554	394.56
485.772	397.56
485.99	398.56
486.209	403.56
486.427	396.56
486.645	397.56
486.863	406.56
487.081	407.56
487.299	398.56
487.517	409.56
487.735	398.56
487.953	397.56
488.171	417.56
488.389	429.56
488.607	411.56
488.825	404.56
489.043	427.56
489.261	402.56
489.479	418.56
489.696	419.56
489.914	424.56
490.132	431.56
490.35	411.56
490.568	445.56
490.786	437.56
491.003	444.56
491.221	451.56
491.439	446.56
491.657	480.56
491.874	457.56
492.092	475.56
492.31	476.56
492.527	474.56
492.745	460.56
492.963	481.56
493.18	456.56
493.398	482.56
493.615	488.56
493.833	487.56
494.05	470.56
494.268	460.56
494.485	465.56
494.703	484.56
494.92	492.56
495.138	469.56
495.355	497.56
495.573	474.56
495.79	465.56
496.008	448.56
496.225	472.56
496.442	484.56
496.66	495.56
496.877	485.56
497.094	467.56
497.312	490.56
497.529	490.56
497.746	483.56
497.963	513.56
498.181	514.56
498.398	512.56
498.615	524.56
498.832	536.56
499.049	547.56
499.267	555.56
499.484	568.56
499.701	589.56
499.918	614.56
500.135	635.56
500.352	651.56
500.569	682.56
500.786	667.56
501.003	655.56
501.22	641.56
501.437	610.56
501.654	585.56
501.871	597.56
502.088	597.56
