Data from 1971.PennyLincolnUp.Lamp.En5.5.200Scan.071719.P1._HRD10591_15-17-52-841.txt Node
Date: Thu Jul 18 15:17:52 EDT 2019
User: cochatt
Spectrometer: HR+D1059
Trigger mode: 1
Integration Time (sec): 1.000000E-1
Scans to average: 1
Electric dark correction enabled: true
Nonlinearity correction enabled: false
Boxcar width: 0
XAxis mode: Wavelengths
Number of Pixels in Spectrum: 2048
>>>>>Begin Spectral Data<<<<<
223.165	1.5
223.4	1.5
223.635	1.5
223.869	-18.5
224.104	-19.5
224.338	-13.5
224.573	-14.5
224.808	-19.5
225.042	-13.5
225.277	-0.5
225.511	-0.5
225.746	7.5
225.98	3.5
226.215	7.5
226.449	4.5
226.683	22.5
226.918	26.5
227.152	26.5
227.387	38.5
227.621	31.5
227.856	36.5
228.09	34.5
228.324	51.5
228.559	67.5
228.793	73.5
229.027	76.5
229.262	85.5
229.496	90.5
229.73	125.5
229.964	122.5
230.199	107.5
230.433	100.5
230.667	110.5
230.901	101.5
231.136	108.5
231.37	103.5
231.604	92.5
231.838	95.5
232.072	100.5
232.306	108.5
232.541	101.5
232.775	114.5
233.009	110.5
233.243	114.5
233.477	99.5
233.711	112.5
233.945	100.5
234.179	107.5
234.413	115.5
234.647	104.5
234.881	102.5
235.115	91.5
235.349	99.5
235.583	107.5
235.817	119.5
236.051	117.5
236.285	100.5
236.519	113.5
236.753	114.5
236.987	123.5
237.221	153.5
237.455	163.5
237.689	148.5
237.922	126.5
238.156	121.5
238.39	124.5
238.624	114.5
238.858	116.5
239.091	109.5
239.325	125.5
239.559	103.5
239.793	102.5
240.027	117.5
240.26	126.5
240.494	128.5
240.728	126.5
240.961	122.5
241.195	121.5
241.429	144.5
241.662	120.5
241.896	120.5
242.13	130.5
242.363	130.5
242.597	138.5
242.83	139.5
243.064	138.5
243.298	131.5
243.531	128.5
243.765	111.5
243.998	125.5
244.232	117.5
244.465	126.5
244.699	126.5
244.932	124.5
245.166	119.5
245.399	125.5
245.633	134.5
245.866	144.5
246.099	133.5
246.333	131.5
246.566	151.5
246.8	141.5
247.033	130.5
247.266	148.5
247.5	148.5
247.733	131.5
247.966	149.5
248.2	155.5
248.433	146.5
248.666	154.5
248.899	156.5
249.133	143.5
249.366	161.5
249.599	158.5
249.832	159.5
250.066	152.5
250.299	167.5
250.532	164.5
250.765	184.5
250.998	187.5
251.231	185.5
251.465	192.5
251.698	164.5
251.931	172.5
252.164	174.5
252.397	174.5
252.63	169.5
252.863	194.5
253.096	174.5
253.329	210.5
253.562	203.5
253.795	190.5
254.028	198.5
254.261	189.5
254.494	217.5
254.727	215.5
254.96	228.5
255.193	219.5
255.426	212.5
255.659	202.5
255.892	182.5
256.124	192.5
256.357	197.5
256.59	191.5
256.823	185.5
257.056	185.5
257.289	172.5
257.521	182.5
257.754	199.5
257.987	194.5
258.22	195.5
258.452	186.5
258.685	182.5
258.918	186.5
259.151	173.5
259.383	202.5
259.616	199.5
259.849	184.5
260.081	198.5
260.314	211.5
260.547	219.5
260.779	207.5
261.012	192.5
261.244	183.5
261.477	186.5
261.71	207.5
261.942	199.5
262.175	204.5
262.407	193.5
262.64	198.5
262.872	199.5
263.105	187.5
263.337	202.5
263.57	178.5
263.802	184.5
264.035	175.5
264.267	194.5
264.499	197.5
264.732	176.5
264.964	203.5
265.197	196.5
265.429	203.5
265.661	181.5
265.894	201.5
266.126	184.5
266.358	187.5
266.591	191.5
266.823	193.5
267.055	210.5
267.287	196.5
267.52	210.5
267.752	184.5
267.984	198.5
268.216	198.5
268.448	201.5
268.681	198.5
268.913	211.5
269.145	203.5
269.377	227.5
269.609	224.5
269.841	225.5
270.073	208.5
270.306	240.5
270.538	252.5
270.77	276.5
271.002	244.5
271.234	245.5
271.466	251.5
271.698	263.5
271.93	271.5
272.162	265.5
272.394	259.5
272.626	259.5
272.858	246.5
273.09	231.5
273.322	256.5
273.553	243.5
273.785	229.5
274.017	233.5
274.249	220.5
274.481	213.5
274.713	240.5
274.945	233.5
275.176	213.5
275.408	231.5
275.64	223.5
275.872	226.5
276.104	228.5
276.335	229.5
276.567	222.5
276.799	246.5
277.031	238.5
277.262	235.5
277.494	250.5
277.726	260.5
277.957	243.5
278.189	246.5
278.421	236.5
278.652	237.5
278.884	237.5
279.115	246.5
279.347	248.5
279.579	232.5
279.81	245.5
280.042	228.5
280.273	243.5
280.505	244.5
280.736	233.5
280.968	246.5
281.199	240.5
281.431	224.5
281.662	257.5
281.894	231.5
282.125	230.5
282.356	228.5
282.588	267.5
282.819	270.5
283.051	241.5
283.282	249.5
283.513	251.5
283.745	245.5
283.976	238.5
284.207	269.5
284.439	232.5
284.67	250.5
284.901	258.5
285.132	229.5
285.364	234.5
285.595	237.5
285.826	228.5
286.057	256.5
286.288	256.5
286.52	238.5
286.751	258.5
286.982	233.5
287.213	231.5
287.444	241.5
287.675	255.5
287.906	278.5
288.138	231.5
288.369	272.5
288.6	264.5
288.831	259.5
289.062	263.5
289.293	272.5
289.524	271.5
289.755	235.5
289.986	256.5
290.217	248.5
290.448	257.5
290.679	282.5
290.91	258.5
291.141	257.5
291.371	261.5
291.602	263.5
291.833	271.5
292.064	231.5
292.295	262.5
292.526	243.5
292.757	248.5
292.987	242.5
293.218	243.5
293.449	258.5
293.68	278.5
293.91	259.5
294.141	256.5
294.372	251.5
294.603	277.5
294.833	265.5
295.064	256.5
295.295	252.5
295.525	258.5
295.756	251.5
295.987	239.5
296.217	266.5
296.448	270.5
296.679	263.5
296.909	283.5
297.14	259.5
297.37	277.5
297.601	244.5
297.831	266.5
298.062	268.5
298.292	267.5
298.523	258.5
298.753	273.5
298.984	265.5
299.214	277.5
299.445	282.5
299.675	274.5
299.905	283.5
300.136	277.5
300.366	276.5
300.597	296.5
300.827	273.5
301.057	266.5
301.288	262.5
301.518	305.5
301.748	286.5
301.979	273.5
302.209	268.5
302.439	266.5
302.669	283.5
302.9	292.5
303.13	280.5
303.36	275.5
303.59	281.5
303.82	291.5
304.051	282.5
304.281	287.5
304.511	298.5
304.741	279.5
304.971	300.5
305.201	296.5
305.431	301.5
305.661	288.5
305.891	282.5
306.121	286.5
306.352	283.5
306.582	285.5
306.812	293.5
307.042	271.5
307.272	266.5
307.502	293.5
307.731	269.5
307.961	292.5
308.191	291.5
308.421	280.5
308.651	284.5
308.881	275.5
309.111	277.5
309.341	298.5
309.571	303.5
309.8	298.5
310.03	299.5
310.26	294.5
310.49	303.5
310.72	310.5
310.949	319.5
311.179	328.5
311.409	315.5
311.639	296.5
311.868	322.5
312.098	326.5
312.328	327.5
312.557	341.5
312.787	328.5
313.017	316.5
313.246	313.5
313.476	310.5
313.706	303.5
313.935	315.5
314.165	328.5
314.394	344.5
314.624	318.5
314.853	320.5
315.083	325.5
315.312	314.5
315.542	323.5
315.771	323.5
316.001	315.5
316.23	315.5
316.46	302.5
316.689	324.5
316.919	326.5
317.148	327.5
317.377	311.5
317.607	314.5
317.836	313.5
318.065	300.5
318.295	327.5
318.524	331.5
318.753	330.5
318.983	324.5
319.212	298.5
319.441	306.5
319.67	328.5
319.9	320.5
320.129	315.5
320.358	316.5
320.587	334.5
320.816	308.5
321.046	341.5
321.275	331.5
321.504	305.5
321.733	333.5
321.962	350.5
322.191	331.5
322.42	347.5
322.649	356.5
322.878	366.5
323.108	369.5
323.337	343.5
323.566	388.5
323.795	404.5
324.024	441.5
324.253	493.5
324.482	671.5
324.71	986.5
324.939	1305.5
325.168	1076.5
325.397	608.5
325.626	456.5
325.855	413.5
326.084	382.5
326.313	394.5
326.542	387.5
326.77	441.5
326.999	476.5
327.228	603.5
327.457	857.5
327.686	969.5
327.914	694.5
328.143	487.5
328.372	454.5
328.6	433.5
328.829	405.5
329.058	410.5
329.287	416.5
329.515	396.5
329.744	395.5
329.972	379.5
330.201	398.5
330.43	398.5
330.658	420.5
330.887	443.5
331.115	413.5
331.344	380.5
331.572	381.5
331.801	384.5
332.03	365.5
332.258	372.5
332.486	375.5
332.715	347.5
332.943	370.5
333.172	365.5
333.4	388.5
333.629	367.5
333.857	362.5
334.085	364.5
334.314	392.5
334.542	397.5
334.771	380.5
334.999	390.5
335.227	388.5
335.455	378.5
335.684	367.5
335.912	380.5
336.14	378.5
336.369	374.5
336.597	377.5
336.825	365.5
337.053	362.5
337.281	340.5
337.51	349.5
337.738	354.5
337.966	360.5
338.194	341.5
338.422	350.5
338.65	373.5
338.878	374.5
339.106	364.5
339.334	348.5
339.562	341.5
339.79	330.5
340.018	374.5
340.246	346.5
340.474	366.5
340.702	357.5
340.93	347.5
341.158	355.5
341.386	350.5
341.614	339.5
341.842	352.5
342.07	341.5
342.298	342.5
342.526	342.5
342.754	345.5
342.981	331.5
343.209	354.5
343.437	348.5
343.665	358.5
343.893	353.5
344.12	366.5
344.348	354.5
344.576	344.5
344.804	363.5
345.031	371.5
345.259	374.5
345.487	352.5
345.714	343.5
345.942	330.5
346.17	349.5
346.397	344.5
346.625	341.5
346.853	321.5
347.08	333.5
347.308	342.5
347.535	329.5
347.763	336.5
347.99	356.5
348.218	333.5
348.445	342.5
348.673	336.5
348.9	335.5
349.128	315.5
349.355	331.5
349.583	311.5
349.81	312.5
350.037	302.5
350.265	320.5
350.492	322.5
350.72	340.5
350.947	333.5
351.174	341.5
351.402	335.5
351.629	319.5
351.856	331.5
352.083	327.5
352.311	330.5
352.538	333.5
352.765	334.5
352.992	340.5
353.22	326.5
353.447	328.5
353.674	329.5
353.901	303.5
354.128	327.5
354.355	314.5
354.583	310.5
354.81	343.5
355.037	306.5
355.264	311.5
355.491	326.5
355.718	316.5
355.945	322.5
356.172	305.5
356.399	315.5
356.626	325.5
356.853	318.5
357.08	300.5
357.307	313.5
357.534	301.5
357.761	323.5
357.988	312.5
358.215	304.5
358.441	323.5
358.668	315.5
358.895	314.5
359.122	329.5
359.349	319.5
359.576	326.5
359.802	330.5
360.029	323.5
360.256	342.5
360.483	342.5
360.709	317.5
360.936	323.5
361.163	316.5
361.39	339.5
361.616	319.5
361.843	331.5
362.07	326.5
362.296	341.5
362.523	319.5
362.749	343.5
362.976	323.5
363.203	328.5
363.429	324.5
363.656	329.5
363.882	316.5
364.109	311.5
364.335	330.5
364.562	304.5
364.788	312.5
365.015	303.5
365.241	318.5
365.468	306.5
365.694	308.5
365.92	320.5
366.147	308.5
366.373	323.5
366.599	316.5
366.826	325.5
367.052	311.5
367.278	331.5
367.505	316.5
367.731	315.5
367.957	304.5
368.184	316.5
368.41	323.5
368.636	325.5
368.862	318.5
369.089	313.5
369.315	322.5
369.541	312.5
369.767	303.5
369.993	310.5
370.219	304.5
370.445	307.5
370.672	312.5
370.898	298.5
371.124	293.5
371.35	317.5
371.576	311.5
371.802	303.5
372.028	312.5
372.254	322.5
372.48	320.5
372.706	325.5
372.932	320.5
373.158	310.5
373.384	324.5
373.61	305.5
373.835	333.5
374.061	316.5
374.287	332.5
374.513	314.5
374.739	314.5
374.965	318.5
375.191	324.5
375.416	314.5
375.642	330.5
375.868	319.5
376.094	321.5
376.319	327.5
376.545	323.5
376.771	326.5
376.997	325.5
377.222	310.5
377.448	308.5
377.674	310.5
377.899	305.5
378.125	311.5
378.35	307.5
378.576	309.5
378.802	314.5
379.027	289.5
379.253	300.5
379.478	300.5
379.704	320.5
379.929	311.5
380.155	322.5
380.38	310.5
380.606	299.5
380.831	308.5
381.057	318.5
381.282	310.5
381.507	310.5
381.733	298.5
381.958	293.5
382.184	304.5
382.409	325.5
382.634	304.5
382.86	311.5
383.085	322.5
383.31	317.5
383.535	316.5
383.761	324.5
383.986	333.5
384.211	313.5
384.436	326.5
384.662	309.5
384.887	326.5
385.112	330.5
385.337	324.5
385.562	333.5
385.787	335.5
386.013	322.5
386.238	335.5
386.463	341.5
386.688	326.5
386.913	335.5
387.138	340.5
387.363	334.5
387.588	332.5
387.813	326.5
388.038	335.5
388.263	318.5
388.488	337.5
388.713	320.5
388.938	340.5
389.163	341.5
389.387	328.5
389.612	325.5
389.837	328.5
390.062	320.5
390.287	338.5
390.512	330.5
390.736	340.5
390.961	332.5
391.186	323.5
391.411	320.5
391.636	347.5
391.86	334.5
392.085	332.5
392.31	322.5
392.534	327.5
392.759	329.5
392.984	326.5
393.208	355.5
393.433	343.5
393.658	359.5
393.882	345.5
394.107	343.5
394.331	330.5
394.556	321.5
394.78	319.5
395.005	330.5
395.229	333.5
395.454	358.5
395.678	321.5
395.903	335.5
396.127	346.5
396.352	353.5
396.576	334.5
396.801	341.5
397.025	349.5
397.249	339.5
397.474	357.5
397.698	370.5
397.922	356.5
398.147	329.5
398.371	370.5
398.595	372.5
398.82	360.5
399.044	382.5
399.268	407.5
399.492	403.5
399.717	405.5
399.941	407.5
400.165	431.5
400.389	450.5
400.613	417.5
400.837	401.5
401.062	392.5
401.286	380.5
401.51	369.5
401.734	365.5
401.958	370.5
402.182	356.5
402.406	378.5
402.63	350.5
402.854	360.5
403.078	363.5
403.302	375.5
403.526	377.5
403.75	374.5
403.974	352.5
404.198	378.5
404.422	376.5
404.645	377.5
404.869	389.5
405.093	394.5
405.317	384.5
405.541	441.5
405.765	376.5
405.988	392.5
406.212	405.5
406.436	415.5
406.66	398.5
406.883	397.5
407.107	407.5
407.331	424.5
407.555	477.5
407.778	491.5
408.002	436.5
408.226	418.5
408.449	402.5
408.673	410.5
408.896	434.5
409.12	449.5
409.344	437.5
409.567	382.5
409.791	383.5
410.014	388.5
410.238	383.5
410.461	376.5
410.685	358.5
410.908	388.5
411.132	406.5
411.355	421.5
411.578	390.5
411.802	378.5
412.025	376.5
412.249	396.5
412.472	376.5
412.695	387.5
412.919	399.5
413.142	353.5
413.365	354.5
413.589	360.5
413.812	330.5
414.035	366.5
414.258	346.5
414.482	347.5
414.705	351.5
414.928	348.5
415.151	336.5
415.374	343.5
415.597	348.5
415.821	340.5
416.044	332.5
416.267	338.5
416.49	341.5
416.713	349.5
416.936	355.5
417.159	341.5
417.382	364.5
417.605	378.5
417.828	370.5
418.051	365.5
418.274	379.5
418.497	351.5
418.72	358.5
418.943	339.5
419.166	341.5
419.389	367.5
419.611	367.5
419.834	368.5
420.057	371.5
420.28	349.5
420.503	346.5
420.726	349.5
420.948	350.5
421.171	383.5
421.394	426.5
421.617	378.5
421.839	376.5
422.062	377.5
422.285	386.5
422.507	413.5
422.73	455.5
422.953	459.5
423.175	392.5
423.398	370.5
423.621	376.5
423.843	388.5
424.066	397.5
424.288	371.5
424.511	395.5
424.733	436.5
424.956	464.5
425.178	446.5
425.401	464.5
425.623	466.5
425.846	394.5
426.068	370.5
426.291	367.5
426.513	378.5
426.735	390.5
426.958	445.5
427.18	465.5
427.402	543.5
427.625	586.5
427.847	528.5
428.069	434.5
428.292	398.5
428.514	372.5
428.736	367.5
428.958	365.5
429.181	351.5
429.403	366.5
429.625	340.5
429.847	376.5
430.069	416.5
430.292	426.5
430.514	378.5
430.736	347.5
430.958	340.5
431.18	329.5
431.402	352.5
431.624	350.5
431.846	330.5
432.068	340.5
432.29	354.5
432.512	340.5
432.734	352.5
432.956	355.5
433.178	366.5
433.4	349.5
433.622	356.5
433.844	352.5
434.066	342.5
434.287	334.5
434.509	328.5
434.731	348.5
434.953	374.5
435.175	357.5
435.397	373.5
435.618	388.5
435.84	402.5
436.062	468.5
436.284	478.5
436.505	431.5
436.727	372.5
436.949	354.5
437.17	365.5
437.392	353.5
437.614	363.5
437.835	375.5
438.057	436.5
438.278	499.5
438.5	512.5
438.721	533.5
438.943	536.5
439.165	426.5
439.386	386.5
439.608	389.5
439.829	376.5
440.05	438.5
440.272	424.5
440.493	407.5
440.715	367.5
440.936	363.5
441.158	365.5
441.379	370.5
441.6	354.5
441.822	374.5
442.043	410.5
442.264	444.5
442.486	501.5
442.707	440.5
442.928	398.5
443.149	396.5
443.371	414.5
443.592	442.5
443.813	477.5
444.034	503.5
444.255	440.5
444.476	410.5
444.698	378.5
444.919	385.5
445.14	516.5
445.361	440.5
445.582	396.5
445.803	441.5
446.024	515.5
446.245	516.5
446.466	459.5
446.687	380.5
446.908	372.5
447.129	364.5
447.35	362.5
447.571	362.5
447.792	353.5
448.013	354.5
448.234	367.5
448.455	392.5
448.675	453.5
448.896	518.5
449.117	457.5
449.338	439.5
449.559	510.5
449.779	559.5
450	469.5
450.221	404.5
450.442	367.5
450.662	340.5
450.883	338.5
451.104	343.5
451.324	346.5
451.545	347.5
451.766	327.5
451.986	327.5
452.207	319.5
452.428	309.5
452.648	310.5
452.869	330.5
453.089	315.5
453.31	318.5
453.53	306.5
453.751	316.5
453.971	323.5
454.192	310.5
454.412	314.5
454.633	311.5
454.853	314.5
455.073	316.5
455.294	347.5
455.514	349.5
455.734	366.5
455.955	303.5
456.175	313.5
456.395	294.5
456.616	296.5
456.836	308.5
457.056	300.5
457.276	292.5
457.497	302.5
457.717	308.5
457.937	311.5
458.157	304.5
458.377	297.5
458.598	318.5
458.818	335.5
459.038	386.5
459.258	374.5
459.478	353.5
459.698	334.5
459.918	330.5
460.138	334.5
460.358	337.5
460.578	347.5
460.798	345.5
461.018	349.5
461.238	333.5
461.458	345.5
461.678	334.5
461.898	342.5
462.118	334.5
462.338	352.5
462.558	335.5
462.777	358.5
462.997	359.5
463.217	360.5
463.437	350.5
463.657	378.5
463.876	354.5
464.096	374.5
464.316	362.5
464.536	340.5
464.755	347.5
464.975	346.5
465.195	379.5
465.414	388.5
465.634	357.5
465.854	346.5
466.073	329.5
466.293	330.5
466.512	312.5
466.732	319.5
466.951	324.5
467.171	316.5
467.391	330.5
467.61	340.5
467.829	343.5
468.049	327.5
468.268	326.5
468.488	326.5
468.707	321.5
468.927	311.5
469.146	312.5
469.365	327.5
469.585	312.5
469.804	325.5
470.023	340.5
470.243	351.5
470.462	301.5
470.681	343.5
470.901	335.5
471.12	326.5
471.339	313.5
471.558	331.5
471.777	330.5
471.997	351.5
472.216	320.5
472.435	332.5
472.654	316.5
472.873	319.5
473.092	308.5
473.311	332.5
473.53	335.5
473.749	333.5
473.968	379.5
474.187	416.5
474.406	426.5
474.625	356.5
474.844	324.5
475.063	344.5
475.282	341.5
475.501	325.5
475.72	330.5
475.939	335.5
476.158	328.5
476.377	337.5
476.596	358.5
476.814	336.5
477.033	347.5
477.252	363.5
477.471	375.5
477.69	353.5
477.908	360.5
478.127	383.5
478.346	364.5
478.564	374.5
478.783	365.5
479.002	356.5
479.22	365.5
479.439	384.5
479.658	392.5
479.876	379.5
480.095	383.5
480.313	410.5
480.532	395.5
480.751	394.5
480.969	395.5
481.188	392.5
481.406	409.5
481.624	386.5
481.843	375.5
482.061	383.5
482.28	380.5
482.498	378.5
482.717	387.5
482.935	397.5
483.153	372.5
483.372	382.5
483.59	385.5
483.808	391.5
484.027	373.5
484.245	390.5
484.463	365.5
484.681	384.5
484.9	386.5
485.118	378.5
485.336	378.5
485.554	404.5
485.772	383.5
485.99	373.5
486.209	388.5
486.427	402.5
486.645	390.5
486.863	393.5
487.081	397.5
487.299	391.5
487.517	399.5
487.735	386.5
487.953	413.5
488.171	406.5
488.389	415.5
488.607	414.5
488.825	404.5
489.043	404.5
489.261	410.5
489.479	415.5
489.696	414.5
489.914	406.5
490.132	429.5
490.35	410.5
490.568	417.5
490.786	438.5
491.003	436.5
491.221	464.5
491.439	451.5
491.657	458.5
491.874	445.5
492.092	471.5
492.31	477.5
492.527	461.5
492.745	465.5
492.963	462.5
493.18	456.5
493.398	465.5
493.615	461.5
493.833	445.5
494.05	480.5
494.268	470.5
494.485	468.5
494.703	460.5
494.92	465.5
495.138	471.5
495.355	475.5
495.573	492.5
495.79	474.5
496.008	470.5
496.225	471.5
496.442	471.5
496.66	462.5
496.877	493.5
497.094	482.5
497.312	487.5
497.529	482.5
497.746	490.5
497.963	485.5
498.181	522.5
498.398	511.5
498.615	515.5
498.832	534.5
499.049	535.5
499.267	552.5
499.484	556.5
499.701	604.5
499.918	595.5
500.135	632.5
500.352	649.5
500.569	657.5
500.786	646.5
501.003	654.5
501.22	642.5
501.437	606.5
501.654	617.5
501.871	572.5
502.088	574.5
502.305	538.5
502.522	541.5
502.739	518.5
502.956	505.5
503.172	494.5
503.389	482.5
503.606	480.5
503.823	509.5
504.04	482.5
504.256	486.5
504.473	471.5
504.69	463.5
504.907	443.5
505.123	457.5
505.34	459.5
505.557	455.5
505.773	446.5
505.99	449.5
506.207	456.5
506.423	459.5
506.64	445.5
506.856	452.5
507.073	436.5
507.289	429.5
507.506	435.5
507.722	436.5
507.939	443.5
508.155	433.5
508.372	425.5
508.588	418.5
508.805	404.5
509.021	422.5
509.238	428.5
509.454	428.5
509.67	422.5
509.887	428.5
510.103	408.5
510.319	413.5
510.536	439.5
510.752	646.5
510.968	543.5
511.184	412.5
511.401	403.5
511.617	406.5
511.833	400.5
512.049	406.5
512.265	379.5
512.481	386.5
512.698	375.5
512.914	370.5
513.13	388.5
513.346	387.5
513.562	397.5
513.778	408.5
513.994	411.5
514.21	402.5
514.426	403.5
514.642	424.5
514.858	426.5
515.074	452.5
515.29	483.5
515.506	630.5
515.721	548.5
515.937	446.5
516.153	426.5
516.369	404.5
516.585	413.5
516.801	420.5
517.016	408.5
517.232	411.5
517.448	411.5
517.664	414.5
517.879	407.5
518.095	419.5
518.311	413.5
518.527	414.5
518.742	411.5
518.958	380.5
519.173	410.5
519.389	409.5
519.605	391.5
519.82	388.5
520.036	396.5
