Data from 1971.PennyLincolnUp.Lamp.En5.5.200Scan.071719.P1.Scan 2. Changed Angle._HRD10591_15-22-46-842.txt Node
Date: Thu Jul 18 15:22:46 EDT 2019
User: cochatt
Spectrometer: HR+D1059
Trigger mode: 1
Integration Time (sec): 1.000000E-1
Scans to average: 1
Electric dark correction enabled: true
Nonlinearity correction enabled: false
Boxcar width: 0
XAxis mode: Wavelengths
Number of Pixels in Spectrum: 2048
>>>>>Begin Spectral Data<<<<<
223.165	-14.5
223.4	-14.5
223.635	-14.5
223.869	-21.5
224.104	-14.5
224.338	-10.5
224.573	-7.5
224.808	-0.5
225.042	-5.5
225.277	-6.5
225.511	-18.5
225.746	2.5
225.98	14.5
226.215	0.5
226.449	14.5
226.683	12.5
226.918	21.5
227.152	33.5
227.387	36.5
227.621	33.5
227.856	50.5
228.09	43.5
228.324	45.5
228.559	64.5
228.793	64.5
229.027	92.5
229.262	113.5
229.496	104.5
229.73	131.5
229.964	129.5
230.199	129.5
230.433	106.5
230.667	116.5
230.901	106.5
231.136	118.5
231.37	117.5
231.604	105.5
231.838	111.5
232.072	108.5
232.306	115.5
232.541	113.5
232.775	124.5
233.009	105.5
233.243	119.5
233.477	122.5
233.711	121.5
233.945	113.5
234.179	118.5
234.413	111.5
234.647	113.5
234.881	113.5
235.115	118.5
235.349	115.5
235.583	109.5
235.817	127.5
236.051	115.5
236.285	115.5
236.519	125.5
236.753	124.5
236.987	134.5
237.221	171.5
237.455	240.5
237.689	165.5
237.922	147.5
238.156	140.5
238.39	115.5
238.624	117.5
238.858	115.5
239.091	127.5
239.325	117.5
239.559	123.5
239.793	122.5
240.027	130.5
240.26	149.5
240.494	145.5
240.728	155.5
240.961	155.5
241.195	129.5
241.429	128.5
241.662	119.5
241.896	119.5
242.13	144.5
242.363	145.5
242.597	131.5
242.83	134.5
243.064	131.5
243.298	143.5
243.531	139.5
243.765	133.5
243.998	138.5
244.232	139.5
244.465	153.5
244.699	130.5
244.932	151.5
245.166	145.5
245.399	144.5
245.633	145.5
245.866	148.5
246.099	140.5
246.333	139.5
246.566	128.5
246.8	142.5
247.033	141.5
247.266	156.5
247.5	171.5
247.733	171.5
247.966	153.5
248.2	169.5
248.433	164.5
248.666	173.5
248.899	184.5
249.133	195.5
249.366	191.5
249.599	190.5
249.832	180.5
250.066	173.5
250.299	183.5
250.532	173.5
250.765	183.5
250.998	219.5
251.231	227.5
251.465	210.5
251.698	195.5
251.931	189.5
252.164	194.5
252.397	209.5
252.63	202.5
252.863	199.5
253.096	195.5
253.329	215.5
253.562	225.5
253.795	195.5
254.028	221.5
254.261	209.5
254.494	213.5
254.727	239.5
254.96	266.5
255.193	274.5
255.426	244.5
255.659	237.5
255.892	215.5
256.124	209.5
256.357	218.5
256.59	223.5
256.823	197.5
257.056	201.5
257.289	222.5
257.521	217.5
257.754	190.5
257.987	199.5
258.22	209.5
258.452	204.5
258.685	202.5
258.918	192.5
259.151	197.5
259.383	200.5
259.616	195.5
259.849	213.5
260.081	213.5
260.314	224.5
260.547	255.5
260.779	233.5
261.012	230.5
261.244	211.5
261.477	207.5
261.71	232.5
261.942	197.5
262.175	224.5
262.407	207.5
262.64	211.5
262.872	199.5
263.105	192.5
263.337	213.5
263.57	200.5
263.802	189.5
264.035	187.5
264.267	200.5
264.499	200.5
264.732	211.5
264.964	204.5
265.197	187.5
265.429	180.5
265.661	207.5
265.894	216.5
266.126	195.5
266.358	198.5
266.591	208.5
266.823	205.5
267.055	203.5
267.287	207.5
267.52	218.5
267.752	211.5
267.984	206.5
268.216	208.5
268.448	213.5
268.681	209.5
268.913	205.5
269.145	228.5
269.377	230.5
269.609	246.5
269.841	247.5
270.073	247.5
270.306	263.5
270.538	275.5
270.77	272.5
271.002	269.5
271.234	275.5
271.466	263.5
271.698	272.5
271.93	296.5
272.162	290.5
272.394	290.5
272.626	287.5
272.858	261.5
273.09	270.5
273.322	263.5
273.553	235.5
273.785	250.5
274.017	246.5
274.249	241.5
274.481	235.5
274.713	234.5
274.945	244.5
275.176	234.5
275.408	237.5
275.64	215.5
275.872	221.5
276.104	237.5
276.335	230.5
276.567	241.5
276.799	244.5
277.031	280.5
277.262	280.5
277.494	287.5
277.726	276.5
277.957	231.5
278.189	249.5
278.421	234.5
278.652	253.5
278.884	221.5
279.115	239.5
279.347	222.5
279.579	230.5
279.81	222.5
280.042	231.5
280.273	230.5
280.505	245.5
280.736	230.5
280.968	226.5
281.199	215.5
281.431	237.5
281.662	243.5
281.894	218.5
282.125	230.5
282.356	248.5
282.588	267.5
282.819	279.5
283.051	247.5
283.282	237.5
283.513	227.5
283.745	247.5
283.976	248.5
284.207	245.5
284.439	247.5
284.67	257.5
284.901	232.5
285.132	232.5
285.364	236.5
285.595	240.5
285.826	243.5
286.057	248.5
286.288	229.5
286.52	240.5
286.751	235.5
286.982	236.5
287.213	240.5
287.444	235.5
287.675	249.5
287.906	256.5
288.138	253.5
288.369	256.5
288.6	266.5
288.831	242.5
289.062	264.5
289.293	228.5
289.524	247.5
289.755	248.5
289.986	245.5
290.217	237.5
290.448	232.5
290.679	252.5
290.91	238.5
291.141	243.5
291.371	252.5
291.602	249.5
291.833	231.5
292.064	250.5
292.295	246.5
292.526	236.5
292.757	253.5
292.987	247.5
293.218	247.5
293.449	272.5
293.68	256.5
293.91	259.5
294.141	249.5
294.372	235.5
294.603	245.5
294.833	255.5
295.064	233.5
295.295	251.5
295.525	255.5
295.756	254.5
295.987	253.5
296.217	269.5
296.448	298.5
296.679	262.5
296.909	254.5
297.14	261.5
297.37	255.5
297.601	253.5
297.831	259.5
298.062	262.5
298.292	263.5
298.523	264.5
298.753	272.5
298.984	239.5
299.214	248.5
299.445	263.5
299.675	240.5
299.905	290.5
300.136	275.5
300.366	269.5
300.597	248.5
300.827	268.5
301.057	271.5
301.288	267.5
301.518	276.5
301.748	264.5
301.979	277.5
302.209	278.5
302.439	281.5
302.669	276.5
302.9	263.5
303.13	268.5
303.36	284.5
303.59	273.5
303.82	276.5
304.051	275.5
304.281	279.5
304.511	265.5
304.741	283.5
304.971	275.5
305.201	268.5
305.431	271.5
305.661	272.5
305.891	281.5
306.121	280.5
306.352	279.5
306.582	284.5
306.812	282.5
307.042	293.5
307.272	285.5
307.502	277.5
307.731	283.5
307.961	291.5
308.191	280.5
308.421	284.5
308.651	286.5
308.881	285.5
309.111	277.5
309.341	285.5
309.571	312.5
309.8	323.5
310.03	323.5
310.26	315.5
310.49	309.5
310.72	313.5
310.949	339.5
311.179	359.5
311.409	335.5
311.639	304.5
311.868	325.5
312.098	328.5
312.328	336.5
312.557	337.5
312.787	372.5
313.017	356.5
313.246	336.5
313.476	336.5
313.706	334.5
313.935	326.5
314.165	360.5
314.394	351.5
314.624	338.5
314.853	334.5
315.083	335.5
315.312	311.5
315.542	305.5
315.771	315.5
316.001	312.5
316.23	328.5
316.46	315.5
316.689	309.5
316.919	315.5
317.148	326.5
317.377	337.5
317.607	333.5
317.836	330.5
318.065	330.5
318.295	329.5
318.524	299.5
318.753	332.5
318.983	334.5
319.212	341.5
319.441	336.5
319.67	320.5
319.9	331.5
320.129	323.5
320.358	329.5
320.587	315.5
320.816	337.5
321.046	334.5
321.275	324.5
321.504	338.5
321.733	343.5
321.962	364.5
322.191	352.5
322.42	372.5
322.649	383.5
322.878	411.5
323.108	402.5
323.337	426.5
323.566	425.5
323.795	469.5
324.024	515.5
324.253	622.5
324.482	905.5
324.71	1381.5
324.939	2037.5
325.168	1776.5
325.397	929.5
325.626	590.5
325.855	501.5
326.084	458.5
326.313	464.5
326.542	459.5
326.77	496.5
326.999	598.5
327.228	825.5
327.457	1255.5
327.686	1543.5
327.914	1040.5
328.143	663.5
328.372	574.5
328.6	515.5
328.829	505.5
329.058	529.5
329.287	540.5
329.515	507.5
329.744	467.5
329.972	436.5
330.201	447.5
330.43	480.5
330.658	516.5
330.887	565.5
331.115	542.5
331.344	465.5
331.572	437.5
331.801	443.5
332.03	404.5
332.258	422.5
332.486	387.5
332.715	391.5
332.943	393.5
333.172	378.5
333.4	394.5
333.629	402.5
333.857	417.5
334.085	423.5
334.314	426.5
334.542	450.5
334.771	445.5
334.999	414.5
335.227	397.5
335.455	401.5
335.684	384.5
335.912	399.5
336.14	387.5
336.369	376.5
336.597	389.5
336.825	379.5
337.053	385.5
337.281	384.5
337.51	386.5
337.738	382.5
337.966	380.5
338.194	379.5
338.422	379.5
338.65	373.5
338.878	377.5
339.106	381.5
339.334	376.5
339.562	376.5
339.79	366.5
340.018	366.5
340.246	376.5
340.474	373.5
340.702	366.5
340.93	383.5
341.158	359.5
341.386	387.5
341.614	366.5
341.842	365.5
342.07	382.5
342.298	377.5
342.526	343.5
342.754	363.5
342.981	360.5
343.209	358.5
343.437	370.5
343.665	367.5
343.893	365.5
344.12	371.5
344.348	390.5
344.576	379.5
344.804	396.5
345.031	392.5
345.259	410.5
345.487	382.5
345.714	390.5
345.942	366.5
346.17	389.5
346.397	376.5
346.625	389.5
346.853	365.5
347.08	347.5
347.308	386.5
347.535	381.5
347.763	391.5
347.99	381.5
348.218	371.5
348.445	398.5
348.673	386.5
348.9	365.5
349.128	353.5
349.355	356.5
349.583	360.5
349.81	364.5
350.037	351.5
350.265	377.5
350.492	393.5
350.72	359.5
350.947	351.5
351.174	377.5
351.402	389.5
351.629	371.5
351.856	377.5
352.083	395.5
352.311	384.5
352.538	390.5
352.765	404.5
352.992	394.5
353.22	384.5
353.447	365.5
353.674	362.5
353.901	354.5
354.128	340.5
354.355	364.5
354.583	358.5
354.81	345.5
355.037	342.5
355.264	345.5
355.491	344.5
355.718	336.5
355.945	327.5
356.172	356.5
356.399	356.5
356.626	320.5
356.853	352.5
357.08	349.5
357.307	345.5
357.534	328.5
357.761	348.5
357.988	385.5
358.215	344.5
358.441	351.5
358.668	337.5
358.895	354.5
359.122	371.5
359.349	355.5
359.576	371.5
359.802	395.5
360.029	418.5
360.256	444.5
360.483	413.5
360.709	377.5
360.936	394.5
361.163	382.5
361.39	375.5
361.616	391.5
361.843	374.5
362.07	382.5
362.296	401.5
362.523	376.5
362.749	381.5
362.976	371.5
363.203	373.5
363.429	351.5
363.656	369.5
363.882	359.5
364.109	357.5
364.335	355.5
364.562	367.5
364.788	359.5
365.015	374.5
365.241	365.5
365.468	359.5
365.694	371.5
365.92	392.5
366.147	371.5
366.373	364.5
366.599	360.5
366.826	343.5
367.052	382.5
367.278	367.5
367.505	387.5
367.731	366.5
367.957	367.5
368.184	364.5
368.41	374.5
368.636	377.5
368.862	400.5
369.089	380.5
369.315	334.5
369.541	362.5
369.767	360.5
369.993	377.5
370.219	371.5
370.445	375.5
370.672	347.5
370.898	343.5
371.124	371.5
371.35	363.5
371.576	331.5
371.802	346.5
372.028	353.5
372.254	350.5
372.48	373.5
372.706	385.5
372.932	361.5
373.158	363.5
373.384	377.5
373.61	366.5
373.835	376.5
374.061	341.5
374.287	363.5
374.513	355.5
374.739	363.5
374.965	391.5
375.191	380.5
375.416	365.5
375.642	364.5
375.868	367.5
376.094	383.5
376.319	373.5
376.545	375.5
376.771	352.5
376.997	346.5
377.222	377.5
377.448	368.5
377.674	337.5
377.899	347.5
378.125	373.5
378.35	379.5
378.576	384.5
378.802	387.5
379.027	367.5
379.253	366.5
379.478	357.5
379.704	368.5
379.929	344.5
380.155	375.5
380.38	369.5
380.606	363.5
380.831	339.5
381.057	377.5
381.282	353.5
381.507	396.5
381.733	375.5
381.958	371.5
382.184	358.5
382.409	366.5
382.634	365.5
382.86	379.5
383.085	390.5
383.31	377.5
383.535	398.5
383.761	367.5
383.986	375.5
384.211	391.5
384.436	376.5
384.662	381.5
384.887	401.5
385.112	381.5
385.337	383.5
385.562	383.5
385.787	390.5
386.013	405.5
386.238	418.5
386.463	396.5
386.688	399.5
386.913	409.5
387.138	389.5
387.363	392.5
387.588	407.5
387.813	383.5
388.038	393.5
388.263	397.5
388.488	397.5
388.713	395.5
388.938	395.5
389.163	390.5
389.387	383.5
389.612	403.5
389.837	390.5
390.062	411.5
390.287	412.5
390.512	393.5
390.736	399.5
390.961	388.5
391.186	389.5
391.411	397.5
391.636	392.5
391.86	407.5
392.085	405.5
392.31	401.5
392.534	385.5
392.759	391.5
392.984	418.5
393.208	408.5
393.433	431.5
393.658	443.5
393.882	387.5
394.107	390.5
394.331	407.5
394.556	398.5
394.78	392.5
395.005	413.5
395.229	388.5
395.454	419.5
395.678	405.5
395.903	425.5
396.127	425.5
396.352	439.5
396.576	435.5
396.801	421.5
397.025	420.5
397.249	446.5
397.474	413.5
397.698	410.5
397.922	453.5
398.147	453.5
398.371	448.5
398.595	450.5
398.82	451.5
399.044	437.5
399.268	459.5
399.492	475.5
399.717	491.5
399.941	517.5
400.165	528.5
400.389	555.5
400.613	513.5
400.837	478.5
401.062	464.5
401.286	460.5
401.51	447.5
401.734	444.5
401.958	456.5
402.182	463.5
402.406	491.5
402.63	469.5
402.854	452.5
403.078	466.5
403.302	483.5
403.526	491.5
403.75	484.5
403.974	466.5
404.198	451.5
404.422	460.5
404.645	465.5
404.869	475.5
405.093	502.5
405.317	539.5
405.541	561.5
405.765	535.5
405.988	500.5
406.212	497.5
406.436	536.5
406.66	537.5
406.883	508.5
407.107	542.5
407.331	573.5
407.555	609.5
407.778	632.5
408.002	566.5
408.226	527.5
408.449	518.5
408.673	525.5
408.896	534.5
409.12	606.5
409.344	564.5
409.567	512.5
409.791	492.5
410.014	481.5
410.238	475.5
410.461	472.5
410.685	513.5
410.908	495.5
411.132	535.5
411.355	571.5
411.578	552.5
411.802	489.5
412.025	475.5
412.249	480.5
412.472	502.5
412.695	521.5
412.919	523.5
413.142	491.5
413.365	469.5
413.589	456.5
413.812	459.5
414.035	453.5
414.258	466.5
414.482	455.5
414.705	447.5
414.928	464.5
415.151	444.5
415.374	456.5
415.597	461.5
415.821	445.5
416.044	442.5
416.267	475.5
416.49	446.5
416.713	453.5
416.936	447.5
417.159	451.5
417.382	453.5
417.605	447.5
417.828	480.5
418.051	468.5
418.274	464.5
418.497	476.5
418.72	468.5
418.943	465.5
419.166	462.5
419.389	495.5
419.611	485.5
419.834	467.5
420.057	502.5
420.28	497.5
420.503	462.5
420.726	487.5
420.948	493.5
421.171	527.5
421.394	551.5
421.617	508.5
421.839	491.5
422.062	483.5
422.285	517.5
422.507	558.5
422.73	620.5
422.953	604.5
423.175	534.5
423.398	519.5
423.621	513.5
423.843	539.5
424.066	531.5
424.288	527.5
424.511	544.5
424.733	602.5
424.956	677.5
425.178	663.5
425.401	653.5
425.623	677.5
425.846	598.5
426.068	558.5
426.291	505.5
426.513	547.5
426.735	547.5
426.958	571.5
427.18	666.5
427.402	782.5
427.625	864.5
427.847	765.5
428.069	676.5
428.292	579.5
428.514	541.5
428.736	520.5
428.958	511.5
429.181	488.5
429.403	480.5
429.625	486.5
429.847	557.5
430.069	600.5
430.292	604.5
430.514	512.5
430.736	485.5
430.958	499.5
431.18	485.5
431.402	488.5
431.624	476.5
431.846	456.5
432.068	474.5
432.29	473.5
432.512	463.5
432.734	479.5
432.956	465.5
433.178	466.5
433.4	484.5
433.622	464.5
433.844	487.5
434.066	458.5
434.287	467.5
434.509	485.5
434.731	487.5
434.953	494.5
435.175	524.5
435.397	541.5
435.618	548.5
435.84	569.5
436.062	672.5
436.284	727.5
436.505	619.5
436.727	535.5
436.949	525.5
437.17	509.5
437.392	501.5
437.614	519.5
437.835	544.5
438.057	635.5
438.278	739.5
438.5	731.5
438.721	783.5
438.943	768.5
439.165	651.5
439.386	575.5
439.608	570.5
439.829	542.5
440.05	582.5
440.272	621.5
440.493	591.5
440.715	545.5
440.936	509.5
441.158	500.5
441.379	512.5
441.6	519.5
441.822	548.5
442.043	568.5
442.264	660.5
442.486	707.5
442.707	606.5
442.928	546.5
443.149	567.5
443.371	590.5
443.592	621.5
443.813	707.5
444.034	739.5
444.255	645.5
444.476	567.5
444.698	563.5
444.919	522.5
445.14	656.5
445.361	594.5
445.582	567.5
445.803	661.5
446.024	751.5
446.245	740.5
446.466	693.5
446.687	604.5
446.908	549.5
447.129	519.5
447.35	511.5
447.571	518.5
447.792	482.5
448.013	501.5
448.234	531.5
448.455	580.5
448.675	685.5
448.896	773.5
449.117	661.5
449.338	638.5
449.559	740.5
449.779	816.5
450	688.5
450.221	567.5
450.442	510.5
450.662	511.5
450.883	510.5
451.104	505.5
451.324	519.5
451.545	502.5
451.766	481.5
451.986	445.5
452.207	450.5
452.428	446.5
452.648	452.5
452.869	465.5
453.089	455.5
453.31	467.5
453.53	464.5
453.751	439.5
453.971	473.5
454.192	474.5
454.412	478.5
454.633	442.5
454.853	432.5
455.073	435.5
455.294	482.5
455.514	520.5
455.734	527.5
455.955	455.5
456.175	445.5
456.395	440.5
456.616	428.5
456.836	426.5
457.056	437.5
457.276	405.5
457.497	420.5
457.717	420.5
457.937	451.5
458.157	426.5
458.377	426.5
458.598	450.5
458.818	519.5
459.038	602.5
459.258	623.5
459.478	533.5
459.698	487.5
459.918	462.5
460.138	457.5
460.358	470.5
460.578	473.5
460.798	446.5
461.018	465.5
461.238	460.5
461.458	463.5
461.678	470.5
461.898	474.5
462.118	455.5
462.338	488.5
462.558	443.5
462.777	451.5
462.997	470.5
463.217	483.5
463.437	496.5
463.657	491.5
463.876	475.5
464.096	481.5
464.316	484.5
464.536	503.5
464.755	495.5
464.975	504.5
465.195	555.5
465.414	613.5
465.634	560.5
465.854	513.5
466.073	484.5
466.293	475.5
466.512	449.5
466.732	456.5
466.951	470.5
467.171	452.5
467.391	467.5
467.61	460.5
467.829	473.5
468.049	475.5
468.268	469.5
468.488	438.5
468.707	471.5
468.927	460.5
469.146	455.5
469.365	440.5
469.585	443.5
469.804	458.5
470.023	477.5
470.243	441.5
470.462	456.5
470.681	475.5
470.901	492.5
471.12	455.5
471.339	463.5
471.558	471.5
471.777	471.5
471.997	451.5
472.216	477.5
472.435	502.5
472.654	462.5
472.873	475.5
473.092	435.5
473.311	475.5
473.53	471.5
473.749	455.5
473.968	516.5
474.187	601.5
474.406	623.5
474.625	549.5
474.844	488.5
475.063	467.5
475.282	455.5
475.501	501.5
475.72	493.5
475.939	487.5
476.158	475.5
476.377	482.5
476.596	480.5
476.814	496.5
477.033	482.5
477.252	511.5
477.471	509.5
477.69	488.5
477.908	479.5
478.127	496.5
478.346	511.5
478.564	524.5
478.783	522.5
479.002	528.5
479.22	528.5
479.439	543.5
479.658	550.5
479.876	556.5
480.095	584.5
480.313	577.5
480.532	576.5
480.751	579.5
480.969	571.5
481.188	613.5
481.406	653.5
481.624	586.5
481.843	577.5
482.061	543.5
482.28	530.5
482.498	548.5
482.717	553.5
482.935	545.5
483.153	565.5
483.372	557.5
483.59	553.5
483.808	555.5
484.027	540.5
484.245	569.5
484.463	573.5
484.681	574.5
484.9	560.5
485.118	570.5
485.336	582.5
485.554	567.5
485.772	567.5
485.99	570.5
486.209	589.5
486.427	552.5
486.645	593.5
486.863	616.5
487.081	614.5
487.299	598.5
487.517	602.5
487.735	591.5
487.953	630.5
488.171	621.5
488.389	613.5
488.607	607.5
488.825	632.5
489.043	615.5
489.261	601.5
489.479	610.5
489.696	617.5
489.914	640.5
490.132	620.5
490.35	647.5
490.568	640.5
490.786	650.5
491.003	680.5
491.221	682.5
491.439	680.5
491.657	679.5
491.874	694.5
492.092	681.5
492.31	714.5
492.527	707.5
492.745	701.5
492.963	733.5
493.18	716.5
493.398	744.5
493.615	734.5
493.833	726.5
494.05	742.5
494.268	723.5
494.485	744.5
494.703	742.5
494.92	717.5
495.138	695.5
495.355	709.5
495.573	750.5
495.79	737.5
496.008	732.5
496.225	729.5
496.442	688.5
496.66	725.5
496.877	727.5
497.094	724.5
497.312	725.5
497.529	726.5
497.746	718.5
497.963	751.5
498.181	765.5
498.398	764.5
498.615	784.5
498.832	767.5
499.049	799.5
499.267	799.5
499.484	845.5
499.701	871.5
499.918	847.5
500.135	881.5
500.352	886.5
500.569	885.5
500.786	908.5
501.003	936.5
501.22	883.5
501.437	867.5
501.654	877.5
501.871	873.5
502.088	861.5
502.305	839.5
502.522	771.5
502.739	778.5
502.956	775.5
503.172	761.5
503.389	728.5
503.606	771.5
503.823	744.5
504.04	740.5
504.256	729.5
504.473	739.5
504.69	723.5
504.907	730.5
505.123	713.5
505.34	703.5
505.557	688.5
505.773	695.5
505.99	719.5
506.207	723.5
506.423	714.5
506.64	713.5
506.856	684.5
507.073	679.5
507.289	695.5
507.506	672.5
507.722	710.5
507.939	716.5
508.155	708.5
508.372	656.5
508.588	673.5
508.805	647.5
509.021	651.5
509.238	667.5
509.454	660.5
509.67	687.5
509.887	672.5
510.103	663.5
510.319	679.5
510.536	768.5
510.752	1285.5
510.968	1084.5
511.184	717.5
511.401	665.5
511.617	643.5
511.833	643.5
512.049	618.5
512.265	620.5
512.481	640.5
512.698	633.5
512.914	613.5
513.13	629.5
513.346	639.5
513.562	621.5
513.778	627.5
513.994	645.5
514.21	631.5
514.426	681.5
514.642	726.5
514.858	753.5
515.074	809.5
515.29	948.5
515.506	1410.5
515.721	1200.5
515.937	799.5
516.153	715.5
516.369	679.5
516.585	661.5
516.801	644.5
517.016	623.5
517.232	655.5
517.448	647.5
517.664	631.5
517.879	643.5
518.095	627.5
518.311	631.5
518.527	597.5
518.742	614.5
518.958	638.5
519.173	631.5
519.389	615.5
