Data from 1971.PennyLincolnUp.Lamp.En5.5.200Scan.071719.P1.Scan 2. Changed Angle._HRD10591_15-22-24-841.txt Node
Date: Thu Jul 18 15:22:24 EDT 2019
User: cochatt
Spectrometer: HR+D1059
Trigger mode: 1
Integration Time (sec): 1.000000E-1
Scans to average: 1
Electric dark correction enabled: true
Nonlinearity correction enabled: false
Boxcar width: 0
XAxis mode: Wavelengths
Number of Pixels in Spectrum: 2048
>>>>>Begin Spectral Data<<<<<
223.165	-18.5
223.4	-18.5
223.635	-18.5
223.869	-15.5
224.104	-7.5
224.338	-9.5
224.573	-15.5
224.808	-16.5
225.042	-10.5
225.277	-9.5
225.511	8.5
225.746	-6.5
225.98	-5.5
226.215	15.5
226.449	21.5
226.683	13.5
226.918	30.5
227.152	25.5
227.387	27.5
227.621	25.5
227.856	41.5
228.09	40.5
228.324	43.5
228.559	47.5
228.793	66.5
229.027	123.5
229.262	121.5
229.496	133.5
229.73	141.5
229.964	185.5
230.199	140.5
230.433	132.5
230.667	134.5
230.901	121.5
231.136	109.5
231.37	111.5
231.604	104.5
231.838	106.5
232.072	117.5
232.306	129.5
232.541	124.5
232.775	114.5
233.009	111.5
233.243	122.5
233.477	114.5
233.711	104.5
233.945	128.5
234.179	120.5
234.413	92.5
234.647	117.5
234.881	122.5
235.115	120.5
235.349	123.5
235.583	123.5
235.817	115.5
236.051	129.5
236.285	126.5
236.519	126.5
236.753	142.5
236.987	146.5
237.221	197.5
237.455	274.5
237.689	210.5
237.922	154.5
238.156	158.5
238.39	136.5
238.624	134.5
238.858	126.5
239.091	127.5
239.325	124.5
239.559	129.5
239.793	124.5
240.027	137.5
240.26	151.5
240.494	165.5
240.728	157.5
240.961	166.5
241.195	146.5
241.429	157.5
241.662	146.5
241.896	131.5
242.13	126.5
242.363	128.5
242.597	126.5
242.83	119.5
243.064	148.5
243.298	139.5
243.531	131.5
243.765	139.5
243.998	152.5
244.232	144.5
244.465	141.5
244.699	143.5
244.932	143.5
245.166	143.5
245.399	139.5
245.633	148.5
245.866	153.5
246.099	168.5
246.333	141.5
246.566	154.5
246.8	148.5
247.033	166.5
247.266	167.5
247.5	170.5
247.733	178.5
247.966	178.5
248.2	175.5
248.433	178.5
248.666	186.5
248.899	182.5
249.133	201.5
249.366	216.5
249.599	215.5
249.832	202.5
250.066	186.5
250.299	186.5
250.532	180.5
250.765	202.5
250.998	219.5
251.231	246.5
251.465	202.5
251.698	199.5
251.931	207.5
252.164	196.5
252.397	205.5
252.63	198.5
252.863	214.5
253.096	219.5
253.329	229.5
253.562	220.5
253.795	212.5
254.028	217.5
254.261	230.5
254.494	242.5
254.727	265.5
254.96	275.5
255.193	262.5
255.426	262.5
255.659	249.5
255.892	244.5
256.124	216.5
256.357	223.5
256.59	223.5
256.823	208.5
257.056	203.5
257.289	207.5
257.521	204.5
257.754	205.5
257.987	204.5
258.22	209.5
258.452	202.5
258.685	223.5
258.918	192.5
259.151	218.5
259.383	219.5
259.616	228.5
259.849	239.5
260.081	241.5
260.314	272.5
260.547	249.5
260.779	243.5
261.012	245.5
261.244	224.5
261.477	233.5
261.71	209.5
261.942	231.5
262.175	249.5
262.407	243.5
262.64	233.5
262.872	231.5
263.105	206.5
263.337	199.5
263.57	210.5
263.802	208.5
264.035	205.5
264.267	174.5
264.499	221.5
264.732	196.5
264.964	208.5
265.197	204.5
265.429	212.5
265.661	207.5
265.894	192.5
266.126	229.5
266.358	210.5
266.591	218.5
266.823	212.5
267.055	212.5
267.287	222.5
267.52	203.5
267.752	226.5
267.984	221.5
268.216	222.5
268.448	213.5
268.681	228.5
268.913	214.5
269.145	238.5
269.377	263.5
269.609	276.5
269.841	249.5
270.073	261.5
270.306	302.5
270.538	311.5
270.77	301.5
271.002	298.5
271.234	303.5
271.466	309.5
271.698	326.5
271.93	327.5
272.162	327.5
272.394	293.5
272.626	299.5
272.858	270.5
273.09	265.5
273.322	262.5
273.553	256.5
273.785	262.5
274.017	254.5
274.249	255.5
274.481	272.5
274.713	263.5
274.945	273.5
275.176	269.5
275.408	286.5
275.64	255.5
275.872	246.5
276.104	266.5
276.335	246.5
276.567	265.5
276.799	290.5
277.031	310.5
277.262	328.5
277.494	338.5
277.726	310.5
277.957	295.5
278.189	260.5
278.421	261.5
278.652	265.5
278.884	262.5
279.115	265.5
279.347	290.5
279.579	291.5
279.81	316.5
280.042	302.5
280.273	272.5
280.505	295.5
280.736	276.5
280.968	236.5
281.199	240.5
281.431	248.5
281.662	239.5
281.894	227.5
282.125	251.5
282.356	265.5
282.588	310.5
282.819	312.5
283.051	272.5
283.282	261.5
283.513	260.5
283.745	261.5
283.976	281.5
284.207	260.5
284.439	258.5
284.67	252.5
284.901	245.5
285.132	266.5
285.364	286.5
285.595	269.5
285.826	256.5
286.057	249.5
286.288	256.5
286.52	264.5
286.751	268.5
286.982	256.5
287.213	265.5
287.444	260.5
287.675	260.5
287.906	274.5
288.138	287.5
288.369	295.5
288.6	297.5
288.831	288.5
289.062	271.5
289.293	295.5
289.524	262.5
289.755	279.5
289.986	285.5
290.217	275.5
290.448	280.5
290.679	273.5
290.91	275.5
291.141	261.5
291.371	259.5
291.602	255.5
291.833	264.5
292.064	242.5
292.295	271.5
292.526	263.5
292.757	258.5
292.987	240.5
293.218	251.5
293.449	260.5
293.68	254.5
293.91	246.5
294.141	278.5
294.372	272.5
294.603	270.5
294.833	265.5
295.064	277.5
295.295	285.5
295.525	283.5
295.756	302.5
295.987	307.5
296.217	310.5
296.448	329.5
296.679	299.5
296.909	286.5
297.14	274.5
297.37	262.5
297.601	260.5
297.831	270.5
298.062	294.5
298.292	284.5
298.523	291.5
298.753	288.5
298.984	294.5
299.214	266.5
299.445	287.5
299.675	293.5
299.905	292.5
300.136	306.5
300.366	294.5
300.597	301.5
300.827	297.5
301.057	302.5
301.288	295.5
301.518	310.5
301.748	304.5
301.979	312.5
302.209	296.5
302.439	322.5
302.669	307.5
302.9	306.5
303.13	293.5
303.36	296.5
303.59	308.5
303.82	316.5
304.051	325.5
304.281	309.5
304.511	297.5
304.741	288.5
304.971	293.5
305.201	284.5
305.431	289.5
305.661	291.5
305.891	314.5
306.121	300.5
306.352	325.5
306.582	325.5
306.812	302.5
307.042	318.5
307.272	314.5
307.502	319.5
307.731	294.5
307.961	318.5
308.191	321.5
308.421	330.5
308.651	302.5
308.881	319.5
309.111	336.5
309.341	345.5
309.571	349.5
309.8	354.5
310.03	359.5
310.26	396.5
310.49	377.5
310.72	390.5
310.949	422.5
311.179	417.5
311.409	391.5
311.639	390.5
311.868	370.5
312.098	350.5
312.328	376.5
312.557	414.5
312.787	438.5
313.017	413.5
313.246	406.5
313.476	387.5
313.706	382.5
313.935	384.5
314.165	400.5
314.394	412.5
314.624	400.5
314.853	413.5
315.083	388.5
315.312	373.5
315.542	384.5
315.771	384.5
316.001	380.5
316.23	405.5
316.46	408.5
316.689	379.5
316.919	373.5
317.148	398.5
317.377	400.5
317.607	393.5
317.836	421.5
318.065	434.5
318.295	443.5
318.524	403.5
318.753	392.5
318.983	379.5
319.212	386.5
319.441	389.5
319.67	411.5
319.9	379.5
320.129	362.5
320.358	400.5
320.587	388.5
320.816	398.5
321.046	407.5
321.275	404.5
321.504	386.5
321.733	396.5
321.962	388.5
322.191	431.5
322.42	461.5
322.649	486.5
322.878	515.5
323.108	504.5
323.337	544.5
323.566	579.5
323.795	624.5
324.024	699.5
324.253	906.5
324.482	1366.5
324.71	2242.5
324.939	3191.5
325.168	2716.5
325.397	1314.5
325.626	816.5
325.855	648.5
326.084	591.5
326.313	572.5
326.542	571.5
326.77	643.5
326.999	800.5
327.228	1243.5
327.457	1940.5
327.686	2403.5
327.914	1574.5
328.143	959.5
328.372	807.5
328.6	734.5
328.829	666.5
329.058	687.5
329.287	719.5
329.515	655.5
329.744	559.5
329.972	551.5
330.201	559.5
330.43	608.5
330.658	678.5
330.887	743.5
331.115	742.5
331.344	584.5
331.572	538.5
331.801	543.5
332.03	534.5
332.258	505.5
332.486	472.5
332.715	436.5
332.943	447.5
333.172	448.5
333.4	441.5
333.629	454.5
333.857	444.5
334.085	469.5
334.314	484.5
334.542	460.5
334.771	489.5
334.999	463.5
335.227	451.5
335.455	434.5
335.684	422.5
335.912	416.5
336.14	425.5
336.369	426.5
336.597	444.5
336.825	438.5
337.053	430.5
337.281	424.5
337.51	413.5
337.738	424.5
337.966	431.5
338.194	459.5
338.422	487.5
338.65	452.5
338.878	419.5
339.106	419.5
339.334	430.5
339.562	416.5
339.79	419.5
340.018	406.5
340.246	410.5
340.474	435.5
340.702	445.5
340.93	419.5
341.158	438.5
341.386	430.5
341.614	430.5
341.842	420.5
342.07	416.5
342.298	404.5
342.526	418.5
342.754	406.5
342.981	379.5
343.209	408.5
343.437	392.5
343.665	405.5
343.893	406.5
344.12	420.5
344.348	399.5
344.576	423.5
344.804	437.5
345.031	440.5
345.259	473.5
345.487	458.5
345.714	444.5
345.942	434.5
346.17	414.5
346.397	410.5
346.625	414.5
346.853	408.5
347.08	413.5
347.308	423.5
347.535	463.5
347.763	440.5
347.99	434.5
348.218	428.5
348.445	450.5
348.673	444.5
348.9	421.5
349.128	415.5
349.355	411.5
349.583	399.5
349.81	426.5
350.037	413.5
350.265	398.5
350.492	403.5
350.72	410.5
350.947	413.5
351.174	432.5
351.402	452.5
351.629	446.5
351.856	443.5
352.083	455.5
352.311	483.5
352.538	470.5
352.765	467.5
352.992	449.5
353.22	441.5
353.447	440.5
353.674	398.5
353.901	394.5
354.128	375.5
354.355	378.5
354.583	386.5
354.81	381.5
355.037	370.5
355.264	390.5
355.491	367.5
355.718	366.5
355.945	374.5
356.172	381.5
356.399	379.5
356.626	376.5
356.853	381.5
357.08	389.5
357.307	384.5
357.534	365.5
357.761	380.5
357.988	402.5
358.215	403.5
358.441	396.5
358.668	379.5
358.895	420.5
359.122	402.5
359.349	414.5
359.576	454.5
359.802	485.5
360.029	504.5
360.256	566.5
360.483	520.5
360.709	450.5
360.936	436.5
361.163	425.5
361.39	430.5
361.616	453.5
361.843	436.5
362.07	447.5
362.296	458.5
362.523	446.5
362.749	438.5
362.976	421.5
363.203	428.5
363.429	399.5
363.656	418.5
363.882	412.5
364.109	392.5
364.335	401.5
364.562	401.5
364.788	427.5
365.015	394.5
365.241	409.5
365.468	406.5
365.694	434.5
365.92	429.5
366.147	406.5
366.373	410.5
366.599	381.5
366.826	399.5
367.052	409.5
367.278	396.5
367.505	417.5
367.731	392.5
367.957	424.5
368.184	407.5
368.41	418.5
368.636	428.5
368.862	439.5
369.089	426.5
369.315	426.5
369.541	406.5
369.767	405.5
369.993	420.5
370.219	392.5
370.445	391.5
370.672	401.5
370.898	383.5
371.124	399.5
371.35	380.5
371.576	381.5
371.802	384.5
372.028	379.5
372.254	392.5
372.48	399.5
372.706	387.5
372.932	397.5
373.158	406.5
373.384	393.5
373.61	409.5
373.835	413.5
374.061	430.5
374.287	420.5
374.513	423.5
374.739	400.5
374.965	384.5
375.191	399.5
375.416	389.5
375.642	404.5
375.868	404.5
376.094	418.5
376.319	390.5
376.545	376.5
376.771	384.5
376.997	378.5
377.222	411.5
377.448	381.5
377.674	382.5
377.899	376.5
378.125	375.5
378.35	378.5
378.576	396.5
378.802	392.5
379.027	383.5
379.253	379.5
379.478	380.5
379.704	390.5
379.929	392.5
380.155	399.5
380.38	395.5
380.606	399.5
380.831	430.5
381.057	420.5
381.282	399.5
381.507	404.5
381.733	378.5
381.958	411.5
382.184	409.5
382.409	400.5
382.634	407.5
382.86	419.5
383.085	405.5
383.31	412.5
383.535	414.5
383.761	416.5
383.986	418.5
384.211	416.5
384.436	415.5
384.662	427.5
384.887	414.5
385.112	424.5
385.337	427.5
385.562	434.5
385.787	445.5
386.013	464.5
386.238	464.5
386.463	463.5
386.688	438.5
386.913	410.5
387.138	420.5
387.363	470.5
387.588	434.5
387.813	410.5
388.038	424.5
388.263	450.5
388.488	439.5
388.713	434.5
388.938	414.5
389.163	426.5
389.387	422.5
389.612	415.5
389.837	425.5
390.062	442.5
390.287	416.5
390.512	420.5
390.736	414.5
390.961	435.5
391.186	434.5
391.411	440.5
391.636	443.5
391.86	458.5
392.085	461.5
392.31	458.5
392.534	469.5
392.759	516.5
392.984	571.5
393.208	842.5
393.433	1252.5
393.658	1360.5
393.882	716.5
394.107	554.5
394.331	473.5
394.556	445.5
394.78	459.5
395.005	443.5
395.229	442.5
395.454	450.5
395.678	450.5
395.903	464.5
396.127	534.5
396.352	576.5
396.576	606.5
396.801	795.5
397.025	1038.5
397.249	808.5
397.474	574.5
397.698	509.5
397.922	486.5
398.147	495.5
398.371	508.5
398.595	482.5
398.82	478.5
399.044	499.5
399.268	487.5
399.492	528.5
399.717	535.5
399.941	555.5
400.165	614.5
400.389	611.5
400.613	580.5
400.837	499.5
401.062	502.5
401.286	508.5
401.51	509.5
401.734	518.5
401.958	491.5
402.182	506.5
402.406	528.5
402.63	550.5
402.854	501.5
403.078	496.5
403.302	524.5
403.526	528.5
403.75	507.5
403.974	492.5
404.198	523.5
404.422	520.5
404.645	514.5
404.869	539.5
405.093	550.5
405.317	578.5
405.541	618.5
405.765	586.5
405.988	553.5
406.212	566.5
406.436	607.5
406.66	615.5
406.883	578.5
407.107	591.5
407.331	666.5
407.555	702.5
407.778	696.5
408.002	652.5
408.226	579.5
408.449	552.5
408.673	559.5
408.896	593.5
409.12	669.5
409.344	632.5
409.567	559.5
409.791	521.5
410.014	522.5
410.238	527.5
410.461	519.5
410.685	521.5
410.908	523.5
411.132	580.5
411.355	647.5
411.578	597.5
411.802	528.5
412.025	526.5
412.249	525.5
412.472	516.5
412.695	550.5
412.919	538.5
413.142	524.5
413.365	489.5
413.589	496.5
413.812	475.5
414.035	459.5
414.258	506.5
414.482	510.5
414.705	495.5
414.928	476.5
415.151	491.5
415.374	465.5
415.597	468.5
415.821	476.5
416.044	477.5
416.267	505.5
416.49	509.5
416.713	495.5
416.936	496.5
417.159	461.5
417.382	480.5
417.605	514.5
417.828	518.5
418.051	546.5
418.274	521.5
418.497	485.5
418.72	489.5
418.943	501.5
419.166	534.5
419.389	529.5
419.611	519.5
419.834	522.5
420.057	509.5
420.28	519.5
420.503	502.5
420.726	513.5
420.948	539.5
421.171	576.5
421.394	602.5
421.617	551.5
421.839	528.5
422.062	534.5
422.285	551.5
422.507	621.5
422.73	762.5
422.953	779.5
423.175	616.5
423.398	584.5
423.621	563.5
423.843	566.5
424.066	566.5
424.288	570.5
424.511	592.5
424.733	669.5
424.956	747.5
425.178	722.5
425.401	724.5
425.623	717.5
425.846	621.5
426.068	590.5
426.291	616.5
426.513	573.5
426.735	597.5
426.958	638.5
427.18	729.5
427.402	864.5
427.625	1003.5
427.847	926.5
428.069	778.5
428.292	667.5
428.514	599.5
428.736	560.5
428.958	564.5
429.181	552.5
429.403	547.5
429.625	564.5
429.847	589.5
430.069	694.5
430.292	674.5
430.514	581.5
430.736	559.5
430.958	528.5
431.18	523.5
431.402	498.5
431.624	493.5
431.846	503.5
432.068	510.5
432.29	483.5
432.512	503.5
432.734	512.5
432.956	499.5
433.178	529.5
433.4	546.5
433.622	526.5
433.844	509.5
434.066	507.5
434.287	493.5
434.509	486.5
434.731	528.5
434.953	535.5
435.175	548.5
435.397	590.5
435.618	593.5
435.84	642.5
436.062	735.5
436.284	825.5
436.505	697.5
436.727	620.5
436.949	586.5
437.17	540.5
437.392	541.5
437.614	570.5
437.835	631.5
438.057	761.5
438.278	874.5
438.5	831.5
438.721	928.5
438.943	861.5
439.165	685.5
439.386	650.5
439.608	622.5
439.829	644.5
440.05	678.5
440.272	734.5
440.493	687.5
440.715	609.5
440.936	566.5
441.158	560.5
441.379	568.5
441.6	579.5
441.822	593.5
442.043	671.5
442.264	745.5
442.486	782.5
442.707	647.5
442.928	591.5
443.149	636.5
443.371	666.5
443.592	709.5
443.813	814.5
444.034	813.5
444.255	700.5
444.476	625.5
444.698	605.5
444.919	598.5
445.14	660.5
445.361	653.5
445.582	660.5
445.803	760.5
446.024	878.5
446.245	885.5
446.466	782.5
446.687	683.5
446.908	610.5
447.129	594.5
447.35	554.5
447.571	544.5
447.792	540.5
448.013	565.5
448.234	584.5
448.455	646.5
448.675	745.5
448.896	896.5
449.117	753.5
449.338	727.5
449.559	844.5
449.779	922.5
450	772.5
450.221	617.5
450.442	580.5
450.662	575.5
450.883	596.5
451.104	626.5
451.324	607.5
451.545	556.5
451.766	539.5
451.986	505.5
452.207	518.5
452.428	517.5
452.648	500.5
452.869	508.5
453.089	544.5
453.31	541.5
453.53	504.5
453.751	504.5
453.971	502.5
454.192	575.5
454.412	531.5
454.633	547.5
454.853	511.5
455.073	500.5
455.294	548.5
455.514	628.5
455.734	600.5
455.955	517.5
456.175	483.5
456.395	490.5
456.616	459.5
456.836	466.5
457.056	438.5
457.276	429.5
457.497	463.5
457.717	482.5
457.937	474.5
458.157	469.5
458.377	476.5
458.598	518.5
458.818	608.5
459.038	766.5
459.258	733.5
459.478	622.5
459.698	561.5
459.918	537.5
460.138	531.5
460.358	522.5
460.578	503.5
460.798	518.5
461.018	523.5
461.238	513.5
461.458	500.5
461.678	482.5
461.898	476.5
462.118	490.5
462.338	521.5
462.558	513.5
462.777	511.5
462.997	515.5
463.217	530.5
463.437	537.5
463.657	513.5
463.876	533.5
464.096	539.5
464.316	524.5
464.536	565.5
464.755	559.5
464.975	596.5
465.195	678.5
465.414	858.5
465.634	726.5
465.854	613.5
466.073	559.5
466.293	522.5
466.512	545.5
466.732	496.5
466.951	534.5
467.171	514.5
467.391	530.5
467.61	518.5
467.829	550.5
468.049	534.5
468.268	517.5
468.488	503.5
468.707	485.5
468.927	479.5
469.146	490.5
469.365	522.5
469.585	506.5
469.804	511.5
470.023	543.5
470.243	529.5
470.462	532.5
470.681	564.5
470.901	559.5
471.12	550.5
471.339	514.5
471.558	517.5
471.777	498.5
471.997	486.5
472.216	487.5
472.435	540.5
472.654	523.5
472.873	500.5
473.092	486.5
473.311	489.5
473.53	511.5
473.749	536.5
473.968	557.5
474.187	688.5
474.406	692.5
474.625	570.5
474.844	532.5
475.063	523.5
475.282	485.5
475.501	499.5
475.72	530.5
475.939	535.5
476.158	516.5
476.377	559.5
476.596	535.5
476.814	534.5
477.033	549.5
477.252	551.5
477.471	543.5
477.69	551.5
477.908	550.5
478.127	568.5
478.346	565.5
478.564	580.5
478.783	556.5
479.002	579.5
479.22	580.5
479.439	604.5
479.658	646.5
479.876	646.5
480.095	667.5
480.313	658.5
480.532	636.5
480.751	599.5
480.969	638.5
481.188	694.5
481.406	713.5
481.624	651.5
481.843	639.5
482.061	622.5
482.28	614.5
482.498	627.5
482.717	592.5
482.935	623.5
483.153	612.5
483.372	618.5
483.59	615.5
483.808	616.5
484.027	607.5
484.245	656.5
484.463	622.5
484.681	639.5
484.9	623.5
485.118	635.5
485.336	623.5
485.554	642.5
485.772	623.5
485.99	628.5
486.209	639.5
486.427	643.5
486.645	672.5
486.863	700.5
487.081	699.5
487.299	701.5
487.517	689.5
487.735	687.5
487.953	682.5
488.171	688.5
488.389	694.5
488.607	679.5
488.825	688.5
489.043	648.5
489.261	673.5
489.479	671.5
489.696	679.5
489.914	680.5
490.132	682.5
490.35	707.5
490.568	705.5
490.786	724.5
491.003	738.5
491.221	730.5
491.439	779.5
491.657	749.5
491.874	764.5
492.092	764.5
492.31	780.5
492.527	795.5
492.745	755.5
492.963	772.5
493.18	790.5
493.398	792.5
493.615	785.5
493.833	804.5
494.05	827.5
494.268	796.5
494.485	772.5
494.703	770.5
494.92	757.5
495.138	778.5
495.355	790.5
495.573	774.5
495.79	800.5
496.008	795.5
496.225	802.5
496.442	764.5
496.66	789.5
496.877	747.5
497.094	796.5
497.312	794.5
497.529	823.5
497.746	823.5
497.963	838.5
498.181	829.5
498.398	851.5
498.615	846.5
498.832	841.5
499.049	858.5
499.267	857.5
499.484	875.5
499.701	911.5
499.918	896.5
500.135	939.5
500.352	941.5
500.569	934.5
500.786	990.5
501.003	946.5
501.22	959.5
501.437	974.5
501.654	964.5
501.871	943.5
502.088	933.5
502.305	885.5
502.522	872.5
502.739	850.5
502.956	815.5
503.172	820.5
503.389	794.5
503.606	836.5
503.823	850.5
504.04	816.5
504.256	825.5
504.473	757.5
504.69	740.5
504.907	787.5
505.123	786.5
505.34	765.5
505.557	763.5
505.773	781.5
505.99	779.5
506.207	772.5
506.423	750.5
506.64	771.5
506.856	727.5
507.073	730.5
507.289	765.5
507.506	756.5
507.722	798.5
507.939	877.5
508.155	802.5
508.372	772.5
508.588	744.5
508.805	739.5
509.021	722.5
509.238	728.5
509.454	751.5
509.67	782.5
509.887	742.5
510.103	740.5
510.319	778.5
510.536	955.5
510.752	1837.5
510.968	1464.5
511.184	842.5
511.401	782.5
511.617	748.5
511.833	721.5
512.049	721.5
512.265	723.5
512.481	729.5
512.698	727.5
512.914	732.5
513.13	734.5
513.346	712.5
513.562	734.5
513.778	734.5
513.994	756.5
514.21	790.5
514.426	868.5
514.642	971.5
514.858	997.5
515.074	1129.5
515.29	1399.5
515.506	2234.5
515.721	1732.5
515.937	1071.5
516.153	908.5
516.369	873.5
516.585	806.5
516.801	775.5
517.016	767.5
517.232	742.5
517.448	738.5
517.664	745.5
517.879	724.5
518.095	722.5
518.311	729.5
518.527	735.5
518.742	747.5
518.958	743.5
519.173	743.5
519.389	768.5
