Data from 1971.PennyLincolnUp.Lamp.En5.5.200Scan.071719.P1._HRD10591_15-20-36-841.txt Node
Date: Thu Jul 18 15:20:36 EDT 2019
User: cochatt
Spectrometer: HR+D1059
Trigger mode: 1
Integration Time (sec): 1.000000E-1
Scans to average: 1
Electric dark correction enabled: true
Nonlinearity correction enabled: false
Boxcar width: 0
XAxis mode: Wavelengths
Number of Pixels in Spectrum: 2048
>>>>>Begin Spectral Data<<<<<
223.165	-17.25
223.4	-17.25
223.635	-17.25
223.869	-8.25
224.104	-19.25
224.338	-25.25
224.573	-16.25
224.808	-5.25
225.042	-11.25
225.277	-4.25
225.511	3.75
225.746	1.75
225.98	-6.25
226.215	7.75
226.449	19.75
226.683	11.75
226.918	30.75
227.152	37.75
227.387	39.75
227.621	33.75
227.856	26.75
228.09	52.75
228.324	45.75
228.559	62.75
228.793	65.75
229.027	116.75
229.262	114.75
229.496	128.75
229.73	112.75
229.964	143.75
230.199	136.75
230.433	114.75
230.667	113.75
230.901	113.75
231.136	118.75
231.37	100.75
231.604	110.75
231.838	122.75
232.072	110.75
232.306	110.75
232.541	116.75
232.775	113.75
233.009	98.75
233.243	103.75
233.477	118.75
233.711	120.75
233.945	120.75
234.179	124.75
234.413	117.75
234.647	110.75
234.881	119.75
235.115	118.75
235.349	112.75
235.583	112.75
235.817	117.75
236.051	128.75
236.285	132.75
236.519	113.75
236.753	131.75
236.987	138.75
237.221	180.75
237.455	224.75
237.689	169.75
237.922	131.75
238.156	130.75
238.39	132.75
238.624	123.75
238.858	133.75
239.091	131.75
239.325	124.75
239.559	121.75
239.793	127.75
240.027	146.75
240.26	141.75
240.494	144.75
240.728	152.75
240.961	143.75
241.195	145.75
241.429	137.75
241.662	126.75
241.896	133.75
242.13	122.75
242.363	140.75
242.597	132.75
242.83	138.75
243.064	154.75
243.298	136.75
243.531	143.75
243.765	146.75
243.998	146.75
244.232	143.75
244.465	141.75
244.699	140.75
244.932	141.75
245.166	139.75
245.399	132.75
245.633	140.75
245.866	142.75
246.099	157.75
246.333	159.75
246.566	153.75
246.8	136.75
247.033	162.75
247.266	160.75
247.5	160.75
247.733	153.75
247.966	188.75
248.2	174.75
248.433	173.75
248.666	166.75
248.899	183.75
249.133	200.75
249.366	205.75
249.599	204.75
249.832	190.75
250.066	173.75
250.299	195.75
250.532	193.75
250.765	208.75
250.998	245.75
251.231	225.75
251.465	226.75
251.698	217.75
251.931	216.75
252.164	199.75
252.397	218.75
252.63	203.75
252.863	185.75
253.096	212.75
253.329	227.75
253.562	225.75
253.795	230.75
254.028	226.75
254.261	240.75
254.494	233.75
254.727	268.75
254.96	274.75
255.193	264.75
255.426	244.75
255.659	244.75
255.892	252.75
256.124	244.75
256.357	235.75
256.59	242.75
256.823	242.75
257.056	228.75
257.289	228.75
257.521	212.75
257.754	225.75
257.987	216.75
258.22	220.75
258.452	222.75
258.685	220.75
258.918	224.75
259.151	226.75
259.383	219.75
259.616	221.75
259.849	215.75
260.081	243.75
260.314	260.75
260.547	262.75
260.779	269.75
261.012	252.75
261.244	245.75
261.477	237.75
261.71	256.75
261.942	231.75
262.175	247.75
262.407	227.75
262.64	241.75
262.872	217.75
263.105	233.75
263.337	228.75
263.57	209.75
263.802	227.75
264.035	216.75
264.267	221.75
264.499	214.75
264.732	217.75
264.964	234.75
265.197	224.75
265.429	234.75
265.661	233.75
265.894	226.75
266.126	224.75
266.358	227.75
266.591	224.75
266.823	227.75
267.055	244.75
267.287	238.75
267.52	245.75
267.752	234.75
267.984	229.75
268.216	224.75
268.448	259.75
268.681	240.75
268.913	256.75
269.145	282.75
269.377	312.75
269.609	285.75
269.841	284.75
270.073	282.75
270.306	313.75
270.538	339.75
270.77	314.75
271.002	314.75
271.234	298.75
271.466	322.75
271.698	328.75
271.93	356.75
272.162	338.75
272.394	333.75
272.626	316.75
272.858	307.75
273.09	287.75
273.322	291.75
273.553	280.75
273.785	273.75
274.017	264.75
274.249	288.75
274.481	265.75
274.713	298.75
274.945	273.75
275.176	279.75
275.408	260.75
275.64	264.75
275.872	265.75
276.104	299.75
276.335	297.75
276.567	292.75
276.799	307.75
277.031	319.75
277.262	318.75
277.494	328.75
277.726	338.75
277.957	304.75
278.189	295.75
278.421	276.75
278.652	298.75
278.884	286.75
279.115	257.75
279.347	285.75
279.579	275.75
279.81	277.75
280.042	263.75
280.273	291.75
280.505	272.75
280.736	269.75
280.968	271.75
281.199	270.75
281.431	282.75
281.662	281.75
281.894	274.75
282.125	294.75
282.356	308.75
282.588	309.75
282.819	318.75
283.051	307.75
283.282	277.75
283.513	282.75
283.745	294.75
283.976	285.75
284.207	293.75
284.439	270.75
284.67	290.75
284.901	300.75
285.132	273.75
285.364	297.75
285.595	293.75
285.826	287.75
286.057	285.75
286.288	295.75
286.52	286.75
286.751	296.75
286.982	293.75
287.213	286.75
287.444	312.75
287.675	301.75
287.906	314.75
288.138	295.75
288.369	332.75
288.6	311.75
288.831	312.75
289.062	309.75
289.293	299.75
289.524	300.75
289.755	297.75
289.986	290.75
290.217	312.75
290.448	296.75
290.679	286.75
290.91	315.75
291.141	292.75
291.371	290.75
291.602	299.75
291.833	315.75
292.064	293.75
292.295	295.75
292.526	286.75
292.757	303.75
292.987	295.75
293.218	291.75
293.449	299.75
293.68	295.75
293.91	305.75
294.141	298.75
294.372	296.75
294.603	318.75
294.833	284.75
295.064	297.75
295.295	295.75
295.525	312.75
295.756	306.75
295.987	306.75
296.217	323.75
296.448	312.75
296.679	314.75
296.909	301.75
297.14	297.75
297.37	307.75
297.601	299.75
297.831	314.75
298.062	308.75
298.292	307.75
298.523	301.75
298.753	308.75
298.984	315.75
299.214	306.75
299.445	306.75
299.675	309.75
299.905	309.75
300.136	329.75
300.366	323.75
300.597	329.75
300.827	332.75
301.057	338.75
301.288	344.75
301.518	346.75
301.748	354.75
301.979	344.75
302.209	326.75
302.439	333.75
302.669	340.75
302.9	324.75
303.13	358.75
303.36	342.75
303.59	332.75
303.82	354.75
304.051	358.75
304.281	340.75
304.511	322.75
304.741	351.75
304.971	347.75
305.201	317.75
305.431	350.75
305.661	347.75
305.891	338.75
306.121	352.75
306.352	356.75
306.582	373.75
306.812	357.75
307.042	338.75
307.272	334.75
307.502	338.75
307.731	347.75
307.961	330.75
308.191	339.75
308.421	348.75
308.651	349.75
308.881	366.75
309.111	349.75
309.341	342.75
309.571	365.75
309.8	370.75
310.03	356.75
310.26	384.75
310.49	376.75
310.72	391.75
310.949	420.75
311.179	397.75
311.409	386.75
311.639	392.75
311.868	380.75
312.098	391.75
312.328	400.75
312.557	427.75
312.787	418.75
313.017	404.75
313.246	404.75
313.476	375.75
313.706	381.75
313.935	394.75
314.165	412.75
314.394	417.75
314.624	422.75
314.853	395.75
315.083	378.75
315.312	404.75
315.542	384.75
315.771	378.75
316.001	366.75
316.23	392.75
316.46	365.75
316.689	398.75
316.919	365.75
317.148	407.75
317.377	410.75
317.607	375.75
317.836	384.75
318.065	391.75
318.295	393.75
318.524	393.75
318.753	409.75
318.983	403.75
319.212	413.75
319.441	399.75
319.67	380.75
319.9	402.75
320.129	376.75
320.358	397.75
320.587	414.75
320.816	389.75
321.046	390.75
321.275	413.75
321.504	418.75
321.733	408.75
321.962	393.75
322.191	427.75
322.42	449.75
322.649	439.75
322.878	470.75
323.108	467.75
323.337	487.75
323.566	512.75
323.795	566.75
324.024	594.75
324.253	743.75
324.482	1028.75
324.71	1577.75
324.939	2166.75
325.168	1820.75
325.397	966.75
325.626	648.75
325.855	544.75
326.084	522.75
326.313	517.75
326.542	515.75
326.77	579.75
326.999	717.75
327.228	924.75
327.457	1353.75
327.686	1600.75
327.914	1065.75
328.143	722.75
328.372	632.75
328.6	596.75
328.829	579.75
329.058	610.75
329.287	578.75
329.515	531.75
329.744	514.75
329.972	542.75
330.201	538.75
330.43	580.75
330.658	581.75
330.887	614.75
331.115	593.75
331.344	530.75
331.572	525.75
331.801	491.75
332.03	469.75
332.258	473.75
332.486	457.75
332.715	443.75
332.943	451.75
333.172	454.75
333.4	481.75
333.629	448.75
333.857	469.75
334.085	492.75
334.314	507.75
334.542	509.75
334.771	535.75
334.999	486.75
335.227	484.75
335.455	444.75
335.684	439.75
335.912	434.75
336.14	429.75
336.369	439.75
336.597	446.75
336.825	449.75
337.053	450.75
337.281	458.75
337.51	429.75
337.738	444.75
337.966	440.75
338.194	460.75
338.422	416.75
338.65	409.75
338.878	440.75
339.106	424.75
339.334	436.75
339.562	424.75
339.79	440.75
340.018	439.75
340.246	441.75
340.474	447.75
340.702	453.75
340.93	422.75
341.158	428.75
341.386	395.75
341.614	443.75
341.842	427.75
342.07	418.75
342.298	409.75
342.526	410.75
342.754	396.75
342.981	408.75
343.209	390.75
343.437	401.75
343.665	418.75
343.893	423.75
344.12	426.75
344.348	425.75
344.576	444.75
344.804	447.75
345.031	425.75
345.259	448.75
345.487	427.75
345.714	439.75
345.942	428.75
346.17	422.75
346.397	421.75
346.625	414.75
346.853	397.75
347.08	405.75
347.308	427.75
347.535	404.75
347.763	411.75
347.99	413.75
348.218	421.75
348.445	414.75
348.673	427.75
348.9	417.75
349.128	413.75
349.355	396.75
349.583	415.75
349.81	396.75
350.037	372.75
350.265	366.75
350.492	406.75
350.72	393.75
350.947	393.75
351.174	401.75
351.402	389.75
351.629	406.75
351.856	412.75
352.083	399.75
352.311	403.75
352.538	411.75
352.765	429.75
352.992	417.75
353.22	414.75
353.447	408.75
353.674	393.75
353.901	376.75
354.128	374.75
354.355	391.75
354.583	380.75
354.81	387.75
355.037	364.75
355.264	381.75
355.491	360.75
355.718	378.75
355.945	393.75
356.172	365.75
356.399	384.75
356.626	364.75
356.853	353.75
357.08	361.75
357.307	373.75
357.534	366.75
357.761	380.75
357.988	356.75
358.215	368.75
358.441	350.75
358.668	376.75
358.895	368.75
359.122	375.75
359.349	368.75
359.576	376.75
359.802	426.75
360.029	444.75
360.256	440.75
360.483	425.75
360.709	366.75
360.936	380.75
361.163	394.75
361.39	405.75
361.616	389.75
361.843	387.75
362.07	390.75
362.296	412.75
362.523	387.75
362.749	392.75
362.976	370.75
363.203	379.75
363.429	360.75
363.656	389.75
363.882	365.75
364.109	383.75
364.335	370.75
364.562	366.75
364.788	362.75
365.015	357.75
365.241	374.75
365.468	382.75
365.694	379.75
365.92	390.75
366.147	364.75
366.373	374.75
366.599	376.75
366.826	375.75
367.052	368.75
367.278	370.75
367.505	361.75
367.731	376.75
367.957	376.75
368.184	370.75
368.41	362.75
368.636	363.75
368.862	377.75
369.089	374.75
369.315	377.75
369.541	364.75
369.767	369.75
369.993	372.75
370.219	355.75
370.445	357.75
370.672	361.75
370.898	352.75
371.124	376.75
371.35	373.75
371.576	371.75
371.802	366.75
372.028	360.75
372.254	363.75
372.48	354.75
372.706	353.75
372.932	347.75
373.158	355.75
373.384	370.75
373.61	368.75
373.835	365.75
374.061	344.75
374.287	357.75
374.513	360.75
374.739	369.75
374.965	359.75
375.191	357.75
375.416	362.75
375.642	345.75
375.868	373.75
376.094	349.75
376.319	345.75
376.545	361.75
376.771	356.75
376.997	346.75
377.222	357.75
377.448	359.75
377.674	351.75
377.899	363.75
378.125	341.75
378.35	346.75
378.576	339.75
378.802	349.75
379.027	346.75
379.253	373.75
379.478	342.75
379.704	330.75
379.929	354.75
380.155	339.75
380.38	371.75
380.606	366.75
380.831	344.75
381.057	366.75
381.282	343.75
381.507	339.75
381.733	357.75
381.958	363.75
382.184	344.75
382.409	363.75
382.634	348.75
382.86	336.75
383.085	357.75
383.31	355.75
383.535	369.75
383.761	374.75
383.986	361.75
384.211	349.75
384.436	362.75
384.662	369.75
384.887	370.75
385.112	357.75
385.337	357.75
385.562	364.75
385.787	364.75
386.013	380.75
386.238	380.75
386.463	389.75
386.688	375.75
386.913	376.75
387.138	366.75
387.363	368.75
387.588	374.75
387.813	363.75
388.038	368.75
388.263	369.75
388.488	377.75
388.713	360.75
388.938	368.75
389.163	376.75
389.387	372.75
389.612	377.75
389.837	384.75
390.062	361.75
390.287	376.75
390.512	363.75
390.736	390.75
390.961	369.75
391.186	373.75
391.411	390.75
391.636	384.75
391.86	378.75
392.085	373.75
392.31	380.75
392.534	370.75
392.759	359.75
392.984	384.75
393.208	361.75
393.433	365.75
393.658	373.75
393.882	367.75
394.107	381.75
394.331	368.75
394.556	379.75
394.78	379.75
395.005	370.75
395.229	368.75
395.454	369.75
395.678	377.75
395.903	377.75
396.127	396.75
396.352	414.75
396.576	387.75
396.801	394.75
397.025	390.75
397.249	388.75
397.474	375.75
397.698	383.75
397.922	394.75
398.147	392.75
398.371	408.75
398.595	428.75
398.82	411.75
399.044	424.75
399.268	422.75
399.492	437.75
399.717	454.75
399.941	495.75
400.165	520.75
400.389	509.75
400.613	466.75
400.837	446.75
401.062	413.75
401.286	428.75
401.51	434.75
401.734	420.75
401.958	400.75
402.182	420.75
402.406	428.75
402.63	426.75
402.854	408.75
403.078	433.75
403.302	421.75
403.526	424.75
403.75	440.75
403.974	405.75
404.198	416.75
404.422	415.75
404.645	432.75
404.869	449.75
405.093	469.75
405.317	502.75
405.541	529.75
405.765	477.75
405.988	448.75
406.212	456.75
406.436	452.75
406.66	469.75
406.883	462.75
407.107	497.75
407.331	512.75
407.555	560.75
407.778	582.75
408.002	514.75
408.226	492.75
408.449	480.75
408.673	466.75
408.896	517.75
409.12	526.75
409.344	501.75
409.567	462.75
409.791	446.75
410.014	436.75
410.238	426.75
410.461	430.75
410.685	449.75
410.908	458.75
411.132	472.75
411.355	497.75
411.578	474.75
411.802	456.75
412.025	426.75
412.249	417.75
412.472	469.75
412.695	484.75
412.919	468.75
413.142	433.75
413.365	429.75
413.589	421.75
413.812	385.75
414.035	396.75
414.258	391.75
414.482	410.75
414.705	397.75
414.928	391.75
415.151	405.75
415.374	410.75
415.597	403.75
415.821	404.75
416.044	389.75
416.267	395.75
416.49	394.75
416.713	397.75
416.936	396.75
417.159	402.75
417.382	419.75
417.605	400.75
417.828	415.75
418.051	444.75
418.274	434.75
418.497	413.75
418.72	416.75
418.943	396.75
419.166	419.75
419.389	407.75
419.611	419.75
419.834	421.75
420.057	395.75
420.28	424.75
420.503	428.75
420.726	438.75
420.948	426.75
421.171	484.75
421.394	478.75
421.617	453.75
421.839	404.75
422.062	429.75
422.285	420.75
422.507	485.75
422.73	539.75
422.953	524.75
423.175	474.75
423.398	450.75
423.621	447.75
423.843	468.75
424.066	448.75
424.288	448.75
424.511	461.75
424.733	522.75
424.956	584.75
425.178	571.75
425.401	568.75
425.623	577.75
425.846	497.75
426.068	470.75
426.291	450.75
426.513	444.75
426.735	458.75
426.958	519.75
427.18	592.75
427.402	663.75
427.625	734.75
427.847	633.75
428.069	561.75
428.292	502.75
428.514	456.75
428.736	437.75
428.958	428.75
429.181	410.75
429.403	428.75
429.625	446.75
429.847	456.75
430.069	519.75
430.292	510.75
430.514	407.75
430.736	413.75
430.958	397.75
431.18	399.75
431.402	413.75
431.624	404.75
431.846	403.75
432.068	394.75
432.29	386.75
432.512	405.75
432.734	420.75
432.956	381.75
433.178	412.75
433.4	416.75
433.622	393.75
433.844	407.75
434.066	384.75
434.287	376.75
434.509	391.75
434.731	379.75
434.953	408.75
435.175	409.75
435.397	449.75
435.618	444.75
435.84	475.75
436.062	571.75
436.284	615.75
436.505	522.75
436.727	452.75
436.949	448.75
437.17	431.75
437.392	428.75
437.614	429.75
437.835	476.75
438.057	554.75
438.278	630.75
438.5	624.75
438.721	669.75
438.943	630.75
439.165	523.75
439.386	473.75
439.608	478.75
439.829	488.75
440.05	481.75
440.272	519.75
440.493	516.75
440.715	442.75
440.936	418.75
441.158	418.75
441.379	419.75
441.6	427.75
441.822	443.75
442.043	492.75
442.264	583.75
442.486	580.75
442.707	505.75
442.928	472.75
443.149	477.75
443.371	480.75
443.592	541.75
443.813	604.75
444.034	644.75
444.255	537.75
444.476	469.75
444.698	461.75
444.919	456.75
445.14	559.75
445.361	537.75
445.582	505.75
445.803	541.75
446.024	645.75
446.245	637.75
446.466	580.75
446.687	500.75
446.908	462.75
447.129	457.75
447.35	445.75
447.571	425.75
447.792	399.75
448.013	406.75
448.234	446.75
448.455	468.75
448.675	570.75
448.896	665.75
449.117	577.75
449.338	546.75
449.559	636.75
449.779	690.75
450	564.75
450.221	473.75
450.442	418.75
450.662	417.75
450.883	410.75
451.104	443.75
451.324	438.75
451.545	407.75
451.766	402.75
451.986	362.75
452.207	358.75
452.428	373.75
452.648	373.75
452.869	381.75
453.089	374.75
453.31	398.75
453.53	386.75
453.751	377.75
453.971	381.75
454.192	401.75
454.412	392.75
454.633	370.75
454.853	368.75
455.073	373.75
455.294	407.75
455.514	441.75
455.734	436.75
455.955	380.75
456.175	372.75
456.395	365.75
456.616	358.75
456.836	353.75
457.056	344.75
457.276	343.75
457.497	348.75
457.717	355.75
457.937	337.75
458.157	370.75
458.377	355.75
458.598	386.75
458.818	424.75
459.038	500.75
459.258	484.75
459.478	429.75
459.698	399.75
459.918	386.75
460.138	399.75
460.358	403.75
460.578	391.75
460.798	402.75
461.018	404.75
461.238	385.75
461.458	388.75
461.678	391.75
461.898	406.75
462.118	364.75
462.338	394.75
462.558	399.75
462.777	412.75
462.997	421.75
463.217	423.75
463.437	418.75
463.657	407.75
463.876	408.75
464.096	403.75
464.316	405.75
464.536	408.75
464.755	410.75
464.975	412.75
465.195	459.75
465.414	476.75
465.634	452.75
465.854	397.75
466.073	410.75
466.293	392.75
466.512	382.75
466.732	378.75
466.951	371.75
467.171	362.75
467.391	398.75
467.61	380.75
467.829	390.75
468.049	405.75
468.268	373.75
468.488	368.75
468.707	369.75
468.927	369.75
469.146	370.75
469.365	360.75
469.585	368.75
469.804	374.75
470.023	385.75
470.243	389.75
470.462	410.75
470.681	406.75
470.901	403.75
471.12	369.75
471.339	386.75
471.558	385.75
471.777	396.75
471.997	384.75
472.216	370.75
472.435	414.75
472.654	406.75
472.873	395.75
473.092	393.75
473.311	396.75
473.53	382.75
473.749	400.75
473.968	442.75
474.187	522.75
474.406	531.75
474.625	447.75
474.844	396.75
475.063	397.75
475.282	420.75
475.501	394.75
475.72	403.75
475.939	402.75
476.158	396.75
476.377	398.75
476.596	392.75
476.814	381.75
477.033	384.75
477.252	394.75
477.471	393.75
477.69	437.75
477.908	406.75
478.127	428.75
478.346	430.75
478.564	423.75
478.783	421.75
479.002	428.75
479.22	427.75
479.439	425.75
479.658	458.75
479.876	441.75
480.095	469.75
480.313	492.75
480.532	442.75
480.751	470.75
480.969	449.75
481.188	537.75
481.406	535.75
481.624	483.75
481.843	474.75
482.061	457.75
482.28	453.75
482.498	441.75
482.717	462.75
482.935	448.75
483.153	424.75
483.372	427.75
483.59	446.75
483.808	442.75
484.027	456.75
484.245	460.75
484.463	452.75
484.681	448.75
484.9	468.75
485.118	451.75
485.336	445.75
485.554	456.75
485.772	442.75
485.99	444.75
486.209	433.75
486.427	476.75
486.645	462.75
486.863	478.75
487.081	471.75
487.299	476.75
487.517	473.75
487.735	495.75
487.953	471.75
488.171	476.75
488.389	497.75
488.607	486.75
488.825	500.75
489.043	462.75
489.261	484.75
489.479	476.75
489.696	470.75
489.914	492.75
490.132	497.75
490.35	499.75
490.568	478.75
490.786	514.75
491.003	506.75
491.221	534.75
491.439	551.75
491.657	536.75
491.874	556.75
492.092	548.75
492.31	561.75
492.527	573.75
492.745	539.75
492.963	565.75
493.18	570.75
493.398	555.75
493.615	555.75
493.833	576.75
494.05	552.75
494.268	563.75
494.485	551.75
494.703	562.75
494.92	566.75
495.138	557.75
495.355	580.75
495.573	555.75
495.79	566.75
496.008	557.75
496.225	578.75
496.442	556.75
496.66	565.75
496.877	578.75
497.094	578.75
497.312	588.75
497.529	568.75
497.746	605.75
497.963	594.75
498.181	579.75
498.398	626.75
498.615	610.75
498.832	637.75
499.049	634.75
499.267	637.75
499.484	649.75
499.701	684.75
499.918	715.75
500.135	718.75
500.352	713.75
500.569	749.75
500.786	752.75
501.003	754.75
501.22	747.75
501.437	736.75
501.654	708.75
501.871	681.75
