Data from 1971.PennyLincolnUp.Lamp.En5.5.200Scan.071719.P1._HRD10591_15-19-57-841.txt Node
Date: Thu Jul 18 15:19:57 EDT 2019
User: cochatt
Spectrometer: HR+D1059
Trigger mode: 1
Integration Time (sec): 1.000000E-1
Scans to average: 1
Electric dark correction enabled: true
Nonlinearity correction enabled: false
Boxcar width: 0
XAxis mode: Wavelengths
Number of Pixels in Spectrum: 2048
>>>>>Begin Spectral Data<<<<<
223.165	-22.88
223.4	-22.88
223.635	-22.88
223.869	-18.88
224.104	-34.88
224.338	-12.88
224.573	-15.88
224.808	-16.88
225.042	-9.88
225.277	-1.88
225.511	-0.88
225.746	8.12
225.98	17.12
226.215	8.12
226.449	4.12
226.683	23.12
226.918	36.12
227.152	38.12
227.387	28.12
227.621	17.12
227.856	25.12
228.09	50.12
228.324	54.12
228.559	57.12
228.793	60.12
229.027	95.12
229.262	105.12
229.496	114.12
229.73	131.12
229.964	146.12
230.199	131.12
230.433	97.12
230.667	108.12
230.901	116.12
231.136	109.12
231.37	95.12
231.604	112.12
231.838	104.12
232.072	95.12
232.306	119.12
232.541	114.12
232.775	125.12
233.009	112.12
233.243	118.12
233.477	99.12
233.711	124.12
233.945	110.12
234.179	108.12
234.413	103.12
234.647	117.12
234.881	125.12
235.115	105.12
235.349	107.12
235.583	118.12
235.817	126.12
236.051	125.12
236.285	125.12
236.519	143.12
236.753	130.12
236.987	156.12
237.221	171.12
237.455	199.12
237.689	160.12
237.922	127.12
238.156	128.12
238.39	123.12
238.624	124.12
238.858	133.12
239.091	137.12
239.325	126.12
239.559	135.12
239.793	153.12
240.027	116.12
240.26	136.12
240.494	157.12
240.728	145.12
240.961	138.12
241.195	139.12
241.429	135.12
241.662	128.12
241.896	138.12
242.13	130.12
242.363	139.12
242.597	127.12
242.83	139.12
243.064	116.12
243.298	141.12
243.531	128.12
243.765	159.12
243.998	144.12
244.232	144.12
244.465	143.12
244.699	146.12
244.932	165.12
245.166	150.12
245.399	152.12
245.633	132.12
245.866	141.12
246.099	150.12
246.333	147.12
246.566	160.12
246.8	162.12
247.033	141.12
247.266	165.12
247.5	178.12
247.733	164.12
247.966	173.12
248.2	171.12
248.433	179.12
248.666	192.12
248.899	190.12
249.133	179.12
249.366	202.12
249.599	207.12
249.832	188.12
250.066	174.12
250.299	202.12
250.532	191.12
250.765	203.12
250.998	227.12
251.231	211.12
251.465	228.12
251.698	210.12
251.931	209.12
252.164	214.12
252.397	207.12
252.63	198.12
252.863	216.12
253.096	219.12
253.329	228.12
253.562	221.12
253.795	234.12
254.028	236.12
254.261	227.12
254.494	231.12
254.727	259.12
254.96	283.12
255.193	280.12
255.426	267.12
255.659	224.12
255.892	227.12
256.124	244.12
256.357	251.12
256.59	231.12
256.823	219.12
257.056	227.12
257.289	220.12
257.521	214.12
257.754	238.12
257.987	218.12
258.22	217.12
258.452	205.12
258.685	204.12
258.918	206.12
259.151	227.12
259.383	223.12
259.616	224.12
259.849	227.12
260.081	256.12
260.314	249.12
260.547	266.12
260.779	265.12
261.012	244.12
261.244	237.12
261.477	242.12
261.71	242.12
261.942	220.12
262.175	225.12
262.407	206.12
262.64	206.12
262.872	224.12
263.105	215.12
263.337	236.12
263.57	221.12
263.802	212.12
264.035	221.12
264.267	232.12
264.499	207.12
264.732	237.12
264.964	237.12
265.197	214.12
265.429	228.12
265.661	224.12
265.894	229.12
266.126	226.12
266.358	231.12
266.591	221.12
266.823	239.12
267.055	213.12
267.287	226.12
267.52	235.12
267.752	231.12
267.984	242.12
268.216	234.12
268.448	239.12
268.681	236.12
268.913	255.12
269.145	268.12
269.377	301.12
269.609	292.12
269.841	282.12
270.073	278.12
270.306	291.12
270.538	320.12
270.77	334.12
271.002	310.12
271.234	306.12
271.466	326.12
271.698	303.12
271.93	310.12
272.162	318.12
272.394	322.12
272.626	317.12
272.858	306.12
273.09	288.12
273.322	286.12
273.553	287.12
273.785	287.12
274.017	280.12
274.249	279.12
274.481	266.12
274.713	283.12
274.945	284.12
275.176	282.12
275.408	261.12
275.64	276.12
275.872	261.12
276.104	270.12
276.335	277.12
276.567	301.12
276.799	300.12
277.031	324.12
277.262	314.12
277.494	318.12
277.726	299.12
277.957	299.12
278.189	295.12
278.421	280.12
278.652	292.12
278.884	278.12
279.115	273.12
279.347	263.12
279.579	285.12
279.81	267.12
280.042	279.12
280.273	272.12
280.505	279.12
280.736	285.12
280.968	265.12
281.199	265.12
281.431	280.12
281.662	260.12
281.894	295.12
282.125	293.12
282.356	302.12
282.588	298.12
282.819	320.12
283.051	292.12
283.282	286.12
283.513	290.12
283.745	287.12
283.976	286.12
284.207	303.12
284.439	290.12
284.67	298.12
284.901	315.12
285.132	290.12
285.364	291.12
285.595	281.12
285.826	294.12
286.057	281.12
286.288	263.12
286.52	295.12
286.751	292.12
286.982	278.12
287.213	283.12
287.444	314.12
287.675	308.12
287.906	316.12
288.138	307.12
288.369	306.12
288.6	301.12
288.831	306.12
289.062	295.12
289.293	310.12
289.524	312.12
289.755	282.12
289.986	296.12
290.217	288.12
290.448	296.12
290.679	315.12
290.91	305.12
291.141	308.12
291.371	311.12
291.602	310.12
291.833	314.12
292.064	297.12
292.295	287.12
292.526	295.12
292.757	301.12
292.987	303.12
293.218	300.12
293.449	299.12
293.68	322.12
293.91	301.12
294.141	296.12
294.372	299.12
294.603	304.12
294.833	296.12
295.064	306.12
295.295	302.12
295.525	300.12
295.756	299.12
295.987	319.12
296.217	340.12
296.448	320.12
296.679	312.12
296.909	310.12
297.14	319.12
297.37	300.12
297.601	311.12
297.831	290.12
298.062	316.12
298.292	291.12
298.523	316.12
298.753	326.12
298.984	310.12
299.214	315.12
299.445	314.12
299.675	314.12
299.905	331.12
300.136	316.12
300.366	328.12
300.597	303.12
300.827	343.12
301.057	336.12
301.288	330.12
301.518	343.12
301.748	334.12
301.979	324.12
302.209	337.12
302.439	332.12
302.669	307.12
302.9	332.12
303.13	329.12
303.36	327.12
303.59	352.12
303.82	346.12
304.051	322.12
304.281	347.12
304.511	317.12
304.741	343.12
304.971	337.12
305.201	323.12
305.431	354.12
305.661	347.12
305.891	337.12
306.121	327.12
306.352	348.12
306.582	334.12
306.812	327.12
307.042	330.12
307.272	338.12
307.502	344.12
307.731	347.12
307.961	337.12
308.191	348.12
308.421	346.12
308.651	347.12
308.881	340.12
309.111	344.12
309.341	347.12
309.571	362.12
309.8	366.12
310.03	379.12
310.26	399.12
310.49	382.12
310.72	392.12
310.949	397.12
311.179	386.12
311.409	396.12
311.639	379.12
311.868	392.12
312.098	386.12
312.328	401.12
312.557	412.12
312.787	386.12
313.017	406.12
313.246	401.12
313.476	377.12
313.706	370.12
313.935	389.12
314.165	384.12
314.394	406.12
314.624	395.12
314.853	388.12
315.083	376.12
315.312	386.12
315.542	379.12
315.771	359.12
316.001	386.12
316.23	384.12
316.46	375.12
316.689	386.12
316.919	400.12
317.148	393.12
317.377	408.12
317.607	379.12
317.836	367.12
318.065	383.12
318.295	378.12
318.524	384.12
318.753	376.12
318.983	379.12
319.212	395.12
319.441	380.12
319.67	390.12
319.9	393.12
320.129	398.12
320.358	386.12
320.587	384.12
320.816	392.12
321.046	408.12
321.275	411.12
321.504	409.12
321.733	412.12
321.962	413.12
322.191	416.12
322.42	421.12
322.649	437.12
322.878	458.12
323.108	446.12
323.337	463.12
323.566	506.12
323.795	514.12
324.024	567.12
324.253	697.12
324.482	997.12
324.71	1454.12
324.939	1965.12
325.168	1675.12
325.397	878.12
325.626	644.12
325.855	561.12
326.084	503.12
326.313	496.12
326.542	511.12
326.77	529.12
326.999	650.12
327.228	884.12
327.457	1256.12
327.686	1432.12
327.914	988.12
328.143	679.12
328.372	606.12
328.6	574.12
328.829	546.12
329.058	544.12
329.287	537.12
329.515	525.12
329.744	503.12
329.972	516.12
330.201	517.12
330.43	543.12
330.658	570.12
330.887	576.12
331.115	567.12
331.344	496.12
331.572	478.12
331.801	491.12
332.03	477.12
332.258	484.12
332.486	452.12
332.715	435.12
332.943	452.12
333.172	464.12
333.4	470.12
333.629	460.12
333.857	492.12
334.085	477.12
334.314	494.12
334.542	518.12
334.771	519.12
334.999	479.12
335.227	472.12
335.455	435.12
335.684	453.12
335.912	447.12
336.14	431.12
336.369	444.12
336.597	461.12
336.825	442.12
337.053	439.12
337.281	452.12
337.51	422.12
337.738	430.12
337.966	427.12
338.194	439.12
338.422	431.12
338.65	416.12
338.878	409.12
339.106	434.12
339.334	429.12
339.562	422.12
339.79	418.12
340.018	421.12
340.246	422.12
340.474	419.12
340.702	434.12
340.93	424.12
341.158	408.12
341.386	435.12
341.614	420.12
341.842	418.12
342.07	424.12
342.298	421.12
342.526	398.12
342.754	399.12
342.981	433.12
343.209	400.12
343.437	404.12
343.665	420.12
343.893	446.12
344.12	425.12
344.348	408.12
344.576	440.12
344.804	416.12
345.031	421.12
345.259	444.12
345.487	423.12
345.714	438.12
345.942	408.12
346.17	419.12
346.397	416.12
346.625	408.12
346.853	402.12
347.08	397.12
347.308	408.12
347.535	404.12
347.763	397.12
347.99	406.12
348.218	421.12
348.445	402.12
348.673	427.12
348.9	410.12
349.128	390.12
349.355	384.12
349.583	392.12
349.81	380.12
350.037	404.12
350.265	407.12
350.492	367.12
350.72	394.12
350.947	390.12
351.174	418.12
351.402	407.12
351.629	395.12
351.856	420.12
352.083	417.12
352.311	407.12
352.538	405.12
352.765	418.12
352.992	383.12
353.22	400.12
353.447	396.12
353.674	406.12
353.901	380.12
354.128	394.12
354.355	367.12
354.583	386.12
354.81	376.12
355.037	371.12
355.264	369.12
355.491	368.12
355.718	368.12
355.945	366.12
356.172	357.12
356.399	363.12
356.626	372.12
356.853	376.12
357.08	362.12
357.307	370.12
357.534	363.12
357.761	360.12
357.988	388.12
358.215	377.12
358.441	382.12
358.668	363.12
358.895	378.12
359.122	371.12
359.349	356.12
359.576	368.12
359.802	415.12
360.029	412.12
360.256	441.12
360.483	424.12
360.709	394.12
360.936	396.12
361.163	387.12
361.39	390.12
361.616	388.12
361.843	409.12
362.07	398.12
362.296	387.12
362.523	378.12
362.749	372.12
362.976	381.12
363.203	370.12
363.429	363.12
363.656	389.12
363.882	384.12
364.109	381.12
364.335	389.12
364.562	354.12
364.788	388.12
365.015	372.12
365.241	381.12
365.468	359.12
365.694	367.12
365.92	375.12
366.147	374.12
366.373	365.12
366.599	370.12
366.826	355.12
367.052	356.12
367.278	371.12
367.505	370.12
367.731	344.12
367.957	372.12
368.184	372.12
368.41	368.12
368.636	396.12
368.862	402.12
369.089	359.12
369.315	370.12
369.541	363.12
369.767	370.12
369.993	359.12
370.219	386.12
370.445	351.12
370.672	358.12
370.898	360.12
371.124	347.12
371.35	366.12
371.576	376.12
371.802	375.12
372.028	356.12
372.254	355.12
372.48	390.12
372.706	358.12
372.932	361.12
373.158	373.12
373.384	351.12
373.61	365.12
373.835	356.12
374.061	377.12
374.287	366.12
374.513	370.12
374.739	376.12
374.965	363.12
375.191	370.12
375.416	378.12
375.642	374.12
375.868	353.12
376.094	370.12
376.319	351.12
376.545	354.12
376.771	350.12
376.997	389.12
377.222	361.12
377.448	363.12
377.674	364.12
377.899	346.12
378.125	350.12
378.35	358.12
378.576	375.12
378.802	350.12
379.027	372.12
379.253	359.12
379.478	342.12
379.704	353.12
379.929	352.12
380.155	351.12
380.38	353.12
380.606	336.12
380.831	339.12
381.057	349.12
381.282	358.12
381.507	370.12
381.733	365.12
381.958	374.12
382.184	358.12
382.409	375.12
382.634	371.12
382.86	368.12
383.085	350.12
383.31	376.12
383.535	370.12
383.761	348.12
383.986	357.12
384.211	368.12
384.436	370.12
384.662	356.12
384.887	379.12
385.112	356.12
385.337	384.12
385.562	384.12
385.787	385.12
386.013	367.12
386.238	388.12
386.463	404.12
386.688	392.12
386.913	381.12
387.138	375.12
387.363	363.12
387.588	372.12
387.813	401.12
388.038	366.12
388.263	369.12
388.488	376.12
388.713	368.12
388.938	365.12
389.163	392.12
389.387	374.12
389.612	374.12
389.837	374.12
390.062	362.12
390.287	389.12
390.512	390.12
390.736	372.12
390.961	387.12
391.186	376.12
391.411	374.12
391.636	370.12
391.86	377.12
392.085	366.12
392.31	360.12
392.534	388.12
392.759	374.12
392.984	382.12
393.208	374.12
393.433	392.12
393.658	380.12
393.882	362.12
394.107	379.12
394.331	370.12
394.556	372.12
394.78	378.12
395.005	382.12
395.229	363.12
395.454	378.12
395.678	396.12
395.903	401.12
396.127	394.12
396.352	412.12
396.576	381.12
396.801	381.12
397.025	406.12
397.249	406.12
397.474	393.12
397.698	420.12
397.922	409.12
398.147	422.12
398.371	416.12
398.595	418.12
398.82	410.12
399.044	417.12
399.268	443.12
399.492	453.12
399.717	463.12
399.941	492.12
400.165	518.12
400.389	525.12
400.613	479.12
400.837	444.12
401.062	427.12
401.286	444.12
401.51	428.12
401.734	418.12
401.958	423.12
402.182	434.12
402.406	446.12
402.63	434.12
402.854	438.12
403.078	437.12
403.302	424.12
403.526	430.12
403.75	424.12
403.974	423.12
404.198	415.12
404.422	415.12
404.645	436.12
404.869	454.12
405.093	485.12
405.317	510.12
405.541	519.12
405.765	466.12
405.988	463.12
406.212	452.12
406.436	483.12
406.66	477.12
406.883	472.12
407.107	504.12
407.331	515.12
407.555	597.12
407.778	579.12
408.002	510.12
408.226	473.12
408.449	472.12
408.673	495.12
408.896	512.12
409.12	527.12
409.344	483.12
409.567	446.12
409.791	456.12
410.014	436.12
410.238	420.12
410.461	443.12
410.685	458.12
410.908	453.12
411.132	485.12
411.355	497.12
411.578	486.12
411.802	422.12
412.025	413.12
412.249	441.12
412.472	438.12
412.695	475.12
412.919	460.12
413.142	438.12
413.365	436.12
413.589	410.12
413.812	400.12
414.035	400.12
414.258	410.12
414.482	425.12
414.705	420.12
414.928	418.12
415.151	399.12
415.374	411.12
415.597	393.12
415.821	390.12
416.044	404.12
416.267	406.12
416.49	410.12
416.713	387.12
416.936	396.12
417.159	402.12
417.382	410.12
417.605	412.12
417.828	430.12
418.051	425.12
418.274	427.12
418.497	401.12
418.72	410.12
418.943	391.12
419.166	412.12
419.389	431.12
419.611	416.12
419.834	412.12
420.057	425.12
420.28	435.12
420.503	401.12
420.726	427.12
420.948	442.12
421.171	464.12
421.394	492.12
421.617	430.12
421.839	408.12
422.062	429.12
422.285	448.12
422.507	485.12
422.73	532.12
422.953	512.12
423.175	472.12
423.398	445.12
423.621	468.12
423.843	455.12
424.066	476.12
424.288	465.12
424.511	476.12
424.733	532.12
424.956	598.12
425.178	544.12
425.401	578.12
425.623	584.12
425.846	490.12
426.068	440.12
426.291	460.12
426.513	449.12
426.735	469.12
426.958	507.12
427.18	562.12
427.402	656.12
427.625	724.12
427.847	611.12
428.069	549.12
428.292	496.12
428.514	464.12
428.736	451.12
428.958	428.12
429.181	421.12
429.403	414.12
429.625	441.12
429.847	457.12
430.069	510.12
430.292	499.12
430.514	430.12
430.736	408.12
430.958	429.12
431.18	410.12
431.402	408.12
431.624	400.12
431.846	403.12
432.068	396.12
432.29	380.12
432.512	391.12
432.734	397.12
432.956	404.12
433.178	402.12
433.4	404.12
433.622	419.12
433.844	415.12
434.066	383.12
434.287	395.12
434.509	387.12
434.731	407.12
434.953	425.12
435.175	422.12
435.397	429.12
435.618	454.12
435.84	495.12
436.062	560.12
436.284	622.12
436.505	535.12
436.727	474.12
436.949	457.12
437.17	418.12
437.392	417.12
437.614	437.12
437.835	453.12
438.057	519.12
438.278	619.12
438.5	621.12
438.721	668.12
438.943	626.12
439.165	514.12
439.386	468.12
439.608	466.12
439.829	463.12
440.05	495.12
440.272	512.12
440.493	495.12
440.715	476.12
440.936	443.12
441.158	439.12
441.379	436.12
441.6	455.12
441.822	454.12
442.043	491.12
442.264	580.12
442.486	562.12
442.707	509.12
442.928	463.12
443.149	465.12
443.371	514.12
443.592	516.12
443.813	588.12
444.034	633.12
444.255	530.12
444.476	472.12
444.698	445.12
444.919	459.12
445.14	575.12
445.361	519.12
445.582	510.12
445.803	559.12
446.024	637.12
446.245	646.12
446.466	575.12
446.687	480.12
446.908	459.12
447.129	442.12
447.35	423.12
447.571	440.12
447.792	438.12
448.013	427.12
448.234	430.12
448.455	502.12
448.675	576.12
448.896	654.12
449.117	580.12
449.338	541.12
449.559	629.12
449.779	678.12
450	546.12
450.221	462.12
450.442	434.12
450.662	415.12
450.883	415.12
451.104	426.12
451.324	407.12
451.545	404.12
451.766	399.12
451.986	388.12
452.207	371.12
452.428	389.12
452.648	382.12
452.869	404.12
453.089	382.12
453.31	398.12
453.53	382.12
453.751	382.12
453.971	374.12
454.192	399.12
454.412	366.12
454.633	374.12
454.853	380.12
455.073	374.12
455.294	402.12
455.514	431.12
455.734	440.12
455.955	388.12
456.175	382.12
456.395	347.12
456.616	370.12
456.836	349.12
457.056	356.12
457.276	354.12
457.497	372.12
457.717	362.12
457.937	358.12
458.157	366.12
458.377	359.12
458.598	391.12
458.818	445.12
459.038	490.12
459.258	519.12
459.478	412.12
459.698	381.12
459.918	380.12
460.138	395.12
460.358	404.12
460.578	380.12
460.798	402.12
461.018	412.12
461.238	399.12
461.458	395.12
461.678	388.12
461.898	391.12
462.118	396.12
462.338	383.12
462.558	399.12
462.777	392.12
462.997	415.12
463.217	432.12
463.437	428.12
463.657	421.12
463.876	419.12
464.096	399.12
464.316	419.12
464.536	443.12
464.755	406.12
464.975	415.12
465.195	448.12
465.414	479.12
465.634	447.12
465.854	416.12
466.073	406.12
466.293	386.12
466.512	386.12
466.732	376.12
466.951	381.12
467.171	390.12
467.391	384.12
467.61	369.12
467.829	378.12
468.049	395.12
468.268	380.12
468.488	367.12
468.707	380.12
468.927	361.12
469.146	374.12
469.365	362.12
469.585	373.12
469.804	377.12
470.023	368.12
470.243	388.12
470.462	400.12
470.681	399.12
470.901	416.12
471.12	391.12
471.339	395.12
471.558	411.12
471.777	402.12
471.997	385.12
472.216	385.12
472.435	424.12
472.654	419.12
472.873	375.12
473.092	377.12
473.311	404.12
473.53	389.12
473.749	407.12
473.968	449.12
474.187	524.12
474.406	516.12
474.625	435.12
474.844	406.12
475.063	389.12
475.282	373.12
475.501	381.12
475.72	407.12
475.939	411.12
476.158	394.12
476.377	400.12
476.596	388.12
476.814	417.12
477.033	401.12
477.252	397.12
477.471	413.12
477.69	410.12
477.908	410.12
478.127	405.12
478.346	423.12
478.564	427.12
478.783	451.12
479.002	431.12
479.22	421.12
479.439	452.12
479.658	447.12
479.876	461.12
480.095	446.12
480.313	490.12
480.532	472.12
480.751	458.12
480.969	452.12
481.188	515.12
481.406	502.12
481.624	475.12
481.843	454.12
482.061	467.12
482.28	464.12
482.498	454.12
482.717	452.12
482.935	439.12
483.153	446.12
483.372	440.12
483.59	442.12
483.808	442.12
484.027	447.12
484.245	438.12
484.463	463.12
484.681	453.12
484.9	465.12
485.118	454.12
485.336	462.12
485.554	468.12
485.772	454.12
485.99	446.12
486.209	467.12
486.427	467.12
486.645	468.12
486.863	490.12
487.081	487.12
487.299	471.12
487.517	473.12
487.735	495.12
487.953	488.12
488.171	486.12
488.389	475.12
488.607	494.12
488.825	481.12
489.043	477.12
489.261	479.12
489.479	466.12
489.696	482.12
489.914	498.12
490.132	492.12
490.35	482.12
490.568	490.12
490.786	514.12
491.003	522.12
491.221	539.12
491.439	537.12
491.657	556.12
491.874	572.12
492.092	550.12
492.31	580.12
492.527	579.12
492.745	580.12
492.963	564.12
493.18	567.12
493.398	564.12
493.615	562.12
493.833	577.12
494.05	594.12
494.268	551.12
494.485	577.12
494.703	574.12
494.92	556.12
495.138	585.12
495.355	569.12
495.573	575.12
495.79	574.12
496.008	590.12
496.225	582.12
496.442	581.12
496.66	584.12
496.877	576.12
497.094	556.12
497.312	584.12
497.529	592.12
497.746	567.12
497.963	589.12
498.181	600.12
498.398	598.12
498.615	640.12
498.832	646.12
499.049	608.12
499.267	642.12
499.484	663.12
499.701	679.12
499.918	696.12
500.135	728.12
500.352	730.12
500.569	776.12
500.786	756.12
501.003	732.12
501.22	768.12
501.437	721.12
501.654	718.12
501.871	707.12
502.088	672.12
