Data from 1971.PennyLincolnUp.Lamp.En5.5.200Scan.071719.P1._HRD10591_15-19-03-841.txt Node
Date: Thu Jul 18 15:19:03 EDT 2019
User: cochatt
Spectrometer: HR+D1059
Trigger mode: 1
Integration Time (sec): 1.000000E-1
Scans to average: 1
Electric dark correction enabled: true
Nonlinearity correction enabled: false
Boxcar width: 0
XAxis mode: Wavelengths
Number of Pixels in Spectrum: 2048
>>>>>Begin Spectral Data<<<<<
223.165	-14.62
223.4	-14.62
223.635	-14.62
223.869	-16.62
224.104	0.38
224.338	-20.62
224.573	-8.62
224.808	-8.62
225.042	-20.62
225.277	-5.62
225.511	-5.62
225.746	1.38
225.98	5.38
226.215	17.38
226.449	10.38
226.683	7.38
226.918	28.38
227.152	30.38
227.387	34.38
227.621	34.38
227.856	48.38
228.09	44.38
228.324	49.38
228.559	49.38
228.793	76.38
229.027	78.38
229.262	94.38
229.496	117.38
229.73	122.38
229.964	130.38
230.199	116.38
230.433	109.38
230.667	121.38
230.901	110.38
231.136	108.38
231.37	100.38
231.604	97.38
231.838	121.38
232.072	115.38
232.306	119.38
232.541	117.38
232.775	108.38
233.009	115.38
233.243	109.38
233.477	119.38
233.711	118.38
233.945	104.38
234.179	108.38
234.413	107.38
234.647	113.38
234.881	110.38
235.115	113.38
235.349	101.38
235.583	105.38
235.817	117.38
236.051	133.38
236.285	123.38
236.519	124.38
236.753	129.38
236.987	133.38
237.221	162.38
237.455	215.38
237.689	179.38
237.922	139.38
238.156	143.38
238.39	141.38
238.624	120.38
238.858	122.38
239.091	115.38
239.325	115.38
239.559	124.38
239.793	125.38
240.027	136.38
240.26	138.38
240.494	157.38
240.728	135.38
240.961	141.38
241.195	148.38
241.429	145.38
241.662	147.38
241.896	124.38
242.13	139.38
242.363	147.38
242.597	122.38
242.83	145.38
243.064	138.38
243.298	139.38
243.531	148.38
243.765	137.38
243.998	148.38
244.232	138.38
244.465	156.38
244.699	157.38
244.932	133.38
245.166	163.38
245.399	150.38
245.633	157.38
245.866	146.38
246.099	154.38
246.333	142.38
246.566	153.38
246.8	136.38
247.033	145.38
247.266	157.38
247.5	154.38
247.733	167.38
247.966	177.38
248.2	177.38
248.433	156.38
248.666	179.38
248.899	182.38
249.133	195.38
249.366	210.38
249.599	197.38
249.832	185.38
250.066	181.38
250.299	178.38
250.532	193.38
250.765	205.38
250.998	217.38
251.231	216.38
251.465	206.38
251.698	207.38
251.931	207.38
252.164	194.38
252.397	194.38
252.63	204.38
252.863	198.38
253.096	223.38
253.329	224.38
253.562	227.38
253.795	221.38
254.028	218.38
254.261	207.38
254.494	228.38
254.727	261.38
254.96	269.38
255.193	269.38
255.426	253.38
255.659	235.38
255.892	233.38
256.124	214.38
256.357	234.38
256.59	232.38
256.823	221.38
257.056	212.38
257.289	225.38
257.521	207.38
257.754	200.38
257.987	223.38
258.22	208.38
258.452	219.38
258.685	219.38
258.918	220.38
259.151	216.38
259.383	230.38
259.616	221.38
259.849	227.38
260.081	246.38
260.314	261.38
260.547	276.38
260.779	249.38
261.012	241.38
261.244	241.38
261.477	223.38
261.71	223.38
261.942	235.38
262.175	251.38
262.407	243.38
262.64	204.38
262.872	217.38
263.105	224.38
263.337	218.38
263.57	202.38
263.802	213.38
264.035	199.38
264.267	209.38
264.499	219.38
264.732	220.38
264.964	218.38
265.197	226.38
265.429	223.38
265.661	232.38
265.894	234.38
266.126	212.38
266.358	223.38
266.591	222.38
266.823	236.38
267.055	233.38
267.287	232.38
267.52	234.38
267.752	242.38
267.984	242.38
268.216	229.38
268.448	226.38
268.681	237.38
268.913	250.38
269.145	262.38
269.377	275.38
269.609	270.38
269.841	276.38
270.073	284.38
270.306	313.38
270.538	318.38
270.77	304.38
271.002	314.38
271.234	300.38
271.466	289.38
271.698	299.38
271.93	313.38
272.162	293.38
272.394	326.38
272.626	307.38
272.858	293.38
273.09	268.38
273.322	291.38
273.553	280.38
273.785	272.38
274.017	276.38
274.249	271.38
274.481	261.38
274.713	287.38
274.945	277.38
275.176	262.38
275.408	268.38
275.64	278.38
275.872	275.38
276.104	267.38
276.335	259.38
276.567	247.38
276.799	281.38
277.031	285.38
277.262	321.38
277.494	323.38
277.726	294.38
277.957	301.38
278.189	269.38
278.421	265.38
278.652	277.38
278.884	268.38
279.115	268.38
279.347	267.38
279.579	278.38
279.81	265.38
280.042	281.38
280.273	262.38
280.505	278.38
280.736	277.38
280.968	269.38
281.199	265.38
281.431	275.38
281.662	264.38
281.894	286.38
282.125	279.38
282.356	297.38
282.588	300.38
282.819	287.38
283.051	269.38
283.282	263.38
283.513	272.38
283.745	294.38
283.976	282.38
284.207	294.38
284.439	299.38
284.67	297.38
284.901	279.38
285.132	280.38
285.364	283.38
285.595	282.38
285.826	279.38
286.057	288.38
286.288	279.38
286.52	291.38
286.751	296.38
286.982	281.38
287.213	291.38
287.444	277.38
287.675	290.38
287.906	315.38
288.138	314.38
288.369	305.38
288.6	291.38
288.831	301.38
289.062	310.38
289.293	299.38
289.524	285.38
289.755	302.38
289.986	288.38
290.217	288.38
290.448	308.38
290.679	291.38
290.91	290.38
291.141	282.38
291.371	271.38
291.602	289.38
291.833	307.38
292.064	294.38
292.295	285.38
292.526	286.38
292.757	294.38
292.987	279.38
293.218	278.38
293.449	309.38
293.68	309.38
293.91	276.38
294.141	291.38
294.372	281.38
294.603	293.38
294.833	311.38
295.064	310.38
295.295	307.38
295.525	311.38
295.756	291.38
295.987	300.38
296.217	326.38
296.448	314.38
296.679	309.38
296.909	309.38
297.14	300.38
297.37	288.38
297.601	296.38
297.831	295.38
298.062	311.38
298.292	324.38
298.523	315.38
298.753	314.38
298.984	320.38
299.214	297.38
299.445	315.38
299.675	316.38
299.905	319.38
300.136	317.38
300.366	307.38
300.597	331.38
300.827	319.38
301.057	331.38
301.288	302.38
301.518	325.38
301.748	342.38
301.979	326.38
302.209	340.38
302.439	334.38
302.669	330.38
302.9	315.38
303.13	319.38
303.36	333.38
303.59	337.38
303.82	342.38
304.051	310.38
304.281	323.38
304.511	334.38
304.741	318.38
304.971	330.38
305.201	325.38
305.431	319.38
305.661	318.38
305.891	341.38
306.121	322.38
306.352	326.38
306.582	345.38
306.812	349.38
307.042	332.38
307.272	316.38
307.502	327.38
307.731	359.38
307.961	353.38
308.191	341.38
308.421	332.38
308.651	340.38
308.881	324.38
309.111	363.38
309.341	353.38
309.571	367.38
309.8	364.38
310.03	360.38
310.26	378.38
310.49	381.38
310.72	373.38
310.949	371.38
311.179	399.38
311.409	363.38
311.639	387.38
311.868	377.38
312.098	375.38
312.328	369.38
312.557	380.38
312.787	394.38
313.017	392.38
313.246	381.38
313.476	383.38
313.706	388.38
313.935	366.38
314.165	393.38
314.394	405.38
314.624	395.38
314.853	382.38
315.083	378.38
315.312	383.38
315.542	378.38
315.771	380.38
316.001	370.38
316.23	391.38
316.46	352.38
316.689	376.38
316.919	376.38
317.148	398.38
317.377	379.38
317.607	379.38
317.836	361.38
318.065	389.38
318.295	387.38
318.524	359.38
318.753	381.38
318.983	369.38
319.212	389.38
319.441	389.38
319.67	402.38
319.9	389.38
320.129	379.38
320.358	383.38
320.587	383.38
320.816	386.38
321.046	369.38
321.275	391.38
321.504	395.38
321.733	399.38
321.962	390.38
322.191	411.38
322.42	422.38
322.649	431.38
322.878	455.38
323.108	450.38
323.337	473.38
323.566	477.38
323.795	502.38
324.024	542.38
324.253	665.38
324.482	923.38
324.71	1364.38
324.939	1847.38
325.168	1587.38
325.397	845.38
325.626	606.38
325.855	524.38
326.084	506.38
326.313	474.38
326.542	478.38
326.77	516.38
326.999	620.38
327.228	859.38
327.457	1211.38
327.686	1357.38
327.914	942.38
328.143	664.38
328.372	557.38
328.6	558.38
328.829	530.38
329.058	552.38
329.287	557.38
329.515	510.38
329.744	504.38
329.972	473.38
330.201	483.38
330.43	536.38
330.658	537.38
330.887	573.38
331.115	543.38
331.344	480.38
331.572	467.38
331.801	463.38
332.03	475.38
332.258	439.38
332.486	435.38
332.715	450.38
332.943	433.38
333.172	447.38
333.4	454.38
333.629	463.38
333.857	460.38
334.085	463.38
334.314	484.38
334.542	490.38
334.771	481.38
334.999	454.38
335.227	454.38
335.455	436.38
335.684	443.38
335.912	426.38
336.14	418.38
336.369	416.38
336.597	441.38
336.825	435.38
337.053	420.38
337.281	409.38
337.51	418.38
337.738	422.38
337.966	440.38
338.194	433.38
338.422	419.38
338.65	399.38
338.878	413.38
339.106	427.38
339.334	417.38
339.562	412.38
339.79	423.38
340.018	450.38
340.246	419.38
340.474	401.38
340.702	442.38
340.93	426.38
341.158	413.38
341.386	399.38
341.614	429.38
341.842	403.38
342.07	406.38
342.298	387.38
342.526	409.38
342.754	413.38
342.981	396.38
343.209	400.38
343.437	401.38
343.665	410.38
343.893	413.38
344.12	406.38
344.348	414.38
344.576	412.38
344.804	448.38
345.031	441.38
345.259	421.38
345.487	407.38
345.714	399.38
345.942	404.38
346.17	407.38
346.397	397.38
346.625	379.38
346.853	405.38
347.08	414.38
347.308	395.38
347.535	387.38
347.763	421.38
347.99	392.38
348.218	399.38
348.445	400.38
348.673	376.38
348.9	404.38
349.128	388.38
349.355	380.38
349.583	370.38
349.81	390.38
350.037	393.38
350.265	405.38
350.492	376.38
350.72	382.38
350.947	382.38
351.174	404.38
351.402	405.38
351.629	391.38
351.856	385.38
352.083	399.38
352.311	381.38
352.538	414.38
352.765	401.38
352.992	385.38
353.22	408.38
353.447	381.38
353.674	387.38
353.901	382.38
354.128	368.38
354.355	362.38
354.583	353.38
354.81	372.38
355.037	363.38
355.264	375.38
355.491	374.38
355.718	356.38
355.945	359.38
356.172	380.38
356.399	349.38
356.626	356.38
356.853	360.38
357.08	352.38
357.307	365.38
357.534	367.38
357.761	364.38
357.988	375.38
358.215	348.38
358.441	355.38
358.668	378.38
358.895	362.38
359.122	383.38
359.349	369.38
359.576	370.38
359.802	391.38
360.029	395.38
360.256	418.38
360.483	403.38
360.709	392.38
360.936	403.38
361.163	365.38
361.39	381.38
361.616	398.38
361.843	370.38
362.07	382.38
362.296	391.38
362.523	364.38
362.749	366.38
362.976	377.38
363.203	375.38
363.429	375.38
363.656	363.38
363.882	361.38
364.109	373.38
364.335	354.38
364.562	364.38
364.788	366.38
365.015	374.38
365.241	373.38
365.468	362.38
365.694	378.38
365.92	379.38
366.147	361.38
366.373	353.38
366.599	349.38
366.826	355.38
367.052	354.38
367.278	373.38
367.505	364.38
367.731	365.38
367.957	365.38
368.184	352.38
368.41	349.38
368.636	364.38
368.862	364.38
369.089	373.38
369.315	358.38
369.541	333.38
369.767	359.38
369.993	362.38
370.219	353.38
370.445	368.38
370.672	342.38
370.898	369.38
371.124	369.38
371.35	341.38
371.576	345.38
371.802	367.38
372.028	364.38
372.254	360.38
372.48	354.38
372.706	361.38
372.932	350.38
373.158	373.38
373.384	365.38
373.61	347.38
373.835	356.38
374.061	361.38
374.287	379.38
374.513	374.38
374.739	376.38
374.965	374.38
375.191	375.38
375.416	367.38
375.642	345.38
375.868	354.38
376.094	357.38
376.319	357.38
376.545	341.38
376.771	362.38
376.997	355.38
377.222	363.38
377.448	350.38
377.674	358.38
377.899	343.38
378.125	355.38
378.35	336.38
378.576	359.38
378.802	372.38
379.027	355.38
379.253	363.38
379.478	363.38
379.704	348.38
379.929	360.38
380.155	345.38
380.38	353.38
380.606	349.38
380.831	354.38
381.057	356.38
381.282	370.38
381.507	351.38
381.733	355.38
381.958	352.38
382.184	354.38
382.409	345.38
382.634	345.38
382.86	343.38
383.085	367.38
383.31	359.38
383.535	364.38
383.761	376.38
383.986	382.38
384.211	358.38
384.436	355.38
384.662	362.38
384.887	382.38
385.112	366.38
385.337	380.38
385.562	362.38
385.787	343.38
386.013	377.38
386.238	371.38
386.463	373.38
386.688	360.38
386.913	355.38
387.138	371.38
387.363	382.38
387.588	362.38
387.813	369.38
388.038	369.38
388.263	354.38
388.488	383.38
388.713	353.38
388.938	374.38
389.163	385.38
389.387	370.38
389.612	381.38
389.837	374.38
390.062	378.38
390.287	378.38
390.512	356.38
390.736	362.38
390.961	355.38
391.186	366.38
391.411	381.38
391.636	381.38
391.86	379.38
392.085	386.38
392.31	393.38
392.534	375.38
392.759	386.38
392.984	370.38
393.208	379.38
393.433	386.38
393.658	372.38
393.882	389.38
394.107	377.38
394.331	376.38
394.556	365.38
394.78	360.38
395.005	377.38
395.229	366.38
395.454	382.38
395.678	377.38
395.903	378.38
396.127	391.38
396.352	388.38
396.576	386.38
396.801	376.38
397.025	391.38
397.249	370.38
397.474	386.38
397.698	389.38
397.922	412.38
398.147	402.38
398.371	412.38
398.595	404.38
398.82	422.38
399.044	423.38
399.268	433.38
399.492	443.38
399.717	439.38
399.941	470.38
400.165	485.38
400.389	491.38
400.613	461.38
400.837	441.38
401.062	430.38
401.286	420.38
401.51	411.38
401.734	403.38
401.958	416.38
402.182	409.38
402.406	431.38
402.63	414.38
402.854	409.38
403.078	433.38
403.302	409.38
403.526	407.38
403.75	419.38
403.974	446.38
404.198	411.38
404.422	430.38
404.645	402.38
404.869	418.38
405.093	451.38
405.317	482.38
405.541	518.38
405.765	481.38
405.988	443.38
406.212	443.38
406.436	457.38
406.66	451.38
406.883	459.38
407.107	466.38
407.331	521.38
407.555	566.38
407.778	540.38
408.002	527.38
408.226	459.38
408.449	441.38
408.673	466.38
408.896	503.38
409.12	505.38
409.344	499.38
409.567	444.38
409.791	442.38
410.014	431.38
410.238	418.38
410.461	411.38
410.685	415.38
410.908	437.38
411.132	451.38
411.355	478.38
411.578	453.38
411.802	426.38
412.025	404.38
412.249	435.38
412.472	423.38
412.695	467.38
412.919	465.38
413.142	438.38
413.365	422.38
413.589	397.38
413.812	400.38
414.035	395.38
414.258	386.38
414.482	417.38
414.705	410.38
414.928	390.38
415.151	384.38
415.374	393.38
415.597	377.38
415.821	378.38
416.044	400.38
416.267	406.38
416.49	382.38
416.713	395.38
416.936	378.38
417.159	398.38
417.382	393.38
417.605	409.38
417.828	428.38
418.051	409.38
418.274	391.38
418.497	407.38
418.72	411.38
418.943	411.38
419.166	407.38
419.389	424.38
419.611	415.38
419.834	403.38
420.057	417.38
420.28	414.38
420.503	425.38
420.726	406.38
420.948	425.38
421.171	454.38
421.394	503.38
421.617	432.38
421.839	415.38
422.062	420.38
422.285	410.38
422.507	478.38
422.73	541.38
422.953	489.38
423.175	443.38
423.398	443.38
423.621	427.38
423.843	455.38
424.066	434.38
424.288	438.38
424.511	456.38
424.733	482.38
424.956	572.38
425.178	558.38
425.401	533.38
425.623	547.38
425.846	484.38
426.068	470.38
426.291	467.38
426.513	429.38
426.735	471.38
426.958	497.38
427.18	539.38
427.402	658.38
427.625	693.38
427.847	609.38
428.069	515.38
428.292	486.38
428.514	454.38
428.736	428.38
428.958	415.38
429.181	410.38
429.403	403.38
429.625	434.38
429.847	449.38
430.069	503.38
430.292	492.38
430.514	425.38
430.736	403.38
430.958	435.38
431.18	396.38
431.402	390.38
431.624	393.38
431.846	383.38
432.068	402.38
432.29	393.38
432.512	385.38
432.734	407.38
432.956	369.38
433.178	400.38
433.4	404.38
433.622	393.38
433.844	403.38
434.066	377.38
434.287	392.38
434.509	404.38
434.731	408.38
434.953	400.38
435.175	423.38
435.397	423.38
435.618	440.38
435.84	459.38
436.062	541.38
436.284	591.38
436.505	489.38
436.727	446.38
436.949	428.38
437.17	414.38
437.392	418.38
437.614	395.38
437.835	459.38
438.057	509.38
438.278	600.38
438.5	616.38
438.721	646.38
438.943	615.38
439.165	498.38
439.386	467.38
439.608	441.38
439.829	463.38
440.05	464.38
440.272	511.38
440.493	473.38
440.715	441.38
440.936	429.38
441.158	423.38
441.379	421.38
441.6	441.38
441.822	441.38
442.043	464.38
442.264	554.38
442.486	543.38
442.707	495.38
442.928	454.38
443.149	468.38
443.371	513.38
443.592	517.38
443.813	565.38
444.034	629.38
444.255	517.38
444.476	442.38
444.698	430.38
444.919	451.38
445.14	561.38
445.361	490.38
445.582	487.38
445.803	533.38
446.024	613.38
446.245	623.38
446.466	554.38
446.687	472.38
446.908	450.38
447.129	445.38
447.35	415.38
447.571	416.38
447.792	407.38
448.013	411.38
448.234	428.38
448.455	467.38
448.675	564.38
448.896	603.38
449.117	546.38
449.338	513.38
449.559	625.38
449.779	666.38
450	559.38
450.221	457.38
450.442	427.38
450.662	418.38
450.883	407.38
451.104	405.38
451.324	381.38
451.545	405.38
451.766	377.38
451.986	354.38
452.207	357.38
452.428	356.38
452.648	366.38
452.869	341.38
453.089	358.38
453.31	378.38
453.53	371.38
453.751	380.38
453.971	374.38
454.192	382.38
454.412	365.38
454.633	353.38
454.853	353.38
455.073	369.38
455.294	379.38
455.514	423.38
455.734	419.38
455.955	382.38
456.175	360.38
456.395	371.38
456.616	354.38
456.836	356.38
457.056	337.38
457.276	316.38
457.497	341.38
457.717	344.38
457.937	346.38
458.157	365.38
458.377	349.38
458.598	395.38
458.818	402.38
459.038	470.38
459.258	482.38
459.478	429.38
459.698	383.38
459.918	361.38
460.138	373.38
460.358	372.38
460.578	379.38
460.798	408.38
461.018	370.38
461.238	383.38
461.458	378.38
461.678	374.38
461.898	401.38
462.118	370.38
462.338	373.38
462.558	388.38
462.777	411.38
462.997	397.38
463.217	413.38
463.437	420.38
463.657	399.38
463.876	410.38
464.096	417.38
464.316	405.38
464.536	404.38
464.755	396.38
464.975	425.38
465.195	438.38
465.414	460.38
465.634	436.38
465.854	396.38
466.073	403.38
466.293	374.38
466.512	389.38
466.732	387.38
466.951	358.38
467.171	376.38
467.391	375.38
467.61	370.38
467.829	371.38
468.049	383.38
468.268	373.38
468.488	357.38
468.707	359.38
468.927	370.38
469.146	358.38
469.365	352.38
469.585	354.38
469.804	370.38
470.023	381.38
470.243	379.38
470.462	381.38
470.681	401.38
470.901	376.38
471.12	366.38
471.339	377.38
471.558	374.38
471.777	386.38
471.997	386.38
472.216	389.38
472.435	399.38
472.654	396.38
472.873	379.38
473.092	377.38
473.311	379.38
473.53	377.38
473.749	377.38
473.968	432.38
474.187	478.38
474.406	502.38
474.625	433.38
474.844	376.38
475.063	378.38
475.282	383.38
475.501	386.38
475.72	397.38
475.939	381.38
476.158	376.38
476.377	390.38
476.596	389.38
476.814	393.38
477.033	388.38
477.252	388.38
477.471	400.38
477.69	401.38
477.908	403.38
478.127	412.38
478.346	406.38
478.564	413.38
478.783	423.38
479.002	431.38
479.22	411.38
479.439	445.38
479.658	447.38
479.876	463.38
480.095	442.38
480.313	463.38
480.532	458.38
480.751	453.38
480.969	453.38
481.188	502.38
481.406	518.38
481.624	477.38
481.843	467.38
482.061	445.38
482.28	456.38
482.498	427.38
482.717	445.38
482.935	437.38
483.153	438.38
483.372	430.38
483.59	462.38
483.808	451.38
484.027	416.38
484.245	444.38
484.463	457.38
484.681	481.38
484.9	453.38
485.118	449.38
485.336	441.38
485.554	448.38
485.772	437.38
485.99	425.38
486.209	444.38
486.427	442.38
486.645	467.38
486.863	486.38
487.081	494.38
487.299	476.38
487.517	465.38
487.735	466.38
487.953	481.38
488.171	479.38
488.389	468.38
488.607	482.38
488.825	483.38
489.043	462.38
489.261	472.38
489.479	467.38
489.696	474.38
489.914	482.38
490.132	483.38
490.35	497.38
490.568	502.38
490.786	514.38
491.003	517.38
491.221	526.38
491.439	532.38
491.657	529.38
491.874	539.38
492.092	553.38
492.31	537.38
492.527	541.38
492.745	552.38
492.963	534.38
493.18	553.38
493.398	544.38
493.615	555.38
493.833	561.38
494.05	567.38
494.268	548.38
494.485	573.38
494.703	517.38
494.92	555.38
495.138	556.38
495.355	551.38
495.573	563.38
495.79	567.38
496.008	542.38
496.225	559.38
496.442	558.38
496.66	561.38
496.877	529.38
497.094	558.38
497.312	571.38
497.529	593.38
497.746	583.38
497.963	595.38
498.181	595.38
498.398	580.38
498.615	598.38
498.832	621.38
499.049	611.38
499.267	628.38
499.484	653.38
499.701	680.38
499.918	677.38
500.135	722.38
500.352	725.38
500.569	739.38
500.786	761.38
501.003	760.38
501.22	734.38
501.437	704.38
501.654	689.38
501.871	678.38
502.088	661.38
