Data from 1971.PennyLincolnUp.Lamp.En5.5.200Scan.071719.P1._HRD10591_15-19-04-841.txt Node
Date: Thu Jul 18 15:19:04 EDT 2019
User: cochatt
Spectrometer: HR+D1059
Trigger mode: 1
Integration Time (sec): 1.000000E-1
Scans to average: 1
Electric dark correction enabled: true
Nonlinearity correction enabled: false
Boxcar width: 0
XAxis mode: Wavelengths
Number of Pixels in Spectrum: 2048
>>>>>Begin Spectral Data<<<<<
223.165	-13.75
223.4	-13.75
223.635	-13.75
223.869	-9.75
224.104	-17.75
224.338	-1.75
224.573	-5.75
224.808	-23.75
225.042	-15.75
225.277	9.25
225.511	-10.75
225.746	-14.75
225.98	0.25
226.215	18.25
226.449	6.25
226.683	18.25
226.918	31.25
227.152	30.25
227.387	31.25
227.621	26.25
227.856	52.25
228.09	36.25
228.324	60.25
228.559	66.25
228.793	72.25
229.027	94.25
229.262	114.25
229.496	110.25
229.73	120.25
229.964	134.25
230.199	120.25
230.433	118.25
230.667	108.25
230.901	106.25
231.136	111.25
231.37	111.25
231.604	115.25
231.838	123.25
232.072	97.25
232.306	108.25
232.541	113.25
232.775	121.25
233.009	114.25
233.243	120.25
233.477	110.25
233.711	116.25
233.945	106.25
234.179	116.25
234.413	118.25
234.647	128.25
234.881	118.25
235.115	104.25
235.349	112.25
235.583	118.25
235.817	116.25
236.051	114.25
236.285	125.25
236.519	123.25
236.753	129.25
236.987	141.25
237.221	166.25
237.455	214.25
237.689	167.25
237.922	135.25
238.156	141.25
238.39	124.25
238.624	118.25
238.858	112.25
239.091	120.25
239.325	125.25
239.559	128.25
239.793	128.25
240.027	142.25
240.26	143.25
240.494	145.25
240.728	148.25
240.961	138.25
241.195	129.25
241.429	139.25
241.662	133.25
241.896	134.25
242.13	132.25
242.363	135.25
242.597	136.25
242.83	128.25
243.064	135.25
243.298	152.25
243.531	138.25
243.765	140.25
243.998	142.25
244.232	139.25
244.465	146.25
244.699	153.25
244.932	145.25
245.166	141.25
245.399	149.25
245.633	146.25
245.866	140.25
246.099	149.25
246.333	134.25
246.566	162.25
246.8	152.25
247.033	153.25
247.266	163.25
247.5	168.25
247.733	181.25
247.966	157.25
248.2	175.25
248.433	162.25
248.666	176.25
248.899	192.25
249.133	172.25
249.366	219.25
249.599	203.25
249.832	169.25
250.066	191.25
250.299	178.25
250.532	190.25
250.765	188.25
250.998	205.25
251.231	223.25
251.465	229.25
251.698	201.25
251.931	209.25
252.164	199.25
252.397	190.25
252.63	220.25
252.863	206.25
253.096	213.25
253.329	236.25
253.562	219.25
253.795	220.25
254.028	228.25
254.261	205.25
254.494	220.25
254.727	249.25
254.96	274.25
255.193	254.25
255.426	238.25
255.659	245.25
255.892	232.25
256.124	252.25
256.357	232.25
256.59	223.25
256.823	212.25
257.056	198.25
257.289	212.25
257.521	215.25
257.754	206.25
257.987	216.25
258.22	209.25
258.452	214.25
258.685	232.25
258.918	211.25
259.151	214.25
259.383	223.25
259.616	226.25
259.849	221.25
260.081	227.25
260.314	249.25
260.547	254.25
260.779	224.25
261.012	245.25
261.244	238.25
261.477	237.25
261.71	216.25
261.942	239.25
262.175	239.25
262.407	237.25
262.64	223.25
262.872	240.25
263.105	217.25
263.337	217.25
263.57	206.25
263.802	232.25
264.035	210.25
264.267	205.25
264.499	231.25
264.732	226.25
264.964	216.25
265.197	213.25
265.429	218.25
265.661	206.25
265.894	205.25
266.126	206.25
266.358	223.25
266.591	214.25
266.823	229.25
267.055	230.25
267.287	210.25
267.52	221.25
267.752	237.25
267.984	233.25
268.216	239.25
268.448	239.25
268.681	230.25
268.913	245.25
269.145	280.25
269.377	293.25
269.609	278.25
269.841	259.25
270.073	269.25
270.306	296.25
270.538	321.25
270.77	320.25
271.002	313.25
271.234	286.25
271.466	328.25
271.698	319.25
271.93	309.25
272.162	310.25
272.394	308.25
272.626	320.25
272.858	303.25
273.09	281.25
273.322	270.25
273.553	283.25
273.785	260.25
274.017	273.25
274.249	276.25
274.481	266.25
274.713	268.25
274.945	260.25
275.176	285.25
275.408	274.25
275.64	277.25
275.872	284.25
276.104	261.25
276.335	257.25
276.567	275.25
276.799	296.25
277.031	309.25
277.262	332.25
277.494	316.25
277.726	314.25
277.957	288.25
278.189	270.25
278.421	285.25
278.652	276.25
278.884	265.25
279.115	284.25
279.347	284.25
279.579	286.25
279.81	260.25
280.042	286.25
280.273	277.25
280.505	264.25
280.736	264.25
280.968	258.25
281.199	248.25
281.431	277.25
281.662	279.25
281.894	289.25
282.125	287.25
282.356	288.25
282.588	295.25
282.819	311.25
283.051	276.25
283.282	292.25
283.513	292.25
283.745	277.25
283.976	267.25
284.207	281.25
284.439	284.25
284.67	274.25
284.901	278.25
285.132	272.25
285.364	299.25
285.595	287.25
285.826	292.25
286.057	290.25
286.288	262.25
286.52	278.25
286.751	292.25
286.982	303.25
287.213	299.25
287.444	284.25
287.675	272.25
287.906	312.25
288.138	300.25
288.369	314.25
288.6	299.25
288.831	304.25
289.062	308.25
289.293	298.25
289.524	308.25
289.755	309.25
289.986	294.25
290.217	288.25
290.448	296.25
290.679	292.25
290.91	287.25
291.141	295.25
291.371	298.25
291.602	308.25
291.833	308.25
292.064	297.25
292.295	285.25
292.526	292.25
292.757	307.25
292.987	293.25
293.218	315.25
293.449	312.25
293.68	296.25
293.91	303.25
294.141	314.25
294.372	312.25
294.603	310.25
294.833	272.25
295.064	298.25
295.295	291.25
295.525	305.25
295.756	302.25
295.987	320.25
296.217	321.25
296.448	320.25
296.679	308.25
296.909	296.25
297.14	290.25
297.37	320.25
297.601	296.25
297.831	295.25
298.062	313.25
298.292	305.25
298.523	300.25
298.753	323.25
298.984	301.25
299.214	327.25
299.445	323.25
299.675	330.25
299.905	320.25
300.136	312.25
300.366	304.25
300.597	308.25
300.827	317.25
301.057	314.25
301.288	312.25
301.518	321.25
301.748	323.25
301.979	323.25
302.209	320.25
302.439	338.25
302.669	349.25
302.9	342.25
303.13	330.25
303.36	339.25
303.59	329.25
303.82	332.25
304.051	340.25
304.281	339.25
304.511	334.25
304.741	337.25
304.971	345.25
305.201	316.25
305.431	315.25
305.661	318.25
305.891	348.25
306.121	348.25
306.352	329.25
306.582	335.25
306.812	339.25
307.042	349.25
307.272	336.25
307.502	334.25
307.731	336.25
307.961	338.25
308.191	346.25
308.421	352.25
308.651	334.25
308.881	332.25
309.111	362.25
309.341	333.25
309.571	352.25
309.8	353.25
310.03	363.25
310.26	358.25
310.49	367.25
310.72	379.25
310.949	376.25
311.179	369.25
311.409	396.25
311.639	352.25
311.868	372.25
312.098	368.25
312.328	386.25
312.557	401.25
312.787	395.25
313.017	396.25
313.246	381.25
313.476	365.25
313.706	380.25
313.935	396.25
314.165	398.25
314.394	389.25
314.624	386.25
314.853	373.25
315.083	386.25
315.312	381.25
315.542	379.25
315.771	360.25
316.001	368.25
316.23	384.25
316.46	369.25
316.689	374.25
316.919	384.25
317.148	364.25
317.377	388.25
317.607	362.25
317.836	395.25
318.065	386.25
318.295	382.25
318.524	385.25
318.753	364.25
318.983	372.25
319.212	374.25
319.441	385.25
319.67	380.25
319.9	364.25
320.129	372.25
320.358	380.25
320.587	388.25
320.816	388.25
321.046	394.25
321.275	400.25
321.504	406.25
321.733	403.25
321.962	404.25
322.191	389.25
322.42	434.25
322.649	418.25
322.878	443.25
323.108	444.25
323.337	448.25
323.566	466.25
323.795	492.25
324.024	570.25
324.253	674.25
324.482	943.25
324.71	1427.25
324.939	1880.25
325.168	1563.25
325.397	841.25
325.626	605.25
325.855	522.25
326.084	486.25
326.313	506.25
326.542	511.25
326.77	538.25
326.999	626.25
327.228	843.25
327.457	1250.25
327.686	1355.25
327.914	939.25
328.143	646.25
328.372	605.25
328.6	531.25
328.829	528.25
329.058	548.25
329.287	558.25
329.515	497.25
329.744	462.25
329.972	485.25
330.201	492.25
330.43	540.25
330.658	538.25
330.887	570.25
331.115	559.25
331.344	491.25
331.572	469.25
331.801	476.25
332.03	477.25
332.258	462.25
332.486	424.25
332.715	431.25
332.943	438.25
333.172	447.25
333.4	429.25
333.629	464.25
333.857	464.25
334.085	466.25
334.314	480.25
334.542	488.25
334.771	506.25
334.999	477.25
335.227	456.25
335.455	456.25
335.684	423.25
335.912	418.25
336.14	421.25
336.369	411.25
336.597	431.25
336.825	446.25
337.053	422.25
337.281	423.25
337.51	413.25
337.738	429.25
337.966	434.25
338.194	445.25
338.422	423.25
338.65	401.25
338.878	421.25
339.106	398.25
339.334	420.25
339.562	412.25
339.79	416.25
340.018	421.25
340.246	405.25
340.474	412.25
340.702	419.25
340.93	415.25
341.158	409.25
341.386	427.25
341.614	400.25
341.842	409.25
342.07	402.25
342.298	385.25
342.526	397.25
342.754	400.25
342.981	388.25
343.209	405.25
343.437	395.25
343.665	412.25
343.893	433.25
344.12	433.25
344.348	426.25
344.576	424.25
344.804	411.25
345.031	442.25
345.259	446.25
345.487	404.25
345.714	415.25
345.942	405.25
346.17	379.25
346.397	402.25
346.625	384.25
346.853	390.25
347.08	400.25
347.308	399.25
347.535	407.25
347.763	412.25
347.99	400.25
348.218	399.25
348.445	396.25
348.673	408.25
348.9	394.25
349.128	394.25
349.355	410.25
349.583	381.25
349.81	383.25
350.037	381.25
350.265	384.25
350.492	371.25
350.72	384.25
350.947	394.25
351.174	390.25
351.402	407.25
351.629	387.25
351.856	397.25
352.083	396.25
352.311	384.25
352.538	405.25
352.765	408.25
352.992	400.25
353.22	399.25
353.447	382.25
353.674	385.25
353.901	382.25
354.128	372.25
354.355	376.25
354.583	375.25
354.81	368.25
355.037	381.25
355.264	369.25
355.491	357.25
355.718	342.25
355.945	361.25
356.172	354.25
356.399	369.25
356.626	361.25
356.853	385.25
357.08	386.25
357.307	361.25
357.534	359.25
357.761	363.25
357.988	343.25
358.215	377.25
358.441	351.25
358.668	346.25
358.895	365.25
359.122	347.25
359.349	347.25
359.576	386.25
359.802	393.25
360.029	414.25
360.256	424.25
360.483	413.25
360.709	394.25
360.936	373.25
361.163	376.25
361.39	409.25
361.616	397.25
361.843	362.25
362.07	371.25
362.296	372.25
362.523	385.25
362.749	389.25
362.976	382.25
363.203	386.25
363.429	355.25
363.656	368.25
363.882	368.25
364.109	368.25
364.335	363.25
364.562	348.25
364.788	358.25
365.015	366.25
365.241	363.25
365.468	352.25
365.694	359.25
365.92	372.25
366.147	358.25
366.373	362.25
366.599	350.25
366.826	373.25
367.052	350.25
367.278	362.25
367.505	379.25
367.731	374.25
367.957	347.25
368.184	354.25
368.41	372.25
368.636	373.25
368.862	368.25
369.089	355.25
369.315	371.25
369.541	352.25
369.767	363.25
369.993	366.25
370.219	354.25
370.445	353.25
370.672	360.25
370.898	358.25
371.124	366.25
371.35	348.25
371.576	360.25
371.802	367.25
372.028	364.25
372.254	358.25
372.48	345.25
372.706	354.25
372.932	357.25
373.158	367.25
373.384	349.25
373.61	351.25
373.835	372.25
374.061	360.25
374.287	364.25
374.513	352.25
374.739	349.25
374.965	360.25
375.191	369.25
375.416	356.25
375.642	364.25
375.868	356.25
376.094	366.25
376.319	361.25
376.545	349.25
376.771	342.25
376.997	343.25
377.222	343.25
377.448	334.25
377.674	360.25
377.899	376.25
378.125	347.25
378.35	370.25
378.576	345.25
378.802	358.25
379.027	342.25
379.253	365.25
379.478	362.25
379.704	357.25
379.929	355.25
380.155	352.25
380.38	360.25
380.606	350.25
380.831	356.25
381.057	352.25
381.282	343.25
381.507	349.25
381.733	346.25
381.958	337.25
382.184	348.25
382.409	349.25
382.634	372.25
382.86	337.25
383.085	340.25
383.31	366.25
383.535	363.25
383.761	370.25
383.986	355.25
384.211	363.25
384.436	379.25
384.662	365.25
384.887	370.25
385.112	359.25
385.337	365.25
385.562	356.25
385.787	384.25
386.013	384.25
386.238	372.25
386.463	362.25
386.688	378.25
386.913	358.25
387.138	367.25
387.363	349.25
387.588	376.25
387.813	388.25
388.038	372.25
388.263	381.25
388.488	369.25
388.713	356.25
388.938	376.25
389.163	376.25
389.387	377.25
389.612	355.25
389.837	380.25
390.062	371.25
390.287	356.25
390.512	362.25
390.736	353.25
390.961	377.25
391.186	358.25
391.411	378.25
391.636	362.25
391.86	387.25
392.085	374.25
392.31	378.25
392.534	381.25
392.759	368.25
392.984	384.25
393.208	373.25
393.433	382.25
393.658	354.25
393.882	382.25
394.107	354.25
394.331	372.25
394.556	382.25
394.78	357.25
395.005	398.25
395.229	374.25
395.454	367.25
395.678	372.25
395.903	386.25
396.127	414.25
396.352	418.25
396.576	394.25
396.801	384.25
397.025	392.25
397.249	387.25
397.474	395.25
397.698	392.25
397.922	407.25
398.147	412.25
398.371	416.25
398.595	411.25
398.82	402.25
399.044	420.25
399.268	421.25
399.492	430.25
399.717	468.25
399.941	487.25
400.165	505.25
400.389	511.25
400.613	465.25
400.837	440.25
401.062	419.25
401.286	422.25
401.51	406.25
401.734	401.25
401.958	421.25
402.182	416.25
402.406	434.25
402.63	425.25
402.854	415.25
403.078	434.25
403.302	425.25
403.526	440.25
403.75	443.25
403.974	430.25
404.198	382.25
404.422	426.25
404.645	436.25
404.869	413.25
405.093	436.25
405.317	492.25
405.541	500.25
405.765	457.25
405.988	450.25
406.212	466.25
406.436	472.25
406.66	452.25
406.883	468.25
407.107	484.25
407.331	526.25
407.555	545.25
407.778	545.25
408.002	501.25
408.226	470.25
408.449	462.25
408.673	456.25
408.896	475.25
409.12	509.25
409.344	477.25
409.567	446.25
409.791	446.25
410.014	430.25
410.238	403.25
410.461	421.25
410.685	436.25
410.908	452.25
411.132	465.25
411.355	495.25
411.578	468.25
411.802	427.25
412.025	423.25
412.249	417.25
412.472	452.25
412.695	456.25
412.919	471.25
413.142	436.25
413.365	417.25
413.589	396.25
413.812	406.25
414.035	409.25
414.258	416.25
414.482	404.25
414.705	398.25
414.928	408.25
415.151	410.25
415.374	389.25
415.597	400.25
415.821	387.25
416.044	395.25
416.267	392.25
416.49	404.25
416.713	390.25
416.936	405.25
417.159	397.25
417.382	422.25
417.605	405.25
417.828	401.25
418.051	437.25
418.274	416.25
418.497	392.25
418.72	379.25
418.943	393.25
419.166	398.25
419.389	434.25
419.611	418.25
419.834	405.25
420.057	428.25
420.28	405.25
420.503	404.25
420.726	422.25
420.948	428.25
421.171	464.25
421.394	500.25
421.617	430.25
421.839	418.25
422.062	417.25
422.285	415.25
422.507	451.25
422.73	538.25
422.953	520.25
423.175	454.25
423.398	445.25
423.621	427.25
423.843	433.25
424.066	465.25
424.288	449.25
424.511	469.25
424.733	492.25
424.956	559.25
425.178	556.25
425.401	537.25
425.623	543.25
425.846	477.25
426.068	450.25
426.291	455.25
426.513	434.25
426.735	460.25
426.958	494.25
427.18	564.25
427.402	636.25
427.625	704.25
427.847	601.25
428.069	545.25
428.292	491.25
428.514	422.25
428.736	436.25
428.958	443.25
429.181	406.25
429.403	394.25
429.625	432.25
429.847	436.25
430.069	488.25
430.292	500.25
430.514	429.25
430.736	406.25
430.958	396.25
431.18	384.25
431.402	382.25
431.624	384.25
431.846	390.25
432.068	374.25
432.29	390.25
432.512	396.25
432.734	396.25
432.956	400.25
433.178	396.25
433.4	386.25
433.622	398.25
433.844	391.25
434.066	398.25
434.287	406.25
434.509	392.25
434.731	401.25
434.953	420.25
435.175	436.25
435.397	448.25
435.618	451.25
435.84	472.25
436.062	562.25
436.284	601.25
436.505	496.25
436.727	462.25
436.949	426.25
437.17	407.25
437.392	418.25
437.614	422.25
437.835	458.25
438.057	533.25
438.278	594.25
438.5	581.25
438.721	632.25
438.943	626.25
439.165	489.25
439.386	470.25
439.608	478.25
439.829	456.25
440.05	464.25
440.272	482.25
440.493	455.25
440.715	440.25
440.936	430.25
441.158	429.25
441.379	406.25
441.6	425.25
441.822	459.25
442.043	465.25
442.264	556.25
442.486	571.25
442.707	504.25
442.928	454.25
443.149	476.25
443.371	481.25
443.592	533.25
443.813	588.25
444.034	626.25
444.255	519.25
444.476	463.25
444.698	444.25
444.919	453.25
445.14	572.25
445.361	514.25
445.582	476.25
445.803	531.25
446.024	614.25
446.245	593.25
446.466	560.25
446.687	464.25
446.908	450.25
447.129	419.25
447.35	412.25
447.571	414.25
447.792	412.25
448.013	420.25
448.234	449.25
448.455	463.25
448.675	562.25
448.896	626.25
449.117	551.25
449.338	539.25
449.559	627.25
449.779	666.25
450	554.25
450.221	444.25
450.442	397.25
450.662	398.25
450.883	407.25
451.104	425.25
451.324	400.25
451.545	390.25
451.766	386.25
451.986	382.25
452.207	376.25
452.428	372.25
452.648	379.25
452.869	378.25
453.089	388.25
453.31	389.25
453.53	365.25
453.751	372.25
453.971	371.25
454.192	400.25
454.412	384.25
454.633	370.25
454.853	359.25
455.073	361.25
455.294	394.25
455.514	432.25
455.734	407.25
455.955	386.25
456.175	374.25
456.395	349.25
456.616	352.25
456.836	362.25
457.056	344.25
457.276	338.25
457.497	349.25
457.717	368.25
457.937	365.25
458.157	350.25
458.377	357.25
458.598	362.25
458.818	411.25
459.038	482.25
459.258	479.25
459.478	405.25
459.698	381.25
459.918	369.25
460.138	366.25
460.358	382.25
460.578	388.25
460.798	385.25
461.018	398.25
461.238	395.25
461.458	385.25
461.678	363.25
461.898	358.25
462.118	371.25
462.338	392.25
462.558	418.25
462.777	408.25
462.997	400.25
463.217	410.25
463.437	413.25
463.657	401.25
463.876	392.25
464.096	415.25
464.316	395.25
464.536	401.25
464.755	407.25
464.975	421.25
465.195	455.25
465.414	483.25
465.634	426.25
465.854	416.25
466.073	380.25
466.293	369.25
466.512	382.25
466.732	367.25
466.951	373.25
467.171	388.25
467.391	382.25
467.61	394.25
467.829	393.25
468.049	399.25
468.268	361.25
468.488	368.25
468.707	359.25
468.927	352.25
469.146	360.25
469.365	358.25
469.585	373.25
469.804	392.25
470.023	372.25
470.243	372.25
470.462	392.25
470.681	405.25
470.901	412.25
471.12	392.25
471.339	386.25
471.558	384.25
471.777	378.25
471.997	377.25
472.216	377.25
472.435	401.25
472.654	389.25
472.873	386.25
473.092	371.25
473.311	389.25
473.53	349.25
473.749	372.25
473.968	424.25
474.187	494.25
474.406	514.25
474.625	426.25
474.844	414.25
475.063	387.25
475.282	400.25
475.501	393.25
475.72	402.25
475.939	385.25
476.158	377.25
476.377	394.25
476.596	378.25
476.814	396.25
477.033	395.25
477.252	390.25
477.471	411.25
477.69	407.25
477.908	406.25
478.127	426.25
478.346	403.25
478.564	419.25
478.783	409.25
479.002	423.25
479.22	420.25
479.439	405.25
479.658	425.25
479.876	431.25
480.095	464.25
480.313	479.25
480.532	459.25
480.751	447.25
480.969	458.25
481.188	500.25
481.406	493.25
481.624	460.25
481.843	464.25
482.061	445.25
482.28	424.25
482.498	435.25
482.717	441.25
482.935	457.25
483.153	454.25
483.372	433.25
483.59	447.25
483.808	450.25
484.027	428.25
484.245	437.25
484.463	442.25
484.681	445.25
484.9	441.25
485.118	455.25
485.336	430.25
485.554	429.25
485.772	430.25
485.99	433.25
486.209	431.25
486.427	442.25
486.645	449.25
486.863	474.25
487.081	480.25
487.299	476.25
487.517	476.25
487.735	475.25
487.953	469.25
488.171	463.25
488.389	460.25
488.607	478.25
488.825	486.25
489.043	468.25
489.261	478.25
489.479	493.25
489.696	490.25
489.914	471.25
490.132	490.25
490.35	478.25
490.568	484.25
490.786	504.25
491.003	512.25
491.221	530.25
491.439	536.25
491.657	541.25
491.874	540.25
492.092	568.25
492.31	559.25
492.527	552.25
492.745	575.25
492.963	546.25
493.18	568.25
493.398	555.25
493.615	554.25
493.833	545.25
494.05	560.25
494.268	561.25
494.485	527.25
494.703	555.25
494.92	574.25
495.138	560.25
495.355	550.25
495.573	556.25
495.79	581.25
496.008	557.25
496.225	546.25
496.442	549.25
496.66	556.25
496.877	556.25
497.094	540.25
497.312	567.25
497.529	580.25
497.746	570.25
497.963	580.25
498.181	594.25
498.398	596.25
498.615	609.25
498.832	601.25
499.049	618.25
499.267	607.25
499.484	664.25
499.701	671.25
499.918	696.25
500.135	705.25
500.352	725.25
500.569	740.25
500.786	760.25
501.003	733.25
501.22	692.25
501.437	682.25
501.654	695.25
501.871	695.25
