Data from 1971.PennyLincolnUp.Lamp.En5.5.200Scan.071719.P1._HRD10591_15-18-26-841.txt Node
Date: Thu Jul 18 15:18:26 EDT 2019
User: cochatt
Spectrometer: HR+D1059
Trigger mode: 1
Integration Time (sec): 1.000000E-1
Scans to average: 1
Electric dark correction enabled: true
Nonlinearity correction enabled: false
Boxcar width: 0
XAxis mode: Wavelengths
Number of Pixels in Spectrum: 2048
>>>>>Begin Spectral Data<<<<<
223.165	-12.62
223.4	-12.62
223.635	-12.62
223.869	-11.62
224.104	-18.62
224.338	-17.62
224.573	-15.62
224.808	-6.62
225.042	-4.62
225.277	-14.62
225.511	-4.62
225.746	11.38
225.98	8.38
226.215	13.38
226.449	13.38
226.683	16.38
226.918	20.38
227.152	23.38
227.387	36.38
227.621	45.38
227.856	38.38
228.09	51.38
228.324	69.38
228.559	64.38
228.793	55.38
229.027	83.38
229.262	96.38
229.496	110.38
229.73	126.38
229.964	127.38
230.199	111.38
230.433	101.38
230.667	101.38
230.901	112.38
231.136	108.38
231.37	101.38
231.604	108.38
231.838	121.38
232.072	95.38
232.306	117.38
232.541	108.38
232.775	115.38
233.009	103.38
233.243	109.38
233.477	111.38
233.711	120.38
233.945	107.38
234.179	119.38
234.413	110.38
234.647	114.38
234.881	111.38
235.115	109.38
235.349	91.38
235.583	123.38
235.817	123.38
236.051	115.38
236.285	127.38
236.519	119.38
236.753	123.38
236.987	137.38
237.221	141.38
237.455	208.38
237.689	157.38
237.922	125.38
238.156	132.38
238.39	126.38
238.624	127.38
238.858	128.38
239.091	112.38
239.325	120.38
239.559	126.38
239.793	116.38
240.027	145.38
240.26	131.38
240.494	136.38
240.728	147.38
240.961	145.38
241.195	151.38
241.429	129.38
241.662	114.38
241.896	124.38
242.13	122.38
242.363	141.38
242.597	130.38
242.83	142.38
243.064	135.38
243.298	117.38
243.531	135.38
243.765	131.38
243.998	123.38
244.232	127.38
244.465	143.38
244.699	137.38
244.932	128.38
245.166	131.38
245.399	135.38
245.633	142.38
245.866	143.38
246.099	126.38
246.333	146.38
246.566	155.38
246.8	147.38
247.033	166.38
247.266	161.38
247.5	146.38
247.733	172.38
247.966	170.38
248.2	168.38
248.433	170.38
248.666	170.38
248.899	172.38
249.133	190.38
249.366	192.38
249.599	185.38
249.832	173.38
250.066	181.38
250.299	179.38
250.532	167.38
250.765	179.38
250.998	190.38
251.231	198.38
251.465	205.38
251.698	189.38
251.931	189.38
252.164	196.38
252.397	192.38
252.63	182.38
252.863	197.38
253.096	209.38
253.329	221.38
253.562	210.38
253.795	212.38
254.028	211.38
254.261	198.38
254.494	224.38
254.727	236.38
254.96	277.38
255.193	255.38
255.426	234.38
255.659	236.38
255.892	228.38
256.124	212.38
256.357	232.38
256.59	219.38
256.823	200.38
257.056	219.38
257.289	204.38
257.521	191.38
257.754	209.38
257.987	201.38
258.22	196.38
258.452	211.38
258.685	208.38
258.918	207.38
259.151	211.38
259.383	209.38
259.616	200.38
259.849	230.38
260.081	215.38
260.314	234.38
260.547	228.38
260.779	226.38
261.012	233.38
261.244	225.38
261.477	223.38
261.71	223.38
261.942	234.38
262.175	220.38
262.407	220.38
262.64	216.38
262.872	225.38
263.105	196.38
263.337	209.38
263.57	204.38
263.802	207.38
264.035	212.38
264.267	222.38
264.499	212.38
264.732	206.38
264.964	217.38
265.197	219.38
265.429	204.38
265.661	206.38
265.894	207.38
266.126	220.38
266.358	211.38
266.591	207.38
266.823	212.38
267.055	214.38
267.287	222.38
267.52	223.38
267.752	220.38
267.984	206.38
268.216	219.38
268.448	213.38
268.681	227.38
268.913	242.38
269.145	258.38
269.377	251.38
269.609	261.38
269.841	261.38
270.073	275.38
270.306	264.38
270.538	304.38
270.77	298.38
271.002	277.38
271.234	292.38
271.466	297.38
271.698	291.38
271.93	306.38
272.162	288.38
272.394	309.38
272.626	285.38
272.858	276.38
273.09	268.38
273.322	262.38
273.553	266.38
273.785	265.38
274.017	239.38
274.249	238.38
274.481	237.38
274.713	259.38
274.945	253.38
275.176	244.38
275.408	252.38
275.64	249.38
275.872	247.38
276.104	241.38
276.335	257.38
276.567	269.38
276.799	245.38
277.031	277.38
277.262	293.38
277.494	296.38
277.726	296.38
277.957	275.38
278.189	253.38
278.421	279.38
278.652	259.38
278.884	259.38
279.115	242.38
279.347	268.38
279.579	240.38
279.81	253.38
280.042	254.38
280.273	264.38
280.505	267.38
280.736	251.38
280.968	248.38
281.199	249.38
281.431	262.38
281.662	272.38
281.894	267.38
282.125	269.38
282.356	275.38
282.588	280.38
282.819	283.38
283.051	279.38
283.282	254.38
283.513	269.38
283.745	265.38
283.976	283.38
284.207	265.38
284.439	275.38
284.67	281.38
284.901	270.38
285.132	269.38
285.364	250.38
285.595	281.38
285.826	250.38
286.057	261.38
286.288	248.38
286.52	261.38
286.751	276.38
286.982	265.38
287.213	288.38
287.444	278.38
287.675	267.38
287.906	291.38
288.138	287.38
288.369	296.38
288.6	279.38
288.831	287.38
289.062	287.38
289.293	284.38
289.524	272.38
289.755	281.38
289.986	285.38
290.217	261.38
290.448	265.38
290.679	270.38
290.91	285.38
291.141	264.38
291.371	275.38
291.602	273.38
291.833	267.38
292.064	297.38
292.295	285.38
292.526	279.38
292.757	279.38
292.987	287.38
293.218	276.38
293.449	276.38
293.68	273.38
293.91	278.38
294.141	287.38
294.372	278.38
294.603	298.38
294.833	284.38
295.064	290.38
295.295	273.38
295.525	288.38
295.756	278.38
295.987	298.38
296.217	305.38
296.448	327.38
296.679	297.38
296.909	287.38
297.14	289.38
297.37	293.38
297.601	271.38
297.831	290.38
298.062	288.38
298.292	289.38
298.523	290.38
298.753	288.38
298.984	278.38
299.214	296.38
299.445	305.38
299.675	299.38
299.905	299.38
300.136	310.38
300.366	294.38
300.597	297.38
300.827	302.38
301.057	309.38
301.288	291.38
301.518	301.38
301.748	302.38
301.979	292.38
302.209	315.38
302.439	317.38
302.669	301.38
302.9	306.38
303.13	295.38
303.36	314.38
303.59	331.38
303.82	332.38
304.051	318.38
304.281	310.38
304.511	327.38
304.741	299.38
304.971	315.38
305.201	330.38
305.431	326.38
305.661	323.38
305.891	302.38
306.121	303.38
306.352	314.38
306.582	294.38
306.812	312.38
307.042	305.38
307.272	297.38
307.502	325.38
307.731	334.38
307.961	325.38
308.191	319.38
308.421	316.38
308.651	325.38
308.881	329.38
309.111	326.38
309.341	317.38
309.571	346.38
309.8	364.38
310.03	327.38
310.26	358.38
310.49	336.38
310.72	353.38
310.949	373.38
311.179	367.38
311.409	341.38
311.639	355.38
311.868	348.38
312.098	345.38
312.328	347.38
312.557	358.38
312.787	366.38
313.017	376.38
313.246	352.38
313.476	349.38
313.706	354.38
313.935	343.38
314.165	360.38
314.394	377.38
314.624	373.38
314.853	357.38
315.083	341.38
315.312	343.38
315.542	353.38
315.771	353.38
316.001	342.38
316.23	368.38
316.46	360.38
316.689	350.38
316.919	347.38
317.148	361.38
317.377	381.38
317.607	350.38
317.836	355.38
318.065	374.38
318.295	345.38
318.524	361.38
318.753	346.38
318.983	341.38
319.212	333.38
319.441	321.38
319.67	368.38
319.9	353.38
320.129	345.38
320.358	356.38
320.587	336.38
320.816	347.38
321.046	365.38
321.275	354.38
321.504	363.38
321.733	371.38
321.962	375.38
322.191	390.38
322.42	381.38
322.649	379.38
322.878	396.38
323.108	386.38
323.337	411.38
323.566	424.38
323.795	472.38
324.024	515.38
324.253	616.38
324.482	817.38
324.71	1243.38
324.939	1676.38
325.168	1379.38
325.397	745.38
325.626	545.38
325.855	467.38
326.084	452.38
326.313	453.38
326.542	454.38
326.77	483.38
326.999	553.38
327.228	773.38
327.457	1053.38
327.686	1204.38
327.914	812.38
328.143	566.38
328.372	505.38
328.6	488.38
328.829	479.38
329.058	496.38
329.287	490.38
329.515	476.38
329.744	450.38
329.972	438.38
330.201	449.38
330.43	477.38
330.658	475.38
330.887	515.38
331.115	488.38
331.344	451.38
331.572	453.38
331.801	439.38
332.03	420.38
332.258	405.38
332.486	426.38
332.715	397.38
332.943	402.38
333.172	411.38
333.4	426.38
333.629	415.38
333.857	421.38
334.085	430.38
334.314	447.38
334.542	428.38
334.771	448.38
334.999	423.38
335.227	435.38
335.455	421.38
335.684	417.38
335.912	412.38
336.14	426.38
336.369	413.38
336.597	371.38
336.825	409.38
337.053	398.38
337.281	385.38
337.51	405.38
337.738	389.38
337.966	396.38
338.194	382.38
338.422	404.38
338.65	403.38
338.878	365.38
339.106	391.38
339.334	387.38
339.562	404.38
339.79	382.38
340.018	385.38
340.246	377.38
340.474	397.38
340.702	359.38
340.93	386.38
341.158	391.38
341.386	376.38
341.614	380.38
341.842	363.38
342.07	377.38
342.298	367.38
342.526	364.38
342.754	369.38
342.981	391.38
343.209	375.38
343.437	374.38
343.665	380.38
343.893	384.38
344.12	386.38
344.348	385.38
344.576	417.38
344.804	390.38
345.031	391.38
345.259	383.38
345.487	404.38
345.714	385.38
345.942	380.38
346.17	381.38
346.397	382.38
346.625	377.38
346.853	366.38
347.08	392.38
347.308	368.38
347.535	391.38
347.763	379.38
347.99	384.38
348.218	391.38
348.445	386.38
348.673	367.38
348.9	375.38
349.128	364.38
349.355	363.38
349.583	353.38
349.81	365.38
350.037	356.38
350.265	375.38
350.492	381.38
350.72	364.38
350.947	382.38
351.174	361.38
351.402	371.38
351.629	375.38
351.856	365.38
352.083	381.38
352.311	369.38
352.538	381.38
352.765	366.38
352.992	372.38
353.22	389.38
353.447	369.38
353.674	347.38
353.901	345.38
354.128	343.38
354.355	345.38
354.583	349.38
354.81	369.38
355.037	343.38
355.264	348.38
355.491	356.38
355.718	349.38
355.945	329.38
356.172	326.38
356.399	342.38
356.626	357.38
356.853	333.38
357.08	343.38
357.307	340.38
357.534	323.38
357.761	330.38
357.988	336.38
358.215	332.38
358.441	345.38
358.668	351.38
358.895	334.38
359.122	348.38
359.349	338.38
359.576	375.38
359.802	389.38
360.029	384.38
360.256	399.38
360.483	393.38
360.709	361.38
360.936	348.38
361.163	339.38
361.39	338.38
361.616	379.38
361.843	355.38
362.07	373.38
362.296	360.38
362.523	354.38
362.749	326.38
362.976	363.38
363.203	353.38
363.429	347.38
363.656	339.38
363.882	365.38
364.109	344.38
364.335	336.38
364.562	342.38
364.788	342.38
365.015	358.38
365.241	346.38
365.468	335.38
365.694	342.38
365.92	334.38
366.147	340.38
366.373	351.38
366.599	329.38
366.826	318.38
367.052	339.38
367.278	344.38
367.505	364.38
367.731	327.38
367.957	340.38
368.184	342.38
368.41	350.38
368.636	348.38
368.862	346.38
369.089	335.38
369.315	337.38
369.541	340.38
369.767	334.38
369.993	331.38
370.219	344.38
370.445	329.38
370.672	341.38
370.898	343.38
371.124	341.38
371.35	319.38
371.576	351.38
371.802	320.38
372.028	341.38
372.254	338.38
372.48	342.38
372.706	333.38
372.932	346.38
373.158	334.38
373.384	347.38
373.61	345.38
373.835	347.38
374.061	334.38
374.287	335.38
374.513	352.38
374.739	347.38
374.965	343.38
375.191	335.38
375.416	349.38
375.642	341.38
375.868	337.38
376.094	361.38
376.319	318.38
376.545	328.38
376.771	336.38
376.997	321.38
377.222	336.38
377.448	351.38
377.674	327.38
377.899	340.38
378.125	345.38
378.35	328.38
378.576	334.38
378.802	333.38
379.027	340.38
379.253	331.38
379.478	331.38
379.704	336.38
379.929	328.38
380.155	339.38
380.38	343.38
380.606	351.38
380.831	313.38
381.057	340.38
381.282	347.38
381.507	350.38
381.733	337.38
381.958	321.38
382.184	334.38
382.409	348.38
382.634	332.38
382.86	326.38
383.085	348.38
383.31	327.38
383.535	323.38
383.761	344.38
383.986	351.38
384.211	332.38
384.436	341.38
384.662	357.38
384.887	335.38
385.112	351.38
385.337	343.38
385.562	364.38
385.787	347.38
386.013	375.38
386.238	347.38
386.463	348.38
386.688	332.38
386.913	334.38
387.138	369.38
387.363	349.38
387.588	348.38
387.813	344.38
388.038	355.38
388.263	345.38
388.488	323.38
388.713	354.38
388.938	362.38
389.163	361.38
389.387	349.38
389.612	347.38
389.837	345.38
390.062	341.38
390.287	335.38
390.512	352.38
390.736	359.38
390.961	365.38
391.186	371.38
391.411	348.38
391.636	359.38
391.86	366.38
392.085	345.38
392.31	337.38
392.534	365.38
392.759	351.38
392.984	367.38
393.208	360.38
393.433	371.38
393.658	360.38
393.882	352.38
394.107	348.38
394.331	358.38
394.556	333.38
394.78	348.38
395.005	353.38
395.229	346.38
395.454	367.38
395.678	367.38
395.903	366.38
396.127	391.38
396.352	391.38
396.576	356.38
396.801	363.38
397.025	352.38
397.249	381.38
397.474	366.38
397.698	377.38
397.922	374.38
398.147	390.38
398.371	379.38
398.595	382.38
398.82	375.38
399.044	382.38
399.268	422.38
399.492	425.38
399.717	409.38
399.941	439.38
400.165	488.38
400.389	476.38
400.613	442.38
400.837	410.38
401.062	389.38
401.286	393.38
401.51	392.38
401.734	398.38
401.958	410.38
402.182	384.38
402.406	380.38
402.63	377.38
402.854	399.38
403.078	407.38
403.302	393.38
403.526	407.38
403.75	422.38
403.974	387.38
404.198	411.38
404.422	391.38
404.645	405.38
404.869	399.38
405.093	430.38
405.317	457.38
405.541	475.38
405.765	439.38
405.988	421.38
406.212	429.38
406.436	439.38
406.66	458.38
406.883	432.38
407.107	439.38
407.331	471.38
407.555	524.38
407.778	503.38
408.002	461.38
408.226	435.38
408.449	448.38
408.673	438.38
408.896	450.38
409.12	482.38
409.344	470.38
409.567	413.38
409.791	424.38
410.014	416.38
410.238	395.38
410.461	416.38
410.685	406.38
410.908	420.38
411.132	444.38
411.355	428.38
411.578	440.38
411.802	415.38
412.025	416.38
412.249	385.38
412.472	404.38
412.695	441.38
412.919	441.38
413.142	393.38
413.365	384.38
413.589	357.38
413.812	364.38
414.035	370.38
414.258	382.38
414.482	371.38
414.705	383.38
414.928	375.38
415.151	356.38
415.374	357.38
415.597	362.38
415.821	353.38
416.044	367.38
416.267	389.38
416.49	384.38
416.713	365.38
416.936	383.38
417.159	382.38
417.382	381.38
417.605	378.38
417.828	393.38
418.051	401.38
418.274	388.38
418.497	376.38
418.72	374.38
418.943	366.38
419.166	368.38
419.389	425.38
419.611	400.38
419.834	393.38
420.057	388.38
420.28	397.38
420.503	380.38
420.726	376.38
420.948	406.38
421.171	427.38
421.394	451.38
421.617	411.38
421.839	403.38
422.062	394.38
422.285	412.38
422.507	427.38
422.73	499.38
422.953	469.38
423.175	413.38
423.398	405.38
423.621	407.38
423.843	426.38
424.066	435.38
424.288	424.38
424.511	435.38
424.733	465.38
424.956	534.38
425.178	513.38
425.401	507.38
425.623	515.38
425.846	441.38
426.068	413.38
426.291	422.38
426.513	428.38
426.735	453.38
426.958	461.38
427.18	512.38
427.402	589.38
427.625	640.38
427.847	584.38
428.069	489.38
428.292	446.38
428.514	434.38
428.736	412.38
428.958	407.38
429.181	391.38
429.403	361.38
429.625	391.38
429.847	429.38
430.069	464.38
430.292	462.38
430.514	409.38
430.736	415.38
430.958	380.38
431.18	368.38
431.402	373.38
431.624	357.38
431.846	349.38
432.068	347.38
432.29	374.38
432.512	365.38
432.734	377.38
432.956	389.38
433.178	381.38
433.4	391.38
433.622	374.38
433.844	366.38
434.066	349.38
434.287	367.38
434.509	366.38
434.731	376.38
434.953	390.38
435.175	393.38
435.397	405.38
435.618	406.38
435.84	450.38
436.062	512.38
436.284	567.38
436.505	468.38
436.727	443.38
436.949	384.38
437.17	397.38
437.392	387.38
437.614	390.38
437.835	408.38
438.057	469.38
438.278	547.38
438.5	564.38
438.721	611.38
438.943	603.38
439.165	466.38
439.386	425.38
439.608	437.38
439.829	416.38
440.05	450.38
440.272	471.38
440.493	441.38
440.715	408.38
440.936	403.38
441.158	397.38
441.379	378.38
441.6	411.38
441.822	412.38
442.043	458.38
442.264	515.38
442.486	533.38
442.707	459.38
442.928	434.38
443.149	421.38
443.371	454.38
443.592	471.38
443.813	553.38
444.034	588.38
444.255	511.38
444.476	432.38
444.698	417.38
444.919	433.38
445.14	547.38
445.361	502.38
445.582	458.38
445.803	499.38
446.024	557.38
446.245	590.38
446.466	519.38
446.687	464.38
446.908	430.38
447.129	404.38
447.35	391.38
447.571	366.38
447.792	366.38
448.013	400.38
448.234	414.38
448.455	457.38
448.675	539.38
448.896	603.38
449.117	504.38
449.338	482.38
449.559	580.38
449.779	625.38
450	506.38
450.221	434.38
450.442	388.38
450.662	402.38
450.883	390.38
451.104	384.38
451.324	375.38
451.545	354.38
451.766	366.38
451.986	345.38
452.207	335.38
452.428	348.38
452.648	358.38
452.869	346.38
453.089	350.38
453.31	359.38
453.53	349.38
453.751	347.38
453.971	339.38
454.192	357.38
454.412	331.38
454.633	346.38
454.853	343.38
455.073	347.38
455.294	356.38
455.514	413.38
455.734	401.38
455.955	376.38
456.175	334.38
456.395	341.38
456.616	337.38
456.836	332.38
457.056	328.38
457.276	323.38
457.497	323.38
457.717	312.38
457.937	331.38
458.157	346.38
458.377	334.38
458.598	359.38
458.818	399.38
459.038	438.38
459.258	443.38
459.478	389.38
459.698	373.38
459.918	350.38
460.138	375.38
460.358	362.38
460.578	349.38
460.798	365.38
461.018	370.38
461.238	365.38
461.458	351.38
461.678	371.38
461.898	368.38
462.118	377.38
462.338	379.38
462.558	377.38
462.777	375.38
462.997	415.38
463.217	382.38
463.437	386.38
463.657	383.38
463.876	384.38
464.096	375.38
464.316	398.38
464.536	381.38
464.755	364.38
464.975	393.38
465.195	427.38
465.414	430.38
465.634	407.38
465.854	387.38
466.073	365.38
466.293	348.38
466.512	349.38
466.732	343.38
466.951	340.38
467.171	335.38
467.391	343.38
467.61	349.38
467.829	363.38
468.049	348.38
468.268	358.38
468.488	347.38
468.707	353.38
468.927	331.38
469.146	339.38
469.365	340.38
469.585	323.38
469.804	358.38
470.023	360.38
470.243	368.38
470.462	380.38
470.681	366.38
470.901	367.38
471.12	378.38
471.339	366.38
471.558	363.38
471.777	377.38
471.997	347.38
472.216	360.38
472.435	396.38
472.654	345.38
472.873	336.38
473.092	345.38
473.311	371.38
473.53	360.38
473.749	360.38
473.968	401.38
474.187	462.38
474.406	479.38
474.625	416.38
474.844	378.38
475.063	365.38
475.282	380.38
475.501	366.38
475.72	380.38
475.939	371.38
476.158	365.38
476.377	364.38
476.596	386.38
476.814	365.38
477.033	368.38
477.252	390.38
477.471	365.38
477.69	389.38
477.908	387.38
478.127	383.38
478.346	407.38
478.564	390.38
478.783	391.38
479.002	398.38
479.22	407.38
479.439	402.38
479.658	413.38
479.876	389.38
480.095	419.38
480.313	443.38
480.532	439.38
480.751	431.38
480.969	431.38
481.188	469.38
481.406	477.38
481.624	437.38
481.843	410.38
482.061	407.38
482.28	432.38
482.498	413.38
482.717	409.38
482.935	431.38
483.153	419.38
483.372	424.38
483.59	408.38
483.808	413.38
484.027	415.38
484.245	409.38
484.463	417.38
484.681	423.38
484.9	420.38
485.118	435.38
485.336	415.38
485.554	409.38
485.772	433.38
485.99	420.38
486.209	427.38
486.427	445.38
486.645	419.38
486.863	433.38
487.081	441.38
487.299	447.38
487.517	441.38
487.735	449.38
487.953	447.38
488.171	459.38
488.389	451.38
488.607	442.38
488.825	443.38
489.043	426.38
489.261	469.38
489.479	455.38
489.696	442.38
489.914	443.38
490.132	453.38
490.35	460.38
490.568	460.38
490.786	467.38
491.003	484.38
491.221	497.38
491.439	494.38
491.657	495.38
491.874	505.38
492.092	509.38
492.31	513.38
492.527	504.38
492.745	540.38
492.963	508.38
493.18	525.38
493.398	519.38
493.615	514.38
493.833	504.38
494.05	533.38
494.268	503.38
494.485	504.38
494.703	511.38
494.92	535.38
495.138	507.38
495.355	564.38
495.573	544.38
495.79	530.38
496.008	529.38
496.225	523.38
496.442	524.38
496.66	524.38
496.877	545.38
497.094	531.38
497.312	530.38
497.529	548.38
497.746	542.38
497.963	557.38
498.181	569.38
498.398	541.38
498.615	568.38
498.832	569.38
499.049	568.38
499.267	599.38
499.484	618.38
499.701	612.38
499.918	620.38
500.135	640.38
500.352	672.38
500.569	696.38
500.786	702.38
501.003	686.38
501.22	651.38
501.437	657.38
501.654	632.38
501.871	625.38
