Data from 1971.PennyLincolnUp.Lamp.En5.5.200Scan.071719.P1._HRD10591_15-20-38-841.txt Node
Date: Thu Jul 18 15:20:38 EDT 2019
User: cochatt
Spectrometer: HR+D1059
Trigger mode: 1
Integration Time (sec): 1.000000E-1
Scans to average: 1
Electric dark correction enabled: true
Nonlinearity correction enabled: false
Boxcar width: 0
XAxis mode: Wavelengths
Number of Pixels in Spectrum: 2048
>>>>>Begin Spectral Data<<<<<
223.165	-10.06
223.4	-10.06
223.635	-10.06
223.869	-2.06
224.104	-28.06
224.338	-22.06
224.573	-15.06
224.808	-2.06
225.042	-8.06
225.277	-12.06
225.511	5.94
225.746	9.94
225.98	-13.06
226.215	5.94
226.449	12.94
226.683	11.94
226.918	23.94
227.152	41.94
227.387	40.94
227.621	55.94
227.856	58.94
228.09	51.94
228.324	53.94
228.559	70.94
228.793	58.94
229.027	97.94
229.262	109.94
229.496	105.94
229.73	138.94
229.964	151.94
230.199	135.94
230.433	111.94
230.667	121.94
230.901	119.94
231.136	128.94
231.37	106.94
231.604	126.94
231.838	117.94
232.072	98.94
232.306	118.94
232.541	126.94
232.775	117.94
233.009	125.94
233.243	99.94
233.477	110.94
233.711	110.94
233.945	118.94
234.179	119.94
234.413	125.94
234.647	106.94
234.881	123.94
235.115	115.94
235.349	128.94
235.583	98.94
235.817	126.94
236.051	149.94
236.285	140.94
236.519	139.94
236.753	138.94
236.987	155.94
237.221	186.94
237.455	234.94
237.689	195.94
237.922	154.94
238.156	140.94
238.39	133.94
238.624	129.94
238.858	134.94
239.091	132.94
239.325	130.94
239.559	130.94
239.793	123.94
240.027	145.94
240.26	139.94
240.494	165.94
240.728	151.94
240.961	135.94
241.195	147.94
241.429	137.94
241.662	138.94
241.896	147.94
242.13	125.94
242.363	146.94
242.597	128.94
242.83	135.94
243.064	137.94
243.298	143.94
243.531	142.94
243.765	135.94
243.998	137.94
244.232	153.94
244.465	155.94
244.699	149.94
244.932	162.94
245.166	149.94
245.399	155.94
245.633	137.94
245.866	135.94
246.099	139.94
246.333	161.94
246.566	169.94
246.8	157.94
247.033	160.94
247.266	155.94
247.5	171.94
247.733	145.94
247.966	172.94
248.2	172.94
248.433	192.94
248.666	159.94
248.899	186.94
249.133	216.94
249.366	211.94
249.599	214.94
249.832	197.94
250.066	205.94
250.299	198.94
250.532	203.94
250.765	204.94
250.998	221.94
251.231	227.94
251.465	218.94
251.698	227.94
251.931	220.94
252.164	205.94
252.397	206.94
252.63	217.94
252.863	193.94
253.096	225.94
253.329	233.94
253.562	226.94
253.795	236.94
254.028	230.94
254.261	237.94
254.494	230.94
254.727	265.94
254.96	273.94
255.193	274.94
255.426	265.94
255.659	226.94
255.892	247.94
256.124	248.94
256.357	229.94
256.59	223.94
256.823	240.94
257.056	232.94
257.289	232.94
257.521	234.94
257.754	233.94
257.987	247.94
258.22	220.94
258.452	223.94
258.685	220.94
258.918	217.94
259.151	220.94
259.383	224.94
259.616	224.94
259.849	248.94
260.081	247.94
260.314	249.94
260.547	271.94
260.779	252.94
261.012	242.94
261.244	245.94
261.477	233.94
261.71	246.94
261.942	230.94
262.175	232.94
262.407	235.94
262.64	225.94
262.872	222.94
263.105	223.94
263.337	221.94
263.57	218.94
263.802	217.94
264.035	225.94
264.267	209.94
264.499	222.94
264.732	240.94
264.964	209.94
265.197	237.94
265.429	235.94
265.661	230.94
265.894	211.94
266.126	219.94
266.358	237.94
266.591	247.94
266.823	216.94
267.055	231.94
267.287	238.94
267.52	246.94
267.752	230.94
267.984	239.94
268.216	248.94
268.448	242.94
268.681	243.94
268.913	262.94
269.145	277.94
269.377	296.94
269.609	294.94
269.841	280.94
270.073	309.94
270.306	298.94
270.538	347.94
270.77	328.94
271.002	319.94
271.234	299.94
271.466	306.94
271.698	327.94
271.93	348.94
272.162	352.94
272.394	333.94
272.626	319.94
272.858	309.94
273.09	286.94
273.322	279.94
273.553	282.94
273.785	269.94
274.017	295.94
274.249	293.94
274.481	272.94
274.713	274.94
274.945	296.94
275.176	296.94
275.408	272.94
275.64	290.94
275.872	265.94
276.104	285.94
276.335	279.94
276.567	280.94
276.799	297.94
277.031	314.94
277.262	343.94
277.494	335.94
277.726	309.94
277.957	303.94
278.189	310.94
278.421	288.94
278.652	294.94
278.884	276.94
279.115	283.94
279.347	292.94
279.579	277.94
279.81	278.94
280.042	283.94
280.273	289.94
280.505	285.94
280.736	256.94
280.968	285.94
281.199	288.94
281.431	284.94
281.662	292.94
281.894	279.94
282.125	294.94
282.356	289.94
282.588	313.94
282.819	319.94
283.051	302.94
283.282	289.94
283.513	294.94
283.745	288.94
283.976	279.94
284.207	297.94
284.439	293.94
284.67	305.94
284.901	286.94
285.132	293.94
285.364	289.94
285.595	297.94
285.826	287.94
286.057	306.94
286.288	299.94
286.52	319.94
286.751	300.94
286.982	303.94
287.213	289.94
287.444	294.94
287.675	317.94
287.906	310.94
288.138	313.94
288.369	311.94
288.6	304.94
288.831	300.94
289.062	321.94
289.293	317.94
289.524	306.94
289.755	323.94
289.986	293.94
290.217	303.94
290.448	298.94
290.679	312.94
290.91	304.94
291.141	314.94
291.371	312.94
291.602	304.94
291.833	291.94
292.064	305.94
292.295	310.94
292.526	331.94
292.757	314.94
292.987	313.94
293.218	310.94
293.449	316.94
293.68	320.94
293.91	314.94
294.141	290.94
294.372	307.94
294.603	303.94
294.833	303.94
295.064	322.94
295.295	307.94
295.525	307.94
295.756	319.94
295.987	321.94
296.217	334.94
296.448	345.94
296.679	329.94
296.909	300.94
297.14	298.94
297.37	319.94
297.601	296.94
297.831	315.94
298.062	317.94
298.292	304.94
298.523	334.94
298.753	339.94
298.984	348.94
299.214	334.94
299.445	320.94
299.675	340.94
299.905	331.94
300.136	328.94
300.366	313.94
300.597	321.94
300.827	339.94
301.057	345.94
301.288	343.94
301.518	329.94
301.748	339.94
301.979	344.94
302.209	347.94
302.439	354.94
302.669	341.94
302.9	343.94
303.13	333.94
303.36	353.94
303.59	351.94
303.82	350.94
304.051	350.94
304.281	339.94
304.511	334.94
304.741	330.94
304.971	343.94
305.201	349.94
305.431	349.94
305.661	358.94
305.891	331.94
306.121	344.94
306.352	349.94
306.582	354.94
306.812	344.94
307.042	350.94
307.272	349.94
307.502	342.94
307.731	360.94
307.961	362.94
308.191	352.94
308.421	330.94
308.651	365.94
308.881	365.94
309.111	362.94
309.341	366.94
309.571	371.94
309.8	366.94
310.03	378.94
310.26	377.94
310.49	399.94
310.72	404.94
310.949	417.94
311.179	413.94
311.409	393.94
311.639	407.94
311.868	399.94
312.098	395.94
312.328	405.94
312.557	415.94
312.787	438.94
313.017	431.94
313.246	407.94
313.476	390.94
313.706	406.94
313.935	398.94
314.165	413.94
314.394	406.94
314.624	404.94
314.853	402.94
315.083	387.94
315.312	381.94
315.542	393.94
315.771	396.94
316.001	399.94
316.23	390.94
316.46	382.94
316.689	389.94
316.919	381.94
317.148	399.94
317.377	417.94
317.607	393.94
317.836	385.94
318.065	385.94
318.295	382.94
318.524	389.94
318.753	396.94
318.983	409.94
319.212	388.94
319.441	403.94
319.67	394.94
319.9	398.94
320.129	402.94
320.358	391.94
320.587	412.94
320.816	401.94
321.046	413.94
321.275	421.94
321.504	428.94
321.733	418.94
321.962	436.94
322.191	411.94
322.42	434.94
322.649	441.94
322.878	450.94
323.108	467.94
323.337	485.94
323.566	506.94
323.795	559.94
324.024	599.94
324.253	710.94
324.482	1001.94
324.71	1479.94
324.939	2041.94
325.168	1704.94
325.397	903.94
325.626	649.94
325.855	551.94
326.084	509.94
326.313	498.94
326.542	512.94
326.77	585.94
326.999	661.94
327.228	897.94
327.457	1309.94
327.686	1517.94
327.914	969.94
328.143	681.94
328.372	617.94
328.6	578.94
328.829	555.94
329.058	563.94
329.287	581.94
329.515	569.94
329.744	508.94
329.972	514.94
330.201	537.94
330.43	544.94
330.658	571.94
330.887	585.94
331.115	567.94
331.344	509.94
331.572	498.94
331.801	499.94
332.03	475.94
332.258	475.94
332.486	466.94
332.715	454.94
332.943	451.94
333.172	468.94
333.4	478.94
333.629	465.94
333.857	464.94
334.085	486.94
334.314	507.94
334.542	514.94
334.771	528.94
334.999	481.94
335.227	458.94
335.455	465.94
335.684	442.94
335.912	451.94
336.14	460.94
336.369	449.94
336.597	464.94
336.825	442.94
337.053	442.94
337.281	454.94
337.51	437.94
337.738	449.94
337.966	451.94
338.194	447.94
338.422	436.94
338.65	448.94
338.878	432.94
339.106	436.94
339.334	417.94
339.562	449.94
339.79	440.94
340.018	429.94
340.246	424.94
340.474	441.94
340.702	413.94
340.93	407.94
341.158	419.94
341.386	417.94
341.614	444.94
341.842	428.94
342.07	441.94
342.298	434.94
342.526	409.94
342.754	398.94
342.981	434.94
343.209	421.94
343.437	436.94
343.665	413.94
343.893	428.94
344.12	429.94
344.348	432.94
344.576	444.94
344.804	429.94
345.031	451.94
345.259	446.94
345.487	426.94
345.714	433.94
345.942	398.94
346.17	431.94
346.397	405.94
346.625	407.94
346.853	430.94
347.08	417.94
347.308	435.94
347.535	424.94
347.763	423.94
347.99	428.94
348.218	429.94
348.445	423.94
348.673	397.94
348.9	417.94
349.128	417.94
349.355	403.94
349.583	390.94
349.81	406.94
350.037	379.94
350.265	392.94
350.492	405.94
350.72	401.94
350.947	399.94
351.174	413.94
351.402	424.94
351.629	407.94
351.856	397.94
352.083	405.94
352.311	427.94
352.538	432.94
352.765	416.94
352.992	416.94
353.22	401.94
353.447	407.94
353.674	386.94
353.901	387.94
354.128	378.94
354.355	401.94
354.583	363.94
354.81	389.94
355.037	394.94
355.264	376.94
355.491	362.94
355.718	377.94
355.945	358.94
356.172	370.94
356.399	360.94
356.626	379.94
356.853	391.94
357.08	371.94
357.307	369.94
357.534	382.94
357.761	373.94
357.988	397.94
358.215	406.94
358.441	387.94
358.668	389.94
358.895	379.94
359.122	375.94
359.349	391.94
359.576	392.94
359.802	393.94
360.029	447.94
360.256	419.94
360.483	400.94
360.709	395.94
360.936	383.94
361.163	402.94
361.39	399.94
361.616	385.94
361.843	379.94
362.07	388.94
362.296	380.94
362.523	378.94
362.749	394.94
362.976	380.94
363.203	392.94
363.429	354.94
363.656	372.94
363.882	373.94
364.109	382.94
364.335	388.94
364.562	379.94
364.788	409.94
365.015	393.94
365.241	386.94
365.468	385.94
365.694	369.94
365.92	366.94
366.147	376.94
366.373	385.94
366.599	348.94
366.826	371.94
367.052	366.94
367.278	368.94
367.505	377.94
367.731	383.94
367.957	365.94
368.184	377.94
368.41	377.94
368.636	383.94
368.862	393.94
369.089	375.94
369.315	379.94
369.541	393.94
369.767	367.94
369.993	367.94
370.219	359.94
370.445	359.94
370.672	364.94
370.898	377.94
371.124	383.94
371.35	356.94
371.576	378.94
371.802	368.94
372.028	363.94
372.254	357.94
372.48	379.94
372.706	381.94
372.932	370.94
373.158	355.94
373.384	382.94
373.61	367.94
373.835	383.94
374.061	367.94
374.287	383.94
374.513	362.94
374.739	366.94
374.965	373.94
375.191	365.94
375.416	382.94
375.642	365.94
375.868	357.94
376.094	364.94
376.319	367.94
376.545	349.94
376.771	361.94
376.997	369.94
377.222	349.94
377.448	343.94
377.674	377.94
377.899	355.94
378.125	363.94
378.35	366.94
378.576	352.94
378.802	340.94
379.027	363.94
379.253	346.94
379.478	354.94
379.704	365.94
379.929	366.94
380.155	366.94
380.38	376.94
380.606	367.94
380.831	358.94
381.057	363.94
381.282	362.94
381.507	348.94
381.733	364.94
381.958	359.94
382.184	360.94
382.409	359.94
382.634	364.94
382.86	374.94
383.085	355.94
383.31	377.94
383.535	381.94
383.761	387.94
383.986	364.94
384.211	373.94
384.436	375.94
384.662	360.94
384.887	373.94
385.112	365.94
385.337	382.94
385.562	365.94
385.787	394.94
386.013	392.94
386.238	384.94
386.463	387.94
386.688	388.94
386.913	384.94
387.138	381.94
387.363	367.94
387.588	361.94
387.813	371.94
388.038	390.94
388.263	383.94
388.488	396.94
388.713	405.94
388.938	400.94
389.163	384.94
389.387	401.94
389.612	373.94
389.837	362.94
390.062	362.94
390.287	375.94
390.512	362.94
390.736	378.94
390.961	379.94
391.186	370.94
391.411	401.94
391.636	383.94
391.86	400.94
392.085	372.94
392.31	382.94
392.534	402.94
392.759	396.94
392.984	393.94
393.208	396.94
393.433	398.94
393.658	394.94
393.882	389.94
394.107	396.94
394.331	374.94
394.556	382.94
394.78	379.94
395.005	389.94
395.229	383.94
395.454	377.94
395.678	395.94
395.903	389.94
396.127	411.94
396.352	419.94
396.576	413.94
396.801	405.94
397.025	373.94
397.249	389.94
397.474	399.94
397.698	396.94
397.922	384.94
398.147	421.94
398.371	425.94
398.595	410.94
398.82	432.94
399.044	413.94
399.268	455.94
399.492	464.94
399.717	478.94
399.941	490.94
400.165	499.94
400.389	519.94
400.613	496.94
400.837	466.94
401.062	449.94
401.286	420.94
401.51	430.94
401.734	419.94
401.958	425.94
402.182	435.94
402.406	425.94
402.63	438.94
402.854	425.94
403.078	419.94
403.302	439.94
403.526	433.94
403.75	420.94
403.974	420.94
404.198	427.94
404.422	460.94
404.645	455.94
404.869	448.94
405.093	478.94
405.317	473.94
405.541	517.94
405.765	480.94
405.988	482.94
406.212	450.94
406.436	472.94
406.66	485.94
406.883	479.94
407.107	504.94
407.331	521.94
407.555	560.94
407.778	538.94
408.002	547.94
408.226	492.94
408.449	494.94
408.673	479.94
408.896	498.94
409.12	527.94
409.344	514.94
409.567	433.94
409.791	466.94
410.014	454.94
410.238	418.94
410.461	438.94
410.685	455.94
410.908	454.94
411.132	489.94
411.355	497.94
411.578	471.94
411.802	453.94
412.025	430.94
412.249	445.94
412.472	486.94
412.695	467.94
412.919	472.94
413.142	442.94
413.365	417.94
413.589	431.94
413.812	403.94
414.035	424.94
414.258	442.94
414.482	403.94
414.705	403.94
414.928	434.94
415.151	402.94
415.374	389.94
415.597	418.94
415.821	399.94
416.044	409.94
416.267	419.94
416.49	401.94
416.713	383.94
416.936	410.94
417.159	407.94
417.382	410.94
417.605	410.94
417.828	432.94
418.051	448.94
418.274	436.94
418.497	426.94
418.72	431.94
418.943	423.94
419.166	424.94
419.389	430.94
419.611	440.94
419.834	427.94
420.057	447.94
420.28	440.94
420.503	429.94
420.726	433.94
420.948	453.94
421.171	478.94
421.394	495.94
421.617	455.94
421.839	419.94
422.062	421.94
422.285	468.94
422.507	473.94
422.73	545.94
422.953	505.94
423.175	468.94
423.398	446.94
423.621	447.94
423.843	479.94
424.066	456.94
424.288	481.94
424.511	486.94
424.733	524.94
424.956	566.94
425.178	570.94
425.401	564.94
425.623	590.94
425.846	502.94
426.068	466.94
426.291	462.94
426.513	443.94
426.735	447.94
426.958	490.94
427.18	588.94
427.402	683.94
427.625	752.94
427.847	638.94
428.069	561.94
428.292	485.94
428.514	473.94
428.736	452.94
428.958	434.94
429.181	428.94
429.403	437.94
429.625	428.94
429.847	455.94
430.069	512.94
430.292	511.94
430.514	439.94
430.736	435.94
430.958	421.94
431.18	410.94
431.402	418.94
431.624	397.94
431.846	378.94
432.068	381.94
432.29	407.94
432.512	398.94
432.734	408.94
432.956	417.94
433.178	433.94
433.4	417.94
433.622	400.94
433.844	412.94
434.066	398.94
434.287	414.94
434.509	402.94
434.731	431.94
434.953	408.94
435.175	428.94
435.397	441.94
435.618	454.94
435.84	508.94
436.062	573.94
436.284	630.94
436.505	515.94
436.727	470.94
436.949	441.94
437.17	445.94
437.392	434.94
437.614	435.94
437.835	472.94
438.057	533.94
438.278	625.94
438.5	611.94
438.721	680.94
438.943	631.94
439.165	517.94
439.386	481.94
439.608	463.94
439.829	478.94
440.05	475.94
440.272	515.94
440.493	491.94
440.715	454.94
440.936	435.94
441.158	445.94
441.379	441.94
441.6	449.94
441.822	455.94
442.043	467.94
442.264	572.94
442.486	572.94
442.707	503.94
442.928	473.94
443.149	460.94
443.371	503.94
443.592	539.94
443.813	589.94
444.034	645.94
444.255	543.94
444.476	473.94
444.698	443.94
444.919	457.94
445.14	540.94
445.361	511.94
445.582	521.94
445.803	585.94
446.024	607.94
446.245	626.94
446.466	587.94
446.687	511.94
446.908	465.94
447.129	439.94
447.35	427.94
447.571	432.94
447.792	438.94
448.013	419.94
448.234	446.94
448.455	477.94
448.675	578.94
448.896	647.94
449.117	584.94
449.338	551.94
449.559	646.94
449.779	710.94
450	570.94
450.221	473.94
450.442	432.94
450.662	404.94
450.883	386.94
451.104	432.94
451.324	416.94
451.545	389.94
451.766	411.94
451.986	396.94
452.207	376.94
452.428	355.94
452.648	381.94
452.869	381.94
453.089	390.94
453.31	391.94
453.53	396.94
453.751	376.94
453.971	377.94
454.192	401.94
454.412	400.94
454.633	375.94
454.853	383.94
455.073	378.94
455.294	406.94
455.514	456.94
455.734	449.94
455.955	394.94
456.175	369.94
456.395	379.94
456.616	350.94
456.836	344.94
457.056	360.94
457.276	355.94
457.497	358.94
457.717	343.94
457.937	360.94
458.157	393.94
458.377	366.94
458.598	397.94
458.818	415.94
459.038	493.94
459.258	509.94
459.478	414.94
459.698	377.94
459.918	387.94
460.138	391.94
460.358	382.94
460.578	399.94
460.798	397.94
461.018	406.94
461.238	393.94
461.458	397.94
461.678	391.94
461.898	379.94
462.118	394.94
462.338	421.94
462.558	402.94
462.777	415.94
462.997	432.94
463.217	427.94
463.437	425.94
463.657	409.94
463.876	423.94
464.096	404.94
464.316	412.94
464.536	429.94
464.755	428.94
464.975	433.94
465.195	462.94
465.414	493.94
465.634	470.94
465.854	429.94
466.073	413.94
466.293	398.94
466.512	375.94
466.732	374.94
466.951	391.94
467.171	381.94
467.391	378.94
467.61	389.94
467.829	376.94
468.049	392.94
468.268	383.94
468.488	382.94
468.707	380.94
468.927	361.94
469.146	353.94
469.365	390.94
469.585	373.94
469.804	387.94
470.023	407.94
470.243	377.94
470.462	388.94
470.681	409.94
470.901	421.94
471.12	394.94
471.339	409.94
471.558	399.94
471.777	398.94
471.997	390.94
472.216	396.94
472.435	413.94
472.654	409.94
472.873	407.94
473.092	391.94
473.311	401.94
473.53	399.94
473.749	397.94
473.968	432.94
474.187	529.94
474.406	538.94
474.625	470.94
474.844	402.94
475.063	415.94
475.282	390.94
475.501	385.94
475.72	387.94
475.939	395.94
476.158	398.94
476.377	402.94
476.596	403.94
476.814	412.94
477.033	391.94
477.252	413.94
477.471	415.94
477.69	415.94
477.908	414.94
478.127	435.94
478.346	442.94
478.564	437.94
478.783	439.94
479.002	435.94
479.22	425.94
479.439	427.94
479.658	452.94
479.876	455.94
480.095	486.94
480.313	467.94
480.532	467.94
480.751	452.94
480.969	485.94
481.188	522.94
481.406	551.94
481.624	493.94
481.843	459.94
482.061	463.94
482.28	455.94
482.498	449.94
482.717	451.94
482.935	440.94
483.153	444.94
483.372	487.94
483.59	449.94
483.808	469.94
484.027	467.94
484.245	454.94
484.463	458.94
484.681	471.94
484.9	464.94
485.118	459.94
485.336	455.94
485.554	469.94
485.772	477.94
485.99	465.94
486.209	435.94
486.427	462.94
486.645	482.94
486.863	501.94
487.081	527.94
487.299	505.94
487.517	461.94
487.735	502.94
487.953	482.94
488.171	497.94
488.389	524.94
488.607	489.94
488.825	480.94
489.043	482.94
489.261	480.94
489.479	486.94
489.696	488.94
489.914	494.94
490.132	493.94
490.35	518.94
490.568	501.94
490.786	529.94
491.003	531.94
491.221	526.94
491.439	566.94
491.657	571.94
491.874	545.94
492.092	554.94
492.31	574.94
492.527	583.94
492.745	570.94
492.963	576.94
493.18	581.94
493.398	569.94
493.615	572.94
493.833	565.94
494.05	570.94
494.268	558.94
494.485	569.94
494.703	559.94
494.92	561.94
495.138	586.94
495.355	559.94
495.573	565.94
495.79	569.94
496.008	567.94
496.225	576.94
496.442	561.94
496.66	557.94
496.877	571.94
497.094	602.94
497.312	578.94
497.529	574.94
497.746	603.94
497.963	592.94
498.181	629.94
498.398	609.94
498.615	621.94
498.832	623.94
499.049	636.94
499.267	634.94
499.484	673.94
499.701	679.94
499.918	696.94
500.135	726.94
500.352	737.94
500.569	750.94
500.786	744.94
501.003	740.94
501.22	726.94
501.437	719.94
501.654	699.94
501.871	672.94
