Data from 1971.PennyLincolnUp.Lamp.En5.5.200Scan.071719.P1._HRD10591_15-18-29-841.txt Node
Date: Thu Jul 18 15:18:29 EDT 2019
User: cochatt
Spectrometer: HR+D1059
Trigger mode: 1
Integration Time (sec): 1.000000E-1
Scans to average: 1
Electric dark correction enabled: true
Nonlinearity correction enabled: false
Boxcar width: 0
XAxis mode: Wavelengths
Number of Pixels in Spectrum: 2048
>>>>>Begin Spectral Data<<<<<
223.165	-16.5
223.4	-16.5
223.635	-16.5
223.869	-18.5
224.104	-28.5
224.338	-16.5
224.573	-11.5
224.808	-7.5
225.042	-6.5
225.277	2.5
225.511	-10.5
225.746	-2.5
225.98	5.5
226.215	8.5
226.449	12.5
226.683	16.5
226.918	30.5
227.152	42.5
227.387	34.5
227.621	44.5
227.856	37.5
228.09	35.5
228.324	51.5
228.559	60.5
228.793	54.5
229.027	76.5
229.262	101.5
229.496	109.5
229.73	134.5
229.964	140.5
230.199	117.5
230.433	110.5
230.667	109.5
230.901	100.5
231.136	112.5
231.37	122.5
231.604	99.5
231.838	99.5
232.072	127.5
232.306	111.5
232.541	104.5
232.775	87.5
233.009	122.5
233.243	92.5
233.477	116.5
233.711	105.5
233.945	101.5
234.179	111.5
234.413	103.5
234.647	100.5
234.881	109.5
235.115	111.5
235.349	114.5
235.583	125.5
235.817	118.5
236.051	130.5
236.285	110.5
236.519	114.5
236.753	124.5
236.987	128.5
237.221	170.5
237.455	192.5
237.689	162.5
237.922	124.5
238.156	134.5
238.39	128.5
238.624	124.5
238.858	122.5
239.091	123.5
239.325	100.5
239.559	103.5
239.793	119.5
240.027	116.5
240.26	108.5
240.494	148.5
240.728	134.5
240.961	144.5
241.195	146.5
241.429	138.5
241.662	131.5
241.896	122.5
242.13	130.5
242.363	125.5
242.597	133.5
242.83	126.5
243.064	145.5
243.298	128.5
243.531	136.5
243.765	129.5
243.998	135.5
244.232	137.5
244.465	143.5
244.699	141.5
244.932	150.5
245.166	134.5
245.399	130.5
245.633	128.5
245.866	123.5
246.099	137.5
246.333	142.5
246.566	153.5
246.8	131.5
247.033	146.5
247.266	148.5
247.5	163.5
247.733	148.5
247.966	156.5
248.2	163.5
248.433	173.5
248.666	168.5
248.899	171.5
249.133	198.5
249.366	190.5
249.599	180.5
249.832	170.5
250.066	180.5
250.299	178.5
250.532	191.5
250.765	194.5
250.998	204.5
251.231	220.5
251.465	203.5
251.698	194.5
251.931	195.5
252.164	206.5
252.397	180.5
252.63	193.5
252.863	201.5
253.096	196.5
253.329	210.5
253.562	207.5
253.795	196.5
254.028	217.5
254.261	215.5
254.494	218.5
254.727	247.5
254.96	262.5
255.193	248.5
255.426	237.5
255.659	227.5
255.892	221.5
256.124	215.5
256.357	213.5
256.59	222.5
256.823	207.5
257.056	196.5
257.289	205.5
257.521	204.5
257.754	194.5
257.987	213.5
258.22	213.5
258.452	188.5
258.685	215.5
258.918	203.5
259.151	220.5
259.383	224.5
259.616	219.5
259.849	213.5
260.081	219.5
260.314	226.5
260.547	254.5
260.779	230.5
261.012	235.5
261.244	227.5
261.477	218.5
261.71	204.5
261.942	222.5
262.175	233.5
262.407	227.5
262.64	213.5
262.872	208.5
263.105	205.5
263.337	207.5
263.57	213.5
263.802	207.5
264.035	208.5
264.267	219.5
264.499	208.5
264.732	223.5
264.964	206.5
265.197	208.5
265.429	208.5
265.661	208.5
265.894	196.5
266.126	214.5
266.358	223.5
266.591	196.5
266.823	208.5
267.055	218.5
267.287	220.5
267.52	231.5
267.752	221.5
267.984	221.5
268.216	225.5
268.448	220.5
268.681	235.5
268.913	242.5
269.145	266.5
269.377	294.5
269.609	256.5
269.841	254.5
270.073	253.5
270.306	273.5
270.538	287.5
270.77	286.5
271.002	292.5
271.234	272.5
271.466	296.5
271.698	297.5
271.93	299.5
272.162	316.5
272.394	309.5
272.626	301.5
272.858	291.5
273.09	284.5
273.322	268.5
273.553	261.5
273.785	243.5
274.017	259.5
274.249	267.5
274.481	263.5
274.713	260.5
274.945	263.5
275.176	251.5
275.408	265.5
275.64	277.5
275.872	267.5
276.104	266.5
276.335	260.5
276.567	266.5
276.799	262.5
277.031	286.5
277.262	282.5
277.494	299.5
277.726	303.5
277.957	283.5
278.189	251.5
278.421	266.5
278.652	261.5
278.884	262.5
279.115	275.5
279.347	268.5
279.579	281.5
279.81	266.5
280.042	251.5
280.273	268.5
280.505	266.5
280.736	231.5
280.968	268.5
281.199	263.5
281.431	281.5
281.662	266.5
281.894	272.5
282.125	283.5
282.356	286.5
282.588	290.5
282.819	290.5
283.051	285.5
283.282	282.5
283.513	289.5
283.745	282.5
283.976	295.5
284.207	286.5
284.439	269.5
284.67	286.5
284.901	294.5
285.132	267.5
285.364	271.5
285.595	256.5
285.826	274.5
286.057	270.5
286.288	264.5
286.52	277.5
286.751	282.5
286.982	281.5
287.213	278.5
287.444	284.5
287.675	281.5
287.906	304.5
288.138	304.5
288.369	308.5
288.6	291.5
288.831	288.5
289.062	291.5
289.293	296.5
289.524	293.5
289.755	298.5
289.986	281.5
290.217	269.5
290.448	282.5
290.679	275.5
290.91	267.5
291.141	287.5
291.371	283.5
291.602	275.5
291.833	268.5
292.064	273.5
292.295	286.5
292.526	278.5
292.757	264.5
292.987	275.5
293.218	282.5
293.449	285.5
293.68	278.5
293.91	304.5
294.141	273.5
294.372	278.5
294.603	287.5
294.833	271.5
295.064	286.5
295.295	280.5
295.525	294.5
295.756	294.5
295.987	279.5
296.217	310.5
296.448	303.5
296.679	294.5
296.909	279.5
297.14	281.5
297.37	277.5
297.601	296.5
297.831	291.5
298.062	297.5
298.292	285.5
298.523	296.5
298.753	297.5
298.984	302.5
299.214	313.5
299.445	286.5
299.675	308.5
299.905	301.5
300.136	308.5
300.366	297.5
300.597	298.5
300.827	300.5
301.057	308.5
301.288	308.5
301.518	299.5
301.748	318.5
301.979	303.5
302.209	324.5
302.439	326.5
302.669	323.5
302.9	319.5
303.13	314.5
303.36	312.5
303.59	328.5
303.82	324.5
304.051	325.5
304.281	332.5
304.511	327.5
304.741	320.5
304.971	315.5
305.201	333.5
305.431	331.5
305.661	308.5
305.891	311.5
306.121	303.5
306.352	330.5
306.582	337.5
306.812	324.5
307.042	344.5
307.272	307.5
307.502	331.5
307.731	336.5
307.961	319.5
308.191	298.5
308.421	322.5
308.651	325.5
308.881	322.5
309.111	323.5
309.341	330.5
309.571	331.5
309.8	351.5
310.03	340.5
310.26	340.5
310.49	356.5
310.72	347.5
310.949	361.5
311.179	373.5
311.409	342.5
311.639	356.5
311.868	339.5
312.098	370.5
312.328	368.5
312.557	372.5
312.787	370.5
313.017	380.5
313.246	395.5
313.476	345.5
313.706	353.5
313.935	374.5
314.165	362.5
314.394	376.5
314.624	365.5
314.853	396.5
315.083	362.5
315.312	349.5
315.542	351.5
315.771	338.5
316.001	351.5
316.23	358.5
316.46	358.5
316.689	372.5
316.919	346.5
317.148	360.5
317.377	377.5
317.607	372.5
317.836	378.5
318.065	347.5
318.295	340.5
318.524	375.5
318.753	375.5
318.983	355.5
319.212	362.5
319.441	363.5
319.67	379.5
319.9	382.5
320.129	372.5
320.358	370.5
320.587	383.5
320.816	368.5
321.046	360.5
321.275	375.5
321.504	368.5
321.733	392.5
321.962	388.5
322.191	412.5
322.42	376.5
322.649	419.5
322.878	451.5
323.108	435.5
323.337	435.5
323.566	464.5
323.795	482.5
324.024	522.5
324.253	626.5
324.482	882.5
324.71	1253.5
324.939	1708.5
325.168	1458.5
325.397	807.5
325.626	572.5
325.855	488.5
326.084	458.5
326.313	467.5
326.542	448.5
326.77	503.5
326.999	590.5
327.228	748.5
327.457	1114.5
327.686	1254.5
327.914	874.5
328.143	619.5
328.372	552.5
328.6	518.5
328.829	500.5
329.058	487.5
329.287	485.5
329.515	481.5
329.744	453.5
329.972	455.5
330.201	463.5
330.43	476.5
330.658	503.5
330.887	539.5
331.115	534.5
331.344	468.5
331.572	450.5
331.801	445.5
332.03	449.5
332.258	421.5
332.486	422.5
332.715	432.5
332.943	423.5
333.172	426.5
333.4	418.5
333.629	453.5
333.857	422.5
334.085	445.5
334.314	452.5
334.542	456.5
334.771	478.5
334.999	468.5
335.227	453.5
335.455	420.5
335.684	418.5
335.912	406.5
336.14	402.5
336.369	407.5
336.597	424.5
336.825	411.5
337.053	395.5
337.281	418.5
337.51	397.5
337.738	406.5
337.966	400.5
338.194	404.5
338.422	398.5
338.65	408.5
338.878	390.5
339.106	381.5
339.334	394.5
339.562	397.5
339.79	389.5
340.018	399.5
340.246	401.5
340.474	400.5
340.702	390.5
340.93	382.5
341.158	401.5
341.386	378.5
341.614	395.5
341.842	419.5
342.07	427.5
342.298	403.5
342.526	391.5
342.754	391.5
342.981	352.5
343.209	370.5
343.437	396.5
343.665	398.5
343.893	400.5
344.12	417.5
344.348	386.5
344.576	402.5
344.804	424.5
345.031	383.5
345.259	392.5
345.487	409.5
345.714	406.5
345.942	377.5
346.17	356.5
346.397	374.5
346.625	386.5
346.853	364.5
347.08	359.5
347.308	394.5
347.535	390.5
347.763	383.5
347.99	389.5
348.218	393.5
348.445	389.5
348.673	381.5
348.9	383.5
349.128	380.5
349.355	362.5
349.583	367.5
349.81	378.5
350.037	377.5
350.265	365.5
350.492	367.5
350.72	372.5
350.947	374.5
351.174	380.5
351.402	376.5
351.629	387.5
351.856	374.5
352.083	381.5
352.311	375.5
352.538	382.5
352.765	389.5
352.992	390.5
353.22	344.5
353.447	362.5
353.674	370.5
353.901	363.5
354.128	360.5
354.355	350.5
354.583	337.5
354.81	365.5
355.037	351.5
355.264	352.5
355.491	345.5
355.718	350.5
355.945	342.5
356.172	339.5
356.399	359.5
356.626	356.5
356.853	377.5
357.08	340.5
357.307	355.5
357.534	358.5
357.761	324.5
357.988	351.5
358.215	338.5
358.441	365.5
358.668	348.5
358.895	347.5
359.122	363.5
359.349	351.5
359.576	361.5
359.802	378.5
360.029	396.5
360.256	406.5
360.483	390.5
360.709	397.5
360.936	350.5
361.163	378.5
361.39	357.5
361.616	365.5
361.843	366.5
362.07	377.5
362.296	379.5
362.523	356.5
362.749	366.5
362.976	372.5
363.203	360.5
363.429	362.5
363.656	362.5
363.882	378.5
364.109	357.5
364.335	367.5
364.562	354.5
364.788	340.5
365.015	369.5
365.241	381.5
365.468	351.5
365.694	370.5
365.92	363.5
366.147	347.5
366.373	349.5
366.599	357.5
366.826	346.5
367.052	345.5
367.278	346.5
367.505	360.5
367.731	356.5
367.957	349.5
368.184	337.5
368.41	342.5
368.636	365.5
368.862	358.5
369.089	359.5
369.315	358.5
369.541	346.5
369.767	356.5
369.993	341.5
370.219	354.5
370.445	367.5
370.672	343.5
370.898	364.5
371.124	343.5
371.35	354.5
371.576	339.5
371.802	338.5
372.028	356.5
372.254	343.5
372.48	352.5
372.706	341.5
372.932	354.5
373.158	366.5
373.384	357.5
373.61	348.5
373.835	357.5
374.061	343.5
374.287	333.5
374.513	352.5
374.739	356.5
374.965	340.5
375.191	350.5
375.416	349.5
375.642	354.5
375.868	364.5
376.094	356.5
376.319	348.5
376.545	346.5
376.771	319.5
376.997	332.5
377.222	346.5
377.448	339.5
377.674	343.5
377.899	342.5
378.125	332.5
378.35	343.5
378.576	314.5
378.802	338.5
379.027	346.5
379.253	353.5
379.478	339.5
379.704	338.5
379.929	320.5
380.155	339.5
380.38	339.5
380.606	338.5
380.831	347.5
381.057	346.5
381.282	349.5
381.507	323.5
381.733	331.5
381.958	326.5
382.184	344.5
382.409	342.5
382.634	347.5
382.86	347.5
383.085	347.5
383.31	336.5
383.535	349.5
383.761	341.5
383.986	353.5
384.211	349.5
384.436	357.5
384.662	370.5
384.887	355.5
385.112	349.5
385.337	366.5
385.562	339.5
385.787	359.5
386.013	364.5
386.238	369.5
386.463	386.5
386.688	361.5
386.913	348.5
387.138	379.5
387.363	374.5
387.588	342.5
387.813	349.5
388.038	355.5
388.263	375.5
388.488	370.5
388.713	371.5
388.938	363.5
389.163	340.5
389.387	368.5
389.612	355.5
389.837	348.5
390.062	350.5
390.287	356.5
390.512	361.5
390.736	349.5
390.961	365.5
391.186	378.5
391.411	372.5
391.636	355.5
391.86	354.5
392.085	355.5
392.31	380.5
392.534	386.5
392.759	349.5
392.984	384.5
393.208	384.5
393.433	374.5
393.658	372.5
393.882	357.5
394.107	363.5
394.331	374.5
394.556	366.5
394.78	366.5
395.005	356.5
395.229	347.5
395.454	374.5
395.678	359.5
395.903	365.5
396.127	373.5
396.352	400.5
396.576	355.5
396.801	379.5
397.025	365.5
397.249	386.5
397.474	392.5
397.698	393.5
397.922	392.5
398.147	380.5
398.371	409.5
398.595	390.5
398.82	398.5
399.044	395.5
399.268	420.5
399.492	456.5
399.717	465.5
399.941	462.5
400.165	493.5
400.389	487.5
400.613	424.5
400.837	390.5
401.062	405.5
401.286	412.5
401.51	414.5
401.734	401.5
401.958	406.5
402.182	418.5
402.406	424.5
402.63	408.5
402.854	400.5
403.078	415.5
403.302	406.5
403.526	402.5
403.75	407.5
403.974	410.5
404.198	414.5
404.422	406.5
404.645	408.5
404.869	426.5
405.093	463.5
405.317	469.5
405.541	500.5
405.765	469.5
405.988	452.5
406.212	430.5
406.436	472.5
406.66	492.5
406.883	445.5
407.107	458.5
407.331	491.5
407.555	548.5
407.778	541.5
408.002	483.5
408.226	436.5
408.449	453.5
408.673	440.5
408.896	459.5
409.12	505.5
409.344	476.5
409.567	424.5
409.791	398.5
410.014	412.5
410.238	375.5
410.461	418.5
410.685	432.5
410.908	440.5
411.132	452.5
411.355	443.5
411.578	431.5
411.802	400.5
412.025	408.5
412.249	413.5
412.472	428.5
412.695	453.5
412.919	442.5
413.142	406.5
413.365	399.5
413.589	402.5
413.812	382.5
414.035	387.5
414.258	373.5
414.482	385.5
414.705	402.5
414.928	377.5
415.151	371.5
415.374	374.5
415.597	390.5
415.821	380.5
416.044	391.5
416.267	380.5
416.49	377.5
416.713	367.5
416.936	371.5
417.159	394.5
417.382	390.5
417.605	395.5
417.828	406.5
418.051	397.5
418.274	412.5
418.497	374.5
418.72	404.5
418.943	383.5
419.166	390.5
419.389	403.5
419.611	408.5
419.834	393.5
420.057	415.5
420.28	416.5
420.503	393.5
420.726	406.5
420.948	422.5
421.171	439.5
421.394	451.5
421.617	423.5
421.839	409.5
422.062	406.5
422.285	407.5
422.507	461.5
422.73	505.5
422.953	501.5
423.175	441.5
423.398	420.5
423.621	410.5
423.843	429.5
424.066	422.5
424.288	413.5
424.511	430.5
424.733	486.5
424.956	533.5
425.178	534.5
425.401	524.5
425.623	532.5
425.846	448.5
426.068	441.5
426.291	449.5
426.513	455.5
426.735	430.5
426.958	491.5
427.18	543.5
427.402	619.5
427.625	672.5
427.847	617.5
428.069	505.5
428.292	460.5
428.514	420.5
428.736	419.5
428.958	399.5
429.181	405.5
429.403	398.5
429.625	407.5
429.847	426.5
430.069	482.5
430.292	474.5
430.514	411.5
430.736	399.5
430.958	384.5
431.18	386.5
431.402	379.5
431.624	364.5
431.846	383.5
432.068	377.5
432.29	381.5
432.512	377.5
432.734	388.5
432.956	380.5
433.178	380.5
433.4	401.5
433.622	378.5
433.844	365.5
434.066	365.5
434.287	368.5
434.509	370.5
434.731	363.5
434.953	374.5
435.175	400.5
435.397	427.5
435.618	443.5
435.84	457.5
436.062	521.5
436.284	592.5
436.505	487.5
436.727	434.5
436.949	407.5
437.17	413.5
437.392	409.5
437.614	420.5
437.835	438.5
438.057	513.5
438.278	556.5
438.5	570.5
438.721	646.5
438.943	593.5
439.165	490.5
439.386	445.5
439.608	453.5
439.829	445.5
440.05	459.5
440.272	468.5
440.493	447.5
440.715	427.5
440.936	399.5
441.158	387.5
441.379	402.5
441.6	396.5
441.822	421.5
442.043	447.5
442.264	532.5
442.486	550.5
442.707	464.5
442.928	428.5
443.149	445.5
443.371	468.5
443.592	481.5
443.813	564.5
444.034	567.5
444.255	498.5
444.476	444.5
444.698	423.5
444.919	439.5
445.14	576.5
445.361	510.5
445.582	472.5
445.803	512.5
446.024	576.5
446.245	575.5
446.466	526.5
446.687	443.5
446.908	428.5
447.129	426.5
447.35	417.5
447.571	388.5
447.792	396.5
448.013	391.5
448.234	421.5
448.455	442.5
448.675	559.5
448.896	611.5
449.117	513.5
449.338	502.5
449.559	576.5
449.779	650.5
450	526.5
450.221	452.5
450.442	393.5
450.662	410.5
450.883	391.5
451.104	396.5
451.324	377.5
451.545	372.5
451.766	364.5
451.986	361.5
452.207	358.5
452.428	348.5
452.648	370.5
452.869	351.5
453.089	363.5
453.31	366.5
453.53	366.5
453.751	358.5
453.971	378.5
454.192	380.5
454.412	347.5
454.633	351.5
454.853	359.5
455.073	344.5
455.294	374.5
455.514	417.5
455.734	398.5
455.955	358.5
456.175	353.5
456.395	332.5
456.616	319.5
456.836	332.5
457.056	348.5
457.276	332.5
457.497	326.5
457.717	336.5
457.937	357.5
458.157	343.5
458.377	352.5
458.598	370.5
458.818	380.5
459.038	448.5
459.258	463.5
459.478	406.5
459.698	375.5
459.918	372.5
460.138	371.5
460.358	350.5
460.578	358.5
460.798	378.5
461.018	390.5
461.238	377.5
461.458	378.5
461.678	376.5
461.898	377.5
462.118	383.5
462.338	375.5
462.558	402.5
462.777	394.5
462.997	388.5
463.217	391.5
463.437	400.5
463.657	412.5
463.876	397.5
464.096	398.5
464.316	380.5
464.536	405.5
464.755	403.5
464.975	412.5
465.195	438.5
465.414	478.5
465.634	427.5
465.854	392.5
466.073	374.5
466.293	363.5
466.512	366.5
466.732	360.5
466.951	371.5
467.171	358.5
467.391	364.5
467.61	382.5
467.829	376.5
468.049	380.5
468.268	379.5
468.488	355.5
468.707	362.5
468.927	376.5
469.146	358.5
469.365	349.5
469.585	345.5
469.804	369.5
470.023	374.5
470.243	356.5
470.462	372.5
470.681	382.5
470.901	348.5
471.12	374.5
471.339	371.5
471.558	382.5
471.777	377.5
471.997	345.5
472.216	359.5
472.435	376.5
472.654	376.5
472.873	366.5
473.092	378.5
473.311	370.5
473.53	369.5
473.749	378.5
473.968	420.5
474.187	499.5
474.406	493.5
474.625	430.5
474.844	381.5
475.063	362.5
475.282	370.5
475.501	369.5
475.72	376.5
475.939	390.5
476.158	365.5
476.377	378.5
476.596	378.5
476.814	367.5
477.033	378.5
477.252	386.5
477.471	377.5
477.69	380.5
477.908	392.5
478.127	411.5
478.346	400.5
478.564	390.5
478.783	408.5
479.002	430.5
479.22	396.5
479.439	412.5
479.658	416.5
479.876	424.5
480.095	427.5
480.313	433.5
480.532	452.5
480.751	458.5
480.969	446.5
481.188	465.5
481.406	489.5
481.624	442.5
481.843	428.5
482.061	415.5
482.28	411.5
482.498	415.5
482.717	432.5
482.935	440.5
483.153	408.5
483.372	419.5
483.59	414.5
483.808	418.5
484.027	419.5
484.245	402.5
484.463	406.5
484.681	458.5
484.9	422.5
485.118	432.5
485.336	435.5
485.554	422.5
485.772	428.5
485.99	432.5
486.209	422.5
486.427	442.5
486.645	450.5
486.863	462.5
487.081	450.5
487.299	440.5
487.517	449.5
487.735	448.5
487.953	458.5
488.171	446.5
488.389	443.5
488.607	468.5
488.825	458.5
489.043	454.5
489.261	451.5
489.479	429.5
489.696	451.5
489.914	470.5
490.132	459.5
490.35	463.5
490.568	480.5
490.786	465.5
491.003	495.5
491.221	498.5
491.439	532.5
491.657	532.5
491.874	526.5
492.092	507.5
492.31	523.5
492.527	519.5
492.745	533.5
492.963	527.5
493.18	515.5
493.398	556.5
493.615	526.5
493.833	522.5
494.05	528.5
494.268	519.5
494.485	527.5
494.703	521.5
494.92	535.5
495.138	530.5
495.355	538.5
495.573	543.5
495.79	518.5
496.008	523.5
496.225	522.5
496.442	544.5
496.66	540.5
496.877	522.5
497.094	556.5
497.312	539.5
497.529	569.5
497.746	555.5
497.963	572.5
498.181	567.5
498.398	573.5
498.615	596.5
498.832	582.5
499.049	581.5
499.267	599.5
499.484	637.5
499.701	636.5
499.918	663.5
500.135	678.5
500.352	706.5
500.569	700.5
500.786	699.5
501.003	702.5
501.22	685.5
501.437	670.5
501.654	682.5
501.871	650.5
502.088	628.5
502.305	599.5
502.522	588.5
502.739	591.5
502.956	566.5
503.172	576.5
503.389	569.5
503.606	560.5
503.823	533.5
504.04	558.5
504.256	526.5
504.473	526.5
504.69	538.5
504.907	513.5
505.123	522.5
505.34	528.5
505.557	519.5
505.773	495.5
505.99	502.5
506.207	502.5
506.423	508.5
506.64	510.5
506.856	491.5
507.073	486.5
507.289	491.5
507.506	490.5
507.722	506.5
507.939	518.5
508.155	498.5
508.372	484.5
508.588	473.5
508.805	483.5
509.021	505.5
509.238	500.5
509.454	507.5
509.67	490.5
509.887	499.5
510.103	478.5
510.319	494.5
510.536	554.5
510.752	860.5
510.968	696.5
511.184	506.5
511.401	482.5
511.617	479.5
511.833	462.5
512.049	456.5
512.265	442.5
512.481	453.5
512.698	438.5
512.914	451.5
513.13	457.5
513.346	463.5
513.562	432.5
513.778	439.5
513.994	450.5
514.21	463.5
514.426	471.5
514.642	521.5
514.858	516.5
515.074	526.5
515.29	628.5
515.506	846.5
515.721	720.5
515.937	549.5
516.153	484.5
516.369	466.5
516.585	473.5
516.801	472.5
517.016	466.5
517.232	463.5
517.448	479.5
517.664	468.5
517.879	459.5
518.095	448.5
518.311	456.5
518.527	452.5
518.742	442.5
518.958	460.5
519.173	459.5
519.389	467.5
519.605	461.5
519.82	442.5
520.036	458.5
