Data from 1971.PennyLincolnUp.Lamp.En5.5.200Scan.071719.P1._HRD10591_15-19-37-841.txt Node
Date: Thu Jul 18 15:19:37 EDT 2019
User: cochatt
Spectrometer: HR+D1059
Trigger mode: 1
Integration Time (sec): 1.000000E-1
Scans to average: 1
Electric dark correction enabled: true
Nonlinearity correction enabled: false
Boxcar width: 0
XAxis mode: Wavelengths
Number of Pixels in Spectrum: 2048
>>>>>Begin Spectral Data<<<<<
223.165	-14.44
223.4	-14.44
223.635	-14.44
223.869	-19.44
224.104	-18.44
224.338	-4.44
224.573	-17.44
224.808	-10.44
225.042	-13.44
225.277	-21.44
225.511	-12.44
225.746	24.56
225.98	5.56
226.215	11.56
226.449	20.56
226.683	17.56
226.918	25.56
227.152	26.56
227.387	42.56
227.621	42.56
227.856	50.56
228.09	38.56
228.324	41.56
228.559	54.56
228.793	56.56
229.027	88.56
229.262	101.56
229.496	99.56
229.73	116.56
229.964	135.56
230.199	123.56
230.433	101.56
230.667	123.56
230.901	111.56
231.136	117.56
231.37	113.56
231.604	104.56
231.838	99.56
232.072	107.56
232.306	106.56
232.541	124.56
232.775	102.56
233.009	108.56
233.243	110.56
233.477	107.56
233.711	124.56
233.945	116.56
234.179	112.56
234.413	104.56
234.647	104.56
234.881	114.56
235.115	108.56
235.349	123.56
235.583	115.56
235.817	118.56
236.051	128.56
236.285	129.56
236.519	122.56
236.753	137.56
236.987	136.56
237.221	199.56
237.455	207.56
237.689	165.56
237.922	138.56
238.156	124.56
238.39	130.56
238.624	137.56
238.858	129.56
239.091	116.56
239.325	123.56
239.559	124.56
239.793	135.56
240.027	141.56
240.26	147.56
240.494	149.56
240.728	154.56
240.961	144.56
241.195	130.56
241.429	127.56
241.662	124.56
241.896	134.56
242.13	106.56
242.363	121.56
242.597	145.56
242.83	137.56
243.064	143.56
243.298	154.56
243.531	123.56
243.765	137.56
243.998	134.56
244.232	143.56
244.465	137.56
244.699	140.56
244.932	149.56
245.166	150.56
245.399	145.56
245.633	143.56
245.866	147.56
246.099	152.56
246.333	148.56
246.566	153.56
246.8	158.56
247.033	153.56
247.266	156.56
247.5	158.56
247.733	180.56
247.966	178.56
248.2	177.56
248.433	171.56
248.666	176.56
248.899	181.56
249.133	182.56
249.366	201.56
249.599	216.56
249.832	197.56
250.066	171.56
250.299	180.56
250.532	189.56
250.765	213.56
250.998	226.56
251.231	217.56
251.465	210.56
251.698	220.56
251.931	207.56
252.164	189.56
252.397	197.56
252.63	195.56
252.863	199.56
253.096	224.56
253.329	239.56
253.562	227.56
253.795	242.56
254.028	223.56
254.261	231.56
254.494	240.56
254.727	255.56
254.96	278.56
255.193	276.56
255.426	255.56
255.659	236.56
255.892	242.56
256.124	239.56
256.357	234.56
256.59	230.56
256.823	227.56
257.056	223.56
257.289	219.56
257.521	209.56
257.754	222.56
257.987	197.56
258.22	212.56
258.452	219.56
258.685	221.56
258.918	217.56
259.151	225.56
259.383	211.56
259.616	213.56
259.849	223.56
260.081	225.56
260.314	255.56
260.547	269.56
260.779	251.56
261.012	241.56
261.244	226.56
261.477	225.56
261.71	219.56
261.942	220.56
262.175	226.56
262.407	233.56
262.64	224.56
262.872	220.56
263.105	215.56
263.337	231.56
263.57	224.56
263.802	214.56
264.035	219.56
264.267	208.56
264.499	219.56
264.732	209.56
264.964	228.56
265.197	210.56
265.429	226.56
265.661	233.56
265.894	220.56
266.126	231.56
266.358	223.56
266.591	225.56
266.823	225.56
267.055	227.56
267.287	234.56
267.52	249.56
267.752	235.56
267.984	243.56
268.216	222.56
268.448	230.56
268.681	232.56
268.913	245.56
269.145	259.56
269.377	265.56
269.609	276.56
269.841	269.56
270.073	286.56
270.306	309.56
270.538	311.56
270.77	325.56
271.002	305.56
271.234	297.56
271.466	300.56
271.698	323.56
271.93	332.56
272.162	333.56
272.394	318.56
272.626	305.56
272.858	289.56
273.09	297.56
273.322	296.56
273.553	286.56
273.785	283.56
274.017	265.56
274.249	279.56
274.481	267.56
274.713	270.56
274.945	282.56
275.176	293.56
275.408	275.56
275.64	276.56
275.872	279.56
276.104	270.56
276.335	277.56
276.567	277.56
276.799	302.56
277.031	307.56
277.262	331.56
277.494	308.56
277.726	294.56
277.957	279.56
278.189	280.56
278.421	266.56
278.652	281.56
278.884	289.56
279.115	299.56
279.347	268.56
279.579	276.56
279.81	260.56
280.042	260.56
280.273	270.56
280.505	279.56
280.736	287.56
280.968	273.56
281.199	292.56
281.431	278.56
281.662	274.56
281.894	270.56
282.125	269.56
282.356	282.56
282.588	311.56
282.819	305.56
283.051	274.56
283.282	295.56
283.513	291.56
283.745	278.56
283.976	282.56
284.207	286.56
284.439	277.56
284.67	299.56
284.901	295.56
285.132	303.56
285.364	289.56
285.595	293.56
285.826	281.56
286.057	297.56
286.288	295.56
286.52	295.56
286.751	291.56
286.982	278.56
287.213	297.56
287.444	312.56
287.675	301.56
287.906	311.56
288.138	303.56
288.369	300.56
288.6	308.56
288.831	303.56
289.062	305.56
289.293	314.56
289.524	303.56
289.755	280.56
289.986	289.56
290.217	298.56
290.448	289.56
290.679	296.56
290.91	299.56
291.141	286.56
291.371	285.56
291.602	303.56
291.833	285.56
292.064	307.56
292.295	315.56
292.526	327.56
292.757	286.56
292.987	299.56
293.218	301.56
293.449	295.56
293.68	306.56
293.91	303.56
294.141	298.56
294.372	308.56
294.603	303.56
294.833	305.56
295.064	300.56
295.295	286.56
295.525	334.56
295.756	309.56
295.987	308.56
296.217	316.56
296.448	332.56
296.679	316.56
296.909	303.56
297.14	320.56
297.37	295.56
297.601	310.56
297.831	321.56
298.062	309.56
298.292	309.56
298.523	316.56
298.753	294.56
298.984	309.56
299.214	305.56
299.445	316.56
299.675	324.56
299.905	306.56
300.136	298.56
300.366	310.56
300.597	307.56
300.827	328.56
301.057	340.56
301.288	338.56
301.518	329.56
301.748	326.56
301.979	328.56
302.209	330.56
302.439	322.56
302.669	340.56
302.9	322.56
303.13	330.56
303.36	338.56
303.59	323.56
303.82	334.56
304.051	322.56
304.281	318.56
304.511	327.56
304.741	324.56
304.971	336.56
305.201	345.56
305.431	322.56
305.661	330.56
305.891	333.56
306.121	319.56
306.352	350.56
306.582	335.56
306.812	331.56
307.042	338.56
307.272	333.56
307.502	345.56
307.731	346.56
307.961	326.56
308.191	341.56
308.421	349.56
308.651	353.56
308.881	351.56
309.111	356.56
309.341	342.56
309.571	357.56
309.8	370.56
310.03	355.56
310.26	374.56
310.49	397.56
310.72	375.56
310.949	395.56
311.179	380.56
311.409	389.56
311.639	385.56
311.868	384.56
312.098	347.56
312.328	359.56
312.557	409.56
312.787	409.56
313.017	399.56
313.246	395.56
313.476	375.56
313.706	379.56
313.935	393.56
314.165	385.56
314.394	397.56
314.624	414.56
314.853	392.56
315.083	397.56
315.312	395.56
315.542	398.56
315.771	399.56
316.001	370.56
316.23	373.56
316.46	384.56
316.689	387.56
316.919	372.56
317.148	397.56
317.377	378.56
317.607	374.56
317.836	373.56
318.065	393.56
318.295	389.56
318.524	375.56
318.753	363.56
318.983	388.56
319.212	390.56
319.441	406.56
319.67	385.56
319.9	392.56
320.129	392.56
320.358	385.56
320.587	374.56
320.816	383.56
321.046	400.56
321.275	389.56
321.504	384.56
321.733	407.56
321.962	415.56
322.191	425.56
322.42	429.56
322.649	443.56
322.878	423.56
323.108	452.56
323.337	486.56
323.566	484.56
323.795	506.56
324.024	555.56
324.253	665.56
324.482	968.56
324.71	1438.56
324.939	1923.56
325.168	1628.56
325.397	871.56
325.626	620.56
325.855	537.56
326.084	478.56
326.313	497.56
326.542	483.56
326.77	517.56
326.999	624.56
327.228	862.56
327.457	1234.56
327.686	1433.56
327.914	945.56
328.143	670.56
328.372	604.56
328.6	554.56
328.829	541.56
329.058	543.56
329.287	558.56
329.515	506.56
329.744	482.56
329.972	487.56
330.201	515.56
330.43	524.56
330.658	557.56
330.887	580.56
331.115	551.56
331.344	502.56
331.572	476.56
331.801	477.56
332.03	454.56
332.258	440.56
332.486	434.56
332.715	453.56
332.943	443.56
333.172	458.56
333.4	467.56
333.629	459.56
333.857	467.56
334.085	501.56
334.314	492.56
334.542	497.56
334.771	499.56
334.999	464.56
335.227	467.56
335.455	442.56
335.684	441.56
335.912	421.56
336.14	439.56
336.369	430.56
336.597	435.56
336.825	443.56
337.053	438.56
337.281	411.56
337.51	441.56
337.738	430.56
337.966	415.56
338.194	430.56
338.422	404.56
338.65	429.56
338.878	440.56
339.106	435.56
339.334	422.56
339.562	409.56
339.79	424.56
340.018	430.56
340.246	416.56
340.474	420.56
340.702	427.56
340.93	412.56
341.158	416.56
341.386	399.56
341.614	422.56
341.842	419.56
342.07	399.56
342.298	425.56
342.526	401.56
342.754	386.56
342.981	411.56
343.209	412.56
343.437	394.56
343.665	418.56
343.893	431.56
344.12	406.56
344.348	422.56
344.576	405.56
344.804	421.56
345.031	430.56
345.259	436.56
345.487	421.56
345.714	405.56
345.942	381.56
346.17	409.56
346.397	407.56
346.625	403.56
346.853	399.56
347.08	415.56
347.308	410.56
347.535	416.56
347.763	412.56
347.99	404.56
348.218	394.56
348.445	409.56
348.673	391.56
348.9	379.56
349.128	375.56
349.355	377.56
349.583	378.56
349.81	390.56
350.037	366.56
350.265	379.56
350.492	382.56
350.72	375.56
350.947	395.56
351.174	392.56
351.402	395.56
351.629	405.56
351.856	393.56
352.083	425.56
352.311	404.56
352.538	391.56
352.765	392.56
352.992	399.56
353.22	398.56
353.447	376.56
353.674	386.56
353.901	378.56
354.128	395.56
354.355	379.56
354.583	367.56
354.81	369.56
355.037	363.56
355.264	381.56
355.491	370.56
355.718	371.56
355.945	358.56
356.172	363.56
356.399	367.56
356.626	366.56
356.853	378.56
357.08	366.56
357.307	364.56
357.534	358.56
357.761	367.56
357.988	358.56
358.215	356.56
358.441	365.56
358.668	363.56
358.895	359.56
359.122	369.56
359.349	363.56
359.576	381.56
359.802	416.56
360.029	409.56
360.256	433.56
360.483	395.56
360.709	391.56
360.936	388.56
361.163	367.56
361.39	407.56
361.616	388.56
361.843	387.56
362.07	388.56
362.296	410.56
362.523	403.56
362.749	380.56
362.976	382.56
363.203	391.56
363.429	389.56
363.656	385.56
363.882	359.56
364.109	380.56
364.335	362.56
364.562	365.56
364.788	380.56
365.015	376.56
365.241	393.56
365.468	363.56
365.694	376.56
365.92	369.56
366.147	365.56
366.373	383.56
366.599	349.56
366.826	361.56
367.052	360.56
367.278	366.56
367.505	363.56
367.731	358.56
367.957	360.56
368.184	378.56
368.41	359.56
368.636	374.56
368.862	381.56
369.089	353.56
369.315	350.56
369.541	349.56
369.767	361.56
369.993	353.56
370.219	363.56
370.445	361.56
370.672	350.56
370.898	340.56
371.124	332.56
371.35	333.56
371.576	353.56
371.802	362.56
372.028	353.56
372.254	350.56
372.48	348.56
372.706	364.56
372.932	363.56
373.158	353.56
373.384	385.56
373.61	355.56
373.835	355.56
374.061	358.56
374.287	375.56
374.513	351.56
374.739	365.56
374.965	347.56
375.191	359.56
375.416	349.56
375.642	353.56
375.868	363.56
376.094	345.56
376.319	369.56
376.545	373.56
376.771	357.56
376.997	345.56
377.222	355.56
377.448	347.56
377.674	361.56
377.899	342.56
378.125	367.56
378.35	349.56
378.576	355.56
378.802	336.56
379.027	341.56
379.253	365.56
379.478	349.56
379.704	332.56
379.929	337.56
380.155	348.56
380.38	355.56
380.606	340.56
380.831	350.56
381.057	347.56
381.282	341.56
381.507	337.56
381.733	362.56
381.958	357.56
382.184	354.56
382.409	335.56
382.634	344.56
382.86	342.56
383.085	355.56
383.31	353.56
383.535	353.56
383.761	355.56
383.986	339.56
384.211	353.56
384.436	374.56
384.662	360.56
384.887	371.56
385.112	357.56
385.337	374.56
385.562	371.56
385.787	378.56
386.013	372.56
386.238	358.56
386.463	355.56
386.688	377.56
386.913	347.56
387.138	375.56
387.363	361.56
387.588	367.56
387.813	370.56
388.038	385.56
388.263	366.56
388.488	365.56
388.713	369.56
388.938	369.56
389.163	371.56
389.387	357.56
389.612	363.56
389.837	367.56
390.062	357.56
390.287	380.56
390.512	375.56
390.736	369.56
390.961	382.56
391.186	377.56
391.411	375.56
391.636	374.56
391.86	388.56
392.085	365.56
392.31	379.56
392.534	378.56
392.759	364.56
392.984	372.56
393.208	373.56
393.433	360.56
393.658	355.56
393.882	357.56
394.107	381.56
394.331	363.56
394.556	354.56
394.78	378.56
395.005	374.56
395.229	379.56
395.454	377.56
395.678	386.56
395.903	377.56
396.127	410.56
396.352	405.56
396.576	371.56
396.801	377.56
397.025	383.56
397.249	377.56
397.474	398.56
397.698	396.56
397.922	383.56
398.147	415.56
398.371	388.56
398.595	405.56
398.82	402.56
399.044	437.56
399.268	428.56
399.492	461.56
399.717	467.56
399.941	482.56
400.165	481.56
400.389	522.56
400.613	431.56
400.837	417.56
401.062	426.56
401.286	409.56
401.51	399.56
401.734	408.56
401.958	385.56
402.182	402.56
402.406	415.56
402.63	437.56
402.854	421.56
403.078	424.56
403.302	442.56
403.526	434.56
403.75	424.56
403.974	413.56
404.198	405.56
404.422	404.56
404.645	426.56
404.869	433.56
405.093	453.56
405.317	482.56
405.541	499.56
405.765	466.56
405.988	431.56
406.212	436.56
406.436	446.56
406.66	475.56
406.883	452.56
407.107	470.56
407.331	497.56
407.555	556.56
407.778	563.56
408.002	505.56
408.226	460.56
408.449	475.56
408.673	473.56
408.896	477.56
409.12	499.56
409.344	499.56
409.567	435.56
409.791	428.56
410.014	434.56
410.238	439.56
410.461	413.56
410.685	419.56
410.908	450.56
411.132	442.56
411.355	480.56
411.578	458.56
411.802	427.56
412.025	416.56
412.249	436.56
412.472	450.56
412.695	497.56
412.919	462.56
413.142	441.56
413.365	411.56
413.589	416.56
413.812	399.56
414.035	393.56
414.258	392.56
414.482	396.56
414.705	388.56
414.928	396.56
415.151	397.56
415.374	393.56
415.597	399.56
415.821	389.56
416.044	407.56
416.267	406.56
416.49	394.56
416.713	392.56
416.936	395.56
417.159	380.56
417.382	379.56
417.605	399.56
417.828	402.56
418.051	416.56
418.274	418.56
418.497	394.56
418.72	396.56
418.943	390.56
419.166	407.56
419.389	454.56
419.611	439.56
419.834	422.56
420.057	412.56
420.28	427.56
420.503	420.56
420.726	428.56
420.948	412.56
421.171	463.56
421.394	489.56
421.617	432.56
421.839	414.56
422.062	429.56
422.285	427.56
422.507	472.56
422.73	532.56
422.953	519.56
423.175	466.56
423.398	433.56
423.621	413.56
423.843	445.56
424.066	459.56
424.288	442.56
424.511	470.56
424.733	521.56
424.956	589.56
425.178	546.56
425.401	568.56
425.623	564.56
425.846	494.56
426.068	427.56
426.291	427.56
426.513	447.56
426.735	435.56
426.958	502.56
427.18	564.56
427.402	661.56
427.625	715.56
427.847	612.56
428.069	551.56
428.292	491.56
428.514	446.56
428.736	428.56
428.958	434.56
429.181	431.56
429.403	417.56
429.625	423.56
429.847	461.56
430.069	501.56
430.292	481.56
430.514	422.56
430.736	427.56
430.958	415.56
431.18	389.56
431.402	421.56
431.624	378.56
431.846	373.56
432.068	380.56
432.29	389.56
432.512	400.56
432.734	374.56
432.956	410.56
433.178	407.56
433.4	421.56
433.622	395.56
433.844	395.56
434.066	381.56
434.287	386.56
434.509	379.56
434.731	410.56
434.953	414.56
435.175	411.56
435.397	430.56
435.618	427.56
435.84	480.56
436.062	531.56
436.284	604.56
436.505	515.56
436.727	433.56
436.949	445.56
437.17	404.56
437.392	410.56
437.614	411.56
437.835	460.56
438.057	523.56
438.278	596.56
438.5	597.56
438.721	674.56
438.943	634.56
439.165	519.56
439.386	467.56
439.608	445.56
439.829	459.56
440.05	478.56
440.272	504.56
440.493	463.56
440.715	430.56
440.936	451.56
441.158	430.56
441.379	397.56
441.6	427.56
441.822	447.56
442.043	475.56
442.264	549.56
442.486	565.56
442.707	476.56
442.928	447.56
443.149	474.56
443.371	467.56
443.592	509.56
443.813	590.56
444.034	617.56
444.255	509.56
444.476	486.56
444.698	441.56
444.919	437.56
445.14	571.56
445.361	505.56
445.582	465.56
445.803	534.56
446.024	619.56
446.245	612.56
446.466	566.56
446.687	484.56
446.908	443.56
447.129	420.56
447.35	427.56
447.571	399.56
447.792	425.56
448.013	410.56
448.234	430.56
448.455	472.56
448.675	561.56
448.896	639.56
449.117	539.56
449.338	515.56
449.559	620.56
449.779	693.56
450	550.56
450.221	437.56
450.442	420.56
450.662	422.56
450.883	411.56
451.104	435.56
451.324	386.56
451.545	396.56
451.766	380.56
451.986	370.56
452.207	357.56
452.428	353.56
452.648	365.56
452.869	368.56
453.089	375.56
453.31	379.56
453.53	368.56
453.751	378.56
453.971	362.56
454.192	356.56
454.412	362.56
454.633	347.56
454.853	363.56
455.073	362.56
455.294	379.56
455.514	420.56
455.734	424.56
455.955	367.56
456.175	351.56
456.395	343.56
456.616	328.56
456.836	349.56
457.056	346.56
457.276	329.56
457.497	357.56
457.717	338.56
457.937	344.56
458.157	352.56
458.377	355.56
458.598	373.56
458.818	421.56
459.038	465.56
459.258	489.56
459.478	420.56
459.698	379.56
459.918	384.56
460.138	379.56
460.358	371.56
460.578	397.56
460.798	385.56
461.018	397.56
461.238	392.56
461.458	394.56
461.678	370.56
461.898	395.56
462.118	364.56
462.338	385.56
462.558	412.56
462.777	407.56
462.997	397.56
463.217	417.56
463.437	411.56
463.657	412.56
463.876	403.56
464.096	414.56
464.316	391.56
464.536	419.56
464.755	403.56
464.975	394.56
465.195	427.56
465.414	492.56
465.634	418.56
465.854	399.56
466.073	411.56
466.293	381.56
466.512	388.56
466.732	370.56
466.951	377.56
467.171	376.56
467.391	376.56
467.61	380.56
467.829	394.56
468.049	369.56
468.268	389.56
468.488	369.56
468.707	360.56
468.927	368.56
469.146	397.56
469.365	363.56
469.585	377.56
469.804	373.56
470.023	382.56
470.243	389.56
470.462	363.56
470.681	396.56
470.901	395.56
471.12	379.56
471.339	380.56
471.558	381.56
471.777	380.56
471.997	386.56
472.216	369.56
472.435	405.56
472.654	393.56
472.873	372.56
473.092	374.56
473.311	378.56
473.53	379.56
473.749	397.56
473.968	426.56
474.187	511.56
474.406	509.56
474.625	437.56
474.844	392.56
475.063	390.56
475.282	382.56
475.501	364.56
475.72	377.56
475.939	393.56
476.158	385.56
476.377	376.56
476.596	388.56
476.814	386.56
477.033	406.56
477.252	404.56
477.471	388.56
477.69	402.56
477.908	408.56
478.127	406.56
478.346	409.56
478.564	413.56
478.783	403.56
479.002	436.56
479.22	414.56
479.439	443.56
479.658	448.56
479.876	443.56
480.095	475.56
480.313	455.56
480.532	461.56
480.751	468.56
480.969	460.56
481.188	521.56
481.406	528.56
481.624	490.56
481.843	444.56
482.061	443.56
482.28	457.56
482.498	434.56
482.717	426.56
482.935	455.56
483.153	455.56
483.372	457.56
483.59	443.56
483.808	433.56
484.027	458.56
484.245	432.56
484.463	445.56
484.681	441.56
484.9	442.56
485.118	455.56
485.336	450.56
485.554	440.56
485.772	447.56
485.99	456.56
486.209	455.56
486.427	456.56
486.645	470.56
486.863	471.56
487.081	460.56
487.299	493.56
487.517	431.56
487.735	462.56
487.953	494.56
488.171	471.56
488.389	468.56
488.607	472.56
488.825	479.56
489.043	487.56
489.261	470.56
489.479	472.56
489.696	482.56
489.914	494.56
490.132	489.56
490.35	497.56
490.568	503.56
490.786	525.56
491.003	523.56
491.221	530.56
491.439	537.56
491.657	519.56
491.874	519.56
492.092	536.56
492.31	548.56
492.527	536.56
492.745	557.56
492.963	574.56
493.18	556.56
493.398	570.56
493.615	584.56
493.833	530.56
494.05	545.56
494.268	572.56
494.485	563.56
494.703	545.56
494.92	558.56
495.138	538.56
495.355	544.56
495.573	551.56
495.79	545.56
496.008	563.56
496.225	548.56
496.442	549.56
496.66	565.56
496.877	562.56
497.094	557.56
497.312	590.56
497.529	555.56
497.746	598.56
497.963	569.56
498.181	599.56
498.398	613.56
498.615	619.56
498.832	643.56
499.049	646.56
499.267	621.56
499.484	664.56
499.701	678.56
499.918	677.56
500.135	714.56
500.352	716.56
500.569	717.56
500.786	729.56
501.003	738.56
501.22	713.56
501.437	722.56
501.654	703.56
501.871	679.56
