Data from 1971.PennyLincolnUp.Lamp.En5.5.200Scan.071719.P1._HRD10591_15-19-39-841.txt Node
Date: Thu Jul 18 15:19:39 EDT 2019
User: cochatt
Spectrometer: HR+D1059
Trigger mode: 1
Integration Time (sec): 1.000000E-1
Scans to average: 1
Electric dark correction enabled: true
Nonlinearity correction enabled: false
Boxcar width: 0
XAxis mode: Wavelengths
Number of Pixels in Spectrum: 2048
>>>>>Begin Spectral Data<<<<<
223.165	-17.44
223.4	-17.44
223.635	-17.44
223.869	-12.44
224.104	-13.44
224.338	-10.44
224.573	-9.44
224.808	5.56
225.042	-5.44
225.277	-6.44
225.511	-9.44
225.746	10.56
225.98	5.56
226.215	9.56
226.449	19.56
226.683	3.56
226.918	13.56
227.152	16.56
227.387	28.56
227.621	44.56
227.856	30.56
228.09	50.56
228.324	43.56
228.559	44.56
228.793	59.56
229.027	106.56
229.262	105.56
229.496	109.56
229.73	126.56
229.964	148.56
230.199	111.56
230.433	96.56
230.667	103.56
230.901	108.56
231.136	110.56
231.37	109.56
231.604	106.56
231.838	104.56
232.072	114.56
232.306	117.56
232.541	109.56
232.775	108.56
233.009	98.56
233.243	95.56
233.477	114.56
233.711	108.56
233.945	114.56
234.179	104.56
234.413	122.56
234.647	117.56
234.881	120.56
235.115	114.56
235.349	102.56
235.583	114.56
235.817	105.56
236.051	129.56
236.285	124.56
236.519	120.56
236.753	102.56
236.987	144.56
237.221	175.56
237.455	207.56
237.689	169.56
237.922	142.56
238.156	133.56
238.39	135.56
238.624	127.56
238.858	116.56
239.091	130.56
239.325	106.56
239.559	122.56
239.793	114.56
240.027	131.56
240.26	125.56
240.494	144.56
240.728	130.56
240.961	137.56
241.195	138.56
241.429	128.56
241.662	127.56
241.896	133.56
242.13	132.56
242.363	128.56
242.597	131.56
242.83	130.56
243.064	135.56
243.298	129.56
243.531	143.56
243.765	144.56
243.998	133.56
244.232	157.56
244.465	151.56
244.699	150.56
244.932	141.56
245.166	157.56
245.399	148.56
245.633	142.56
245.866	146.56
246.099	144.56
246.333	167.56
246.566	158.56
246.8	148.56
247.033	163.56
247.266	150.56
247.5	170.56
247.733	182.56
247.966	166.56
248.2	185.56
248.433	170.56
248.666	161.56
248.899	194.56
249.133	215.56
249.366	206.56
249.599	197.56
249.832	186.56
250.066	175.56
250.299	184.56
250.532	200.56
250.765	203.56
250.998	220.56
251.231	237.56
251.465	200.56
251.698	214.56
251.931	201.56
252.164	196.56
252.397	210.56
252.63	204.56
252.863	199.56
253.096	220.56
253.329	238.56
253.562	238.56
253.795	208.56
254.028	210.56
254.261	221.56
254.494	230.56
254.727	267.56
254.96	266.56
255.193	276.56
255.426	249.56
255.659	254.56
255.892	220.56
256.124	234.56
256.357	226.56
256.59	231.56
256.823	209.56
257.056	194.56
257.289	225.56
257.521	232.56
257.754	216.56
257.987	205.56
258.22	209.56
258.452	205.56
258.685	202.56
258.918	212.56
259.151	221.56
259.383	224.56
259.616	234.56
259.849	232.56
260.081	249.56
260.314	277.56
260.547	249.56
260.779	250.56
261.012	246.56
261.244	228.56
261.477	231.56
261.71	230.56
261.942	237.56
262.175	243.56
262.407	236.56
262.64	239.56
262.872	206.56
263.105	220.56
263.337	223.56
263.57	228.56
263.802	221.56
264.035	213.56
264.267	198.56
264.499	213.56
264.732	210.56
264.964	201.56
265.197	196.56
265.429	223.56
265.661	230.56
265.894	243.56
266.126	220.56
266.358	228.56
266.591	216.56
266.823	216.56
267.055	232.56
267.287	238.56
267.52	216.56
267.752	229.56
267.984	227.56
268.216	219.56
268.448	228.56
268.681	234.56
268.913	248.56
269.145	270.56
269.377	281.56
269.609	278.56
269.841	280.56
270.073	277.56
270.306	301.56
270.538	333.56
270.77	323.56
271.002	298.56
271.234	292.56
271.466	294.56
271.698	306.56
271.93	326.56
272.162	331.56
272.394	322.56
272.626	307.56
272.858	286.56
273.09	278.56
273.322	291.56
273.553	295.56
273.785	270.56
274.017	254.56
274.249	270.56
274.481	267.56
274.713	281.56
274.945	271.56
275.176	280.56
275.408	274.56
275.64	279.56
275.872	268.56
276.104	282.56
276.335	264.56
276.567	274.56
276.799	271.56
277.031	316.56
277.262	326.56
277.494	317.56
277.726	296.56
277.957	304.56
278.189	294.56
278.421	276.56
278.652	274.56
278.884	278.56
279.115	267.56
279.347	276.56
279.579	265.56
279.81	254.56
280.042	259.56
280.273	273.56
280.505	282.56
280.736	261.56
280.968	272.56
281.199	255.56
281.431	276.56
281.662	282.56
281.894	296.56
282.125	274.56
282.356	285.56
282.588	283.56
282.819	317.56
283.051	284.56
283.282	290.56
283.513	282.56
283.745	276.56
283.976	269.56
284.207	279.56
284.439	278.56
284.67	265.56
284.901	294.56
285.132	285.56
285.364	272.56
285.595	282.56
285.826	288.56
286.057	295.56
286.288	303.56
286.52	279.56
286.751	282.56
286.982	291.56
287.213	287.56
287.444	274.56
287.675	272.56
287.906	284.56
288.138	288.56
288.369	308.56
288.6	318.56
288.831	301.56
289.062	300.56
289.293	280.56
289.524	292.56
289.755	297.56
289.986	294.56
290.217	308.56
290.448	280.56
290.679	297.56
290.91	303.56
291.141	295.56
291.371	307.56
291.602	274.56
291.833	286.56
292.064	290.56
292.295	311.56
292.526	304.56
292.757	293.56
292.987	314.56
293.218	269.56
293.449	291.56
293.68	307.56
293.91	307.56
294.141	270.56
294.372	288.56
294.603	296.56
294.833	303.56
295.064	284.56
295.295	294.56
295.525	280.56
295.756	301.56
295.987	322.56
296.217	341.56
296.448	322.56
296.679	308.56
296.909	291.56
297.14	282.56
297.37	290.56
297.601	318.56
297.831	285.56
298.062	295.56
298.292	298.56
298.523	294.56
298.753	320.56
298.984	308.56
299.214	306.56
299.445	311.56
299.675	317.56
299.905	318.56
300.136	331.56
300.366	322.56
300.597	308.56
300.827	311.56
301.057	308.56
301.288	317.56
301.518	309.56
301.748	319.56
301.979	311.56
302.209	311.56
302.439	326.56
302.669	338.56
302.9	311.56
303.13	350.56
303.36	320.56
303.59	325.56
303.82	327.56
304.051	354.56
304.281	344.56
304.511	316.56
304.741	324.56
304.971	323.56
305.201	324.56
305.431	333.56
305.661	329.56
305.891	329.56
306.121	338.56
306.352	336.56
306.582	338.56
306.812	329.56
307.042	339.56
307.272	322.56
307.502	333.56
307.731	345.56
307.961	359.56
308.191	331.56
308.421	323.56
308.651	320.56
308.881	336.56
309.111	352.56
309.341	354.56
309.571	343.56
309.8	347.56
310.03	343.56
310.26	387.56
310.49	372.56
310.72	380.56
310.949	382.56
311.179	398.56
311.409	392.56
311.639	388.56
311.868	382.56
312.098	384.56
312.328	391.56
312.557	383.56
312.787	392.56
313.017	369.56
313.246	395.56
313.476	363.56
313.706	380.56
313.935	364.56
314.165	385.56
314.394	392.56
314.624	410.56
314.853	388.56
315.083	371.56
315.312	391.56
315.542	375.56
315.771	358.56
316.001	368.56
316.23	378.56
316.46	376.56
316.689	396.56
316.919	382.56
317.148	391.56
317.377	404.56
317.607	382.56
317.836	370.56
318.065	393.56
318.295	382.56
318.524	370.56
318.753	367.56
318.983	368.56
319.212	398.56
319.441	375.56
319.67	383.56
319.9	390.56
320.129	372.56
320.358	388.56
320.587	397.56
320.816	386.56
321.046	423.56
321.275	414.56
321.504	398.56
321.733	399.56
321.962	418.56
322.191	425.56
322.42	421.56
322.649	440.56
322.878	435.56
323.108	435.56
323.337	480.56
323.566	476.56
323.795	517.56
324.024	567.56
324.253	671.56
324.482	952.56
324.71	1402.56
324.939	1919.56
325.168	1636.56
325.397	847.56
325.626	615.56
325.855	509.56
326.084	500.56
326.313	490.56
326.542	487.56
326.77	536.56
326.999	630.56
327.228	855.56
327.457	1246.56
327.686	1415.56
327.914	962.56
328.143	667.56
328.372	574.56
328.6	562.56
328.829	535.56
329.058	574.56
329.287	572.56
329.515	524.56
329.744	505.56
329.972	493.56
330.201	528.56
330.43	531.56
330.658	559.56
330.887	572.56
331.115	562.56
331.344	496.56
331.572	479.56
331.801	478.56
332.03	504.56
332.258	460.56
332.486	441.56
332.715	428.56
332.943	414.56
333.172	458.56
333.4	446.56
333.629	453.56
333.857	451.56
334.085	470.56
334.314	479.56
334.542	499.56
334.771	492.56
334.999	479.56
335.227	441.56
335.455	441.56
335.684	437.56
335.912	436.56
336.14	436.56
336.369	422.56
336.597	427.56
336.825	431.56
337.053	426.56
337.281	404.56
337.51	421.56
337.738	413.56
337.966	425.56
338.194	429.56
338.422	417.56
338.65	417.56
338.878	401.56
339.106	404.56
339.334	403.56
339.562	405.56
339.79	393.56
340.018	422.56
340.246	419.56
340.474	421.56
340.702	409.56
340.93	400.56
341.158	402.56
341.386	406.56
341.614	418.56
341.842	410.56
342.07	401.56
342.298	400.56
342.526	396.56
342.754	403.56
342.981	414.56
343.209	427.56
343.437	397.56
343.665	392.56
343.893	406.56
344.12	399.56
344.348	390.56
344.576	428.56
344.804	425.56
345.031	442.56
345.259	413.56
345.487	415.56
345.714	414.56
345.942	390.56
346.17	415.56
346.397	380.56
346.625	398.56
346.853	390.56
347.08	394.56
347.308	398.56
347.535	391.56
347.763	420.56
347.99	405.56
348.218	391.56
348.445	398.56
348.673	405.56
348.9	391.56
349.128	389.56
349.355	395.56
349.583	388.56
349.81	372.56
350.037	386.56
350.265	390.56
350.492	371.56
350.72	389.56
350.947	375.56
351.174	408.56
351.402	406.56
351.629	409.56
351.856	392.56
352.083	410.56
352.311	412.56
352.538	391.56
352.765	392.56
352.992	398.56
353.22	392.56
353.447	395.56
353.674	372.56
353.901	362.56
354.128	373.56
354.355	351.56
354.583	354.56
354.81	359.56
355.037	353.56
355.264	356.56
355.491	374.56
355.718	363.56
355.945	359.56
356.172	366.56
356.399	357.56
356.626	345.56
356.853	357.56
357.08	348.56
357.307	358.56
357.534	351.56
357.761	350.56
357.988	379.56
358.215	346.56
358.441	346.56
358.668	375.56
358.895	349.56
359.122	361.56
359.349	376.56
359.576	388.56
359.802	402.56
360.029	397.56
360.256	408.56
360.483	379.56
360.709	370.56
360.936	376.56
361.163	382.56
361.39	384.56
361.616	384.56
361.843	376.56
362.07	383.56
362.296	397.56
362.523	392.56
362.749	382.56
362.976	378.56
363.203	367.56
363.429	359.56
363.656	372.56
363.882	376.56
364.109	368.56
364.335	356.56
364.562	334.56
364.788	340.56
365.015	367.56
365.241	373.56
365.468	366.56
365.694	359.56
365.92	368.56
366.147	362.56
366.373	357.56
366.599	367.56
366.826	349.56
367.052	343.56
367.278	347.56
367.505	355.56
367.731	357.56
367.957	348.56
368.184	352.56
368.41	360.56
368.636	375.56
368.862	368.56
369.089	363.56
369.315	365.56
369.541	381.56
369.767	360.56
369.993	355.56
370.219	352.56
370.445	355.56
370.672	372.56
370.898	363.56
371.124	341.56
371.35	349.56
371.576	340.56
371.802	350.56
372.028	366.56
372.254	377.56
372.48	345.56
372.706	342.56
372.932	355.56
373.158	347.56
373.384	344.56
373.61	360.56
373.835	361.56
374.061	334.56
374.287	359.56
374.513	356.56
374.739	368.56
374.965	343.56
375.191	355.56
375.416	363.56
375.642	358.56
375.868	341.56
376.094	355.56
376.319	355.56
376.545	338.56
376.771	346.56
376.997	352.56
377.222	346.56
377.448	354.56
377.674	338.56
377.899	347.56
378.125	345.56
378.35	358.56
378.576	344.56
378.802	338.56
379.027	341.56
379.253	338.56
379.478	338.56
379.704	340.56
379.929	327.56
380.155	338.56
380.38	321.56
380.606	357.56
380.831	350.56
381.057	346.56
381.282	341.56
381.507	326.56
381.733	355.56
381.958	348.56
382.184	354.56
382.409	337.56
382.634	376.56
382.86	346.56
383.085	331.56
383.31	336.56
383.535	387.56
383.761	351.56
383.986	358.56
384.211	346.56
384.436	356.56
384.662	373.56
384.887	355.56
385.112	354.56
385.337	350.56
385.562	356.56
385.787	376.56
386.013	396.56
386.238	379.56
386.463	381.56
386.688	365.56
386.913	351.56
387.138	355.56
387.363	356.56
387.588	362.56
387.813	381.56
388.038	358.56
388.263	378.56
388.488	373.56
388.713	371.56
388.938	371.56
389.163	376.56
389.387	370.56
389.612	358.56
389.837	371.56
390.062	351.56
390.287	356.56
390.512	364.56
390.736	375.56
390.961	378.56
391.186	359.56
391.411	356.56
391.636	367.56
391.86	375.56
392.085	377.56
392.31	383.56
392.534	367.56
392.759	348.56
392.984	374.56
393.208	361.56
393.433	370.56
393.658	372.56
393.882	378.56
394.107	390.56
394.331	362.56
394.556	355.56
394.78	366.56
395.005	351.56
395.229	376.56
395.454	374.56
395.678	382.56
395.903	381.56
396.127	389.56
396.352	405.56
396.576	388.56
396.801	388.56
397.025	361.56
397.249	388.56
397.474	381.56
397.698	375.56
397.922	390.56
398.147	414.56
398.371	407.56
398.595	406.56
398.82	420.56
399.044	414.56
399.268	414.56
399.492	452.56
399.717	456.56
399.941	491.56
400.165	500.56
400.389	484.56
400.613	464.56
400.837	409.56
401.062	424.56
401.286	407.56
401.51	429.56
401.734	395.56
401.958	398.56
402.182	410.56
402.406	398.56
402.63	404.56
402.854	429.56
403.078	399.56
403.302	392.56
403.526	416.56
403.75	424.56
403.974	408.56
404.198	411.56
404.422	418.56
404.645	419.56
404.869	433.56
405.093	425.56
405.317	470.56
405.541	504.56
405.765	445.56
405.988	440.56
406.212	441.56
406.436	455.56
406.66	454.56
406.883	451.56
407.107	472.56
407.331	510.56
407.555	537.56
407.778	525.56
408.002	502.56
408.226	464.56
408.449	462.56
408.673	445.56
408.896	475.56
409.12	499.56
409.344	485.56
409.567	434.56
409.791	415.56
410.014	414.56
410.238	414.56
410.461	424.56
410.685	455.56
410.908	435.56
411.132	460.56
411.355	468.56
411.578	469.56
411.802	421.56
412.025	423.56
412.249	394.56
412.472	438.56
412.695	453.56
412.919	448.56
413.142	437.56
413.365	404.56
413.589	412.56
413.812	416.56
414.035	412.56
414.258	382.56
414.482	388.56
414.705	381.56
414.928	393.56
415.151	384.56
415.374	386.56
415.597	372.56
415.821	379.56
416.044	402.56
416.267	398.56
416.49	382.56
416.713	381.56
416.936	374.56
417.159	391.56
417.382	412.56
417.605	384.56
417.828	401.56
418.051	406.56
418.274	411.56
418.497	397.56
418.72	384.56
418.943	403.56
419.166	397.56
419.389	429.56
419.611	423.56
419.834	420.56
420.057	408.56
420.28	391.56
420.503	401.56
420.726	422.56
420.948	436.56
421.171	456.56
421.394	467.56
421.617	429.56
421.839	412.56
422.062	414.56
422.285	429.56
422.507	464.56
422.73	526.56
422.953	494.56
423.175	461.56
423.398	437.56
423.621	436.56
423.843	451.56
424.066	444.56
424.288	426.56
424.511	461.56
424.733	508.56
424.956	574.56
425.178	553.56
425.401	550.56
425.623	550.56
425.846	473.56
426.068	468.56
426.291	440.56
426.513	447.56
426.735	452.56
426.958	488.56
427.18	532.56
427.402	667.56
427.625	713.56
427.847	616.56
428.069	536.56
428.292	500.56
428.514	440.56
428.736	430.56
428.958	428.56
429.181	402.56
429.403	399.56
429.625	425.56
429.847	443.56
430.069	518.56
430.292	478.56
430.514	410.56
430.736	421.56
430.958	418.56
431.18	395.56
431.402	394.56
431.624	372.56
431.846	386.56
432.068	379.56
432.29	395.56
432.512	374.56
432.734	400.56
432.956	394.56
433.178	384.56
433.4	390.56
433.622	387.56
433.844	387.56
434.066	393.56
434.287	391.56
434.509	371.56
434.731	379.56
434.953	390.56
435.175	406.56
435.397	439.56
435.618	427.56
435.84	466.56
436.062	548.56
436.284	585.56
436.505	485.56
436.727	465.56
436.949	423.56
437.17	406.56
437.392	416.56
437.614	423.56
437.835	452.56
438.057	536.56
438.278	610.56
438.5	608.56
438.721	668.56
438.943	606.56
439.165	500.56
439.386	468.56
439.608	462.56
439.829	461.56
440.05	462.56
440.272	532.56
440.493	483.56
440.715	455.56
440.936	434.56
441.158	412.56
441.379	416.56
441.6	413.56
441.822	408.56
442.043	476.56
442.264	543.56
442.486	579.56
442.707	484.56
442.928	479.56
443.149	444.56
443.371	449.56
443.592	514.56
443.813	563.56
444.034	612.56
444.255	515.56
444.476	436.56
444.698	446.56
444.919	445.56
445.14	551.56
445.361	503.56
445.582	495.56
445.803	514.56
446.024	609.56
446.245	620.56
446.466	562.56
446.687	473.56
446.908	463.56
447.129	408.56
447.35	416.56
447.571	411.56
447.792	392.56
448.013	405.56
448.234	440.56
448.455	465.56
448.675	545.56
448.896	644.56
449.117	516.56
449.338	513.56
449.559	621.56
449.779	651.56
450	548.56
450.221	459.56
450.442	405.56
450.662	404.56
450.883	398.56
451.104	405.56
451.324	395.56
451.545	368.56
451.766	386.56
451.986	376.56
452.207	387.56
452.428	370.56
452.648	352.56
452.869	357.56
453.089	361.56
453.31	349.56
453.53	370.56
453.751	374.56
453.971	368.56
454.192	370.56
454.412	380.56
454.633	354.56
454.853	354.56
455.073	358.56
455.294	392.56
455.514	438.56
455.734	430.56
455.955	368.56
456.175	360.56
456.395	333.56
456.616	344.56
456.836	363.56
457.056	329.56
457.276	338.56
457.497	339.56
457.717	336.56
457.937	343.56
458.157	347.56
458.377	332.56
458.598	374.56
458.818	414.56
459.038	493.56
459.258	468.56
459.478	410.56
459.698	365.56
459.918	401.56
460.138	376.56
460.358	379.56
460.578	374.56
460.798	380.56
461.018	404.56
461.238	370.56
461.458	380.56
461.678	370.56
461.898	363.56
462.118	375.56
462.338	388.56
462.558	379.56
462.777	411.56
462.997	395.56
463.217	411.56
463.437	409.56
463.657	409.56
463.876	400.56
464.096	394.56
464.316	409.56
464.536	394.56
464.755	404.56
464.975	430.56
465.195	438.56
465.414	451.56
465.634	406.56
465.854	392.56
466.073	363.56
466.293	388.56
466.512	374.56
466.732	360.56
466.951	378.56
467.171	371.56
467.391	354.56
467.61	400.56
467.829	392.56
468.049	368.56
468.268	378.56
468.488	360.56
468.707	358.56
468.927	365.56
469.146	373.56
469.365	346.56
469.585	349.56
469.804	361.56
470.023	380.56
470.243	384.56
470.462	373.56
470.681	388.56
470.901	392.56
471.12	366.56
471.339	382.56
471.558	391.56
471.777	368.56
471.997	371.56
472.216	368.56
472.435	393.56
472.654	406.56
472.873	372.56
473.092	367.56
473.311	377.56
473.53	372.56
473.749	380.56
473.968	436.56
474.187	510.56
474.406	523.56
474.625	399.56
474.844	388.56
475.063	381.56
475.282	384.56
475.501	383.56
475.72	375.56
475.939	375.56
476.158	381.56
476.377	375.56
476.596	398.56
476.814	379.56
477.033	383.56
477.252	385.56
477.471	404.56
477.69	396.56
477.908	392.56
478.127	415.56
478.346	404.56
478.564	422.56
478.783	406.56
479.002	423.56
479.22	423.56
479.439	406.56
479.658	427.56
479.876	445.56
480.095	447.56
480.313	472.56
480.532	460.56
480.751	443.56
480.969	453.56
481.188	492.56
481.406	484.56
481.624	460.56
481.843	452.56
482.061	432.56
482.28	444.56
482.498	425.56
482.717	423.56
482.935	409.56
483.153	409.56
483.372	428.56
483.59	462.56
483.808	434.56
484.027	418.56
484.245	432.56
484.463	444.56
484.681	455.56
484.9	439.56
485.118	457.56
485.336	463.56
485.554	431.56
485.772	440.56
485.99	438.56
486.209	428.56
486.427	446.56
486.645	454.56
486.863	468.56
487.081	464.56
487.299	468.56
487.517	448.56
487.735	451.56
487.953	470.56
488.171	482.56
488.389	457.56
488.607	449.56
488.825	457.56
489.043	461.56
489.261	476.56
489.479	475.56
489.696	468.56
489.914	472.56
490.132	487.56
490.35	478.56
490.568	503.56
490.786	501.56
491.003	499.56
491.221	502.56
491.439	509.56
491.657	523.56
491.874	539.56
492.092	531.56
492.31	538.56
492.527	543.56
492.745	534.56
492.963	559.56
493.18	542.56
493.398	557.56
493.615	577.56
493.833	553.56
494.05	572.56
494.268	568.56
494.485	564.56
494.703	537.56
494.92	578.56
495.138	575.56
495.355	555.56
495.573	560.56
495.79	554.56
496.008	546.56
496.225	541.56
496.442	582.56
496.66	544.56
496.877	536.56
497.094	575.56
497.312	536.56
497.529	558.56
497.746	563.56
497.963	582.56
498.181	596.56
498.398	583.56
498.615	581.56
498.832	603.56
499.049	597.56
499.267	614.56
499.484	640.56
499.701	656.56
499.918	669.56
500.135	686.56
500.352	728.56
500.569	746.56
500.786	742.56
501.003	719.56
501.22	713.56
501.437	692.56
501.654	679.56
501.871	683.56
502.088	687.56
