Data from 1971.PennyLincolnUp.Lamp.En5.5.200Scan.071719.P1._HRD10591_15-20-06-841.txt Node
Date: Thu Jul 18 15:20:06 EDT 2019
User: cochatt
Spectrometer: HR+D1059
Trigger mode: 1
Integration Time (sec): 1.000000E-1
Scans to average: 1
Electric dark correction enabled: true
Nonlinearity correction enabled: false
Boxcar width: 0
XAxis mode: Wavelengths
Number of Pixels in Spectrum: 2048
>>>>>Begin Spectral Data<<<<<
223.165	-10.12
223.4	-10.12
223.635	-10.12
223.869	7.88
224.104	-18.12
224.338	-24.12
224.573	-12.12
224.808	-15.12
225.042	-13.12
225.277	-7.12
225.511	8.88
225.746	3.88
225.98	10.88
226.215	-3.12
226.449	4.88
226.683	16.88
226.918	19.88
227.152	29.88
227.387	42.88
227.621	47.88
227.856	40.88
228.09	44.88
228.324	50.88
228.559	54.88
228.793	66.88
229.027	91.88
229.262	123.88
229.496	104.88
229.73	144.88
229.964	150.88
230.199	120.88
230.433	107.88
230.667	100.88
230.901	123.88
231.136	114.88
231.37	104.88
231.604	108.88
231.838	118.88
232.072	102.88
232.306	109.88
232.541	107.88
232.775	108.88
233.009	117.88
233.243	115.88
233.477	108.88
233.711	119.88
233.945	125.88
234.179	111.88
234.413	130.88
234.647	116.88
234.881	121.88
235.115	125.88
235.349	115.88
235.583	134.88
235.817	110.88
236.051	130.88
236.285	128.88
236.519	125.88
236.753	124.88
236.987	139.88
237.221	178.88
237.455	231.88
237.689	169.88
237.922	139.88
238.156	125.88
238.39	122.88
238.624	124.88
238.858	125.88
239.091	125.88
239.325	144.88
239.559	123.88
239.793	122.88
240.027	135.88
240.26	156.88
240.494	149.88
240.728	154.88
240.961	152.88
241.195	143.88
241.429	139.88
241.662	125.88
241.896	131.88
242.13	110.88
242.363	146.88
242.597	136.88
242.83	142.88
243.064	131.88
243.298	136.88
243.531	128.88
243.765	137.88
243.998	145.88
244.232	151.88
244.465	143.88
244.699	150.88
244.932	145.88
245.166	164.88
245.399	140.88
245.633	145.88
245.866	132.88
246.099	158.88
246.333	157.88
246.566	149.88
246.8	154.88
247.033	152.88
247.266	154.88
247.5	164.88
247.733	167.88
247.966	197.88
248.2	168.88
248.433	171.88
248.666	190.88
248.899	194.88
249.133	198.88
249.366	214.88
249.599	206.88
249.832	178.88
250.066	205.88
250.299	197.88
250.532	197.88
250.765	192.88
250.998	217.88
251.231	237.88
251.465	223.88
251.698	219.88
251.931	211.88
252.164	191.88
252.397	211.88
252.63	206.88
252.863	223.88
253.096	226.88
253.329	236.88
253.562	231.88
253.795	252.88
254.028	224.88
254.261	228.88
254.494	234.88
254.727	275.88
254.96	286.88
255.193	296.88
255.426	260.88
255.659	238.88
255.892	252.88
256.124	240.88
256.357	246.88
256.59	250.88
256.823	239.88
257.056	217.88
257.289	222.88
257.521	215.88
257.754	220.88
257.987	222.88
258.22	221.88
258.452	231.88
258.685	221.88
258.918	226.88
259.151	226.88
259.383	225.88
259.616	244.88
259.849	229.88
260.081	243.88
260.314	256.88
260.547	266.88
260.779	254.88
261.012	257.88
261.244	247.88
261.477	244.88
261.71	226.88
261.942	216.88
262.175	250.88
262.407	242.88
262.64	232.88
262.872	242.88
263.105	217.88
263.337	230.88
263.57	236.88
263.802	243.88
264.035	216.88
264.267	223.88
264.499	237.88
264.732	216.88
264.964	231.88
265.197	218.88
265.429	216.88
265.661	217.88
265.894	231.88
266.126	250.88
266.358	232.88
266.591	232.88
266.823	245.88
267.055	237.88
267.287	234.88
267.52	238.88
267.752	248.88
267.984	251.88
268.216	240.88
268.448	258.88
268.681	259.88
268.913	282.88
269.145	286.88
269.377	288.88
269.609	284.88
269.841	303.88
270.073	288.88
270.306	304.88
270.538	320.88
270.77	323.88
271.002	324.88
271.234	312.88
271.466	322.88
271.698	337.88
271.93	335.88
272.162	349.88
272.394	347.88
272.626	339.88
272.858	315.88
273.09	288.88
273.322	298.88
273.553	300.88
273.785	286.88
274.017	282.88
274.249	286.88
274.481	275.88
274.713	275.88
274.945	284.88
275.176	297.88
275.408	279.88
275.64	260.88
275.872	277.88
276.104	282.88
276.335	298.88
276.567	270.88
276.799	301.88
277.031	315.88
277.262	341.88
277.494	336.88
277.726	314.88
277.957	292.88
278.189	314.88
278.421	328.88
278.652	285.88
278.884	304.88
279.115	295.88
279.347	282.88
279.579	261.88
279.81	278.88
280.042	296.88
280.273	285.88
280.505	296.88
280.736	276.88
280.968	279.88
281.199	273.88
281.431	279.88
281.662	288.88
281.894	295.88
282.125	299.88
282.356	286.88
282.588	301.88
282.819	322.88
283.051	293.88
283.282	284.88
283.513	299.88
283.745	308.88
283.976	299.88
284.207	316.88
284.439	302.88
284.67	319.88
284.901	278.88
285.132	308.88
285.364	310.88
285.595	280.88
285.826	300.88
286.057	291.88
286.288	286.88
286.52	300.88
286.751	296.88
286.982	310.88
287.213	306.88
287.444	299.88
287.675	300.88
287.906	317.88
288.138	331.88
288.369	324.88
288.6	302.88
288.831	319.88
289.062	314.88
289.293	327.88
289.524	325.88
289.755	301.88
289.986	306.88
290.217	335.88
290.448	302.88
290.679	298.88
290.91	293.88
291.141	306.88
291.371	306.88
291.602	315.88
291.833	303.88
292.064	300.88
292.295	325.88
292.526	289.88
292.757	317.88
292.987	303.88
293.218	299.88
293.449	317.88
293.68	300.88
293.91	306.88
294.141	306.88
294.372	320.88
294.603	310.88
294.833	312.88
295.064	319.88
295.295	312.88
295.525	312.88
295.756	308.88
295.987	333.88
296.217	345.88
296.448	335.88
296.679	338.88
296.909	319.88
297.14	322.88
297.37	311.88
297.601	303.88
297.831	328.88
298.062	331.88
298.292	315.88
298.523	316.88
298.753	319.88
298.984	332.88
299.214	335.88
299.445	316.88
299.675	332.88
299.905	314.88
300.136	332.88
300.366	319.88
300.597	331.88
300.827	340.88
301.057	346.88
301.288	348.88
301.518	336.88
301.748	319.88
301.979	334.88
302.209	350.88
302.439	331.88
302.669	356.88
302.9	339.88
303.13	349.88
303.36	332.88
303.59	360.88
303.82	368.88
304.051	334.88
304.281	333.88
304.511	326.88
304.741	333.88
304.971	335.88
305.201	348.88
305.431	335.88
305.661	338.88
305.891	347.88
306.121	359.88
306.352	356.88
306.582	364.88
306.812	351.88
307.042	364.88
307.272	362.88
307.502	354.88
307.731	348.88
307.961	352.88
308.191	338.88
308.421	356.88
308.651	348.88
308.881	355.88
309.111	359.88
309.341	363.88
309.571	371.88
309.8	391.88
310.03	365.88
310.26	379.88
310.49	412.88
310.72	377.88
310.949	386.88
311.179	408.88
311.409	406.88
311.639	392.88
311.868	403.88
312.098	401.88
312.328	409.88
312.557	420.88
312.787	420.88
313.017	423.88
313.246	407.88
313.476	412.88
313.706	390.88
313.935	383.88
314.165	409.88
314.394	415.88
314.624	426.88
314.853	411.88
315.083	390.88
315.312	396.88
315.542	383.88
315.771	384.88
316.001	416.88
316.23	388.88
316.46	386.88
316.689	388.88
316.919	395.88
317.148	410.88
317.377	400.88
317.607	416.88
317.836	410.88
318.065	404.88
318.295	408.88
318.524	397.88
318.753	393.88
318.983	394.88
319.212	377.88
319.441	397.88
319.67	411.88
319.9	394.88
320.129	399.88
320.358	392.88
320.587	395.88
320.816	419.88
321.046	427.88
321.275	420.88
321.504	416.88
321.733	432.88
321.962	428.88
322.191	440.88
322.42	464.88
322.649	472.88
322.878	462.88
323.108	487.88
323.337	502.88
323.566	523.88
323.795	539.88
324.024	613.88
324.253	705.88
324.482	1030.88
324.71	1519.88
324.939	2070.88
325.168	1733.88
325.397	924.88
325.626	644.88
325.855	543.88
326.084	515.88
326.313	529.88
326.542	530.88
326.77	583.88
326.999	656.88
327.228	900.88
327.457	1332.88
327.686	1522.88
327.914	1024.88
328.143	719.88
328.372	630.88
328.6	578.88
328.829	584.88
329.058	567.88
329.287	572.88
329.515	538.88
329.744	528.88
329.972	524.88
330.201	526.88
330.43	565.88
330.658	572.88
330.887	598.88
331.115	578.88
331.344	526.88
331.572	499.88
331.801	498.88
332.03	487.88
332.258	470.88
332.486	476.88
332.715	469.88
332.943	458.88
333.172	458.88
333.4	470.88
333.629	481.88
333.857	499.88
334.085	504.88
334.314	516.88
334.542	514.88
334.771	521.88
334.999	496.88
335.227	488.88
335.455	471.88
335.684	472.88
335.912	473.88
336.14	437.88
336.369	453.88
336.597	455.88
336.825	471.88
337.053	456.88
337.281	444.88
337.51	451.88
337.738	457.88
337.966	455.88
338.194	456.88
338.422	415.88
338.65	449.88
338.878	430.88
339.106	429.88
339.334	442.88
339.562	440.88
339.79	440.88
340.018	440.88
340.246	447.88
340.474	424.88
340.702	427.88
340.93	433.88
341.158	432.88
341.386	427.88
341.614	458.88
341.842	460.88
342.07	438.88
342.298	411.88
342.526	426.88
342.754	411.88
342.981	421.88
343.209	431.88
343.437	426.88
343.665	417.88
343.893	435.88
344.12	464.88
344.348	430.88
344.576	428.88
344.804	455.88
345.031	428.88
345.259	428.88
345.487	433.88
345.714	445.88
345.942	420.88
346.17	447.88
346.397	415.88
346.625	423.88
346.853	448.88
347.08	419.88
347.308	424.88
347.535	419.88
347.763	417.88
347.99	404.88
348.218	414.88
348.445	430.88
348.673	406.88
348.9	408.88
349.128	409.88
349.355	401.88
349.583	413.88
349.81	426.88
350.037	412.88
350.265	398.88
350.492	399.88
350.72	403.88
350.947	419.88
351.174	396.88
351.402	436.88
351.629	418.88
351.856	433.88
352.083	406.88
352.311	426.88
352.538	438.88
352.765	434.88
352.992	415.88
353.22	422.88
353.447	410.88
353.674	394.88
353.901	394.88
354.128	393.88
354.355	382.88
354.583	376.88
354.81	385.88
355.037	390.88
355.264	385.88
355.491	372.88
355.718	389.88
355.945	371.88
356.172	380.88
356.399	386.88
356.626	360.88
356.853	370.88
357.08	386.88
357.307	371.88
357.534	388.88
357.761	379.88
357.988	384.88
358.215	389.88
358.441	395.88
358.668	388.88
358.895	373.88
359.122	390.88
359.349	374.88
359.576	396.88
359.802	413.88
360.029	429.88
360.256	441.88
360.483	428.88
360.709	411.88
360.936	395.88
361.163	395.88
361.39	405.88
361.616	408.88
361.843	405.88
362.07	412.88
362.296	399.88
362.523	415.88
362.749	406.88
362.976	401.88
363.203	393.88
363.429	381.88
363.656	392.88
363.882	378.88
364.109	389.88
364.335	382.88
364.562	386.88
364.788	386.88
365.015	391.88
365.241	390.88
365.468	394.88
365.694	392.88
365.92	401.88
366.147	372.88
366.373	387.88
366.599	367.88
366.826	387.88
367.052	378.88
367.278	365.88
367.505	366.88
367.731	357.88
367.957	380.88
368.184	377.88
368.41	386.88
368.636	393.88
368.862	384.88
369.089	380.88
369.315	381.88
369.541	367.88
369.767	376.88
369.993	365.88
370.219	384.88
370.445	356.88
370.672	380.88
370.898	372.88
371.124	363.88
371.35	365.88
371.576	357.88
371.802	379.88
372.028	379.88
372.254	365.88
372.48	367.88
372.706	375.88
372.932	364.88
373.158	380.88
373.384	372.88
373.61	373.88
373.835	370.88
374.061	377.88
374.287	378.88
374.513	365.88
374.739	374.88
374.965	372.88
375.191	363.88
375.416	375.88
375.642	379.88
375.868	375.88
376.094	377.88
376.319	372.88
376.545	338.88
376.771	378.88
376.997	367.88
377.222	367.88
377.448	380.88
377.674	375.88
377.899	378.88
378.125	374.88
378.35	356.88
378.576	354.88
378.802	360.88
379.027	356.88
379.253	352.88
379.478	381.88
379.704	365.88
379.929	374.88
380.155	361.88
380.38	353.88
380.606	345.88
380.831	383.88
381.057	379.88
381.282	385.88
381.507	379.88
381.733	374.88
381.958	376.88
382.184	376.88
382.409	389.88
382.634	388.88
382.86	367.88
383.085	347.88
383.31	370.88
383.535	361.88
383.761	368.88
383.986	355.88
384.211	388.88
384.436	381.88
384.662	380.88
384.887	365.88
385.112	390.88
385.337	386.88
385.562	376.88
385.787	380.88
386.013	389.88
386.238	400.88
386.463	387.88
386.688	391.88
386.913	400.88
387.138	391.88
387.363	375.88
387.588	363.88
387.813	388.88
388.038	400.88
388.263	382.88
388.488	385.88
388.713	390.88
388.938	384.88
389.163	387.88
389.387	382.88
389.612	398.88
389.837	381.88
390.062	391.88
390.287	378.88
390.512	375.88
390.736	375.88
390.961	376.88
391.186	395.88
391.411	395.88
391.636	390.88
391.86	392.88
392.085	395.88
392.31	397.88
392.534	381.88
392.759	390.88
392.984	397.88
393.208	381.88
393.433	376.88
393.658	408.88
393.882	395.88
394.107	393.88
394.331	395.88
394.556	403.88
394.78	363.88
395.005	384.88
395.229	384.88
395.454	391.88
395.678	396.88
395.903	404.88
396.127	424.88
396.352	426.88
396.576	392.88
396.801	410.88
397.025	430.88
397.249	395.88
397.474	411.88
397.698	410.88
397.922	401.88
398.147	422.88
398.371	424.88
398.595	423.88
398.82	409.88
399.044	427.88
399.268	444.88
399.492	450.88
399.717	516.88
399.941	503.88
400.165	517.88
400.389	514.88
400.613	493.88
400.837	442.88
401.062	448.88
401.286	439.88
401.51	419.88
401.734	438.88
401.958	431.88
402.182	426.88
402.406	453.88
402.63	445.88
402.854	460.88
403.078	456.88
403.302	440.88
403.526	426.88
403.75	447.88
403.974	446.88
404.198	459.88
404.422	450.88
404.645	441.88
404.869	462.88
405.093	475.88
405.317	512.88
405.541	514.88
405.765	466.88
405.988	466.88
406.212	480.88
406.436	470.88
406.66	486.88
406.883	476.88
407.107	505.88
407.331	534.88
407.555	577.88
407.778	578.88
408.002	519.88
408.226	495.88
408.449	489.88
408.673	484.88
408.896	508.88
409.12	514.88
409.344	513.88
409.567	468.88
409.791	476.88
410.014	437.88
410.238	468.88
410.461	439.88
410.685	438.88
410.908	466.88
411.132	485.88
411.355	520.88
411.578	483.88
411.802	452.88
412.025	448.88
412.249	435.88
412.472	467.88
412.695	485.88
412.919	478.88
413.142	440.88
413.365	431.88
413.589	443.88
413.812	423.88
414.035	415.88
414.258	402.88
414.482	432.88
414.705	436.88
414.928	436.88
415.151	416.88
415.374	426.88
415.597	408.88
415.821	416.88
416.044	424.88
416.267	407.88
416.49	424.88
416.713	420.88
416.936	426.88
417.159	424.88
417.382	408.88
417.605	423.88
417.828	426.88
418.051	428.88
418.274	431.88
418.497	405.88
418.72	405.88
418.943	412.88
419.166	425.88
419.389	459.88
419.611	442.88
419.834	426.88
420.057	440.88
420.28	452.88
420.503	429.88
420.726	446.88
420.948	469.88
421.171	470.88
421.394	480.88
421.617	452.88
421.839	439.88
422.062	431.88
422.285	454.88
422.507	473.88
422.73	585.88
422.953	548.88
423.175	478.88
423.398	480.88
423.621	438.88
423.843	463.88
424.066	468.88
424.288	486.88
424.511	455.88
424.733	537.88
424.956	570.88
425.178	572.88
425.401	549.88
425.623	572.88
425.846	518.88
426.068	465.88
426.291	461.88
426.513	462.88
426.735	485.88
426.958	512.88
427.18	586.88
427.402	691.88
427.625	759.88
427.847	643.88
428.069	569.88
428.292	490.88
428.514	478.88
428.736	445.88
428.958	425.88
429.181	438.88
429.403	426.88
429.625	418.88
429.847	479.88
430.069	531.88
430.292	512.88
430.514	447.88
430.736	423.88
430.958	419.88
431.18	410.88
431.402	396.88
431.624	396.88
431.846	383.88
432.068	381.88
432.29	397.88
432.512	418.88
432.734	413.88
432.956	406.88
433.178	416.88
433.4	417.88
433.622	435.88
433.844	398.88
434.066	412.88
434.287	390.88
434.509	394.88
434.731	418.88
434.953	422.88
435.175	430.88
435.397	462.88
435.618	475.88
435.84	508.88
436.062	589.88
436.284	637.88
436.505	524.88
436.727	463.88
436.949	452.88
437.17	431.88
437.392	451.88
437.614	460.88
437.835	463.88
438.057	543.88
438.278	646.88
438.5	645.88
438.721	691.88
438.943	668.88
439.165	526.88
439.386	486.88
439.608	476.88
439.829	480.88
440.05	496.88
440.272	528.88
440.493	523.88
440.715	482.88
440.936	434.88
441.158	442.88
441.379	456.88
441.6	447.88
441.822	457.88
442.043	511.88
442.264	570.88
442.486	602.88
442.707	520.88
442.928	501.88
443.149	513.88
443.371	491.88
443.592	516.88
443.813	604.88
444.034	655.88
444.255	562.88
444.476	491.88
444.698	454.88
444.919	473.88
445.14	575.88
445.361	499.88
445.582	514.88
445.803	554.88
446.024	639.88
446.245	662.88
446.466	587.88
446.687	505.88
446.908	496.88
447.129	454.88
447.35	435.88
447.571	442.88
447.792	423.88
448.013	418.88
448.234	443.88
448.455	514.88
448.675	596.88
448.896	660.88
449.117	582.88
449.338	558.88
449.559	623.88
449.779	693.88
450	578.88
450.221	472.88
450.442	451.88
450.662	439.88
450.883	413.88
451.104	441.88
451.324	438.88
451.545	412.88
451.766	409.88
451.986	370.88
452.207	399.88
452.428	382.88
452.648	385.88
452.869	410.88
453.089	382.88
453.31	402.88
453.53	395.88
453.751	379.88
453.971	404.88
454.192	377.88
454.412	388.88
454.633	382.88
454.853	380.88
455.073	380.88
455.294	407.88
455.514	473.88
455.734	444.88
455.955	381.88
456.175	380.88
456.395	340.88
456.616	361.88
456.836	357.88
457.056	372.88
457.276	360.88
457.497	364.88
457.717	354.88
457.937	367.88
458.157	363.88
458.377	367.88
458.598	401.88
458.818	425.88
459.038	491.88
459.258	523.88
459.478	434.88
459.698	397.88
459.918	380.88
460.138	399.88
460.358	411.88
460.578	408.88
460.798	405.88
461.018	399.88
461.238	391.88
461.458	408.88
461.678	405.88
461.898	399.88
462.118	382.88
462.338	429.88
462.558	423.88
462.777	415.88
462.997	428.88
463.217	418.88
463.437	422.88
463.657	415.88
463.876	426.88
464.096	414.88
464.316	419.88
464.536	439.88
464.755	447.88
464.975	421.88
465.195	469.88
465.414	508.88
465.634	452.88
465.854	411.88
466.073	417.88
466.293	406.88
466.512	396.88
466.732	391.88
466.951	406.88
467.171	362.88
467.391	376.88
467.61	394.88
467.829	396.88
468.049	400.88
468.268	390.88
468.488	381.88
468.707	405.88
468.927	391.88
469.146	378.88
469.365	370.88
469.585	370.88
469.804	386.88
470.023	393.88
470.243	398.88
470.462	409.88
470.681	401.88
470.901	400.88
471.12	390.88
471.339	388.88
471.558	418.88
471.777	410.88
471.997	412.88
472.216	405.88
472.435	436.88
472.654	422.88
472.873	398.88
473.092	420.88
473.311	385.88
473.53	418.88
473.749	404.88
473.968	444.88
474.187	526.88
474.406	527.88
474.625	455.88
474.844	436.88
475.063	394.88
475.282	386.88
475.501	405.88
475.72	393.88
475.939	381.88
476.158	396.88
476.377	394.88
476.596	392.88
476.814	404.88
477.033	405.88
477.252	419.88
477.471	426.88
477.69	411.88
477.908	408.88
478.127	435.88
478.346	423.88
478.564	434.88
478.783	432.88
479.002	454.88
479.22	459.88
479.439	438.88
479.658	456.88
479.876	458.88
480.095	479.88
480.313	488.88
480.532	478.88
480.751	472.88
480.969	480.88
481.188	521.88
481.406	528.88
481.624	476.88
481.843	460.88
482.061	459.88
482.28	462.88
482.498	459.88
482.717	475.88
482.935	454.88
483.153	462.88
483.372	463.88
483.59	462.88
483.808	461.88
484.027	455.88
484.245	440.88
484.463	464.88
484.681	476.88
484.9	451.88
485.118	469.88
485.336	477.88
485.554	466.88
485.772	473.88
485.99	465.88
486.209	471.88
486.427	467.88
486.645	472.88
486.863	509.88
487.081	484.88
487.299	486.88
487.517	488.88
487.735	496.88
487.953	492.88
488.171	482.88
488.389	500.88
488.607	522.88
488.825	490.88
489.043	488.88
489.261	487.88
489.479	508.88
489.696	483.88
489.914	496.88
490.132	531.88
490.35	509.88
490.568	530.88
490.786	539.88
491.003	518.88
491.221	544.88
491.439	553.88
491.657	564.88
491.874	566.88
492.092	583.88
492.31	586.88
492.527	585.88
492.745	544.88
492.963	593.88
493.18	574.88
493.398	585.88
493.615	574.88
493.833	586.88
494.05	596.88
494.268	592.88
494.485	574.88
494.703	588.88
494.92	556.88
495.138	573.88
495.355	586.88
495.573	588.88
495.79	584.88
496.008	606.88
496.225	575.88
496.442	590.88
496.66	587.88
496.877	589.88
497.094	600.88
497.312	574.88
497.529	617.88
497.746	610.88
497.963	608.88
498.181	612.88
498.398	619.88
498.615	650.88
498.832	639.88
499.049	665.88
499.267	676.88
499.484	663.88
499.701	663.88
499.918	712.88
500.135	735.88
500.352	781.88
500.569	800.88
500.786	778.88
501.003	791.88
501.22	755.88
501.437	722.88
501.654	720.88
501.871	717.88
