Data from 1971.PennyLincolnUp.Lamp.En5.5.200Scan.071719.P1.Scan 2. Changed Angle._HRD10591_15-24-56-843.txt Node
Date: Thu Jul 18 15:24:56 EDT 2019
User: cochatt
Spectrometer: HR+D1059
Trigger mode: 1
Integration Time (sec): 1.000000E-1
Scans to average: 1
Electric dark correction enabled: true
Nonlinearity correction enabled: false
Boxcar width: 0
XAxis mode: Wavelengths
Number of Pixels in Spectrum: 2048
>>>>>Begin Spectral Data<<<<<
223.165	-26.06
223.4	-26.06
223.635	-26.06
223.869	-30.06
224.104	-19.06
224.338	-13.06
224.573	-7.06
224.808	-3.06
225.042	-9.06
225.277	-0.06
225.511	-9.06
225.746	12.94
225.98	12.94
226.215	7.94
226.449	13.94
226.683	29.94
226.918	10.94
227.152	27.94
227.387	31.94
227.621	41.94
227.856	49.94
228.09	48.94
228.324	55.94
228.559	56.94
228.793	66.94
229.027	106.94
229.262	112.94
229.496	129.94
229.73	164.94
229.964	172.94
230.199	164.94
230.433	134.94
230.667	133.94
230.901	132.94
231.136	129.94
231.37	120.94
231.604	112.94
231.838	117.94
232.072	109.94
232.306	120.94
232.541	111.94
232.775	123.94
233.009	111.94
233.243	117.94
233.477	121.94
233.711	115.94
233.945	125.94
234.179	130.94
234.413	118.94
234.647	127.94
234.881	125.94
235.115	125.94
235.349	122.94
235.583	129.94
235.817	116.94
236.051	137.94
236.285	139.94
236.519	134.94
236.753	118.94
236.987	141.94
237.221	226.94
237.455	284.94
237.689	219.94
237.922	162.94
238.156	156.94
238.39	152.94
238.624	136.94
238.858	147.94
239.091	137.94
239.325	145.94
239.559	144.94
239.793	135.94
240.027	151.94
240.26	153.94
240.494	176.94
240.728	164.94
240.961	172.94
241.195	156.94
241.429	160.94
241.662	147.94
241.896	140.94
242.13	154.94
242.363	139.94
242.597	123.94
242.83	154.94
243.064	139.94
243.298	130.94
243.531	140.94
243.765	142.94
243.998	165.94
244.232	161.94
244.465	145.94
244.699	152.94
244.932	151.94
245.166	165.94
245.399	155.94
245.633	151.94
245.866	154.94
246.099	170.94
246.333	155.94
246.566	153.94
246.8	169.94
247.033	159.94
247.266	178.94
247.5	189.94
247.733	181.94
247.966	209.94
248.2	188.94
248.433	196.94
248.666	200.94
248.899	199.94
249.133	216.94
249.366	242.94
249.599	211.94
249.832	191.94
250.066	185.94
250.299	182.94
250.532	217.94
250.765	237.94
250.998	259.94
251.231	255.94
251.465	240.94
251.698	228.94
251.931	230.94
252.164	222.94
252.397	219.94
252.63	228.94
252.863	215.94
253.096	251.94
253.329	264.94
253.562	241.94
253.795	245.94
254.028	246.94
254.261	239.94
254.494	248.94
254.727	284.94
254.96	348.94
255.193	310.94
255.426	291.94
255.659	276.94
255.892	260.94
256.124	240.94
256.357	257.94
256.59	249.94
256.823	233.94
257.056	239.94
257.289	226.94
257.521	229.94
257.754	217.94
257.987	236.94
258.22	216.94
258.452	230.94
258.685	219.94
258.918	223.94
259.151	227.94
259.383	242.94
259.616	243.94
259.849	242.94
260.081	244.94
260.314	270.94
260.547	299.94
260.779	277.94
261.012	242.94
261.244	249.94
261.477	248.94
261.71	245.94
261.942	240.94
262.175	254.94
262.407	255.94
262.64	227.94
262.872	244.94
263.105	227.94
263.337	217.94
263.57	230.94
263.802	221.94
264.035	227.94
264.267	216.94
264.499	229.94
264.732	237.94
264.964	227.94
265.197	235.94
265.429	229.94
265.661	209.94
265.894	239.94
266.126	235.94
266.358	228.94
266.591	230.94
266.823	230.94
267.055	223.94
267.287	243.94
267.52	220.94
267.752	246.94
267.984	248.94
268.216	234.94
268.448	268.94
268.681	247.94
268.913	257.94
269.145	296.94
269.377	319.94
269.609	289.94
269.841	284.94
270.073	295.94
270.306	327.94
270.538	342.94
270.77	345.94
271.002	348.94
271.234	323.94
271.466	316.94
271.698	327.94
271.93	347.94
272.162	359.94
272.394	349.94
272.626	345.94
272.858	322.94
273.09	329.94
273.322	293.94
273.553	283.94
273.785	280.94
274.017	280.94
274.249	279.94
274.481	288.94
274.713	297.94
274.945	293.94
275.176	272.94
275.408	270.94
275.64	283.94
275.872	279.94
276.104	283.94
276.335	288.94
276.567	289.94
276.799	304.94
277.031	328.94
277.262	347.94
277.494	358.94
277.726	330.94
277.957	304.94
278.189	289.94
278.421	294.94
278.652	298.94
278.884	284.94
279.115	282.94
279.347	283.94
279.579	268.94
279.81	267.94
280.042	279.94
280.273	250.94
280.505	275.94
280.736	265.94
280.968	259.94
281.199	269.94
281.431	282.94
281.662	253.94
281.894	263.94
282.125	292.94
282.356	314.94
282.588	327.94
282.819	332.94
283.051	295.94
283.282	301.94
283.513	267.94
283.745	288.94
283.976	266.94
284.207	280.94
284.439	297.94
284.67	290.94
284.901	264.94
285.132	291.94
285.364	269.94
285.595	277.94
285.826	269.94
286.057	279.94
286.288	280.94
286.52	300.94
286.751	296.94
286.982	299.94
287.213	271.94
287.444	300.94
287.675	277.94
287.906	300.94
288.138	300.94
288.369	315.94
288.6	298.94
288.831	292.94
289.062	289.94
289.293	291.94
289.524	289.94
289.755	300.94
289.986	283.94
290.217	291.94
290.448	307.94
290.679	291.94
290.91	294.94
291.141	280.94
291.371	304.94
291.602	282.94
291.833	281.94
292.064	288.94
292.295	287.94
292.526	307.94
292.757	280.94
292.987	274.94
293.218	284.94
293.449	294.94
293.68	284.94
293.91	269.94
294.141	294.94
294.372	291.94
294.603	285.94
294.833	299.94
295.064	290.94
295.295	275.94
295.525	298.94
295.756	291.94
295.987	318.94
296.217	333.94
296.448	371.94
296.679	307.94
296.909	298.94
297.14	293.94
297.37	275.94
297.601	289.94
297.831	282.94
298.062	282.94
298.292	292.94
298.523	294.94
298.753	323.94
298.984	321.94
299.214	303.94
299.445	311.94
299.675	311.94
299.905	316.94
300.136	310.94
300.366	304.94
300.597	296.94
300.827	323.94
301.057	314.94
301.288	326.94
301.518	331.94
301.748	328.94
301.979	314.94
302.209	327.94
302.439	328.94
302.669	323.94
302.9	331.94
303.13	322.94
303.36	331.94
303.59	308.94
303.82	324.94
304.051	345.94
304.281	333.94
304.511	316.94
304.741	304.94
304.971	312.94
305.201	319.94
305.431	339.94
305.661	332.94
305.891	332.94
306.121	324.94
306.352	332.94
306.582	358.94
306.812	327.94
307.042	327.94
307.272	344.94
307.502	335.94
307.731	337.94
307.961	312.94
308.191	327.94
308.421	338.94
308.651	341.94
308.881	348.94
309.111	352.94
309.341	349.94
309.571	368.94
309.8	363.94
310.03	389.94
310.26	380.94
310.49	402.94
310.72	397.94
310.949	427.94
311.179	437.94
311.409	401.94
311.639	384.94
311.868	376.94
312.098	392.94
312.328	407.94
312.557	419.94
312.787	445.94
313.017	443.94
313.246	418.94
313.476	391.94
313.706	383.94
313.935	380.94
314.165	412.94
314.394	422.94
314.624	418.94
314.853	409.94
315.083	412.94
315.312	386.94
315.542	380.94
315.771	388.94
316.001	384.94
316.23	390.94
316.46	388.94
316.689	388.94
316.919	412.94
317.148	383.94
317.377	415.94
317.607	408.94
317.836	417.94
318.065	409.94
318.295	396.94
318.524	391.94
318.753	377.94
318.983	392.94
319.212	388.94
319.441	392.94
319.67	422.94
319.9	398.94
320.129	408.94
320.358	384.94
320.587	410.94
320.816	405.94
321.046	418.94
321.275	431.94
321.504	427.94
321.733	437.94
321.962	426.94
322.191	468.94
322.42	480.94
322.649	478.94
322.878	513.94
323.108	530.94
323.337	521.94
323.566	569.94
323.795	600.94
324.024	689.94
324.253	877.94
324.482	1240.94
324.71	1992.94
324.939	2894.94
325.168	2464.94
325.397	1258.94
325.626	834.94
325.855	668.94
326.084	605.94
326.313	590.94
326.542	599.94
326.77	659.94
326.999	810.94
327.228	1082.94
327.457	1720.94
327.686	2113.94
327.914	1411.94
328.143	903.94
328.372	765.94
328.6	703.94
328.829	663.94
329.058	685.94
329.287	716.94
329.515	651.94
329.744	613.94
329.972	599.94
330.201	582.94
330.43	661.94
330.658	681.94
330.887	737.94
331.115	711.94
331.344	607.94
331.572	548.94
331.801	571.94
332.03	541.94
332.258	513.94
332.486	487.94
332.715	479.94
332.943	488.94
333.172	478.94
333.4	465.94
333.629	473.94
333.857	507.94
334.085	523.94
334.314	529.94
334.542	566.94
334.771	609.94
334.999	549.94
335.227	489.94
335.455	490.94
335.684	471.94
335.912	470.94
336.14	441.94
336.369	455.94
336.597	459.94
336.825	441.94
337.053	447.94
337.281	462.94
337.51	462.94
337.738	453.94
337.966	458.94
338.194	445.94
338.422	462.94
338.65	450.94
338.878	457.94
339.106	445.94
339.334	439.94
339.562	445.94
339.79	449.94
340.018	460.94
340.246	451.94
340.474	467.94
340.702	459.94
340.93	438.94
341.158	441.94
341.386	445.94
341.614	457.94
341.842	442.94
342.07	457.94
342.298	435.94
342.526	454.94
342.754	437.94
342.981	433.94
343.209	418.94
343.437	407.94
343.665	416.94
343.893	433.94
344.12	447.94
344.348	435.94
344.576	423.94
344.804	457.94
345.031	487.94
345.259	472.94
345.487	439.94
345.714	466.94
345.942	435.94
346.17	431.94
346.397	433.94
346.625	442.94
346.853	453.94
347.08	438.94
347.308	455.94
347.535	458.94
347.763	460.94
347.99	478.94
348.218	477.94
348.445	464.94
348.673	448.94
348.9	473.94
349.128	447.94
349.355	423.94
349.583	445.94
349.81	409.94
350.037	425.94
350.265	408.94
350.492	429.94
350.72	422.94
350.947	451.94
351.174	468.94
351.402	470.94
351.629	455.94
351.856	469.94
352.083	468.94
352.311	472.94
352.538	491.94
352.765	459.94
352.992	444.94
353.22	453.94
353.447	457.94
353.674	433.94
353.901	424.94
354.128	429.94
354.355	417.94
354.583	431.94
354.81	408.94
355.037	412.94
355.264	396.94
355.491	407.94
355.718	393.94
355.945	412.94
356.172	384.94
356.399	397.94
356.626	411.94
356.853	414.94
357.08	407.94
357.307	386.94
357.534	394.94
357.761	405.94
357.988	401.94
358.215	400.94
358.441	398.94
358.668	399.94
358.895	406.94
359.122	415.94
359.349	445.94
359.576	455.94
359.802	488.94
360.029	524.94
360.256	548.94
360.483	533.94
360.709	482.94
360.936	461.94
361.163	455.94
361.39	466.94
361.616	468.94
361.843	455.94
362.07	455.94
362.296	466.94
362.523	447.94
362.749	451.94
362.976	433.94
363.203	425.94
363.429	465.94
363.656	463.94
363.882	422.94
364.109	428.94
364.335	424.94
364.562	431.94
364.788	428.94
365.015	433.94
365.241	425.94
365.468	451.94
365.694	447.94
365.92	437.94
366.147	435.94
366.373	411.94
366.599	412.94
366.826	424.94
367.052	413.94
367.278	426.94
367.505	425.94
367.731	421.94
367.957	426.94
368.184	428.94
368.41	445.94
368.636	437.94
368.862	437.94
369.089	446.94
369.315	439.94
369.541	397.94
369.767	427.94
369.993	426.94
370.219	435.94
370.445	429.94
370.672	398.94
370.898	403.94
371.124	420.94
371.35	431.94
371.576	421.94
371.802	413.94
372.028	413.94
372.254	431.94
372.48	425.94
372.706	411.94
372.932	410.94
373.158	421.94
373.384	439.94
373.61	414.94
373.835	411.94
374.061	416.94
374.287	431.94
374.513	439.94
374.739	440.94
374.965	428.94
375.191	414.94
375.416	401.94
375.642	428.94
375.868	423.94
376.094	407.94
376.319	426.94
376.545	421.94
376.771	415.94
376.997	412.94
377.222	433.94
377.448	426.94
377.674	399.94
377.899	409.94
378.125	418.94
378.35	422.94
378.576	420.94
378.802	408.94
379.027	404.94
379.253	408.94
379.478	426.94
379.704	412.94
379.929	435.94
380.155	417.94
380.38	435.94
380.606	411.94
380.831	419.94
381.057	436.94
381.282	445.94
381.507	425.94
381.733	405.94
381.958	412.94
382.184	416.94
382.409	428.94
382.634	427.94
382.86	441.94
383.085	433.94
383.31	435.94
383.535	424.94
383.761	425.94
383.986	411.94
384.211	449.94
384.436	434.94
384.662	440.94
384.887	451.94
385.112	422.94
385.337	424.94
385.562	440.94
385.787	460.94
386.013	453.94
386.238	466.94
386.463	464.94
386.688	429.94
386.913	442.94
387.138	449.94
387.363	438.94
387.588	449.94
387.813	438.94
388.038	434.94
388.263	436.94
388.488	441.94
388.713	458.94
388.938	470.94
389.163	461.94
389.387	463.94
389.612	452.94
389.837	459.94
390.062	428.94
390.287	448.94
390.512	457.94
390.736	469.94
390.961	449.94
391.186	455.94
391.411	452.94
391.636	440.94
391.86	461.94
392.085	442.94
392.31	446.94
392.534	460.94
392.759	452.94
392.984	459.94
393.208	449.94
393.433	446.94
393.658	463.94
393.882	469.94
394.107	465.94
394.331	452.94
394.556	460.94
394.78	463.94
395.005	470.94
395.229	475.94
395.454	449.94
395.678	464.94
395.903	484.94
396.127	495.94
396.352	496.94
396.576	508.94
396.801	458.94
397.025	457.94
397.249	469.94
397.474	491.94
397.698	482.94
397.922	508.94
398.147	531.94
398.371	524.94
398.595	519.94
398.82	518.94
399.044	512.94
399.268	515.94
399.492	555.94
399.717	576.94
399.941	575.94
400.165	640.94
400.389	638.94
400.613	584.94
400.837	561.94
401.062	546.94
401.286	538.94
401.51	519.94
401.734	537.94
401.958	526.94
402.182	518.94
402.406	580.94
402.63	546.94
402.854	549.94
403.078	554.94
403.302	552.94
403.526	560.94
403.75	561.94
403.974	546.94
404.198	523.94
404.422	550.94
404.645	550.94
404.869	552.94
405.093	590.94
405.317	634.94
405.541	657.94
405.765	609.94
405.988	593.94
406.212	614.94
406.436	637.94
406.66	635.94
406.883	620.94
407.107	637.94
407.331	658.94
407.555	735.94
407.778	725.94
408.002	679.94
408.226	632.94
408.449	616.94
408.673	610.94
408.896	629.94
409.12	668.94
409.344	654.94
409.567	587.94
409.791	570.94
410.014	557.94
410.238	540.94
410.461	548.94
410.685	560.94
410.908	621.94
411.132	611.94
411.355	637.94
411.578	609.94
411.802	572.94
412.025	561.94
412.249	542.94
412.472	608.94
412.695	650.94
412.919	646.94
413.142	564.94
413.365	539.94
413.589	557.94
413.812	540.94
414.035	546.94
414.258	517.94
414.482	505.94
414.705	500.94
414.928	498.94
415.151	522.94
415.374	507.94
415.597	491.94
415.821	518.94
416.044	507.94
416.267	540.94
416.49	525.94
416.713	534.94
416.936	541.94
417.159	520.94
417.382	531.94
417.605	537.94
417.828	551.94
418.051	585.94
418.274	535.94
418.497	532.94
418.72	527.94
418.943	500.94
419.166	552.94
419.389	587.94
419.611	554.94
419.834	542.94
420.057	550.94
420.28	593.94
420.503	582.94
420.726	571.94
420.948	587.94
421.171	651.94
421.394	634.94
421.617	609.94
421.839	577.94
422.062	573.94
422.285	589.94
422.507	667.94
422.73	729.94
422.953	719.94
423.175	638.94
423.398	602.94
423.621	612.94
423.843	631.94
424.066	633.94
424.288	626.94
424.511	654.94
424.733	721.94
424.956	810.94
425.178	769.94
425.401	773.94
425.623	762.94
425.846	698.94
426.068	646.94
426.291	617.94
426.513	618.94
426.735	639.94
426.958	689.94
427.18	767.94
427.402	952.94
427.625	1031.94
427.847	933.94
428.069	842.94
428.292	709.94
428.514	648.94
428.736	639.94
428.958	587.94
429.181	563.94
429.403	586.94
429.625	593.94
429.847	653.94
430.069	723.94
430.292	706.94
430.514	618.94
430.736	586.94
430.958	568.94
431.18	544.94
431.402	544.94
431.624	525.94
431.846	535.94
432.068	524.94
432.29	533.94
432.512	552.94
432.734	577.94
432.956	554.94
433.178	561.94
433.4	581.94
433.622	557.94
433.844	548.94
434.066	523.94
434.287	552.94
434.509	549.94
434.731	547.94
434.953	559.94
435.175	582.94
435.397	625.94
435.618	663.94
435.84	684.94
436.062	766.94
436.284	852.94
436.505	716.94
436.727	681.94
436.949	588.94
437.17	609.94
437.392	571.94
437.614	614.94
437.835	661.94
438.057	776.94
438.278	911.94
438.5	891.94
438.721	939.94
438.943	907.94
439.165	766.94
439.386	680.94
439.608	667.94
439.829	678.94
440.05	698.94
440.272	754.94
440.493	693.94
440.715	664.94
440.936	627.94
441.158	618.94
441.379	578.94
441.6	619.94
441.822	639.94
442.043	673.94
442.264	758.94
442.486	831.94
442.707	727.94
442.928	643.94
443.149	655.94
443.371	716.94
443.592	745.94
443.813	864.94
444.034	915.94
444.255	753.94
444.476	668.94
444.698	658.94
444.919	643.94
445.14	755.94
445.361	696.94
445.582	703.94
445.803	800.94
446.024	910.94
446.245	904.94
446.466	840.94
446.687	725.94
446.908	643.94
447.129	620.94
447.35	605.94
447.571	599.94
447.792	595.94
448.013	619.94
448.234	607.94
448.455	689.94
448.675	812.94
448.896	980.94
449.117	807.94
449.338	757.94
449.559	864.94
449.779	987.94
450	795.94
450.221	677.94
450.442	642.94
450.662	603.94
450.883	568.94
451.104	635.94
451.324	611.94
451.545	582.94
451.766	540.94
451.986	528.94
452.207	514.94
452.428	534.94
452.648	547.94
452.869	539.94
453.089	553.94
453.31	582.94
453.53	537.94
453.751	509.94
453.971	546.94
454.192	577.94
454.412	545.94
454.633	546.94
454.853	514.94
455.073	545.94
455.294	556.94
455.514	666.94
455.734	626.94
455.955	513.94
456.175	486.94
456.395	515.94
456.616	501.94
456.836	475.94
457.056	469.94
457.276	468.94
457.497	479.94
457.717	496.94
457.937	484.94
458.157	503.94
458.377	493.94
458.598	543.94
458.818	607.94
459.038	729.94
459.258	742.94
459.478	587.94
459.698	561.94
459.918	545.94
460.138	527.94
460.358	544.94
460.578	515.94
460.798	537.94
461.018	576.94
461.238	533.94
461.458	522.94
461.678	531.94
461.898	523.94
462.118	529.94
462.338	579.94
462.558	541.94
462.777	536.94
462.997	571.94
463.217	550.94
463.437	575.94
463.657	569.94
463.876	554.94
464.096	561.94
464.316	549.94
464.536	563.94
464.755	595.94
464.975	608.94
465.195	672.94
465.414	774.94
465.634	691.94
465.854	578.94
466.073	565.94
466.293	573.94
466.512	552.94
466.732	524.94
466.951	541.94
467.171	532.94
467.391	540.94
467.61	549.94
467.829	559.94
468.049	548.94
468.268	557.94
468.488	533.94
468.707	543.94
468.927	526.94
469.146	505.94
469.365	531.94
469.585	523.94
469.804	548.94
470.023	551.94
470.243	550.94
470.462	571.94
470.681	579.94
470.901	558.94
471.12	543.94
471.339	538.94
471.558	553.94
471.777	564.94
471.997	543.94
472.216	538.94
472.435	583.94
472.654	577.94
472.873	536.94
473.092	536.94
473.311	531.94
473.53	538.94
473.749	538.94
473.968	612.94
474.187	761.94
474.406	787.94
474.625	638.94
474.844	551.94
475.063	567.94
475.282	543.94
475.501	549.94
475.72	585.94
475.939	575.94
476.158	563.94
476.377	571.94
476.596	565.94
476.814	571.94
477.033	577.94
477.252	586.94
477.471	550.94
477.69	588.94
477.908	601.94
478.127	583.94
478.346	602.94
478.564	588.94
478.783	600.94
479.002	605.94
479.22	605.94
479.439	642.94
479.658	639.94
479.876	648.94
480.095	678.94
480.313	719.94
480.532	683.94
480.751	647.94
480.969	675.94
481.188	758.94
481.406	805.94
481.624	714.94
481.843	683.94
482.061	662.94
482.28	645.94
482.498	647.94
482.717	632.94
482.935	674.94
483.153	654.94
483.372	649.94
483.59	666.94
483.808	671.94
484.027	647.94
484.245	649.94
484.463	658.94
484.681	667.94
484.9	663.94
485.118	666.94
485.336	658.94
485.554	688.94
485.772	677.94
485.99	657.94
486.209	661.94
486.427	678.94
486.645	706.94
486.863	706.94
487.081	724.94
487.299	714.94
487.517	731.94
487.735	702.94
487.953	691.94
488.171	709.94
488.389	732.94
488.607	732.94
488.825	716.94
489.043	714.94
489.261	716.94
489.479	729.94
489.696	721.94
489.914	716.94
490.132	740.94
490.35	764.94
490.568	759.94
490.786	743.94
491.003	768.94
491.221	812.94
491.439	805.94
491.657	824.94
491.874	827.94
492.092	856.94
492.31	839.94
492.527	841.94
492.745	845.94
492.963	845.94
493.18	864.94
493.398	836.94
493.615	866.94
493.833	851.94
494.05	833.94
494.268	867.94
494.485	832.94
494.703	860.94
494.92	872.94
495.138	867.94
495.355	836.94
495.573	855.94
495.79	855.94
496.008	860.94
496.225	868.94
496.442	868.94
496.66	859.94
496.877	873.94
497.094	853.94
497.312	856.94
497.529	880.94
497.746	874.94
497.963	894.94
498.181	909.94
498.398	906.94
498.615	898.94
498.832	939.94
499.049	941.94
499.267	920.94
499.484	921.94
499.701	954.94
499.918	985.94
500.135	1019.94
500.352	1015.94
500.569	1058.94
500.786	1028.94
501.003	1080.94
501.22	1041.94
501.437	1032.94
