Data from 1971.PennyLincolnUp.Lamp.En5.5.200Scan.071719.P1._HRD10591_15-18-34-841.txt Node
Date: Thu Jul 18 15:18:34 EDT 2019
User: cochatt
Spectrometer: HR+D1059
Trigger mode: 1
Integration Time (sec): 1.000000E-1
Scans to average: 1
Electric dark correction enabled: true
Nonlinearity correction enabled: false
Boxcar width: 0
XAxis mode: Wavelengths
Number of Pixels in Spectrum: 2048
>>>>>Begin Spectral Data<<<<<
223.165	-17.25
223.4	-17.25
223.635	-17.25
223.869	-10.25
224.104	-17.25
224.338	-10.25
224.573	-6.25
224.808	-12.25
225.042	-3.25
225.277	-6.25
225.511	-10.25
225.746	-4.25
225.98	19.75
226.215	10.75
226.449	7.75
226.683	26.75
226.918	15.75
227.152	16.75
227.387	37.75
227.621	30.75
227.856	44.75
228.09	42.75
228.324	40.75
228.559	43.75
228.793	57.75
229.027	84.75
229.262	103.75
229.496	90.75
229.73	101.75
229.964	129.75
230.199	126.75
230.433	91.75
230.667	99.75
230.901	110.75
231.136	109.75
231.37	102.75
231.604	118.75
231.838	110.75
232.072	118.75
232.306	107.75
232.541	98.75
232.775	104.75
233.009	94.75
233.243	111.75
233.477	121.75
233.711	117.75
233.945	105.75
234.179	109.75
234.413	122.75
234.647	111.75
234.881	107.75
235.115	96.75
235.349	103.75
235.583	102.75
235.817	119.75
236.051	122.75
236.285	117.75
236.519	115.75
236.753	118.75
236.987	136.75
237.221	171.75
237.455	202.75
237.689	166.75
237.922	138.75
238.156	133.75
238.39	122.75
238.624	125.75
238.858	110.75
239.091	104.75
239.325	125.75
239.559	108.75
239.793	119.75
240.027	135.75
240.26	130.75
240.494	129.75
240.728	139.75
240.961	143.75
241.195	142.75
241.429	134.75
241.662	125.75
241.896	121.75
242.13	124.75
242.363	129.75
242.597	126.75
242.83	135.75
243.064	143.75
243.298	138.75
243.531	135.75
243.765	130.75
243.998	125.75
244.232	129.75
244.465	138.75
244.699	151.75
244.932	141.75
245.166	145.75
245.399	153.75
245.633	136.75
245.866	150.75
246.099	147.75
246.333	150.75
246.566	148.75
246.8	146.75
247.033	142.75
247.266	167.75
247.5	151.75
247.733	154.75
247.966	172.75
248.2	167.75
248.433	162.75
248.666	167.75
248.899	193.75
249.133	189.75
249.366	205.75
249.599	198.75
249.832	182.75
250.066	167.75
250.299	176.75
250.532	187.75
250.765	193.75
250.998	228.75
251.231	219.75
251.465	215.75
251.698	186.75
251.931	194.75
252.164	189.75
252.397	204.75
252.63	208.75
252.863	207.75
253.096	193.75
253.329	223.75
253.562	234.75
253.795	226.75
254.028	203.75
254.261	214.75
254.494	223.75
254.727	265.75
254.96	249.75
255.193	257.75
255.426	244.75
255.659	226.75
255.892	216.75
256.124	217.75
256.357	238.75
256.59	226.75
256.823	215.75
257.056	199.75
257.289	227.75
257.521	207.75
257.754	195.75
257.987	188.75
258.22	206.75
258.452	202.75
258.685	217.75
258.918	211.75
259.151	214.75
259.383	217.75
259.616	224.75
259.849	235.75
260.081	227.75
260.314	246.75
260.547	243.75
260.779	239.75
261.012	227.75
261.244	226.75
261.477	238.75
261.71	220.75
261.942	217.75
262.175	227.75
262.407	229.75
262.64	218.75
262.872	194.75
263.105	212.75
263.337	213.75
263.57	224.75
263.802	214.75
264.035	206.75
264.267	217.75
264.499	215.75
264.732	220.75
264.964	212.75
265.197	211.75
265.429	203.75
265.661	204.75
265.894	212.75
266.126	198.75
266.358	214.75
266.591	222.75
266.823	228.75
267.055	231.75
267.287	231.75
267.52	228.75
267.752	226.75
267.984	223.75
268.216	246.75
268.448	234.75
268.681	241.75
268.913	244.75
269.145	267.75
269.377	282.75
269.609	277.75
269.841	268.75
270.073	263.75
270.306	290.75
270.538	309.75
270.77	326.75
271.002	302.75
271.234	288.75
271.466	288.75
271.698	312.75
271.93	291.75
272.162	312.75
272.394	288.75
272.626	271.75
272.858	298.75
273.09	279.75
273.322	269.75
273.553	257.75
273.785	280.75
274.017	253.75
274.249	259.75
274.481	249.75
274.713	258.75
274.945	255.75
275.176	275.75
275.408	266.75
275.64	243.75
275.872	253.75
276.104	266.75
276.335	265.75
276.567	252.75
276.799	281.75
277.031	284.75
277.262	284.75
277.494	294.75
277.726	307.75
277.957	281.75
278.189	267.75
278.421	259.75
278.652	268.75
278.884	260.75
279.115	262.75
279.347	252.75
279.579	264.75
279.81	255.75
280.042	259.75
280.273	275.75
280.505	262.75
280.736	265.75
280.968	275.75
281.199	271.75
281.431	250.75
281.662	263.75
281.894	277.75
282.125	268.75
282.356	271.75
282.588	288.75
282.819	307.75
283.051	281.75
283.282	267.75
283.513	262.75
283.745	286.75
283.976	285.75
284.207	290.75
284.439	275.75
284.67	263.75
284.901	273.75
285.132	257.75
285.364	279.75
285.595	281.75
285.826	262.75
286.057	269.75
286.288	298.75
286.52	278.75
286.751	281.75
286.982	270.75
287.213	284.75
287.444	261.75
287.675	272.75
287.906	271.75
288.138	269.75
288.369	292.75
288.6	298.75
288.831	276.75
289.062	295.75
289.293	288.75
289.524	285.75
289.755	282.75
289.986	275.75
290.217	268.75
290.448	270.75
290.679	279.75
290.91	312.75
291.141	274.75
291.371	270.75
291.602	289.75
291.833	289.75
292.064	300.75
292.295	285.75
292.526	292.75
292.757	271.75
292.987	286.75
293.218	289.75
293.449	281.75
293.68	290.75
293.91	285.75
294.141	284.75
294.372	293.75
294.603	302.75
294.833	289.75
295.064	292.75
295.295	292.75
295.525	290.75
295.756	300.75
295.987	301.75
296.217	313.75
296.448	301.75
296.679	285.75
296.909	282.75
297.14	297.75
297.37	282.75
297.601	294.75
297.831	298.75
298.062	306.75
298.292	301.75
298.523	303.75
298.753	306.75
298.984	289.75
299.214	299.75
299.445	313.75
299.675	291.75
299.905	289.75
300.136	299.75
300.366	306.75
300.597	316.75
300.827	295.75
301.057	314.75
301.288	299.75
301.518	322.75
301.748	307.75
301.979	320.75
302.209	307.75
302.439	313.75
302.669	327.75
302.9	327.75
303.13	310.75
303.36	338.75
303.59	322.75
303.82	325.75
304.051	330.75
304.281	323.75
304.511	317.75
304.741	317.75
304.971	305.75
305.201	328.75
305.431	319.75
305.661	324.75
305.891	315.75
306.121	309.75
306.352	303.75
306.582	324.75
306.812	331.75
307.042	321.75
307.272	320.75
307.502	337.75
307.731	326.75
307.961	341.75
308.191	314.75
308.421	326.75
308.651	342.75
308.881	324.75
309.111	345.75
309.341	342.75
309.571	323.75
309.8	340.75
310.03	363.75
310.26	370.75
310.49	353.75
310.72	362.75
310.949	364.75
311.179	369.75
311.409	349.75
311.639	364.75
311.868	348.75
312.098	375.75
312.328	366.75
312.557	375.75
312.787	373.75
313.017	382.75
313.246	382.75
313.476	377.75
313.706	346.75
313.935	364.75
314.165	364.75
314.394	385.75
314.624	381.75
314.853	381.75
315.083	374.75
315.312	346.75
315.542	358.75
315.771	365.75
316.001	354.75
316.23	360.75
316.46	357.75
316.689	381.75
316.919	385.75
317.148	374.75
317.377	380.75
317.607	373.75
317.836	362.75
318.065	364.75
318.295	365.75
318.524	357.75
318.753	351.75
318.983	362.75
319.212	373.75
319.441	386.75
319.67	347.75
319.9	372.75
320.129	361.75
320.358	357.75
320.587	388.75
320.816	365.75
321.046	366.75
321.275	387.75
321.504	374.75
321.733	370.75
321.962	378.75
322.191	390.75
322.42	399.75
322.649	412.75
322.878	443.75
323.108	422.75
323.337	448.75
323.566	457.75
323.795	481.75
324.024	513.75
324.253	623.75
324.482	873.75
324.71	1287.75
324.939	1689.75
325.168	1476.75
325.397	789.75
325.626	563.75
325.855	486.75
326.084	469.75
326.313	455.75
326.542	482.75
326.77	484.75
326.999	596.75
327.228	773.75
327.457	1118.75
327.686	1260.75
327.914	871.75
328.143	609.75
328.372	541.75
328.6	518.75
328.829	497.75
329.058	500.75
329.287	508.75
329.515	491.75
329.744	469.75
329.972	443.75
330.201	468.75
330.43	487.75
330.658	491.75
330.887	537.75
331.115	519.75
331.344	463.75
331.572	436.75
331.801	461.75
332.03	444.75
332.258	447.75
332.486	431.75
332.715	405.75
332.943	410.75
333.172	425.75
333.4	411.75
333.629	436.75
333.857	435.75
334.085	422.75
334.314	477.75
334.542	443.75
334.771	462.75
334.999	442.75
335.227	430.75
335.455	415.75
335.684	424.75
335.912	422.75
336.14	411.75
336.369	389.75
336.597	419.75
336.825	432.75
337.053	439.75
337.281	408.75
337.51	410.75
337.738	426.75
337.966	407.75
338.194	419.75
338.422	426.75
338.65	399.75
338.878	412.75
339.106	399.75
339.334	404.75
339.562	410.75
339.79	370.75
340.018	388.75
340.246	389.75
340.474	405.75
340.702	403.75
340.93	403.75
341.158	385.75
341.386	406.75
341.614	393.75
341.842	385.75
342.07	385.75
342.298	385.75
342.526	367.75
342.754	381.75
342.981	400.75
343.209	385.75
343.437	394.75
343.665	407.75
343.893	400.75
344.12	411.75
344.348	415.75
344.576	386.75
344.804	399.75
345.031	386.75
345.259	410.75
345.487	400.75
345.714	412.75
345.942	380.75
346.17	383.75
346.397	390.75
346.625	378.75
346.853	386.75
347.08	379.75
347.308	383.75
347.535	390.75
347.763	387.75
347.99	410.75
348.218	383.75
348.445	396.75
348.673	396.75
348.9	385.75
349.128	380.75
349.355	376.75
349.583	375.75
349.81	365.75
350.037	357.75
350.265	367.75
350.492	368.75
350.72	364.75
350.947	369.75
351.174	374.75
351.402	388.75
351.629	375.75
351.856	370.75
352.083	381.75
352.311	364.75
352.538	397.75
352.765	389.75
352.992	374.75
353.22	367.75
353.447	361.75
353.674	385.75
353.901	361.75
354.128	355.75
354.355	344.75
354.583	353.75
354.81	377.75
355.037	357.75
355.264	352.75
355.491	341.75
355.718	360.75
355.945	336.75
356.172	361.75
356.399	363.75
356.626	335.75
356.853	344.75
357.08	366.75
357.307	332.75
357.534	340.75
357.761	351.75
357.988	353.75
358.215	373.75
358.441	341.75
358.668	348.75
358.895	370.75
359.122	361.75
359.349	369.75
359.576	377.75
359.802	389.75
360.029	412.75
360.256	403.75
360.483	385.75
360.709	362.75
360.936	376.75
361.163	357.75
361.39	358.75
361.616	354.75
361.843	379.75
362.07	368.75
362.296	369.75
362.523	369.75
362.749	372.75
362.976	354.75
363.203	365.75
363.429	345.75
363.656	363.75
363.882	359.75
364.109	371.75
364.335	329.75
364.562	347.75
364.788	373.75
365.015	348.75
365.241	362.75
365.468	344.75
365.694	372.75
365.92	355.75
366.147	351.75
366.373	352.75
366.599	349.75
366.826	357.75
367.052	340.75
367.278	344.75
367.505	342.75
367.731	364.75
367.957	369.75
368.184	365.75
368.41	367.75
368.636	375.75
368.862	351.75
369.089	371.75
369.315	359.75
369.541	365.75
369.767	342.75
369.993	343.75
370.219	354.75
370.445	328.75
370.672	350.75
370.898	336.75
371.124	375.75
371.35	366.75
371.576	331.75
371.802	355.75
372.028	342.75
372.254	333.75
372.48	331.75
372.706	350.75
372.932	338.75
373.158	365.75
373.384	343.75
373.61	342.75
373.835	358.75
374.061	330.75
374.287	348.75
374.513	350.75
374.739	343.75
374.965	352.75
375.191	334.75
375.416	354.75
375.642	339.75
375.868	357.75
376.094	355.75
376.319	340.75
376.545	346.75
376.771	360.75
376.997	366.75
377.222	356.75
377.448	322.75
377.674	361.75
377.899	339.75
378.125	346.75
378.35	339.75
378.576	351.75
378.802	330.75
379.027	335.75
379.253	357.75
379.478	327.75
379.704	322.75
379.929	344.75
380.155	335.75
380.38	327.75
380.606	347.75
380.831	330.75
381.057	357.75
381.282	344.75
381.507	333.75
381.733	341.75
381.958	337.75
382.184	331.75
382.409	349.75
382.634	336.75
382.86	334.75
383.085	350.75
383.31	350.75
383.535	360.75
383.761	375.75
383.986	358.75
384.211	359.75
384.436	350.75
384.662	342.75
384.887	366.75
385.112	344.75
385.337	353.75
385.562	329.75
385.787	355.75
386.013	365.75
386.238	367.75
386.463	362.75
386.688	367.75
386.913	356.75
387.138	361.75
387.363	367.75
387.588	358.75
387.813	365.75
388.038	371.75
388.263	356.75
388.488	363.75
388.713	347.75
388.938	355.75
389.163	334.75
389.387	353.75
389.612	362.75
389.837	358.75
390.062	363.75
390.287	349.75
390.512	370.75
390.736	362.75
390.961	355.75
391.186	373.75
391.411	381.75
391.636	373.75
391.86	363.75
392.085	380.75
392.31	370.75
392.534	376.75
392.759	372.75
392.984	371.75
393.208	365.75
393.433	356.75
393.658	361.75
393.882	369.75
394.107	374.75
394.331	345.75
394.556	362.75
394.78	350.75
395.005	361.75
395.229	349.75
395.454	386.75
395.678	374.75
395.903	392.75
396.127	397.75
396.352	414.75
396.576	367.75
396.801	379.75
397.025	391.75
397.249	387.75
397.474	370.75
397.698	383.75
397.922	373.75
398.147	406.75
398.371	394.75
398.595	399.75
398.82	414.75
399.044	415.75
399.268	429.75
399.492	412.75
399.717	461.75
399.941	471.75
400.165	490.75
400.389	485.75
400.613	437.75
400.837	422.75
401.062	410.75
401.286	425.75
401.51	420.75
401.734	396.75
401.958	390.75
402.182	398.75
402.406	382.75
402.63	420.75
402.854	398.75
403.078	406.75
403.302	375.75
403.526	410.75
403.75	430.75
403.974	419.75
404.198	396.75
404.422	411.75
404.645	405.75
404.869	417.75
405.093	427.75
405.317	473.75
405.541	462.75
405.765	465.75
405.988	418.75
406.212	412.75
406.436	452.75
406.66	445.75
406.883	468.75
407.107	470.75
407.331	486.75
407.555	532.75
407.778	550.75
408.002	487.75
408.226	460.75
408.449	440.75
408.673	452.75
408.896	482.75
409.12	494.75
409.344	478.75
409.567	423.75
409.791	403.75
410.014	402.75
410.238	376.75
410.461	414.75
410.685	400.75
410.908	437.75
411.132	467.75
411.355	463.75
411.578	449.75
411.802	399.75
412.025	399.75
412.249	403.75
412.472	415.75
412.695	455.75
412.919	444.75
413.142	438.75
413.365	417.75
413.589	395.75
413.812	393.75
414.035	391.75
414.258	394.75
414.482	372.75
414.705	385.75
414.928	381.75
415.151	373.75
415.374	385.75
415.597	363.75
415.821	388.75
416.044	395.75
416.267	353.75
416.49	383.75
416.713	388.75
416.936	394.75
417.159	387.75
417.382	385.75
417.605	382.75
417.828	385.75
418.051	411.75
418.274	395.75
418.497	396.75
418.72	389.75
418.943	377.75
419.166	401.75
419.389	410.75
419.611	418.75
419.834	414.75
420.057	409.75
420.28	389.75
420.503	385.75
420.726	404.75
420.948	406.75
421.171	455.75
421.394	457.75
421.617	410.75
421.839	391.75
422.062	407.75
422.285	430.75
422.507	465.75
422.73	503.75
422.953	505.75
423.175	431.75
423.398	405.75
423.621	415.75
423.843	435.75
424.066	428.75
424.288	454.75
424.511	451.75
424.733	507.75
424.956	534.75
425.178	531.75
425.401	516.75
425.623	540.75
425.846	491.75
426.068	425.75
426.291	436.75
426.513	427.75
426.735	420.75
426.958	478.75
427.18	524.75
427.402	614.75
427.625	683.75
427.847	581.75
428.069	507.75
428.292	470.75
428.514	417.75
428.736	427.75
428.958	414.75
429.181	421.75
429.403	396.75
429.625	412.75
429.847	421.75
430.069	466.75
430.292	486.75
430.514	409.75
430.736	389.75
430.958	401.75
431.18	374.75
431.402	363.75
431.624	369.75
431.846	362.75
432.068	362.75
432.29	391.75
432.512	375.75
432.734	370.75
432.956	366.75
433.178	391.75
433.4	387.75
433.622	381.75
433.844	385.75
434.066	366.75
434.287	377.75
434.509	387.75
434.731	388.75
434.953	389.75
435.175	407.75
435.397	418.75
435.618	419.75
435.84	445.75
436.062	536.75
436.284	582.75
436.505	469.75
436.727	435.75
436.949	426.75
437.17	393.75
437.392	391.75
437.614	425.75
437.835	444.75
438.057	487.75
438.278	573.75
438.5	572.75
438.721	628.75
438.943	601.75
439.165	492.75
439.386	446.75
439.608	456.75
439.829	440.75
440.05	459.75
440.272	472.75
440.493	457.75
440.715	423.75
440.936	399.75
441.158	395.75
441.379	404.75
441.6	410.75
441.822	408.75
442.043	449.75
442.264	522.75
442.486	550.75
442.707	480.75
442.928	451.75
443.149	454.75
443.371	461.75
443.592	509.75
443.813	573.75
444.034	591.75
444.255	486.75
444.476	456.75
444.698	456.75
444.919	442.75
445.14	556.75
445.361	481.75
445.582	456.75
445.803	502.75
446.024	596.75
446.245	555.75
446.466	530.75
446.687	445.75
446.908	428.75
447.129	413.75
447.35	421.75
447.571	414.75
447.792	406.75
448.013	394.75
448.234	428.75
448.455	455.75
448.675	533.75
448.896	601.75
449.117	542.75
449.338	500.75
449.559	615.75
449.779	652.75
450	517.75
450.221	444.75
450.442	413.75
450.662	383.75
450.883	391.75
451.104	395.75
451.324	411.75
451.545	359.75
451.766	367.75
451.986	361.75
452.207	354.75
452.428	347.75
452.648	370.75
452.869	355.75
453.089	356.75
453.31	384.75
453.53	366.75
453.751	349.75
453.971	351.75
454.192	367.75
454.412	367.75
454.633	332.75
454.853	376.75
455.073	371.75
455.294	398.75
455.514	436.75
455.734	383.75
455.955	354.75
456.175	341.75
456.395	318.75
456.616	334.75
456.836	323.75
457.056	328.75
457.276	319.75
457.497	344.75
457.717	331.75
457.937	327.75
458.157	344.75
458.377	339.75
458.598	370.75
458.818	397.75
459.038	443.75
459.258	441.75
459.478	402.75
459.698	358.75
459.918	373.75
460.138	353.75
460.358	357.75
460.578	354.75
460.798	377.75
461.018	375.75
461.238	369.75
461.458	361.75
461.678	355.75
461.898	370.75
462.118	364.75
462.338	385.75
462.558	381.75
462.777	370.75
462.997	395.75
463.217	426.75
463.437	407.75
463.657	394.75
463.876	391.75
464.096	387.75
464.316	410.75
464.536	386.75
464.755	390.75
464.975	395.75
465.195	439.75
465.414	447.75
465.634	414.75
465.854	374.75
466.073	370.75
466.293	374.75
466.512	367.75
466.732	365.75
466.951	347.75
467.171	374.75
467.391	357.75
467.61	362.75
467.829	366.75
468.049	367.75
468.268	354.75
468.488	357.75
468.707	356.75
468.927	341.75
469.146	374.75
469.365	363.75
469.585	339.75
469.804	350.75
470.023	362.75
470.243	394.75
470.462	361.75
470.681	369.75
470.901	345.75
471.12	363.75
471.339	342.75
471.558	357.75
471.777	350.75
471.997	365.75
472.216	360.75
472.435	376.75
472.654	381.75
472.873	357.75
473.092	359.75
473.311	364.75
473.53	360.75
473.749	362.75
473.968	407.75
474.187	466.75
474.406	494.75
474.625	415.75
474.844	360.75
475.063	366.75
475.282	382.75
475.501	381.75
475.72	373.75
475.939	359.75
476.158	389.75
476.377	385.75
476.596	373.75
476.814	372.75
477.033	378.75
477.252	373.75
477.471	391.75
477.69	379.75
477.908	401.75
478.127	388.75
478.346	387.75
478.564	407.75
478.783	408.75
479.002	399.75
479.22	403.75
479.439	423.75
479.658	414.75
479.876	435.75
480.095	430.75
480.313	452.75
480.532	435.75
480.751	431.75
480.969	424.75
481.188	462.75
481.406	486.75
481.624	450.75
481.843	449.75
482.061	422.75
482.28	432.75
482.498	420.75
482.717	425.75
482.935	416.75
483.153	425.75
483.372	421.75
483.59	410.75
483.808	413.75
484.027	403.75
484.245	448.75
484.463	443.75
484.681	455.75
484.9	422.75
485.118	420.75
485.336	430.75
485.554	421.75
485.772	427.75
485.99	437.75
486.209	433.75
486.427	411.75
486.645	453.75
486.863	448.75
487.081	449.75
487.299	466.75
487.517	453.75
487.735	460.75
487.953	462.75
488.171	446.75
488.389	434.75
488.607	436.75
488.825	466.75
489.043	451.75
489.261	478.75
489.479	477.75
489.696	446.75
489.914	463.75
490.132	483.75
490.35	481.75
490.568	470.75
490.786	474.75
491.003	494.75
491.221	492.75
491.439	523.75
491.657	528.75
491.874	509.75
492.092	503.75
492.31	525.75
492.527	526.75
492.745	516.75
492.963	538.75
493.18	547.75
493.398	521.75
493.615	520.75
493.833	543.75
494.05	523.75
494.268	548.75
494.485	525.75
494.703	545.75
494.92	526.75
495.138	541.75
495.355	539.75
495.573	553.75
495.79	551.75
496.008	538.75
496.225	566.75
496.442	552.75
496.66	555.75
496.877	519.75
497.094	548.75
497.312	534.75
497.529	543.75
497.746	554.75
497.963	569.75
498.181	580.75
498.398	593.75
498.615	593.75
498.832	598.75
499.049	609.75
499.267	627.75
499.484	620.75
499.701	637.75
499.918	670.75
500.135	718.75
500.352	711.75
500.569	701.75
500.786	727.75
501.003	695.75
501.22	669.75
501.437	697.75
501.654	675.75
501.871	675.75
502.088	654.75
