Data from 1971.PennyLincolnUp.Lamp.En5.5.200Scan.071719.P1.Scan 2. Changed Angle._HRD10591_15-24-42-843.txt Node
Date: Thu Jul 18 15:24:42 EDT 2019
User: cochatt
Spectrometer: HR+D1059
Trigger mode: 1
Integration Time (sec): 1.000000E-1
Scans to average: 1
Electric dark correction enabled: true
Nonlinearity correction enabled: false
Boxcar width: 0
XAxis mode: Wavelengths
Number of Pixels in Spectrum: 2048
>>>>>Begin Spectral Data<<<<<
223.165	-7.56
223.4	-7.56
223.635	-7.56
223.869	-25.56
224.104	-11.56
224.338	-9.56
224.573	-7.56
224.808	-8.56
225.042	-8.56
225.277	-10.56
225.511	9.44
225.746	6.44
225.98	-0.56
226.215	8.44
226.449	12.44
226.683	9.44
226.918	14.44
227.152	29.44
227.387	22.44
227.621	33.44
227.856	41.44
228.09	37.44
228.324	59.44
228.559	61.44
228.793	69.44
229.027	117.44
229.262	130.44
229.496	145.44
229.73	158.44
229.964	194.44
230.199	149.44
230.433	118.44
230.667	123.44
230.901	134.44
231.136	116.44
231.37	116.44
231.604	121.44
231.838	123.44
232.072	112.44
232.306	120.44
232.541	116.44
232.775	132.44
233.009	120.44
233.243	104.44
233.477	120.44
233.711	114.44
233.945	126.44
234.179	122.44
234.413	121.44
234.647	120.44
234.881	122.44
235.115	126.44
235.349	121.44
235.583	143.44
235.817	136.44
236.051	161.44
236.285	151.44
236.519	141.44
236.753	147.44
236.987	144.44
237.221	201.44
237.455	282.44
237.689	214.44
237.922	159.44
238.156	158.44
238.39	145.44
238.624	135.44
238.858	135.44
239.091	142.44
239.325	132.44
239.559	141.44
239.793	147.44
240.027	145.44
240.26	168.44
240.494	188.44
240.728	168.44
240.961	168.44
241.195	177.44
241.429	150.44
241.662	146.44
241.896	135.44
242.13	135.44
242.363	139.44
242.597	139.44
242.83	152.44
243.064	152.44
243.298	154.44
243.531	147.44
243.765	151.44
243.998	156.44
244.232	150.44
244.465	160.44
244.699	154.44
244.932	177.44
245.166	156.44
245.399	153.44
245.633	169.44
245.866	150.44
246.099	168.44
246.333	160.44
246.566	167.44
246.8	173.44
247.033	162.44
247.266	164.44
247.5	180.44
247.733	184.44
247.966	173.44
248.2	188.44
248.433	190.44
248.666	195.44
248.899	218.44
249.133	231.44
249.366	234.44
249.599	218.44
249.832	211.44
250.066	188.44
250.299	208.44
250.532	228.44
250.765	234.44
250.998	265.44
251.231	253.44
251.465	244.44
251.698	232.44
251.931	225.44
252.164	215.44
252.397	224.44
252.63	208.44
252.863	237.44
253.096	244.44
253.329	255.44
253.562	262.44
253.795	220.44
254.028	240.44
254.261	246.44
254.494	268.44
254.727	294.44
254.96	314.44
255.193	313.44
255.426	279.44
255.659	292.44
255.892	279.44
256.124	268.44
256.357	247.44
256.59	239.44
256.823	240.44
257.056	244.44
257.289	214.44
257.521	241.44
257.754	220.44
257.987	229.44
258.22	235.44
258.452	233.44
258.685	230.44
258.918	230.44
259.151	230.44
259.383	236.44
259.616	231.44
259.849	236.44
260.081	246.44
260.314	295.44
260.547	285.44
260.779	287.44
261.012	279.44
261.244	268.44
261.477	276.44
261.71	249.44
261.942	253.44
262.175	277.44
262.407	248.44
262.64	214.44
262.872	217.44
263.105	217.44
263.337	223.44
263.57	229.44
263.802	237.44
264.035	228.44
264.267	229.44
264.499	233.44
264.732	228.44
264.964	215.44
265.197	209.44
265.429	229.44
265.661	220.44
265.894	223.44
266.126	249.44
266.358	228.44
266.591	227.44
266.823	244.44
267.055	248.44
267.287	246.44
267.52	234.44
267.752	231.44
267.984	238.44
268.216	218.44
268.448	256.44
268.681	263.44
268.913	268.44
269.145	267.44
269.377	301.44
269.609	273.44
269.841	286.44
270.073	285.44
270.306	311.44
270.538	342.44
270.77	334.44
271.002	347.44
271.234	319.44
271.466	324.44
271.698	342.44
271.93	353.44
272.162	365.44
272.394	351.44
272.626	342.44
272.858	312.44
273.09	311.44
273.322	288.44
273.553	289.44
273.785	266.44
274.017	294.44
274.249	280.44
274.481	275.44
274.713	259.44
274.945	295.44
275.176	278.44
275.408	280.44
275.64	289.44
275.872	272.44
276.104	266.44
276.335	276.44
276.567	296.44
276.799	316.44
277.031	334.44
277.262	347.44
277.494	326.44
277.726	304.44
277.957	301.44
278.189	305.44
278.421	290.44
278.652	281.44
278.884	284.44
279.115	285.44
279.347	279.44
279.579	280.44
279.81	272.44
280.042	273.44
280.273	282.44
280.505	270.44
280.736	278.44
280.968	264.44
281.199	270.44
281.431	267.44
281.662	279.44
281.894	247.44
282.125	280.44
282.356	294.44
282.588	297.44
282.819	311.44
283.051	298.44
283.282	268.44
283.513	272.44
283.745	286.44
283.976	276.44
284.207	274.44
284.439	279.44
284.67	278.44
284.901	250.44
285.132	291.44
285.364	284.44
285.595	280.44
285.826	275.44
286.057	281.44
286.288	269.44
286.52	270.44
286.751	286.44
286.982	289.44
287.213	298.44
287.444	278.44
287.675	273.44
287.906	303.44
288.138	283.44
288.369	309.44
288.6	291.44
288.831	296.44
289.062	298.44
289.293	290.44
289.524	293.44
289.755	310.44
289.986	294.44
290.217	286.44
290.448	273.44
290.679	292.44
290.91	293.44
291.141	284.44
291.371	294.44
291.602	281.44
291.833	290.44
292.064	294.44
292.295	276.44
292.526	279.44
292.757	289.44
292.987	273.44
293.218	277.44
293.449	290.44
293.68	284.44
293.91	289.44
294.141	276.44
294.372	278.44
294.603	285.44
294.833	287.44
295.064	298.44
295.295	306.44
295.525	288.44
295.756	300.44
295.987	306.44
296.217	334.44
296.448	354.44
296.679	304.44
296.909	316.44
297.14	279.44
297.37	291.44
297.601	289.44
297.831	289.44
298.062	305.44
298.292	306.44
298.523	306.44
298.753	321.44
298.984	315.44
299.214	294.44
299.445	314.44
299.675	315.44
299.905	309.44
300.136	315.44
300.366	308.44
300.597	312.44
300.827	328.44
301.057	327.44
301.288	335.44
301.518	338.44
301.748	301.44
301.979	316.44
302.209	313.44
302.439	322.44
302.669	330.44
302.9	320.44
303.13	323.44
303.36	324.44
303.59	330.44
303.82	350.44
304.051	349.44
304.281	317.44
304.511	320.44
304.741	314.44
304.971	300.44
305.201	327.44
305.431	325.44
305.661	328.44
305.891	318.44
306.121	314.44
306.352	341.44
306.582	316.44
306.812	320.44
307.042	336.44
307.272	343.44
307.502	324.44
307.731	325.44
307.961	322.44
308.191	332.44
308.421	358.44
308.651	323.44
308.881	322.44
309.111	363.44
309.341	336.44
309.571	356.44
309.8	385.44
310.03	363.44
310.26	390.44
310.49	397.44
310.72	403.44
310.949	408.44
311.179	414.44
311.409	393.44
311.639	389.44
311.868	398.44
312.098	367.44
312.328	398.44
312.557	412.44
312.787	447.44
313.017	433.44
313.246	412.44
313.476	404.44
313.706	376.44
313.935	384.44
314.165	400.44
314.394	409.44
314.624	418.44
314.853	389.44
315.083	402.44
315.312	392.44
315.542	363.44
315.771	389.44
316.001	374.44
316.23	371.44
316.46	357.44
316.689	372.44
316.919	389.44
317.148	409.44
317.377	400.44
317.607	402.44
317.836	402.44
318.065	407.44
318.295	390.44
318.524	373.44
318.753	390.44
318.983	393.44
319.212	394.44
319.441	396.44
319.67	408.44
319.9	385.44
320.129	382.44
320.358	394.44
320.587	385.44
320.816	419.44
321.046	431.44
321.275	426.44
321.504	438.44
321.733	420.44
321.962	429.44
322.191	442.44
322.42	472.44
322.649	466.44
322.878	491.44
323.108	516.44
323.337	538.44
323.566	559.44
323.795	624.44
324.024	688.44
324.253	837.44
324.482	1252.44
324.71	1967.44
324.939	2746.44
325.168	2400.44
325.397	1263.44
325.626	830.44
325.855	633.44
326.084	586.44
326.313	570.44
326.542	607.44
326.77	646.44
326.999	782.44
327.228	1102.44
327.457	1725.44
327.686	2089.44
327.914	1416.44
328.143	905.44
328.372	774.44
328.6	702.44
328.829	644.44
329.058	666.44
329.287	694.44
329.515	649.44
329.744	584.44
329.972	597.44
330.201	619.44
330.43	664.44
330.658	696.44
330.887	738.44
331.115	702.44
331.344	590.44
331.572	537.44
331.801	549.44
332.03	538.44
332.258	517.44
332.486	491.44
332.715	476.44
332.943	451.44
333.172	464.44
333.4	473.44
333.629	484.44
333.857	485.44
334.085	510.44
334.314	536.44
334.542	582.44
334.771	597.44
334.999	528.44
335.227	497.44
335.455	468.44
335.684	469.44
335.912	452.44
336.14	443.44
336.369	461.44
336.597	462.44
336.825	467.44
337.053	455.44
337.281	441.44
337.51	448.44
337.738	439.44
337.966	436.44
338.194	465.44
338.422	446.44
338.65	469.44
338.878	443.44
339.106	444.44
339.334	430.44
339.562	432.44
339.79	423.44
340.018	443.44
340.246	460.44
340.474	448.44
340.702	452.44
340.93	462.44
341.158	420.44
341.386	429.44
341.614	439.44
341.842	452.44
342.07	434.44
342.298	430.44
342.526	420.44
342.754	401.44
342.981	421.44
343.209	410.44
343.437	413.44
343.665	433.44
343.893	428.44
344.12	440.44
344.348	426.44
344.576	429.44
344.804	455.44
345.031	470.44
345.259	476.44
345.487	471.44
345.714	454.44
345.942	440.44
346.17	425.44
346.397	425.44
346.625	448.44
346.853	438.44
347.08	450.44
347.308	460.44
347.535	441.44
347.763	449.44
347.99	457.44
348.218	473.44
348.445	465.44
348.673	465.44
348.9	441.44
349.128	421.44
349.355	424.44
349.583	409.44
349.81	429.44
350.037	444.44
350.265	419.44
350.492	412.44
350.72	402.44
350.947	441.44
351.174	434.44
351.402	456.44
351.629	456.44
351.856	455.44
352.083	438.44
352.311	468.44
352.538	474.44
352.765	471.44
352.992	448.44
353.22	458.44
353.447	431.44
353.674	428.44
353.901	439.44
354.128	418.44
354.355	419.44
354.583	398.44
354.81	418.44
355.037	416.44
355.264	401.44
355.491	410.44
355.718	408.44
355.945	415.44
356.172	389.44
356.399	383.44
356.626	390.44
356.853	380.44
357.08	384.44
357.307	386.44
357.534	410.44
357.761	397.44
357.988	415.44
358.215	402.44
358.441	394.44
358.668	391.44
358.895	396.44
359.122	431.44
359.349	426.44
359.576	441.44
359.802	495.44
360.029	524.44
360.256	518.44
360.483	501.44
360.709	468.44
360.936	436.44
361.163	445.44
361.39	467.44
361.616	442.44
361.843	445.44
362.07	451.44
362.296	449.44
362.523	450.44
362.749	437.44
362.976	432.44
363.203	446.44
363.429	409.44
363.656	432.44
363.882	429.44
364.109	417.44
364.335	415.44
364.562	425.44
364.788	426.44
365.015	429.44
365.241	418.44
365.468	416.44
365.694	427.44
365.92	449.44
366.147	450.44
366.373	422.44
366.599	449.44
366.826	425.44
367.052	421.44
367.278	405.44
367.505	422.44
367.731	424.44
367.957	407.44
368.184	422.44
368.41	414.44
368.636	433.44
368.862	445.44
369.089	429.44
369.315	401.44
369.541	423.44
369.767	420.44
369.993	449.44
370.219	418.44
370.445	410.44
370.672	401.44
370.898	401.44
371.124	395.44
371.35	418.44
371.576	399.44
371.802	410.44
372.028	404.44
372.254	413.44
372.48	406.44
372.706	411.44
372.932	420.44
373.158	404.44
373.384	410.44
373.61	419.44
373.835	416.44
374.061	418.44
374.287	400.44
374.513	402.44
374.739	397.44
374.965	423.44
375.191	403.44
375.416	408.44
375.642	410.44
375.868	409.44
376.094	407.44
376.319	410.44
376.545	390.44
376.771	407.44
376.997	402.44
377.222	395.44
377.448	396.44
377.674	400.44
377.899	401.44
378.125	419.44
378.35	401.44
378.576	420.44
378.802	414.44
379.027	422.44
379.253	410.44
379.478	432.44
379.704	412.44
379.929	410.44
380.155	417.44
380.38	409.44
380.606	429.44
380.831	420.44
381.057	422.44
381.282	409.44
381.507	426.44
381.733	426.44
381.958	420.44
382.184	421.44
382.409	429.44
382.634	416.44
382.86	406.44
383.085	433.44
383.31	439.44
383.535	406.44
383.761	415.44
383.986	429.44
384.211	430.44
384.436	430.44
384.662	433.44
384.887	431.44
385.112	418.44
385.337	440.44
385.562	421.44
385.787	423.44
386.013	455.44
386.238	457.44
386.463	476.44
386.688	446.44
386.913	451.44
387.138	439.44
387.363	435.44
387.588	440.44
387.813	425.44
388.038	450.44
388.263	446.44
388.488	427.44
388.713	444.44
388.938	429.44
389.163	433.44
389.387	460.44
389.612	442.44
389.837	442.44
390.062	443.44
390.287	461.44
390.512	429.44
390.736	439.44
390.961	442.44
391.186	424.44
391.411	436.44
391.636	452.44
391.86	451.44
392.085	453.44
392.31	437.44
392.534	456.44
392.759	452.44
392.984	444.44
393.208	447.44
393.433	433.44
393.658	444.44
393.882	442.44
394.107	465.44
394.331	443.44
394.556	436.44
394.78	444.44
395.005	450.44
395.229	448.44
395.454	456.44
395.678	459.44
395.903	472.44
396.127	491.44
396.352	492.44
396.576	469.44
396.801	455.44
397.025	465.44
397.249	447.44
397.474	466.44
397.698	481.44
397.922	469.44
398.147	519.44
398.371	516.44
398.595	504.44
398.82	492.44
399.044	474.44
399.268	526.44
399.492	551.44
399.717	544.44
399.941	577.44
400.165	652.44
400.389	616.44
400.613	582.44
400.837	547.44
401.062	508.44
401.286	497.44
401.51	505.44
401.734	518.44
401.958	536.44
402.182	536.44
402.406	537.44
402.63	529.44
402.854	530.44
403.078	515.44
403.302	516.44
403.526	528.44
403.75	556.44
403.974	511.44
404.198	504.44
404.422	548.44
404.645	543.44
404.869	551.44
405.093	564.44
405.317	620.44
405.541	650.44
405.765	601.44
405.988	578.44
406.212	600.44
406.436	609.44
406.66	639.44
406.883	600.44
407.107	608.44
407.331	646.44
407.555	722.44
407.778	731.44
408.002	642.44
408.226	627.44
408.449	616.44
408.673	594.44
408.896	619.44
409.12	668.44
409.344	621.44
409.567	585.44
409.791	574.44
410.014	559.44
410.238	561.44
410.461	567.44
410.685	544.44
410.908	550.44
411.132	609.44
411.355	650.44
411.578	617.44
411.802	543.44
412.025	544.44
412.249	571.44
412.472	537.44
412.695	629.44
412.919	634.44
413.142	548.44
413.365	528.44
413.589	528.44
413.812	505.44
414.035	518.44
414.258	522.44
414.482	497.44
414.705	497.44
414.928	501.44
415.151	489.44
415.374	493.44
415.597	490.44
415.821	505.44
416.044	542.44
416.267	537.44
416.49	515.44
416.713	513.44
416.936	505.44
417.159	516.44
417.382	494.44
417.605	533.44
417.828	559.44
418.051	553.44
418.274	537.44
418.497	527.44
418.72	518.44
418.943	497.44
419.166	523.44
419.389	535.44
419.611	540.44
419.834	556.44
420.057	537.44
420.28	563.44
420.503	556.44
420.726	540.44
420.948	573.44
421.171	621.44
421.394	641.44
421.617	574.44
421.839	528.44
422.062	559.44
422.285	583.44
422.507	658.44
422.73	727.44
422.953	700.44
423.175	624.44
423.398	592.44
423.621	598.44
423.843	620.44
424.066	589.44
424.288	598.44
424.511	639.44
424.733	678.44
424.956	791.44
425.178	754.44
425.401	744.44
425.623	780.44
425.846	655.44
426.068	644.44
426.291	612.44
426.513	632.44
426.735	646.44
426.958	671.44
427.18	768.44
427.402	920.44
427.625	1024.44
427.847	930.44
428.069	789.44
428.292	690.44
428.514	630.44
428.736	593.44
428.958	593.44
429.181	586.44
429.403	577.44
429.625	574.44
429.847	638.44
430.069	700.44
430.292	692.44
430.514	590.44
430.736	567.44
430.958	568.44
431.18	541.44
431.402	536.44
431.624	543.44
431.846	531.44
432.068	536.44
432.29	495.44
432.512	518.44
432.734	534.44
432.956	538.44
433.178	533.44
433.4	578.44
433.622	543.44
433.844	548.44
434.066	521.44
434.287	509.44
434.509	514.44
434.731	530.44
434.953	550.44
435.175	580.44
435.397	628.44
435.618	619.44
435.84	695.44
436.062	772.44
436.284	835.44
436.505	719.44
436.727	648.44
436.949	601.44
437.17	570.44
437.392	586.44
437.614	615.44
437.835	626.44
438.057	779.44
438.278	870.44
438.5	857.44
438.721	923.44
438.943	876.44
439.165	730.44
439.386	649.44
439.608	671.44
439.829	664.44
440.05	684.44
440.272	748.44
440.493	688.44
440.715	625.44
440.936	612.44
441.158	563.44
441.379	595.44
441.6	597.44
441.822	628.44
442.043	670.44
442.264	785.44
442.486	804.44
442.707	697.44
442.928	644.44
443.149	637.44
443.371	686.44
443.592	746.44
443.813	831.44
444.034	878.44
444.255	746.44
444.476	651.44
444.698	634.44
444.919	618.44
445.14	736.44
445.361	689.44
445.582	677.44
445.803	758.44
446.024	889.44
446.245	882.44
446.466	828.44
446.687	688.44
446.908	650.44
447.129	594.44
447.35	594.44
447.571	577.44
447.792	572.44
448.013	605.44
448.234	616.44
448.455	684.44
448.675	796.44
448.896	928.44
449.117	809.44
449.338	752.44
449.559	869.44
449.779	974.44
450	780.44
450.221	664.44
450.442	594.44
450.662	601.44
450.883	615.44
451.104	621.44
451.324	611.44
451.545	545.44
451.766	543.44
451.986	522.44
452.207	540.44
452.428	530.44
452.648	535.44
452.869	517.44
453.089	539.44
453.31	560.44
453.53	541.44
453.751	516.44
453.971	521.44
454.192	559.44
454.412	535.44
454.633	536.44
454.853	544.44
455.073	536.44
455.294	566.44
455.514	623.44
455.734	613.44
455.955	547.44
456.175	504.44
456.395	493.44
456.616	474.44
456.836	493.44
457.056	478.44
457.276	466.44
457.497	490.44
457.717	477.44
457.937	491.44
458.157	488.44
458.377	487.44
458.598	541.44
458.818	612.44
459.038	731.44
459.258	735.44
459.478	606.44
459.698	548.44
459.918	536.44
460.138	517.44
460.358	529.44
460.578	500.44
460.798	541.44
461.018	534.44
461.238	556.44
461.458	531.44
461.678	516.44
461.898	515.44
462.118	521.44
462.338	526.44
462.558	513.44
462.777	503.44
462.997	529.44
463.217	549.44
463.437	559.44
463.657	548.44
463.876	539.44
464.096	576.44
464.316	545.44
464.536	574.44
464.755	574.44
464.975	578.44
465.195	650.44
465.414	778.44
465.634	665.44
465.854	600.44
466.073	565.44
466.293	551.44
466.512	516.44
466.732	508.44
466.951	516.44
467.171	506.44
467.391	509.44
467.61	556.44
467.829	553.44
468.049	548.44
468.268	532.44
468.488	529.44
468.707	531.44
468.927	522.44
469.146	496.44
469.365	517.44
469.585	498.44
469.804	536.44
470.023	543.44
470.243	544.44
470.462	538.44
470.681	560.44
470.901	561.44
471.12	540.44
471.339	540.44
471.558	537.44
471.777	551.44
471.997	527.44
472.216	531.44
472.435	610.44
472.654	549.44
472.873	540.44
473.092	542.44
473.311	517.44
473.53	536.44
473.749	558.44
473.968	586.44
474.187	741.44
474.406	753.44
474.625	622.44
474.844	576.44
475.063	548.44
475.282	533.44
475.501	547.44
475.72	540.44
475.939	545.44
476.158	546.44
476.377	542.44
476.596	542.44
476.814	554.44
477.033	576.44
477.252	572.44
477.471	555.44
477.69	553.44
477.908	572.44
478.127	588.44
478.346	556.44
478.564	591.44
478.783	584.44
479.002	604.44
479.22	597.44
479.439	609.44
479.658	653.44
479.876	644.44
480.095	661.44
480.313	684.44
480.532	661.44
480.751	678.44
480.969	658.44
481.188	734.44
481.406	815.44
481.624	695.44
481.843	653.44
482.061	658.44
482.28	640.44
482.498	638.44
482.717	606.44
482.935	632.44
483.153	642.44
483.372	645.44
483.59	644.44
483.808	629.44
484.027	615.44
484.245	646.44
484.463	652.44
484.681	653.44
484.9	672.44
485.118	656.44
485.336	668.44
485.554	658.44
485.772	668.44
485.99	654.44
486.209	657.44
486.427	666.44
486.645	669.44
486.863	722.44
487.081	713.44
487.299	685.44
487.517	719.44
487.735	672.44
487.953	702.44
488.171	680.44
488.389	692.44
488.607	688.44
488.825	711.44
489.043	704.44
489.261	702.44
489.479	726.44
489.696	708.44
489.914	741.44
490.132	728.44
490.35	716.44
490.568	728.44
490.786	745.44
491.003	781.44
491.221	799.44
491.439	807.44
491.657	818.44
491.874	800.44
492.092	802.44
492.31	832.44
492.527	851.44
492.745	837.44
492.963	817.44
493.18	841.44
493.398	827.44
493.615	843.44
493.833	834.44
494.05	848.44
494.268	824.44
494.485	844.44
494.703	845.44
494.92	837.44
495.138	836.44
495.355	849.44
495.573	858.44
495.79	830.44
496.008	821.44
496.225	857.44
496.442	828.44
496.66	827.44
496.877	836.44
497.094	822.44
497.312	859.44
497.529	854.44
497.746	853.44
497.963	863.44
498.181	884.44
498.398	896.44
498.615	880.44
498.832	904.44
499.049	900.44
499.267	925.44
499.484	944.44
499.701	941.44
499.918	944.44
500.135	986.44
500.352	1000.44
500.569	993.44
500.786	1014.44
501.003	1014.44
501.22	997.44
501.437	993.44
501.654	996.44
