Data from 1971.PennyLincolnUp.Lamp.En5.5.200Scan.071719.P1.Scan 2. Changed Angle._HRD10591_15-22-30-842.txt Node
Date: Thu Jul 18 15:22:30 EDT 2019
User: cochatt
Spectrometer: HR+D1059
Trigger mode: 1
Integration Time (sec): 1.000000E-1
Scans to average: 1
Electric dark correction enabled: true
Nonlinearity correction enabled: false
Boxcar width: 0
XAxis mode: Wavelengths
Number of Pixels in Spectrum: 2048
>>>>>Begin Spectral Data<<<<<
223.165	-6.06
223.4	-6.06
223.635	-6.06
223.869	-15.06
224.104	-23.06
224.338	-27.06
224.573	2.94
224.808	-6.06
225.042	1.94
225.277	-4.06
225.511	-12.06
225.746	-8.06
225.98	12.94
226.215	7.94
226.449	8.94
226.683	20.94
226.918	33.94
227.152	11.94
227.387	34.94
227.621	38.94
227.856	49.94
228.09	33.94
228.324	34.94
228.559	57.94
228.793	69.94
229.027	90.94
229.262	102.94
229.496	118.94
229.73	112.94
229.964	143.94
230.199	121.94
230.433	101.94
230.667	108.94
230.901	117.94
231.136	114.94
231.37	111.94
231.604	96.94
231.838	112.94
232.072	104.94
232.306	124.94
232.541	121.94
232.775	112.94
233.009	96.94
233.243	116.94
233.477	125.94
233.711	100.94
233.945	117.94
234.179	117.94
234.413	113.94
234.647	124.94
234.881	112.94
235.115	112.94
235.349	99.94
235.583	127.94
235.817	106.94
236.051	128.94
236.285	111.94
236.519	105.94
236.753	120.94
236.987	121.94
237.221	157.94
237.455	202.94
237.689	181.94
237.922	140.94
238.156	128.94
238.39	133.94
238.624	111.94
238.858	109.94
239.091	102.94
239.325	124.94
239.559	115.94
239.793	130.94
240.027	114.94
240.26	133.94
240.494	133.94
240.728	127.94
240.961	141.94
241.195	141.94
241.429	128.94
241.662	134.94
241.896	114.94
242.13	136.94
242.363	122.94
242.597	110.94
242.83	137.94
243.064	123.94
243.298	137.94
243.531	138.94
243.765	136.94
243.998	135.94
244.232	137.94
244.465	127.94
244.699	126.94
244.932	124.94
245.166	125.94
245.399	127.94
245.633	134.94
245.866	138.94
246.099	149.94
246.333	137.94
246.566	147.94
246.8	140.94
247.033	142.94
247.266	157.94
247.5	142.94
247.733	168.94
247.966	147.94
248.2	158.94
248.433	141.94
248.666	146.94
248.899	157.94
249.133	165.94
249.366	179.94
249.599	166.94
249.832	160.94
250.066	170.94
250.299	161.94
250.532	170.94
250.765	170.94
250.998	191.94
251.231	206.94
251.465	195.94
251.698	184.94
251.931	174.94
252.164	175.94
252.397	186.94
252.63	207.94
252.863	185.94
253.096	197.94
253.329	202.94
253.562	181.94
253.795	198.94
254.028	183.94
254.261	185.94
254.494	209.94
254.727	204.94
254.96	220.94
255.193	235.94
255.426	223.94
255.659	186.94
255.892	208.94
256.124	205.94
256.357	210.94
256.59	193.94
256.823	195.94
257.056	194.94
257.289	193.94
257.521	174.94
257.754	198.94
257.987	188.94
258.22	199.94
258.452	187.94
258.685	186.94
258.918	182.94
259.151	196.94
259.383	193.94
259.616	187.94
259.849	185.94
260.081	205.94
260.314	208.94
260.547	210.94
260.779	205.94
261.012	197.94
261.244	207.94
261.477	192.94
261.71	194.94
261.942	185.94
262.175	193.94
262.407	195.94
262.64	168.94
262.872	189.94
263.105	178.94
263.337	184.94
263.57	175.94
263.802	177.94
264.035	183.94
264.267	189.94
264.499	173.94
264.732	197.94
264.964	173.94
265.197	156.94
265.429	179.94
265.661	177.94
265.894	173.94
266.126	181.94
266.358	177.94
266.591	180.94
266.823	181.94
267.055	201.94
267.287	185.94
267.52	158.94
267.752	184.94
267.984	185.94
268.216	179.94
268.448	199.94
268.681	176.94
268.913	194.94
269.145	208.94
269.377	230.94
269.609	216.94
269.841	215.94
270.073	220.94
270.306	265.94
270.538	257.94
270.77	231.94
271.002	250.94
271.234	219.94
271.466	238.94
271.698	240.94
271.93	260.94
272.162	268.94
272.394	243.94
272.626	240.94
272.858	237.94
273.09	227.94
273.322	228.94
273.553	217.94
273.785	215.94
274.017	210.94
274.249	223.94
274.481	218.94
274.713	210.94
274.945	220.94
275.176	208.94
275.408	205.94
275.64	210.94
275.872	218.94
276.104	203.94
276.335	193.94
276.567	222.94
276.799	230.94
277.031	224.94
277.262	241.94
277.494	241.94
277.726	238.94
277.957	236.94
278.189	238.94
278.421	209.94
278.652	211.94
278.884	222.94
279.115	210.94
279.347	216.94
279.579	219.94
279.81	202.94
280.042	211.94
280.273	210.94
280.505	211.94
280.736	196.94
280.968	209.94
281.199	207.94
281.431	217.94
281.662	221.94
281.894	213.94
282.125	209.94
282.356	209.94
282.588	230.94
282.819	226.94
283.051	209.94
283.282	215.94
283.513	223.94
283.745	212.94
283.976	217.94
284.207	200.94
284.439	225.94
284.67	217.94
284.901	210.94
285.132	205.94
285.364	215.94
285.595	212.94
285.826	209.94
286.057	197.94
286.288	202.94
286.52	214.94
286.751	221.94
286.982	215.94
287.213	207.94
287.444	209.94
287.675	217.94
287.906	232.94
288.138	239.94
288.369	219.94
288.6	215.94
288.831	215.94
289.062	233.94
289.293	213.94
289.524	238.94
289.755	231.94
289.986	229.94
290.217	235.94
290.448	227.94
290.679	220.94
290.91	222.94
291.141	210.94
291.371	235.94
291.602	230.94
291.833	227.94
292.064	219.94
292.295	223.94
292.526	232.94
292.757	219.94
292.987	217.94
293.218	238.94
293.449	228.94
293.68	208.94
293.91	207.94
294.141	211.94
294.372	215.94
294.603	215.94
294.833	230.94
295.064	215.94
295.295	217.94
295.525	232.94
295.756	229.94
295.987	233.94
296.217	240.94
296.448	252.94
296.679	244.94
296.909	239.94
297.14	229.94
297.37	234.94
297.601	241.94
297.831	234.94
298.062	229.94
298.292	231.94
298.523	238.94
298.753	224.94
298.984	219.94
299.214	237.94
299.445	226.94
299.675	231.94
299.905	258.94
300.136	233.94
300.366	231.94
300.597	237.94
300.827	250.94
301.057	234.94
301.288	261.94
301.518	262.94
301.748	245.94
301.979	246.94
302.209	249.94
302.439	261.94
302.669	255.94
302.9	249.94
303.13	226.94
303.36	253.94
303.59	234.94
303.82	238.94
304.051	252.94
304.281	249.94
304.511	259.94
304.741	233.94
304.971	256.94
305.201	255.94
305.431	260.94
305.661	250.94
305.891	239.94
306.121	242.94
306.352	264.94
306.582	242.94
306.812	255.94
307.042	251.94
307.272	265.94
307.502	261.94
307.731	247.94
307.961	266.94
308.191	242.94
308.421	239.94
308.651	253.94
308.881	261.94
309.111	269.94
309.341	259.94
309.571	262.94
309.8	247.94
310.03	282.94
310.26	269.94
310.49	268.94
310.72	282.94
310.949	280.94
311.179	290.94
311.409	285.94
311.639	282.94
311.868	270.94
312.098	291.94
312.328	286.94
312.557	284.94
312.787	309.94
313.017	299.94
313.246	283.94
313.476	285.94
313.706	291.94
313.935	290.94
314.165	297.94
314.394	293.94
314.624	314.94
314.853	285.94
315.083	299.94
315.312	271.94
315.542	277.94
315.771	271.94
316.001	285.94
316.23	275.94
316.46	288.94
316.689	288.94
316.919	304.94
317.148	292.94
317.377	304.94
317.607	299.94
317.836	290.94
318.065	285.94
318.295	288.94
318.524	277.94
318.753	292.94
318.983	290.94
319.212	278.94
319.441	293.94
319.67	298.94
319.9	284.94
320.129	279.94
320.358	300.94
320.587	296.94
320.816	291.94
321.046	304.94
321.275	298.94
321.504	311.94
321.733	299.94
321.962	310.94
322.191	321.94
322.42	325.94
322.649	320.94
322.878	328.94
323.108	362.94
323.337	354.94
323.566	373.94
323.795	387.94
324.024	426.94
324.253	498.94
324.482	703.94
324.71	1060.94
324.939	1555.94
325.168	1327.94
325.397	690.94
325.626	495.94
325.855	404.94
326.084	385.94
326.313	387.94
326.542	367.94
326.77	407.94
326.999	465.94
327.228	640.94
327.457	962.94
327.686	1166.94
327.914	779.94
328.143	553.94
328.372	458.94
328.6	430.94
328.829	420.94
329.058	445.94
329.287	431.94
329.515	395.94
329.744	353.94
329.972	351.94
330.201	388.94
330.43	401.94
330.658	425.94
330.887	454.94
331.115	419.94
331.344	381.94
331.572	380.94
331.801	361.94
332.03	353.94
332.258	355.94
332.486	359.94
332.715	329.94
332.943	321.94
333.172	329.94
333.4	325.94
333.629	335.94
333.857	348.94
334.085	360.94
334.314	357.94
334.542	361.94
334.771	366.94
334.999	338.94
335.227	352.94
335.455	352.94
335.684	344.94
335.912	317.94
336.14	317.94
336.369	336.94
336.597	357.94
336.825	343.94
337.053	335.94
337.281	329.94
337.51	313.94
337.738	349.94
337.966	324.94
338.194	337.94
338.422	333.94
338.65	338.94
338.878	331.94
339.106	318.94
339.334	336.94
339.562	329.94
339.79	304.94
340.018	342.94
340.246	349.94
340.474	330.94
340.702	347.94
340.93	321.94
341.158	329.94
341.386	336.94
341.614	342.94
341.842	344.94
342.07	323.94
342.298	327.94
342.526	313.94
342.754	326.94
342.981	319.94
343.209	334.94
343.437	333.94
343.665	322.94
343.893	326.94
344.12	352.94
344.348	344.94
344.576	320.94
344.804	334.94
345.031	334.94
345.259	337.94
345.487	333.94
345.714	337.94
345.942	334.94
346.17	342.94
346.397	311.94
346.625	327.94
346.853	314.94
347.08	315.94
347.308	348.94
347.535	343.94
347.763	337.94
347.99	322.94
348.218	323.94
348.445	345.94
348.673	341.94
348.9	324.94
349.128	326.94
349.355	296.94
349.583	301.94
349.81	325.94
350.037	325.94
350.265	297.94
350.492	317.94
350.72	323.94
350.947	322.94
351.174	320.94
351.402	326.94
351.629	318.94
351.856	334.94
352.083	346.94
352.311	341.94
352.538	330.94
352.765	339.94
352.992	332.94
353.22	315.94
353.447	327.94
353.674	337.94
353.901	313.94
354.128	310.94
354.355	317.94
354.583	322.94
354.81	327.94
355.037	297.94
355.264	297.94
355.491	288.94
355.718	303.94
355.945	310.94
356.172	314.94
356.399	322.94
356.626	317.94
356.853	327.94
357.08	310.94
357.307	297.94
357.534	311.94
357.761	301.94
357.988	305.94
358.215	306.94
358.441	301.94
358.668	309.94
358.895	294.94
359.122	330.94
359.349	321.94
359.576	329.94
359.802	344.94
360.029	368.94
360.256	374.94
360.483	364.94
360.709	329.94
360.936	348.94
361.163	337.94
361.39	338.94
361.616	329.94
361.843	330.94
362.07	322.94
362.296	348.94
362.523	345.94
362.749	332.94
362.976	348.94
363.203	331.94
363.429	306.94
363.656	331.94
363.882	327.94
364.109	333.94
364.335	323.94
364.562	314.94
364.788	319.94
365.015	335.94
365.241	329.94
365.468	339.94
365.694	310.94
365.92	344.94
366.147	337.94
366.373	302.94
366.599	321.94
366.826	317.94
367.052	312.94
367.278	306.94
367.505	321.94
367.731	327.94
367.957	326.94
368.184	315.94
368.41	347.94
368.636	329.94
368.862	343.94
369.089	329.94
369.315	325.94
369.541	317.94
369.767	329.94
369.993	324.94
370.219	316.94
370.445	329.94
370.672	322.94
370.898	313.94
371.124	321.94
371.35	312.94
371.576	323.94
371.802	313.94
372.028	329.94
372.254	327.94
372.48	325.94
372.706	325.94
372.932	327.94
373.158	337.94
373.384	319.94
373.61	327.94
373.835	328.94
374.061	345.94
374.287	319.94
374.513	323.94
374.739	341.94
374.965	325.94
375.191	351.94
375.416	350.94
375.642	349.94
375.868	329.94
376.094	331.94
376.319	327.94
376.545	330.94
376.771	322.94
376.997	328.94
377.222	327.94
377.448	334.94
377.674	326.94
377.899	334.94
378.125	336.94
378.35	341.94
378.576	325.94
378.802	327.94
379.027	322.94
379.253	323.94
379.478	326.94
379.704	345.94
379.929	327.94
380.155	345.94
380.38	346.94
380.606	349.94
380.831	332.94
381.057	367.94
381.282	345.94
381.507	337.94
381.733	349.94
381.958	349.94
382.184	344.94
382.409	352.94
382.634	348.94
382.86	334.94
383.085	344.94
383.31	349.94
383.535	350.94
383.761	351.94
383.986	361.94
384.211	358.94
384.436	363.94
384.662	366.94
384.887	369.94
385.112	392.94
385.337	341.94
385.562	355.94
385.787	355.94
386.013	386.94
386.238	387.94
386.463	359.94
386.688	363.94
386.913	368.94
387.138	387.94
387.363	362.94
387.588	357.94
387.813	364.94
388.038	371.94
388.263	370.94
388.488	384.94
388.713	357.94
388.938	361.94
389.163	358.94
389.387	383.94
389.612	360.94
389.837	364.94
390.062	360.94
390.287	367.94
390.512	357.94
390.736	355.94
390.961	357.94
391.186	358.94
391.411	387.94
391.636	370.94
391.86	353.94
392.085	375.94
392.31	359.94
392.534	357.94
392.759	361.94
392.984	362.94
393.208	380.94
393.433	411.94
393.658	422.94
393.882	377.94
394.107	358.94
394.331	363.94
394.556	346.94
394.78	384.94
395.005	377.94
395.229	361.94
395.454	395.94
395.678	377.94
395.903	373.94
396.127	394.94
396.352	388.94
396.576	377.94
396.801	394.94
397.025	409.94
397.249	406.94
397.474	377.94
397.698	401.94
397.922	424.94
398.147	403.94
398.371	414.94
398.595	418.94
398.82	410.94
399.044	406.94
399.268	416.94
399.492	428.94
399.717	454.94
399.941	484.94
400.165	517.94
400.389	511.94
400.613	453.94
400.837	424.94
401.062	433.94
401.286	411.94
401.51	407.94
401.734	414.94
401.958	401.94
402.182	408.94
402.406	387.94
402.63	430.94
402.854	418.94
403.078	417.94
403.302	427.94
403.526	426.94
403.75	422.94
403.974	424.94
404.198	411.94
404.422	422.94
404.645	431.94
404.869	412.94
405.093	442.94
405.317	483.94
405.541	504.94
405.765	462.94
405.988	441.94
406.212	461.94
406.436	468.94
406.66	499.94
406.883	468.94
407.107	494.94
407.331	488.94
407.555	582.94
407.778	573.94
408.002	522.94
408.226	498.94
408.449	482.94
408.673	478.94
408.896	518.94
409.12	535.94
409.344	490.94
409.567	461.94
409.791	432.94
410.014	445.94
410.238	449.94
410.461	432.94
410.685	449.94
410.908	451.94
411.132	494.94
411.355	505.94
411.578	510.94
411.802	443.94
412.025	431.94
412.249	440.94
412.472	455.94
412.695	471.94
412.919	477.94
413.142	441.94
413.365	412.94
413.589	428.94
413.812	417.94
414.035	412.94
414.258	409.94
414.482	407.94
414.705	417.94
414.928	421.94
415.151	418.94
415.374	418.94
415.597	417.94
415.821	411.94
416.044	415.94
416.267	409.94
416.49	420.94
416.713	409.94
416.936	429.94
417.159	421.94
417.382	409.94
417.605	425.94
417.828	425.94
418.051	444.94
418.274	445.94
418.497	427.94
418.72	399.94
418.943	408.94
419.166	448.94
419.389	453.94
419.611	458.94
419.834	444.94
420.057	430.94
420.28	453.94
420.503	429.94
420.726	423.94
420.948	445.94
421.171	443.94
421.394	483.94
421.617	464.94
421.839	437.94
422.062	452.94
422.285	463.94
422.507	515.94
422.73	525.94
422.953	552.94
423.175	472.94
423.398	471.94
423.621	450.94
423.843	464.94
424.066	448.94
424.288	467.94
424.511	470.94
424.733	534.94
424.956	604.94
425.178	590.94
425.401	574.94
425.623	592.94
425.846	522.94
426.068	469.94
426.291	453.94
426.513	479.94
426.735	476.94
426.958	505.94
427.18	589.94
427.402	685.94
427.625	740.94
427.847	643.94
428.069	572.94
428.292	519.94
428.514	479.94
428.736	448.94
428.958	451.94
429.181	443.94
429.403	433.94
429.625	443.94
429.847	489.94
430.069	536.94
430.292	535.94
430.514	473.94
430.736	439.94
430.958	456.94
431.18	426.94
431.402	431.94
431.624	416.94
431.846	407.94
432.068	409.94
432.29	399.94
432.512	433.94
432.734	427.94
432.956	420.94
433.178	446.94
433.4	434.94
433.622	422.94
433.844	421.94
434.066	415.94
434.287	422.94
434.509	425.94
434.731	432.94
434.953	418.94
435.175	448.94
435.397	453.94
435.618	476.94
435.84	507.94
436.062	597.94
436.284	647.94
436.505	543.94
436.727	481.94
436.949	446.94
437.17	435.94
437.392	439.94
437.614	466.94
437.835	497.94
438.057	573.94
438.278	639.94
438.5	639.94
438.721	729.94
438.943	681.94
439.165	568.94
439.386	515.94
439.608	481.94
439.829	495.94
440.05	527.94
440.272	559.94
440.493	518.94
440.715	477.94
440.936	459.94
441.158	441.94
441.379	464.94
441.6	446.94
441.822	479.94
442.043	512.94
442.264	576.94
442.486	615.94
442.707	553.94
442.928	497.94
443.149	503.94
443.371	506.94
443.592	546.94
443.813	646.94
444.034	681.94
444.255	584.94
444.476	496.94
444.698	494.94
444.919	463.94
445.14	597.94
445.361	523.94
445.582	515.94
445.803	554.94
446.024	669.94
446.245	624.94
446.466	592.94
446.687	525.94
446.908	497.94
447.129	466.94
447.35	437.94
447.571	427.94
447.792	444.94
448.013	457.94
448.234	453.94
448.455	521.94
448.675	601.94
448.896	690.94
449.117	601.94
449.338	553.94
449.559	664.94
449.779	735.94
450	593.94
450.221	498.94
450.442	439.94
450.662	443.94
450.883	457.94
451.104	432.94
451.324	454.94
451.545	445.94
451.766	428.94
451.986	407.94
452.207	400.94
452.428	385.94
452.648	389.94
452.869	397.94
453.089	404.94
453.31	419.94
453.53	414.94
453.751	385.94
453.971	407.94
454.192	401.94
454.412	418.94
454.633	419.94
454.853	417.94
455.073	399.94
455.294	430.94
455.514	475.94
455.734	451.94
455.955	395.94
456.175	397.94
456.395	390.94
456.616	388.94
456.836	388.94
457.056	385.94
457.276	383.94
457.497	390.94
457.717	383.94
457.937	393.94
458.157	385.94
458.377	393.94
458.598	393.94
458.818	457.94
459.038	509.94
459.258	520.94
459.478	458.94
459.698	422.94
459.918	410.94
460.138	394.94
460.358	414.94
460.578	402.94
460.798	439.94
461.018	439.94
461.238	424.94
461.458	415.94
461.678	409.94
461.898	424.94
462.118	410.94
462.338	437.94
462.558	417.94
462.777	441.94
462.997	431.94
463.217	426.94
463.437	467.94
463.657	455.94
463.876	443.94
464.096	452.94
464.316	431.94
464.536	456.94
464.755	451.94
464.975	437.94
465.195	517.94
465.414	541.94
465.634	477.94
465.854	450.94
466.073	437.94
466.293	433.94
466.512	409.94
466.732	387.94
466.951	429.94
467.171	417.94
467.391	431.94
467.61	431.94
467.829	424.94
468.049	413.94
468.268	418.94
468.488	437.94
468.707	389.94
468.927	399.94
469.146	387.94
469.365	393.94
469.585	389.94
469.804	417.94
470.023	439.94
470.243	417.94
470.462	423.94
470.681	455.94
470.901	428.94
471.12	439.94
471.339	425.94
471.558	418.94
471.777	422.94
471.997	412.94
472.216	416.94
472.435	438.94
472.654	409.94
472.873	399.94
473.092	425.94
473.311	412.94
473.53	417.94
473.749	418.94
473.968	455.94
474.187	545.94
474.406	555.94
474.625	455.94
474.844	431.94
475.063	427.94
475.282	434.94
475.501	414.94
475.72	432.94
475.939	435.94
476.158	402.94
476.377	444.94
476.596	443.94
476.814	467.94
477.033	449.94
477.252	441.94
477.471	475.94
477.69	426.94
477.908	459.94
478.127	462.94
478.346	467.94
478.564	445.94
478.783	465.94
479.002	476.94
479.22	453.94
479.439	486.94
479.658	491.94
479.876	501.94
480.095	507.94
480.313	543.94
480.532	515.94
480.751	522.94
480.969	508.94
481.188	538.94
481.406	554.94
481.624	515.94
481.843	521.94
482.061	502.94
482.28	499.94
482.498	494.94
482.717	466.94
482.935	497.94
483.153	487.94
483.372	499.94
483.59	488.94
483.808	502.94
484.027	495.94
484.245	503.94
484.463	506.94
484.681	515.94
484.9	491.94
485.118	519.94
485.336	508.94
485.554	537.94
485.772	510.94
485.99	521.94
486.209	521.94
486.427	521.94
486.645	531.94
486.863	529.94
487.081	546.94
487.299	531.94
487.517	559.94
487.735	548.94
487.953	547.94
488.171	542.94
488.389	560.94
488.607	550.94
488.825	542.94
489.043	551.94
489.261	552.94
489.479	577.94
489.696	532.94
489.914	552.94
490.132	565.94
490.35	554.94
490.568	551.94
490.786	583.94
491.003	592.94
491.221	592.94
491.439	601.94
491.657	606.94
491.874	601.94
492.092	630.94
492.31	608.94
492.527	637.94
492.745	626.94
492.963	627.94
493.18	635.94
493.398	649.94
493.615	650.94
493.833	635.94
494.05	630.94
494.268	619.94
494.485	637.94
494.703	635.94
494.92	629.94
495.138	643.94
495.355	636.94
495.573	667.94
495.79	637.94
496.008	654.94
496.225	645.94
496.442	642.94
496.66	638.94
496.877	639.94
497.094	635.94
497.312	661.94
497.529	654.94
497.746	669.94
497.963	672.94
498.181	698.94
498.398	683.94
498.615	693.94
498.832	712.94
499.049	732.94
499.267	733.94
499.484	772.94
499.701	743.94
499.918	785.94
500.135	801.94
500.352	804.94
500.569	797.94
500.786	844.94
501.003	815.94
501.22	833.94
501.437	809.94
501.654	802.94
501.871	793.94
