Data from 1971.PennyLincolnUp.Lamp.En5.5.200Scan.071719.P1._HRD10591_15-20-02-840.txt Node
Date: Thu Jul 18 15:20:02 EDT 2019
User: cochatt
Spectrometer: HR+D1059
Trigger mode: 1
Integration Time (sec): 1.000000E-1
Scans to average: 1
Electric dark correction enabled: true
Nonlinearity correction enabled: false
Boxcar width: 0
XAxis mode: Wavelengths
Number of Pixels in Spectrum: 2048
>>>>>Begin Spectral Data<<<<<
223.165	-14.62
223.4	-14.62
223.635	-14.62
223.869	-14.62
224.104	-22.62
224.338	-18.62
224.573	-12.62
224.808	-2.62
225.042	-16.62
225.277	0.38
225.511	9.38
225.746	6.38
225.98	8.38
226.215	21.38
226.449	-1.62
226.683	10.38
226.918	20.38
227.152	27.38
227.387	27.38
227.621	50.38
227.856	35.38
228.09	41.38
228.324	45.38
228.559	54.38
228.793	59.38
229.027	98.38
229.262	101.38
229.496	121.38
229.73	115.38
229.964	143.38
230.199	119.38
230.433	104.38
230.667	103.38
230.901	110.38
231.136	98.38
231.37	108.38
231.604	105.38
231.838	118.38
232.072	123.38
232.306	103.38
232.541	110.38
232.775	123.38
233.009	123.38
233.243	118.38
233.477	101.38
233.711	123.38
233.945	111.38
234.179	127.38
234.413	117.38
234.647	120.38
234.881	119.38
235.115	114.38
235.349	108.38
235.583	122.38
235.817	127.38
236.051	118.38
236.285	113.38
236.519	121.38
236.753	129.38
236.987	146.38
237.221	172.38
237.455	227.38
237.689	169.38
237.922	133.38
238.156	139.38
238.39	138.38
238.624	120.38
238.858	130.38
239.091	122.38
239.325	113.38
239.559	122.38
239.793	131.38
240.027	124.38
240.26	137.38
240.494	159.38
240.728	145.38
240.961	147.38
241.195	140.38
241.429	147.38
241.662	122.38
241.896	147.38
242.13	115.38
242.363	129.38
242.597	138.38
242.83	129.38
243.064	137.38
243.298	132.38
243.531	109.38
243.765	159.38
243.998	147.38
244.232	123.38
244.465	143.38
244.699	135.38
244.932	160.38
245.166	153.38
245.399	139.38
245.633	147.38
245.866	152.38
246.099	128.38
246.333	160.38
246.566	150.38
246.8	151.38
247.033	148.38
247.266	156.38
247.5	159.38
247.733	182.38
247.966	181.38
248.2	169.38
248.433	183.38
248.666	163.38
248.899	186.38
249.133	198.38
249.366	213.38
249.599	198.38
249.832	191.38
250.066	196.38
250.299	185.38
250.532	191.38
250.765	212.38
250.998	233.38
251.231	238.38
251.465	210.38
251.698	226.38
251.931	211.38
252.164	189.38
252.397	204.38
252.63	203.38
252.863	216.38
253.096	229.38
253.329	235.38
253.562	228.38
253.795	206.38
254.028	224.38
254.261	214.38
254.494	233.38
254.727	263.38
254.96	289.38
255.193	283.38
255.426	268.38
255.659	244.38
255.892	241.38
256.124	261.38
256.357	228.38
256.59	234.38
256.823	241.38
257.056	241.38
257.289	232.38
257.521	233.38
257.754	217.38
257.987	205.38
258.22	217.38
258.452	212.38
258.685	235.38
258.918	203.38
259.151	217.38
259.383	225.38
259.616	248.38
259.849	251.38
260.081	255.38
260.314	270.38
260.547	261.38
260.779	250.38
261.012	243.38
261.244	243.38
261.477	250.38
261.71	221.38
261.942	225.38
262.175	250.38
262.407	246.38
262.64	222.38
262.872	217.38
263.105	222.38
263.337	233.38
263.57	223.38
263.802	223.38
264.035	238.38
264.267	212.38
264.499	235.38
264.732	225.38
264.964	215.38
265.197	210.38
265.429	227.38
265.661	230.38
265.894	230.38
266.126	222.38
266.358	241.38
266.591	228.38
266.823	261.38
267.055	230.38
267.287	245.38
267.52	235.38
267.752	244.38
267.984	234.38
268.216	242.38
268.448	259.38
268.681	248.38
268.913	263.38
269.145	271.38
269.377	279.38
269.609	310.38
269.841	292.38
270.073	291.38
270.306	301.38
270.538	344.38
270.77	329.38
271.002	318.38
271.234	313.38
271.466	329.38
271.698	338.38
271.93	321.38
272.162	344.38
272.394	320.38
272.626	340.38
272.858	290.38
273.09	295.38
273.322	310.38
273.553	294.38
273.785	291.38
274.017	271.38
274.249	272.38
274.481	285.38
274.713	263.38
274.945	289.38
275.176	281.38
275.408	279.38
275.64	275.38
275.872	294.38
276.104	283.38
276.335	285.38
276.567	298.38
276.799	282.38
277.031	325.38
277.262	338.38
277.494	326.38
277.726	293.38
277.957	283.38
278.189	307.38
278.421	284.38
278.652	294.38
278.884	293.38
279.115	306.38
279.347	307.38
279.579	267.38
279.81	294.38
280.042	303.38
280.273	283.38
280.505	279.38
280.736	289.38
280.968	274.38
281.199	277.38
281.431	280.38
281.662	272.38
281.894	290.38
282.125	259.38
282.356	286.38
282.588	322.38
282.819	294.38
283.051	298.38
283.282	298.38
283.513	302.38
283.745	290.38
283.976	299.38
284.207	295.38
284.439	294.38
284.67	283.38
284.901	300.38
285.132	300.38
285.364	284.38
285.595	290.38
285.826	281.38
286.057	291.38
286.288	294.38
286.52	298.38
286.751	302.38
286.982	292.38
287.213	275.38
287.444	305.38
287.675	316.38
287.906	322.38
288.138	321.38
288.369	311.38
288.6	329.38
288.831	318.38
289.062	322.38
289.293	284.38
289.524	297.38
289.755	301.38
289.986	310.38
290.217	285.38
290.448	315.38
290.679	307.38
290.91	309.38
291.141	285.38
291.371	313.38
291.602	294.38
291.833	305.38
292.064	295.38
292.295	289.38
292.526	297.38
292.757	283.38
292.987	281.38
293.218	302.38
293.449	311.38
293.68	300.38
293.91	305.38
294.141	303.38
294.372	317.38
294.603	309.38
294.833	317.38
295.064	337.38
295.295	294.38
295.525	310.38
295.756	327.38
295.987	323.38
296.217	335.38
296.448	346.38
296.679	334.38
296.909	327.38
297.14	309.38
297.37	314.38
297.601	324.38
297.831	301.38
298.062	317.38
298.292	309.38
298.523	317.38
298.753	317.38
298.984	325.38
299.214	316.38
299.445	309.38
299.675	322.38
299.905	344.38
300.136	343.38
300.366	321.38
300.597	338.38
300.827	341.38
301.057	344.38
301.288	335.38
301.518	345.38
301.748	333.38
301.979	331.38
302.209	331.38
302.439	339.38
302.669	355.38
302.9	342.38
303.13	331.38
303.36	349.38
303.59	352.38
303.82	335.38
304.051	339.38
304.281	361.38
304.511	342.38
304.741	337.38
304.971	347.38
305.201	323.38
305.431	343.38
305.661	337.38
305.891	357.38
306.121	330.38
306.352	346.38
306.582	343.38
306.812	330.38
307.042	337.38
307.272	339.38
307.502	326.38
307.731	356.38
307.961	340.38
308.191	359.38
308.421	351.38
308.651	362.38
308.881	349.38
309.111	370.38
309.341	375.38
309.571	374.38
309.8	377.38
310.03	385.38
310.26	380.38
310.49	379.38
310.72	385.38
310.949	415.38
311.179	430.38
311.409	386.38
311.639	396.38
311.868	386.38
312.098	399.38
312.328	391.38
312.557	406.38
312.787	440.38
313.017	407.38
313.246	405.38
313.476	376.38
313.706	386.38
313.935	381.38
314.165	397.38
314.394	419.38
314.624	405.38
314.853	377.38
315.083	398.38
315.312	380.38
315.542	418.38
315.771	387.38
316.001	382.38
316.23	405.38
316.46	378.38
316.689	379.38
316.919	391.38
317.148	412.38
317.377	403.38
317.607	407.38
317.836	415.38
318.065	379.38
318.295	398.38
318.524	399.38
318.753	399.38
318.983	387.38
319.212	400.38
319.441	404.38
319.67	392.38
319.9	381.38
320.129	397.38
320.358	397.38
320.587	423.38
320.816	418.38
321.046	428.38
321.275	415.38
321.504	412.38
321.733	399.38
321.962	407.38
322.191	453.38
322.42	431.38
322.649	440.38
322.878	465.38
323.108	486.38
323.337	507.38
323.566	527.38
323.795	543.38
324.024	597.38
324.253	701.38
324.482	982.38
324.71	1543.38
324.939	2063.38
325.168	1697.38
325.397	905.38
325.626	651.38
325.855	524.38
326.084	523.38
326.313	495.38
326.542	517.38
326.77	578.38
326.999	674.38
327.228	906.38
327.457	1320.38
327.686	1496.38
327.914	990.38
328.143	692.38
328.372	612.38
328.6	598.38
328.829	575.38
329.058	565.38
329.287	602.38
329.515	541.38
329.744	514.38
329.972	535.38
330.201	546.38
330.43	564.38
330.658	600.38
330.887	614.38
331.115	582.38
331.344	518.38
331.572	488.38
331.801	479.38
332.03	483.38
332.258	464.38
332.486	431.38
332.715	460.38
332.943	459.38
333.172	454.38
333.4	454.38
333.629	477.38
333.857	475.38
334.085	468.38
334.314	494.38
334.542	515.38
334.771	503.38
334.999	498.38
335.227	485.38
335.455	468.38
335.684	452.38
335.912	455.38
336.14	450.38
336.369	442.38
336.597	472.38
336.825	467.38
337.053	461.38
337.281	445.38
337.51	447.38
337.738	450.38
337.966	455.38
338.194	454.38
338.422	437.38
338.65	443.38
338.878	435.38
339.106	449.38
339.334	453.38
339.562	440.38
339.79	430.38
340.018	458.38
340.246	433.38
340.474	445.38
340.702	438.38
340.93	413.38
341.158	437.38
341.386	438.38
341.614	431.38
341.842	441.38
342.07	445.38
342.298	426.38
342.526	413.38
342.754	414.38
342.981	413.38
343.209	412.38
343.437	420.38
343.665	433.38
343.893	428.38
344.12	427.38
344.348	446.38
344.576	459.38
344.804	434.38
345.031	426.38
345.259	421.38
345.487	449.38
345.714	447.38
345.942	424.38
346.17	416.38
346.397	394.38
346.625	421.38
346.853	401.38
347.08	413.38
347.308	392.38
347.535	429.38
347.763	412.38
347.99	419.38
348.218	425.38
348.445	421.38
348.673	440.38
348.9	423.38
349.128	409.38
349.355	407.38
349.583	399.38
349.81	388.38
350.037	386.38
350.265	397.38
350.492	394.38
350.72	393.38
350.947	412.38
351.174	410.38
351.402	399.38
351.629	409.38
351.856	443.38
352.083	421.38
352.311	428.38
352.538	417.38
352.765	424.38
352.992	401.38
353.22	394.38
353.447	410.38
353.674	397.38
353.901	381.38
354.128	387.38
354.355	391.38
354.583	374.38
354.81	381.38
355.037	372.38
355.264	376.38
355.491	360.38
355.718	375.38
355.945	382.38
356.172	380.38
356.399	371.38
356.626	357.38
356.853	373.38
357.08	371.38
357.307	381.38
357.534	381.38
357.761	358.38
357.988	366.38
358.215	372.38
358.441	364.38
358.668	381.38
358.895	372.38
359.122	385.38
359.349	395.38
359.576	396.38
359.802	420.38
360.029	455.38
360.256	445.38
360.483	427.38
360.709	392.38
360.936	380.38
361.163	411.38
361.39	408.38
361.616	397.38
361.843	387.38
362.07	411.38
362.296	411.38
362.523	395.38
362.749	390.38
362.976	389.38
363.203	389.38
363.429	375.38
363.656	379.38
363.882	384.38
364.109	376.38
364.335	353.38
364.562	381.38
364.788	384.38
365.015	375.38
365.241	375.38
365.468	375.38
365.694	357.38
365.92	385.38
366.147	374.38
366.373	371.38
366.599	357.38
366.826	363.38
367.052	370.38
367.278	394.38
367.505	363.38
367.731	378.38
367.957	387.38
368.184	356.38
368.41	374.38
368.636	381.38
368.862	403.38
369.089	376.38
369.315	356.38
369.541	358.38
369.767	380.38
369.993	379.38
370.219	380.38
370.445	391.38
370.672	376.38
370.898	374.38
371.124	353.38
371.35	365.38
371.576	361.38
371.802	369.38
372.028	365.38
372.254	355.38
372.48	395.38
372.706	361.38
372.932	357.38
373.158	363.38
373.384	377.38
373.61	367.38
373.835	383.38
374.061	365.38
374.287	383.38
374.513	385.38
374.739	387.38
374.965	355.38
375.191	361.38
375.416	373.38
375.642	367.38
375.868	380.38
376.094	347.38
376.319	373.38
376.545	387.38
376.771	343.38
376.997	363.38
377.222	383.38
377.448	381.38
377.674	362.38
377.899	350.38
378.125	370.38
378.35	362.38
378.576	337.38
378.802	337.38
379.027	363.38
379.253	349.38
379.478	343.38
379.704	351.38
379.929	347.38
380.155	361.38
380.38	364.38
380.606	360.38
380.831	363.38
381.057	367.38
381.282	356.38
381.507	348.38
381.733	370.38
381.958	375.38
382.184	348.38
382.409	353.38
382.634	371.38
382.86	373.38
383.085	365.38
383.31	373.38
383.535	361.38
383.761	365.38
383.986	365.38
384.211	376.38
384.436	376.38
384.662	369.38
384.887	386.38
385.112	365.38
385.337	371.38
385.562	370.38
385.787	373.38
386.013	404.38
386.238	373.38
386.463	380.38
386.688	396.38
386.913	380.38
387.138	384.38
387.363	389.38
387.588	372.38
387.813	381.38
388.038	379.38
388.263	395.38
388.488	380.38
388.713	396.38
388.938	378.38
389.163	384.38
389.387	401.38
389.612	372.38
389.837	374.38
390.062	366.38
390.287	369.38
390.512	395.38
390.736	381.38
390.961	367.38
391.186	378.38
391.411	377.38
391.636	374.38
391.86	398.38
392.085	385.38
392.31	388.38
392.534	382.38
392.759	382.38
392.984	384.38
393.208	380.38
393.433	386.38
393.658	364.38
393.882	379.38
394.107	389.38
394.331	377.38
394.556	377.38
394.78	386.38
395.005	399.38
395.229	386.38
395.454	389.38
395.678	386.38
395.903	417.38
396.127	437.38
396.352	409.38
396.576	385.38
396.801	375.38
397.025	396.38
397.249	400.38
397.474	396.38
397.698	435.38
397.922	408.38
398.147	426.38
398.371	434.38
398.595	422.38
398.82	447.38
399.044	442.38
399.268	433.38
399.492	471.38
399.717	483.38
399.941	498.38
400.165	526.38
400.389	504.38
400.613	473.38
400.837	443.38
401.062	416.38
401.286	442.38
401.51	417.38
401.734	418.38
401.958	442.38
402.182	429.38
402.406	456.38
402.63	441.38
402.854	421.38
403.078	445.38
403.302	427.38
403.526	440.38
403.75	441.38
403.974	451.38
404.198	428.38
404.422	452.38
404.645	455.38
404.869	442.38
405.093	483.38
405.317	509.38
405.541	518.38
405.765	491.38
405.988	467.38
406.212	477.38
406.436	457.38
406.66	500.38
406.883	470.38
407.107	491.38
407.331	529.38
407.555	571.38
407.778	585.38
408.002	525.38
408.226	504.38
408.449	481.38
408.673	477.38
408.896	511.38
409.12	546.38
409.344	497.38
409.567	462.38
409.791	443.38
410.014	435.38
410.238	447.38
410.461	437.38
410.685	437.38
410.908	460.38
411.132	461.38
411.355	534.38
411.578	495.38
411.802	454.38
412.025	414.38
412.249	444.38
412.472	471.38
412.695	479.38
412.919	488.38
413.142	444.38
413.365	422.38
413.589	437.38
413.812	418.38
414.035	406.38
414.258	405.38
414.482	398.38
414.705	409.38
414.928	395.38
415.151	393.38
415.374	400.38
415.597	409.38
415.821	404.38
416.044	398.38
416.267	397.38
416.49	399.38
416.713	402.38
416.936	399.38
417.159	428.38
417.382	413.38
417.605	403.38
417.828	435.38
418.051	420.38
418.274	422.38
418.497	397.38
418.72	410.38
418.943	410.38
419.166	415.38
419.389	444.38
419.611	439.38
419.834	421.38
420.057	420.38
420.28	456.38
420.503	424.38
420.726	426.38
420.948	431.38
421.171	481.38
421.394	501.38
421.617	463.38
421.839	438.38
422.062	423.38
422.285	435.38
422.507	495.38
422.73	563.38
422.953	523.38
423.175	469.38
423.398	473.38
423.621	454.38
423.843	471.38
424.066	466.38
424.288	468.38
424.511	485.38
424.733	543.38
424.956	620.38
425.178	575.38
425.401	582.38
425.623	595.38
425.846	478.38
426.068	465.38
426.291	437.38
426.513	468.38
426.735	491.38
426.958	529.38
427.18	589.38
427.402	686.38
427.625	734.38
427.847	660.38
428.069	567.38
428.292	507.38
428.514	476.38
428.736	439.38
428.958	450.38
429.181	433.38
429.403	442.38
429.625	444.38
429.847	473.38
430.069	531.38
430.292	495.38
430.514	421.38
430.736	429.38
430.958	411.38
431.18	404.38
431.402	400.38
431.624	406.38
431.846	411.38
432.068	406.38
432.29	392.38
432.512	405.38
432.734	395.38
432.956	407.38
433.178	433.38
433.4	427.38
433.622	417.38
433.844	392.38
434.066	411.38
434.287	383.38
434.509	413.38
434.731	420.38
434.953	399.38
435.175	441.38
435.397	446.38
435.618	467.38
435.84	499.38
436.062	583.38
436.284	622.38
436.505	495.38
436.727	461.38
436.949	449.38
437.17	450.38
437.392	434.38
437.614	454.38
437.835	476.38
438.057	551.38
438.278	648.38
438.5	622.38
438.721	683.38
438.943	644.38
439.165	529.38
439.386	501.38
439.608	477.38
439.829	471.38
440.05	482.38
440.272	538.38
440.493	496.38
440.715	479.38
440.936	450.38
441.158	416.38
441.379	423.38
441.6	459.38
441.822	475.38
442.043	481.38
442.264	556.38
442.486	606.38
442.707	517.38
442.928	479.38
443.149	483.38
443.371	508.38
443.592	538.38
443.813	609.38
444.034	649.38
444.255	554.38
444.476	485.38
444.698	458.38
444.919	454.38
445.14	565.38
445.361	530.38
445.582	506.38
445.803	554.38
446.024	627.38
446.245	663.38
446.466	574.38
446.687	493.38
446.908	473.38
447.129	455.38
447.35	431.38
447.571	418.38
447.792	419.38
448.013	427.38
448.234	456.38
448.455	489.38
448.675	586.38
448.896	665.38
449.117	570.38
449.338	551.38
449.559	651.38
449.779	691.38
450	547.38
450.221	478.38
450.442	441.38
450.662	428.38
450.883	425.38
451.104	439.38
451.324	428.38
451.545	408.38
451.766	395.38
451.986	399.38
452.207	381.38
452.428	380.38
452.648	385.38
452.869	381.38
453.089	401.38
453.31	399.38
453.53	363.38
453.751	374.38
453.971	357.38
454.192	393.38
454.412	399.38
454.633	375.38
454.853	385.38
455.073	373.38
455.294	410.38
455.514	459.38
455.734	444.38
455.955	400.38
456.175	356.38
456.395	371.38
456.616	363.38
456.836	361.38
457.056	349.38
457.276	335.38
457.497	372.38
457.717	359.38
457.937	354.38
458.157	351.38
458.377	377.38
458.598	391.38
458.818	431.38
459.038	489.38
459.258	510.38
459.478	429.38
459.698	405.38
459.918	374.38
460.138	393.38
460.358	401.38
460.578	390.38
460.798	398.38
461.018	415.38
461.238	382.38
461.458	371.38
461.678	375.38
461.898	395.38
462.118	397.38
462.338	382.38
462.558	404.38
462.777	423.38
462.997	434.38
463.217	416.38
463.437	420.38
463.657	422.38
463.876	415.38
464.096	425.38
464.316	424.38
464.536	420.38
464.755	434.38
464.975	431.38
465.195	472.38
465.414	515.38
465.634	454.38
465.854	419.38
466.073	399.38
466.293	413.38
466.512	394.38
466.732	391.38
466.951	375.38
467.171	374.38
467.391	390.38
467.61	415.38
467.829	405.38
468.049	407.38
468.268	395.38
468.488	396.38
468.707	367.38
468.927	385.38
469.146	379.38
469.365	358.38
469.585	369.38
469.804	397.38
470.023	389.38
470.243	395.38
470.462	388.38
470.681	410.38
470.901	403.38
471.12	388.38
471.339	417.38
471.558	400.38
471.777	381.38
471.997	390.38
472.216	395.38
472.435	416.38
472.654	413.38
472.873	393.38
473.092	385.38
473.311	381.38
473.53	402.38
473.749	404.38
473.968	436.38
474.187	525.38
474.406	563.38
474.625	453.38
474.844	411.38
475.063	409.38
475.282	384.38
475.501	395.38
475.72	385.38
475.939	393.38
476.158	406.38
476.377	407.38
476.596	400.38
476.814	406.38
477.033	415.38
477.252	411.38
477.471	417.38
477.69	421.38
477.908	421.38
478.127	418.38
478.346	425.38
478.564	432.38
478.783	455.38
479.002	446.38
479.22	443.38
479.439	455.38
479.658	453.38
479.876	467.38
480.095	479.38
480.313	492.38
480.532	467.38
480.751	478.38
480.969	490.38
481.188	516.38
481.406	533.38
481.624	502.38
481.843	456.38
482.061	462.38
482.28	450.38
482.498	457.38
482.717	442.38
482.935	449.38
483.153	468.38
483.372	460.38
483.59	445.38
483.808	474.38
484.027	463.38
484.245	461.38
484.463	459.38
484.681	471.38
484.9	458.38
485.118	443.38
485.336	461.38
485.554	462.38
485.772	485.38
485.99	462.38
486.209	441.38
486.427	455.38
486.645	476.38
486.863	478.38
487.081	491.38
487.299	487.38
487.517	485.38
487.735	513.38
487.953	481.38
488.171	473.38
488.389	493.38
488.607	483.38
488.825	486.38
489.043	476.38
489.261	504.38
489.479	487.38
489.696	507.38
489.914	486.38
490.132	511.38
490.35	511.38
490.568	517.38
490.786	535.38
491.003	542.38
491.221	538.38
491.439	543.38
491.657	560.38
491.874	548.38
492.092	579.38
492.31	574.38
492.527	576.38
492.745	556.38
492.963	565.38
493.18	558.38
493.398	568.38
493.615	585.38
493.833	567.38
494.05	563.38
494.268	597.38
494.485	598.38
494.703	572.38
494.92	558.38
495.138	571.38
495.355	578.38
495.573	594.38
495.79	579.38
496.008	583.38
496.225	579.38
496.442	573.38
496.66	577.38
496.877	572.38
497.094	577.38
497.312	584.38
497.529	616.38
497.746	590.38
497.963	576.38
498.181	619.38
498.398	638.38
498.615	627.38
498.832	643.38
499.049	653.38
499.267	637.38
499.484	661.38
499.701	668.38
499.918	689.38
500.135	771.38
500.352	742.38
500.569	757.38
500.786	765.38
501.003	788.38
501.22	734.38
501.437	717.38
501.654	718.38
501.871	712.38
