Data from 1971.PennyLincolnUp.Lamp.En5.5.200Scan.071719.P1._HRD10591_15-20-46-841.txt Node
Date: Thu Jul 18 15:20:46 EDT 2019
User: cochatt
Spectrometer: HR+D1059
Trigger mode: 1
Integration Time (sec): 1.000000E-1
Scans to average: 1
Electric dark correction enabled: true
Nonlinearity correction enabled: false
Boxcar width: 0
XAxis mode: Wavelengths
Number of Pixels in Spectrum: 2048
>>>>>Begin Spectral Data<<<<<
223.165	-16
223.4	-16
223.635	-16
223.869	-16
224.104	-17
224.338	-13
224.573	-9
224.808	-8
225.042	-8
225.277	-10
225.511	-3
225.746	5
225.98	6
226.215	3
226.449	8
226.683	15
226.918	25
227.152	38
227.387	29
227.621	32
227.856	55
228.09	43
228.324	46
228.559	64
228.793	66
229.027	102
229.262	113
229.496	110
229.73	120
229.964	125
230.199	127
230.433	113
230.667	104
230.901	117
231.136	115
231.37	115
231.604	112
231.838	112
232.072	121
232.306	120
232.541	99
232.775	113
233.009	114
233.243	120
233.477	112
233.711	109
233.945	113
234.179	128
234.413	112
234.647	108
234.881	113
235.115	112
235.349	128
235.583	127
235.817	124
236.051	121
236.285	114
236.519	131
236.753	146
236.987	159
237.221	162
237.455	226
237.689	182
237.922	142
238.156	140
238.39	136
238.624	134
238.858	127
239.091	134
239.325	129
239.559	112
239.793	123
240.027	139
240.26	143
240.494	139
240.728	140
240.961	157
241.195	153
241.429	146
241.662	144
241.896	139
242.13	152
242.363	149
242.597	150
242.83	151
243.064	140
243.298	128
243.531	151
243.765	137
243.998	135
244.232	166
244.465	151
244.699	154
244.932	169
245.166	138
245.399	145
245.633	157
245.866	149
246.099	153
246.333	149
246.566	165
246.8	144
247.033	154
247.266	151
247.5	163
247.733	160
247.966	165
248.2	200
248.433	179
248.666	181
248.899	200
249.133	189
249.366	232
249.599	191
249.832	193
250.066	185
250.299	185
250.532	203
250.765	200
250.998	223
251.231	243
251.465	233
251.698	197
251.931	200
252.164	195
252.397	206
252.63	209
252.863	226
253.096	217
253.329	242
253.562	218
253.795	234
254.028	218
254.261	218
254.494	234
254.727	260
254.96	275
255.193	268
255.426	255
255.659	237
255.892	236
256.124	229
256.357	229
256.59	225
256.823	229
257.056	226
257.289	216
257.521	226
257.754	221
257.987	217
258.22	232
258.452	234
258.685	221
258.918	213
259.151	212
259.383	239
259.616	215
259.849	245
260.081	247
260.314	257
260.547	267
260.779	263
261.012	252
261.244	248
261.477	232
261.71	238
261.942	237
262.175	230
262.407	233
262.64	237
262.872	209
263.105	237
263.337	233
263.57	225
263.802	222
264.035	201
264.267	209
264.499	238
264.732	255
264.964	221
265.197	232
265.429	227
265.661	227
265.894	221
266.126	248
266.358	213
266.591	227
266.823	231
267.055	245
267.287	238
267.52	231
267.752	231
267.984	220
268.216	229
268.448	248
268.681	250
268.913	240
269.145	285
269.377	279
269.609	297
269.841	277
270.073	283
270.306	321
270.538	337
270.77	346
271.002	301
271.234	318
271.466	316
271.698	330
271.93	313
272.162	344
272.394	338
272.626	337
272.858	299
273.09	297
273.322	279
273.553	281
273.785	274
274.017	297
274.249	263
274.481	255
274.713	266
274.945	283
275.176	270
275.408	271
275.64	277
275.872	294
276.104	266
276.335	283
276.567	272
276.799	295
277.031	325
277.262	314
277.494	320
277.726	322
277.957	299
278.189	281
278.421	299
278.652	296
278.884	277
279.115	279
279.347	288
279.579	277
279.81	274
280.042	276
280.273	270
280.505	270
280.736	286
280.968	282
281.199	278
281.431	273
281.662	272
281.894	287
282.125	284
282.356	304
282.588	312
282.819	322
283.051	284
283.282	283
283.513	311
283.745	282
283.976	274
284.207	304
284.439	294
284.67	287
284.901	307
285.132	305
285.364	293
285.595	282
285.826	290
286.057	275
286.288	301
286.52	291
286.751	298
286.982	290
287.213	301
287.444	303
287.675	309
287.906	316
288.138	327
288.369	327
288.6	315
288.831	304
289.062	318
289.293	287
289.524	299
289.755	284
289.986	306
290.217	313
290.448	318
290.679	315
290.91	295
291.141	298
291.371	305
291.602	304
291.833	307
292.064	299
292.295	313
292.526	302
292.757	297
292.987	319
293.218	317
293.449	314
293.68	299
293.91	289
294.141	298
294.372	297
294.603	311
294.833	303
295.064	297
295.295	311
295.525	301
295.756	317
295.987	312
296.217	313
296.448	336
296.679	298
296.909	298
297.14	317
297.37	308
297.601	307
297.831	319
298.062	329
298.292	315
298.523	296
298.753	320
298.984	301
299.214	319
299.445	321
299.675	326
299.905	316
300.136	300
300.366	313
300.597	335
300.827	340
301.057	340
301.288	336
301.518	354
301.748	329
301.979	352
302.209	346
302.439	345
302.669	331
302.9	331
303.13	332
303.36	336
303.59	335
303.82	326
304.051	358
304.281	352
304.511	342
304.741	345
304.971	337
305.201	321
305.431	358
305.661	353
305.891	336
306.121	347
306.352	355
306.582	370
306.812	334
307.042	342
307.272	349
307.502	339
307.731	325
307.961	371
308.191	351
308.421	351
308.651	343
308.881	353
309.111	353
309.341	365
309.571	374
309.8	386
310.03	397
310.26	377
310.49	377
310.72	371
310.949	425
311.179	399
311.409	372
311.639	381
311.868	386
312.098	387
312.328	413
312.557	404
312.787	411
313.017	416
313.246	403
313.476	399
313.706	378
313.935	367
314.165	409
314.394	393
314.624	398
314.853	387
315.083	391
315.312	392
315.542	389
315.771	398
316.001	385
316.23	386
316.46	379
316.689	373
316.919	396
317.148	410
317.377	382
317.607	388
317.836	385
318.065	371
318.295	384
318.524	387
318.753	377
318.983	374
319.212	381
319.441	388
319.67	394
319.9	395
320.129	396
320.358	391
320.587	393
320.816	385
321.046	411
321.275	412
321.504	401
321.733	408
321.962	416
322.191	423
322.42	438
322.649	445
322.878	451
323.108	461
323.337	475
323.566	503
323.795	535
324.024	586
324.253	705
324.482	1011
324.71	1506
324.939	2041
325.168	1726
325.397	894
325.626	637
325.855	550
326.084	525
326.313	485
326.542	517
326.77	584
326.999	652
327.228	914
327.457	1279
327.686	1521
327.914	1057
328.143	688
328.372	605
328.6	565
328.829	581
329.058	564
329.287	540
329.515	515
329.744	493
329.972	513
330.201	554
330.43	569
330.658	585
330.887	584
331.115	554
331.344	514
331.572	488
331.801	487
332.03	480
332.258	466
332.486	449
332.715	463
332.943	447
333.172	443
333.4	459
333.629	446
333.857	485
334.085	453
334.314	482
334.542	507
334.771	501
334.999	503
335.227	480
335.455	443
335.684	443
335.912	457
336.14	432
336.369	459
336.597	430
336.825	446
337.053	429
337.281	443
337.51	450
337.738	457
337.966	425
338.194	424
338.422	455
338.65	423
338.878	424
339.106	430
339.334	431
339.562	427
339.79	418
340.018	431
340.246	436
340.474	421
340.702	400
340.93	409
341.158	426
341.386	403
341.614	422
341.842	413
342.07	401
342.298	402
342.526	409
342.754	400
342.981	409
343.209	405
343.437	409
343.665	400
343.893	413
344.12	438
344.348	431
344.576	415
344.804	445
345.031	449
345.259	427
345.487	421
345.714	431
345.942	400
346.17	405
346.397	416
346.625	427
346.853	403
347.08	402
347.308	400
347.535	407
347.763	413
347.99	416
348.218	396
348.445	415
348.673	403
348.9	409
349.128	385
349.355	407
349.583	409
349.81	395
350.037	393
350.265	370
350.492	385
350.72	401
350.947	385
351.174	383
351.402	412
351.629	409
351.856	403
352.083	418
352.311	413
352.538	421
352.765	403
352.992	396
353.22	391
353.447	388
353.674	379
353.901	393
354.128	387
354.355	361
354.583	373
354.81	360
355.037	366
355.264	368
355.491	365
355.718	378
355.945	351
356.172	375
356.399	366
356.626	352
356.853	359
357.08	378
357.307	367
357.534	367
357.761	378
357.988	389
358.215	380
358.441	378
358.668	367
358.895	381
359.122	376
359.349	385
359.576	388
359.802	407
360.029	428
360.256	427
360.483	411
360.709	392
360.936	419
361.163	409
361.39	393
361.616	381
361.843	383
362.07	396
362.296	393
362.523	381
362.749	382
362.976	399
363.203	370
363.429	361
363.656	381
363.882	359
364.109	365
364.335	384
364.562	383
364.788	360
365.015	356
365.241	369
365.468	365
365.694	392
365.92	377
366.147	374
366.373	361
366.599	357
366.826	356
367.052	374
367.278	371
367.505	357
367.731	369
367.957	382
368.184	357
368.41	373
368.636	389
368.862	393
369.089	382
369.315	375
369.541	376
369.767	365
369.993	371
370.219	353
370.445	367
370.672	360
370.898	355
371.124	343
371.35	365
371.576	367
371.802	356
372.028	374
372.254	377
372.48	366
372.706	356
372.932	362
373.158	352
373.384	382
373.61	370
373.835	375
374.061	354
374.287	359
374.513	384
374.739	378
374.965	380
375.191	379
375.416	378
375.642	377
375.868	357
376.094	344
376.319	375
376.545	362
376.771	376
376.997	345
377.222	362
377.448	357
377.674	357
377.899	346
378.125	379
378.35	361
378.576	363
378.802	337
379.027	365
379.253	340
379.478	340
379.704	357
379.929	342
380.155	332
380.38	355
380.606	354
380.831	373
381.057	365
381.282	360
381.507	362
381.733	370
381.958	346
382.184	356
382.409	376
382.634	357
382.86	361
383.085	373
383.31	358
383.535	346
383.761	376
383.986	368
384.211	370
384.436	384
384.662	365
384.887	365
385.112	377
385.337	377
385.562	360
385.787	393
386.013	373
386.238	385
386.463	387
386.688	370
386.913	393
387.138	365
387.363	371
387.588	384
387.813	377
388.038	379
388.263	378
388.488	361
388.713	370
388.938	344
389.163	386
389.387	382
389.612	379
389.837	399
390.062	385
390.287	377
390.512	366
390.736	377
390.961	369
391.186	371
391.411	370
391.636	387
391.86	385
392.085	380
392.31	382
392.534	385
392.759	385
392.984	393
393.208	368
393.433	363
393.658	372
393.882	370
394.107	377
394.331	374
394.556	365
394.78	379
395.005	397
395.229	378
395.454	387
395.678	396
395.903	396
396.127	412
396.352	390
396.576	384
396.801	394
397.025	401
397.249	390
397.474	384
397.698	401
397.922	416
398.147	401
398.371	430
398.595	409
398.82	411
399.044	397
399.268	421
399.492	460
399.717	476
399.941	489
400.165	501
400.389	512
400.613	461
400.837	453
401.062	430
401.286	403
401.51	424
401.734	413
401.958	418
402.182	417
402.406	432
402.63	427
402.854	427
403.078	398
403.302	443
403.526	454
403.75	440
403.974	426
404.198	422
404.422	431
404.645	435
404.869	448
405.093	477
405.317	478
405.541	503
405.765	468
405.988	463
406.212	466
406.436	466
406.66	465
406.883	470
407.107	476
407.331	518
407.555	541
407.778	560
408.002	517
408.226	462
408.449	466
408.673	474
408.896	519
409.12	539
409.344	498
409.567	465
409.791	456
410.014	439
410.238	423
410.461	440
410.685	428
410.908	441
411.132	446
411.355	499
411.578	498
411.802	438
412.025	402
412.249	438
412.472	456
412.695	482
412.919	490
413.142	415
413.365	432
413.589	429
413.812	403
414.035	406
414.258	394
414.482	399
414.705	425
414.928	425
415.151	390
415.374	390
415.597	383
415.821	375
416.044	417
416.267	395
416.49	402
416.713	413
416.936	415
417.159	400
417.382	404
417.605	395
417.828	437
418.051	421
418.274	419
418.497	402
418.72	407
418.943	399
419.166	422
419.389	429
419.611	428
419.834	433
420.057	434
420.28	429
420.503	415
420.726	416
420.948	439
421.171	474
421.394	513
421.617	438
421.839	442
422.062	426
422.285	449
422.507	475
422.73	533
422.953	537
423.175	468
423.398	437
423.621	455
423.843	468
424.066	439
424.288	473
424.511	473
424.733	511
424.956	568
425.178	532
425.401	558
425.623	583
425.846	477
426.068	456
426.291	453
426.513	459
426.735	459
426.958	504
427.18	566
427.402	669
427.625	711
427.847	625
428.069	542
428.292	494
428.514	418
428.736	420
428.958	429
429.181	418
429.403	421
429.625	423
429.847	447
430.069	524
430.292	474
430.514	443
430.736	416
430.958	421
431.18	402
431.402	413
431.624	389
431.846	396
432.068	382
432.29	369
432.512	393
432.734	386
432.956	410
433.178	410
433.4	413
433.622	409
433.844	402
434.066	387
434.287	378
434.509	404
434.731	405
434.953	444
435.175	418
435.397	451
435.618	460
435.84	491
436.062	561
436.284	625
436.505	511
436.727	475
436.949	437
437.17	437
437.392	427
437.614	437
437.835	440
438.057	555
438.278	634
438.5	618
438.721	683
438.943	641
439.165	522
439.386	487
439.608	460
439.829	446
440.05	477
440.272	512
440.493	483
440.715	457
440.936	447
441.158	417
441.379	430
441.6	439
441.822	471
442.043	494
442.264	534
442.486	602
442.707	506
442.928	468
443.149	486
443.371	486
443.592	536
443.813	609
444.034	641
444.255	529
444.476	492
444.698	447
444.919	440
445.14	535
445.361	506
445.582	473
445.803	553
446.024	615
446.245	642
446.466	567
446.687	481
446.908	456
447.129	439
447.35	434
447.571	413
447.792	399
448.013	427
448.234	424
448.455	478
448.675	585
448.896	655
449.117	558
449.338	541
449.559	614
449.779	678
450	561
450.221	454
450.442	449
450.662	423
450.883	420
451.104	431
451.324	409
451.545	399
451.766	398
451.986	379
452.207	378
452.428	348
452.648	373
452.869	366
453.089	362
453.31	393
453.53	378
453.751	383
453.971	379
454.192	399
454.412	403
454.633	355
454.853	360
455.073	378
455.294	409
455.514	459
455.734	443
455.955	387
456.175	359
456.395	358
456.616	358
456.836	366
457.056	367
457.276	332
457.497	365
457.717	347
457.937	347
458.157	366
458.377	362
458.598	384
458.818	407
459.038	447
459.258	486
459.478	402
459.698	397
459.918	388
460.138	391
460.358	386
460.578	402
460.798	393
461.018	405
461.238	387
461.458	390
461.678	385
461.898	396
462.118	409
462.338	397
462.558	408
462.777	395
462.997	415
463.217	399
463.437	409
463.657	431
463.876	404
464.096	413
464.316	384
464.536	408
464.755	412
464.975	416
465.195	449
465.414	495
465.634	435
465.854	417
466.073	411
466.293	394
466.512	391
466.732	364
466.951	373
467.171	383
467.391	399
467.61	391
467.829	396
468.049	383
468.268	381
468.488	377
468.707	373
468.927	385
469.146	366
469.365	373
469.585	355
469.804	385
470.023	403
470.243	385
470.462	370
470.681	395
470.901	399
471.12	397
471.339	387
471.558	389
471.777	402
471.997	393
472.216	386
472.435	405
472.654	409
472.873	384
473.092	380
473.311	377
473.53	360
473.749	399
473.968	431
474.187	510
474.406	515
474.625	443
474.844	406
475.063	407
475.282	381
475.501	388
475.72	395
475.939	391
476.158	414
476.377	402
476.596	411
476.814	393
477.033	397
477.252	388
477.471	414
477.69	416
477.908	414
478.127	426
478.346	416
478.564	415
478.783	416
479.002	431
479.22	417
479.439	440
479.658	437
479.876	473
480.095	457
480.313	489
480.532	468
480.751	458
480.969	474
481.188	525
481.406	549
481.624	487
481.843	454
482.061	441
482.28	446
482.498	461
482.717	442
482.935	441
483.153	443
483.372	443
483.59	451
483.808	444
484.027	443
484.245	459
484.463	458
484.681	470
484.9	463
485.118	449
485.336	475
485.554	459
485.772	453
485.99	445
486.209	467
486.427	453
486.645	462
486.863	478
487.081	469
487.299	490
487.517	491
487.735	476
487.953	484
488.171	505
488.389	471
488.607	472
488.825	489
489.043	457
489.261	472
489.479	464
489.696	471
489.914	471
490.132	502
490.35	498
490.568	525
490.786	533
491.003	508
491.221	535
491.439	537
491.657	537
491.874	563
492.092	550
492.31	535
492.527	563
492.745	544
492.963	538
493.18	548
493.398	553
493.615	577
493.833	590
494.05	558
494.268	565
494.485	559
494.703	540
494.92	589
495.138	575
495.355	553
495.573	567
495.79	573
496.008	562
496.225	586
496.442	567
496.66	575
496.877	571
497.094	565
497.312	588
497.529	580
497.746	593
497.963	607
498.181	608
498.398	599
498.615	601
498.832	604
499.049	647
499.267	629
499.484	655
499.701	675
499.918	680
500.135	703
500.352	742
500.569	735
500.786	733
501.003	733
501.22	716
501.437	688
501.654	687
501.871	695
502.088	655
502.305	653
502.522	630
502.739	617
502.956	583
503.172	590
503.389	593
503.606	602
503.823	571
504.04	578
504.256	572
504.473	561
504.69	546
504.907	553
505.123	554
505.34	555
505.557	519
505.773	538
505.99	554
506.207	535
506.423	564
506.64	535
506.856	522
507.073	541
507.289	522
507.506	506
507.722	518
507.939	571
508.155	549
508.372	538
508.588	511
508.805	500
509.021	515
509.238	532
509.454	535
509.67	532
509.887	537
510.103	504
510.319	509
510.536	581
510.752	942
510.968	727
511.184	513
511.401	484
511.617	496
511.833	497
512.049	473
512.265	493
512.481	482
512.698	479
512.914	472
513.13	477
513.346	475
513.562	462
513.778	491
513.994	486
514.21	498
514.426	492
514.642	549
514.858	558
515.074	593
515.29	697
515.506	953
515.721	775
515.937	558
516.153	525
516.369	535
516.585	473
516.801	490
517.016	490
517.232	476
517.448	490
517.664	503
517.879	505
518.095	483
518.311	479
518.527	482
518.742	494
518.958	454
519.173	489
519.389	476
519.605	495
519.82	491
520.036	500
520.251	502
520.467	532
520.682	518
520.898	535
521.113	545
521.329	585
521.544	639
521.76	779
521.975	1203
522.19	1157
522.406	665
522.621	547
522.836	524
523.052	487
523.267	474
523.482	456
523.698	440
523.913	434
524.128	435
524.343	427
524.559	424
524.774	417
524.989	419
525.204	428
525.419	447
525.634	425
525.849	428
526.064	419
526.28	391
526.495	412
526.71	393
526.925	393
527.14	392
527.355	399
527.57	375
527.785	367
527.999	385
528.214	398
528.429	413
528.644	394
528.859	399
529.074	399
529.289	420
529.503	479
529.718	459
529.933	409
530.148	382
530.363	417
530.577	395
530.792	392
531.007	392
531.221	371
531.436	385
531.651	376
531.865	380
532.08	383
532.295	380
532.509	395
532.724	396
532.938	379
533.153	366
533.367	365
533.582	372
533.796	371
534.011	391
534.225	375
534.44	346
534.654	373
534.868	370
535.083	366
535.297	380
535.511	385
535.726	371
535.94	364
536.154	361
536.369	368
536.583	366
536.797	378
537.011	358
537.225	345
537.44	354
537.654	361
537.868	373
538.082	359
538.296	371
538.51	370
538.724	356
538.938	369
539.153	377
539.367	361
539.581	378
539.795	349
540.009	365
540.222	362
540.436	367
540.65	354
540.864	363
541.078	382
541.292	391
541.506	382
541.72	388
541.934	375
542.147	364
542.361	362
542.575	368
542.789	377
543.002	375
543.216	361
543.43	373
543.644	378
543.857	366
544.071	369
544.285	399
544.498	363
544.712	379
544.925	375
545.139	363
545.352	363
545.566	374
545.779	351
545.993	367
546.206	357
546.42	376
546.633	351
546.847	351
547.06	352
547.274	362
547.487	352
547.7	365
547.914	349
548.127	377
548.34	356
548.554	352
548.767	357
548.98	376
549.193	368
549.407	356
549.62	338
549.833	370
550.046	358
550.259	352
550.473	346
550.686	369
550.899	348
551.112	350
551.325	363
551.538	331
551.751	325
551.964	347
552.177	362
552.39	350
552.603	343
552.816	339
553.029	346
553.242	346
553.455	346
553.667	343
553.88	367
554.093	364
554.306	373
554.519	360
554.732	345
554.944	331
555.157	340
555.37	327
555.583	315
555.795	310
556.008	341
556.221	334
556.433	319
556.646	337
556.859	324
557.071	319
557.284	318
557.496	318
557.709	331
557.921	324
558.134	328
558.346	300
558.559	323
558.771	315
558.984	317
559.196	309
559.409	322
559.621	318
559.833	310
560.046	296
560.258	313
560.47	309
560.683	323
560.895	306
561.107	317
561.32	325
561.532	312
561.744	297
561.956	287
562.168	328
562.381	302
562.593	316
562.805	305
563.017	326
563.229	327
563.441	325
563.653	317
