Data from 1971.PennyLincolnUp.Lamp.En5.5.200Scan.071719.P1.Scan 2. Changed Angle._HRD10591_15-22-29-842.txt Node
Date: Thu Jul 18 15:22:29 EDT 2019
User: cochatt
Spectrometer: HR+D1059
Trigger mode: 1
Integration Time (sec): 1.000000E-1
Scans to average: 1
Electric dark correction enabled: true
Nonlinearity correction enabled: false
Boxcar width: 0
XAxis mode: Wavelengths
Number of Pixels in Spectrum: 2048
>>>>>Begin Spectral Data<<<<<
223.165	-17.56
223.4	-17.56
223.635	-17.56
223.869	-28.56
224.104	-10.56
224.338	-2.56
224.573	-12.56
224.808	-1.56
225.042	5.44
225.277	-1.56
225.511	-7.56
225.746	3.44
225.98	14.44
226.215	-1.56
226.449	12.44
226.683	12.44
226.918	30.44
227.152	5.44
227.387	27.44
227.621	37.44
227.856	33.44
228.09	51.44
228.324	45.44
228.559	55.44
228.793	73.44
229.027	89.44
229.262	114.44
229.496	107.44
229.73	124.44
229.964	124.44
230.199	110.44
230.433	111.44
230.667	104.44
230.901	107.44
231.136	125.44
231.37	95.44
231.604	107.44
231.838	97.44
232.072	88.44
232.306	93.44
232.541	87.44
232.775	106.44
233.009	107.44
233.243	91.44
233.477	114.44
233.711	100.44
233.945	99.44
234.179	99.44
234.413	106.44
234.647	103.44
234.881	101.44
235.115	116.44
235.349	107.44
235.583	118.44
235.817	118.44
236.051	115.44
236.285	95.44
236.519	122.44
236.753	114.44
236.987	124.44
237.221	156.44
237.455	186.44
237.689	147.44
237.922	129.44
238.156	126.44
238.39	124.44
238.624	112.44
238.858	121.44
239.091	98.44
239.325	107.44
239.559	104.44
239.793	130.44
240.027	122.44
240.26	118.44
240.494	122.44
240.728	132.44
240.961	126.44
241.195	142.44
241.429	117.44
241.662	122.44
241.896	129.44
242.13	124.44
242.363	122.44
242.597	126.44
242.83	121.44
243.064	132.44
243.298	138.44
243.531	137.44
243.765	115.44
243.998	130.44
244.232	124.44
244.465	134.44
244.699	128.44
244.932	126.44
245.166	110.44
245.399	127.44
245.633	126.44
245.866	144.44
246.099	126.44
246.333	138.44
246.566	150.44
246.8	135.44
247.033	148.44
247.266	141.44
247.5	142.44
247.733	143.44
247.966	140.44
248.2	162.44
248.433	142.44
248.666	155.44
248.899	168.44
249.133	172.44
249.366	181.44
249.599	175.44
249.832	152.44
250.066	153.44
250.299	158.44
250.532	174.44
250.765	169.44
250.998	182.44
251.231	203.44
251.465	193.44
251.698	194.44
251.931	195.44
252.164	182.44
252.397	192.44
252.63	181.44
252.863	175.44
253.096	190.44
253.329	182.44
253.562	204.44
253.795	183.44
254.028	189.44
254.261	194.44
254.494	189.44
254.727	220.44
254.96	242.44
255.193	229.44
255.426	228.44
255.659	204.44
255.892	190.44
256.124	205.44
256.357	191.44
256.59	190.44
256.823	189.44
257.056	188.44
257.289	181.44
257.521	179.44
257.754	176.44
257.987	162.44
258.22	176.44
258.452	183.44
258.685	182.44
258.918	198.44
259.151	179.44
259.383	154.44
259.616	184.44
259.849	189.44
260.081	200.44
260.314	220.44
260.547	211.44
260.779	199.44
261.012	191.44
261.244	182.44
261.477	188.44
261.71	194.44
261.942	188.44
262.175	188.44
262.407	184.44
262.64	171.44
262.872	190.44
263.105	164.44
263.337	170.44
263.57	172.44
263.802	191.44
264.035	182.44
264.267	180.44
264.499	175.44
264.732	179.44
264.964	178.44
265.197	174.44
265.429	171.44
265.661	175.44
265.894	171.44
266.126	189.44
266.358	176.44
266.591	171.44
266.823	186.44
267.055	173.44
267.287	174.44
267.52	179.44
267.752	196.44
267.984	176.44
268.216	187.44
268.448	186.44
268.681	187.44
268.913	198.44
269.145	214.44
269.377	212.44
269.609	207.44
269.841	209.44
270.073	207.44
270.306	222.44
270.538	236.44
270.77	227.44
271.002	236.44
271.234	222.44
271.466	234.44
271.698	249.44
271.93	244.44
272.162	251.44
272.394	248.44
272.626	236.44
272.858	229.44
273.09	221.44
273.322	203.44
273.553	215.44
273.785	203.44
274.017	199.44
274.249	206.44
274.481	203.44
274.713	213.44
274.945	206.44
275.176	211.44
275.408	222.44
275.64	211.44
275.872	205.44
276.104	220.44
276.335	204.44
276.567	199.44
276.799	223.44
277.031	225.44
277.262	239.44
277.494	235.44
277.726	239.44
277.957	220.44
278.189	212.44
278.421	213.44
278.652	182.44
278.884	226.44
279.115	203.44
279.347	202.44
279.579	215.44
279.81	202.44
280.042	199.44
280.273	205.44
280.505	216.44
280.736	203.44
280.968	206.44
281.199	211.44
281.431	199.44
281.662	216.44
281.894	213.44
282.125	215.44
282.356	207.44
282.588	228.44
282.819	239.44
283.051	226.44
283.282	208.44
283.513	214.44
283.745	208.44
283.976	206.44
284.207	206.44
284.439	215.44
284.67	232.44
284.901	219.44
285.132	212.44
285.364	207.44
285.595	206.44
285.826	211.44
286.057	214.44
286.288	211.44
286.52	208.44
286.751	222.44
286.982	225.44
287.213	223.44
287.444	230.44
287.675	217.44
287.906	210.44
288.138	209.44
288.369	228.44
288.6	242.44
288.831	219.44
289.062	226.44
289.293	244.44
289.524	216.44
289.755	221.44
289.986	214.44
290.217	207.44
290.448	195.44
290.679	219.44
290.91	222.44
291.141	214.44
291.371	214.44
291.602	237.44
291.833	226.44
292.064	215.44
292.295	218.44
292.526	215.44
292.757	217.44
292.987	219.44
293.218	219.44
293.449	229.44
293.68	233.44
293.91	215.44
294.141	217.44
294.372	219.44
294.603	221.44
294.833	238.44
295.064	208.44
295.295	235.44
295.525	225.44
295.756	229.44
295.987	229.44
296.217	249.44
296.448	245.44
296.679	221.44
296.909	222.44
297.14	231.44
297.37	219.44
297.601	220.44
297.831	227.44
298.062	233.44
298.292	233.44
298.523	235.44
298.753	251.44
298.984	238.44
299.214	247.44
299.445	223.44
299.675	225.44
299.905	239.44
300.136	239.44
300.366	220.44
300.597	220.44
300.827	223.44
301.057	236.44
301.288	251.44
301.518	243.44
301.748	220.44
301.979	242.44
302.209	244.44
302.439	232.44
302.669	252.44
302.9	249.44
303.13	250.44
303.36	250.44
303.59	246.44
303.82	246.44
304.051	239.44
304.281	251.44
304.511	238.44
304.741	260.44
304.971	236.44
305.201	251.44
305.431	251.44
305.661	227.44
305.891	254.44
306.121	254.44
306.352	244.44
306.582	246.44
306.812	246.44
307.042	256.44
307.272	252.44
307.502	251.44
307.731	247.44
307.961	239.44
308.191	252.44
308.421	268.44
308.651	268.44
308.881	254.44
309.111	232.44
309.341	259.44
309.571	262.44
309.8	247.44
310.03	282.44
310.26	290.44
310.49	280.44
310.72	266.44
310.949	296.44
311.179	293.44
311.409	277.44
311.639	268.44
311.868	268.44
312.098	288.44
312.328	296.44
312.557	287.44
312.787	310.44
313.017	297.44
313.246	304.44
313.476	273.44
313.706	287.44
313.935	275.44
314.165	293.44
314.394	282.44
314.624	285.44
314.853	286.44
315.083	279.44
315.312	280.44
315.542	284.44
315.771	286.44
316.001	280.44
316.23	263.44
316.46	274.44
316.689	282.44
316.919	287.44
317.148	270.44
317.377	296.44
317.607	290.44
317.836	294.44
318.065	284.44
318.295	280.44
318.524	267.44
318.753	294.44
318.983	286.44
319.212	286.44
319.441	297.44
319.67	281.44
319.9	299.44
320.129	284.44
320.358	287.44
320.587	291.44
320.816	295.44
321.046	291.44
321.275	301.44
321.504	277.44
321.733	295.44
321.962	284.44
322.191	301.44
322.42	324.44
322.649	336.44
322.878	346.44
323.108	352.44
323.337	350.44
323.566	351.44
323.795	382.44
324.024	416.44
324.253	488.44
324.482	651.44
324.71	1024.44
324.939	1509.44
325.168	1289.44
325.397	675.44
325.626	484.44
325.855	395.44
326.084	363.44
326.313	343.44
326.542	362.44
326.77	405.44
326.999	458.44
327.228	594.44
327.457	918.44
327.686	1133.44
327.914	740.44
328.143	522.44
328.372	442.44
328.6	414.44
328.829	403.44
329.058	404.44
329.287	414.44
329.515	377.44
329.744	377.44
329.972	377.44
330.201	375.44
330.43	366.44
330.658	410.44
330.887	433.44
331.115	443.44
331.344	361.44
331.572	360.44
331.801	363.44
332.03	363.44
332.258	359.44
332.486	326.44
332.715	334.44
332.943	351.44
333.172	333.44
333.4	330.44
333.629	325.44
333.857	336.44
334.085	364.44
334.314	355.44
334.542	357.44
334.771	357.44
334.999	376.44
335.227	337.44
335.455	325.44
335.684	327.44
335.912	346.44
336.14	317.44
336.369	312.44
336.597	348.44
336.825	342.44
337.053	326.44
337.281	326.44
337.51	323.44
337.738	316.44
337.966	322.44
338.194	342.44
338.422	348.44
338.65	336.44
338.878	308.44
339.106	323.44
339.334	317.44
339.562	322.44
339.79	332.44
340.018	314.44
340.246	313.44
340.474	322.44
340.702	319.44
340.93	326.44
341.158	329.44
341.386	340.44
341.614	335.44
341.842	323.44
342.07	299.44
342.298	305.44
342.526	306.44
342.754	311.44
342.981	320.44
343.209	317.44
343.437	328.44
343.665	316.44
343.893	318.44
344.12	334.44
344.348	329.44
344.576	323.44
344.804	325.44
345.031	356.44
345.259	355.44
345.487	311.44
345.714	336.44
345.942	325.44
346.17	318.44
346.397	310.44
346.625	323.44
346.853	304.44
347.08	337.44
347.308	320.44
347.535	326.44
347.763	327.44
347.99	347.44
348.218	341.44
348.445	314.44
348.673	331.44
348.9	298.44
349.128	324.44
349.355	312.44
349.583	311.44
349.81	312.44
350.037	314.44
350.265	316.44
350.492	316.44
350.72	309.44
350.947	317.44
351.174	323.44
351.402	322.44
351.629	337.44
351.856	342.44
352.083	325.44
352.311	321.44
352.538	344.44
352.765	346.44
352.992	340.44
353.22	330.44
353.447	324.44
353.674	296.44
353.901	332.44
354.128	311.44
354.355	311.44
354.583	308.44
354.81	314.44
355.037	295.44
355.264	306.44
355.491	318.44
355.718	315.44
355.945	303.44
356.172	290.44
356.399	309.44
356.626	300.44
356.853	312.44
357.08	328.44
357.307	303.44
357.534	309.44
357.761	298.44
357.988	310.44
358.215	309.44
358.441	316.44
358.668	314.44
358.895	319.44
359.122	329.44
359.349	324.44
359.576	339.44
359.802	351.44
360.029	372.44
360.256	361.44
360.483	368.44
360.709	325.44
360.936	334.44
361.163	323.44
361.39	330.44
361.616	342.44
361.843	349.44
362.07	333.44
362.296	334.44
362.523	326.44
362.749	320.44
362.976	329.44
363.203	339.44
363.429	325.44
363.656	329.44
363.882	319.44
364.109	323.44
364.335	319.44
364.562	316.44
364.788	322.44
365.015	321.44
365.241	331.44
365.468	316.44
365.694	341.44
365.92	319.44
366.147	337.44
366.373	315.44
366.599	317.44
366.826	326.44
367.052	317.44
367.278	320.44
367.505	324.44
367.731	316.44
367.957	316.44
368.184	320.44
368.41	322.44
368.636	326.44
368.862	352.44
369.089	337.44
369.315	346.44
369.541	327.44
369.767	324.44
369.993	310.44
370.219	324.44
370.445	336.44
370.672	320.44
370.898	340.44
371.124	314.44
371.35	345.44
371.576	341.44
371.802	334.44
372.028	329.44
372.254	333.44
372.48	330.44
372.706	348.44
372.932	331.44
373.158	324.44
373.384	322.44
373.61	324.44
373.835	351.44
374.061	326.44
374.287	324.44
374.513	331.44
374.739	331.44
374.965	344.44
375.191	324.44
375.416	344.44
375.642	326.44
375.868	331.44
376.094	342.44
376.319	336.44
376.545	347.44
376.771	345.44
376.997	320.44
377.222	349.44
377.448	345.44
377.674	328.44
377.899	337.44
378.125	333.44
378.35	312.44
378.576	320.44
378.802	334.44
379.027	326.44
379.253	334.44
379.478	307.44
379.704	327.44
379.929	331.44
380.155	333.44
380.38	318.44
380.606	347.44
380.831	319.44
381.057	335.44
381.282	324.44
381.507	345.44
381.733	330.44
381.958	343.44
382.184	362.44
382.409	343.44
382.634	354.44
382.86	342.44
383.085	344.44
383.31	334.44
383.535	354.44
383.761	329.44
383.986	350.44
384.211	360.44
384.436	359.44
384.662	357.44
384.887	341.44
385.112	345.44
385.337	347.44
385.562	363.44
385.787	370.44
386.013	359.44
386.238	360.44
386.463	384.44
386.688	367.44
386.913	372.44
387.138	372.44
387.363	363.44
387.588	367.44
387.813	357.44
388.038	354.44
388.263	357.44
388.488	369.44
388.713	370.44
388.938	360.44
389.163	369.44
389.387	355.44
389.612	355.44
389.837	350.44
390.062	353.44
390.287	351.44
390.512	377.44
390.736	382.44
390.961	362.44
391.186	357.44
391.411	356.44
391.636	348.44
391.86	375.44
392.085	362.44
392.31	384.44
392.534	388.44
392.759	354.44
392.984	357.44
393.208	367.44
393.433	428.44
393.658	440.44
393.882	391.44
394.107	362.44
394.331	364.44
394.556	372.44
394.78	366.44
395.005	380.44
395.229	394.44
395.454	374.44
395.678	371.44
395.903	378.44
396.127	390.44
396.352	403.44
396.576	391.44
396.801	404.44
397.025	408.44
397.249	399.44
397.474	406.44
397.698	400.44
397.922	397.44
398.147	398.44
398.371	389.44
398.595	409.44
398.82	427.44
399.044	388.44
399.268	431.44
399.492	436.44
399.717	459.44
399.941	486.44
400.165	486.44
400.389	495.44
400.613	456.44
400.837	421.44
401.062	417.44
401.286	423.44
401.51	420.44
401.734	417.44
401.958	419.44
402.182	423.44
402.406	419.44
402.63	421.44
402.854	401.44
403.078	406.44
403.302	414.44
403.526	434.44
403.75	419.44
403.974	426.44
404.198	416.44
404.422	412.44
404.645	413.44
404.869	426.44
405.093	452.44
405.317	483.44
405.541	479.44
405.765	451.44
405.988	461.44
406.212	459.44
406.436	450.44
406.66	476.44
406.883	435.44
407.107	474.44
407.331	488.44
407.555	543.44
407.778	587.44
408.002	534.44
408.226	481.44
408.449	486.44
408.673	476.44
408.896	501.44
409.12	520.44
409.344	531.44
409.567	458.44
409.791	464.44
410.014	413.44
410.238	429.44
410.461	430.44
410.685	426.44
410.908	443.44
411.132	471.44
411.355	508.44
411.578	483.44
411.802	463.44
412.025	434.44
412.249	412.44
412.472	457.44
412.695	484.44
412.919	467.44
413.142	438.44
413.365	415.44
413.589	422.44
413.812	405.44
414.035	414.44
414.258	414.44
414.482	427.44
414.705	411.44
414.928	410.44
415.151	435.44
415.374	417.44
415.597	389.44
415.821	414.44
416.044	420.44
416.267	412.44
416.49	413.44
416.713	426.44
416.936	424.44
417.159	412.44
417.382	402.44
417.605	423.44
417.828	439.44
418.051	428.44
418.274	412.44
418.497	425.44
418.72	411.44
418.943	445.44
419.166	441.44
419.389	439.44
419.611	458.44
419.834	438.44
420.057	429.44
420.28	446.44
420.503	414.44
420.726	432.44
420.948	428.44
421.171	475.44
421.394	491.44
421.617	445.44
421.839	442.44
422.062	440.44
422.285	457.44
422.507	498.44
422.73	535.44
422.953	555.44
423.175	490.44
423.398	467.44
423.621	468.44
423.843	467.44
424.066	452.44
424.288	480.44
424.511	453.44
424.733	520.44
424.956	601.44
425.178	554.44
425.401	568.44
425.623	608.44
425.846	503.44
426.068	477.44
426.291	462.44
426.513	464.44
426.735	474.44
426.958	501.44
427.18	574.44
427.402	699.44
427.625	715.44
427.847	662.44
428.069	566.44
428.292	496.44
428.514	467.44
428.736	454.44
428.958	457.44
429.181	448.44
429.403	444.44
429.625	468.44
429.847	473.44
430.069	526.44
430.292	551.44
430.514	470.44
430.736	472.44
430.958	445.44
431.18	420.44
431.402	424.44
431.624	407.44
431.846	405.44
432.068	415.44
432.29	410.44
432.512	410.44
432.734	422.44
432.956	415.44
433.178	421.44
433.4	421.44
433.622	420.44
433.844	433.44
434.066	438.44
434.287	430.44
434.509	424.44
434.731	438.44
434.953	429.44
435.175	472.44
435.397	483.44
435.618	483.44
435.84	510.44
436.062	588.44
436.284	624.44
436.505	549.44
436.727	488.44
436.949	477.44
437.17	452.44
437.392	467.44
437.614	465.44
437.835	458.44
438.057	548.44
438.278	628.44
438.5	612.44
438.721	722.44
438.943	685.44
439.165	557.44
439.386	507.44
439.608	483.44
439.829	489.44
440.05	471.44
440.272	524.44
440.493	508.44
440.715	461.44
440.936	471.44
441.158	442.44
441.379	455.44
441.6	460.44
441.822	483.44
442.043	504.44
442.264	566.44
442.486	617.44
442.707	539.44
442.928	493.44
443.149	496.44
443.371	511.44
443.592	526.44
443.813	597.44
444.034	668.44
444.255	566.44
444.476	492.44
444.698	497.44
444.919	464.44
445.14	560.44
445.361	528.44
445.582	504.44
445.803	569.44
446.024	647.44
446.245	638.44
446.466	578.44
446.687	500.44
446.908	485.44
447.129	453.44
447.35	451.44
447.571	466.44
447.792	445.44
448.013	453.44
448.234	461.44
448.455	504.44
448.675	581.44
448.896	689.44
449.117	588.44
449.338	568.44
449.559	649.44
449.779	716.44
450	586.44
450.221	520.44
450.442	435.44
450.662	444.44
450.883	438.44
451.104	450.44
451.324	442.44
451.545	420.44
451.766	404.44
451.986	401.44
452.207	380.44
452.428	390.44
452.648	399.44
452.869	386.44
453.089	399.44
453.31	408.44
453.53	418.44
453.751	389.44
453.971	390.44
454.192	408.44
454.412	399.44
454.633	400.44
454.853	391.44
455.073	391.44
455.294	424.44
455.514	479.44
455.734	441.44
455.955	394.44
456.175	382.44
456.395	388.44
456.616	358.44
456.836	392.44
457.056	371.44
457.276	376.44
457.497	380.44
457.717	378.44
457.937	378.44
458.157	379.44
458.377	410.44
458.598	389.44
458.818	439.44
459.038	483.44
459.258	534.44
459.478	457.44
459.698	419.44
459.918	415.44
460.138	418.44
460.358	414.44
460.578	412.44
460.798	431.44
461.018	424.44
461.238	420.44
461.458	428.44
461.678	396.44
461.898	414.44
462.118	436.44
462.338	422.44
462.558	430.44
462.777	410.44
462.997	464.44
463.217	460.44
463.437	451.44
463.657	442.44
463.876	448.44
464.096	439.44
464.316	458.44
464.536	446.44
464.755	463.44
464.975	449.44
465.195	487.44
465.414	528.44
465.634	484.44
465.854	458.44
466.073	445.44
466.293	424.44
466.512	407.44
466.732	407.44
466.951	408.44
467.171	426.44
467.391	420.44
467.61	404.44
467.829	420.44
468.049	416.44
468.268	415.44
468.488	415.44
468.707	416.44
468.927	393.44
469.146	403.44
469.365	414.44
469.585	391.44
469.804	416.44
470.023	418.44
470.243	418.44
470.462	424.44
470.681	440.44
470.901	446.44
471.12	432.44
471.339	436.44
471.558	433.44
471.777	430.44
471.997	419.44
472.216	425.44
472.435	435.44
472.654	426.44
472.873	419.44
473.092	392.44
473.311	417.44
473.53	411.44
473.749	439.44
473.968	452.44
474.187	528.44
474.406	574.44
474.625	477.44
474.844	438.44
475.063	433.44
475.282	424.44
475.501	416.44
475.72	418.44
475.939	443.44
476.158	426.44
476.377	442.44
476.596	436.44
476.814	439.44
477.033	421.44
477.252	460.44
477.471	442.44
477.69	439.44
477.908	454.44
478.127	458.44
478.346	468.44
478.564	469.44
478.783	464.44
479.002	469.44
479.22	471.44
479.439	482.44
479.658	476.44
479.876	495.44
480.095	521.44
480.313	532.44
480.532	500.44
480.751	504.44
480.969	496.44
481.188	520.44
481.406	536.44
481.624	508.44
481.843	500.44
482.061	478.44
482.28	483.44
482.498	490.44
482.717	486.44
482.935	506.44
483.153	476.44
483.372	495.44
483.59	519.44
483.808	486.44
484.027	470.44
484.245	490.44
484.463	498.44
484.681	526.44
484.9	515.44
485.118	525.44
485.336	504.44
485.554	515.44
485.772	512.44
485.99	515.44
486.209	519.44
486.427	505.44
486.645	523.44
486.863	536.44
487.081	556.44
487.299	526.44
487.517	536.44
487.735	533.44
487.953	539.44
488.171	541.44
488.389	543.44
488.607	556.44
488.825	532.44
489.043	534.44
489.261	552.44
489.479	549.44
489.696	556.44
489.914	552.44
490.132	540.44
490.35	536.44
490.568	583.44
490.786	592.44
491.003	579.44
491.221	580.44
491.439	587.44
491.657	622.44
491.874	592.44
492.092	603.44
492.31	633.44
492.527	624.44
492.745	630.44
492.963	634.44
493.18	610.44
493.398	644.44
493.615	634.44
493.833	624.44
494.05	632.44
494.268	637.44
494.485	638.44
494.703	652.44
494.92	628.44
495.138	638.44
495.355	660.44
495.573	634.44
495.79	636.44
496.008	645.44
496.225	652.44
496.442	644.44
496.66	663.44
496.877	628.44
497.094	640.44
497.312	658.44
497.529	654.44
497.746	644.44
497.963	670.44
498.181	695.44
498.398	677.44
498.615	684.44
498.832	716.44
499.049	717.44
499.267	734.44
499.484	758.44
499.701	751.44
499.918	786.44
500.135	817.44
500.352	814.44
500.569	852.44
500.786	856.44
501.003	823.44
501.22	812.44
501.437	802.44
501.654	809.44
501.871	772.44
