Data from 1971.PennyLincolnUp.Lamp.En5.5.200Scan.071719.P1.Scan 2. Changed Angle._HRD10591_15-24-26-842.txt Node
Date: Thu Jul 18 15:24:26 EDT 2019
User: cochatt
Spectrometer: HR+D1059
Trigger mode: 1
Integration Time (sec): 1.000000E-1
Scans to average: 1
Electric dark correction enabled: true
Nonlinearity correction enabled: false
Boxcar width: 0
XAxis mode: Wavelengths
Number of Pixels in Spectrum: 2048
>>>>>Begin Spectral Data<<<<<
223.165	-13.81
223.4	-13.81
223.635	-13.81
223.869	-21.81
224.104	-26.81
224.338	-2.81
224.573	-19.81
224.808	-12.81
225.042	-1.81
225.277	-21.81
225.511	7.19
225.746	16.19
225.98	-9.81
226.215	20.19
226.449	14.19
226.683	10.19
226.918	27.19
227.152	36.19
227.387	33.19
227.621	40.19
227.856	50.19
228.09	31.19
228.324	45.19
228.559	48.19
228.793	74.19
229.027	110.19
229.262	110.19
229.496	123.19
229.73	150.19
229.964	181.19
230.199	144.19
230.433	138.19
230.667	122.19
230.901	127.19
231.136	123.19
231.37	110.19
231.604	118.19
231.838	120.19
232.072	129.19
232.306	119.19
232.541	115.19
232.775	109.19
233.009	108.19
233.243	123.19
233.477	116.19
233.711	115.19
233.945	124.19
234.179	119.19
234.413	112.19
234.647	128.19
234.881	122.19
235.115	137.19
235.349	125.19
235.583	127.19
235.817	142.19
236.051	137.19
236.285	111.19
236.519	132.19
236.753	148.19
236.987	165.19
237.221	203.19
237.455	261.19
237.689	212.19
237.922	160.19
238.156	150.19
238.39	142.19
238.624	128.19
238.858	137.19
239.091	130.19
239.325	140.19
239.559	133.19
239.793	134.19
240.027	148.19
240.26	154.19
240.494	185.19
240.728	171.19
240.961	170.19
241.195	164.19
241.429	162.19
241.662	134.19
241.896	126.19
242.13	133.19
242.363	126.19
242.597	137.19
242.83	156.19
243.064	154.19
243.298	157.19
243.531	142.19
243.765	134.19
243.998	147.19
244.232	156.19
244.465	165.19
244.699	142.19
244.932	170.19
245.166	163.19
245.399	162.19
245.633	156.19
245.866	154.19
246.099	141.19
246.333	170.19
246.566	156.19
246.8	162.19
247.033	178.19
247.266	166.19
247.5	183.19
247.733	170.19
247.966	201.19
248.2	189.19
248.433	195.19
248.666	189.19
248.899	199.19
249.133	219.19
249.366	229.19
249.599	229.19
249.832	211.19
250.066	197.19
250.299	199.19
250.532	208.19
250.765	211.19
250.998	245.19
251.231	255.19
251.465	236.19
251.698	217.19
251.931	220.19
252.164	224.19
252.397	226.19
252.63	223.19
252.863	228.19
253.096	247.19
253.329	249.19
253.562	276.19
253.795	254.19
254.028	227.19
254.261	255.19
254.494	266.19
254.727	308.19
254.96	330.19
255.193	311.19
255.426	298.19
255.659	268.19
255.892	263.19
256.124	250.19
256.357	260.19
256.59	266.19
256.823	231.19
257.056	230.19
257.289	238.19
257.521	238.19
257.754	234.19
257.987	217.19
258.22	222.19
258.452	230.19
258.685	227.19
258.918	225.19
259.151	240.19
259.383	229.19
259.616	228.19
259.849	266.19
260.081	260.19
260.314	272.19
260.547	290.19
260.779	276.19
261.012	265.19
261.244	245.19
261.477	248.19
261.71	241.19
261.942	239.19
262.175	267.19
262.407	250.19
262.64	227.19
262.872	235.19
263.105	230.19
263.337	228.19
263.57	205.19
263.802	221.19
264.035	227.19
264.267	224.19
264.499	205.19
264.732	224.19
264.964	231.19
265.197	230.19
265.429	210.19
265.661	231.19
265.894	212.19
266.126	217.19
266.358	214.19
266.591	245.19
266.823	239.19
267.055	239.19
267.287	232.19
267.52	233.19
267.752	235.19
267.984	236.19
268.216	246.19
268.448	218.19
268.681	235.19
268.913	246.19
269.145	280.19
269.377	295.19
269.609	285.19
269.841	307.19
270.073	294.19
270.306	325.19
270.538	361.19
270.77	327.19
271.002	342.19
271.234	320.19
271.466	334.19
271.698	355.19
271.93	354.19
272.162	358.19
272.394	351.19
272.626	347.19
272.858	311.19
273.09	306.19
273.322	301.19
273.553	297.19
273.785	272.19
274.017	286.19
274.249	285.19
274.481	278.19
274.713	287.19
274.945	267.19
275.176	295.19
275.408	271.19
275.64	270.19
275.872	261.19
276.104	292.19
276.335	299.19
276.567	279.19
276.799	281.19
277.031	333.19
277.262	354.19
277.494	360.19
277.726	319.19
277.957	317.19
278.189	299.19
278.421	297.19
278.652	298.19
278.884	278.19
279.115	287.19
279.347	271.19
279.579	281.19
279.81	261.19
280.042	278.19
280.273	260.19
280.505	257.19
280.736	269.19
280.968	276.19
281.199	254.19
281.431	260.19
281.662	275.19
281.894	276.19
282.125	264.19
282.356	286.19
282.588	317.19
282.819	327.19
283.051	281.19
283.282	262.19
283.513	287.19
283.745	281.19
283.976	276.19
284.207	284.19
284.439	277.19
284.67	282.19
284.901	272.19
285.132	278.19
285.364	269.19
285.595	276.19
285.826	306.19
286.057	274.19
286.288	277.19
286.52	276.19
286.751	270.19
286.982	261.19
287.213	278.19
287.444	278.19
287.675	297.19
287.906	283.19
288.138	292.19
288.369	320.19
288.6	298.19
288.831	311.19
289.062	308.19
289.293	292.19
289.524	290.19
289.755	289.19
289.986	269.19
290.217	269.19
290.448	301.19
290.679	288.19
290.91	281.19
291.141	279.19
291.371	276.19
291.602	293.19
291.833	297.19
292.064	290.19
292.295	295.19
292.526	307.19
292.757	296.19
292.987	277.19
293.218	291.19
293.449	294.19
293.68	280.19
293.91	285.19
294.141	286.19
294.372	289.19
294.603	289.19
294.833	281.19
295.064	294.19
295.295	287.19
295.525	293.19
295.756	296.19
295.987	304.19
296.217	340.19
296.448	349.19
296.679	320.19
296.909	293.19
297.14	300.19
297.37	295.19
297.601	299.19
297.831	290.19
298.062	289.19
298.292	280.19
298.523	299.19
298.753	278.19
298.984	310.19
299.214	308.19
299.445	298.19
299.675	299.19
299.905	314.19
300.136	310.19
300.366	306.19
300.597	307.19
300.827	309.19
301.057	325.19
301.288	333.19
301.518	318.19
301.748	331.19
301.979	330.19
302.209	311.19
302.439	324.19
302.669	340.19
302.9	324.19
303.13	322.19
303.36	324.19
303.59	331.19
303.82	332.19
304.051	325.19
304.281	314.19
304.511	320.19
304.741	322.19
304.971	324.19
305.201	312.19
305.431	320.19
305.661	323.19
305.891	311.19
306.121	318.19
306.352	335.19
306.582	336.19
306.812	320.19
307.042	326.19
307.272	303.19
307.502	326.19
307.731	320.19
307.961	328.19
308.191	325.19
308.421	332.19
308.651	338.19
308.881	330.19
309.111	343.19
309.341	336.19
309.571	366.19
309.8	354.19
310.03	390.19
310.26	381.19
310.49	377.19
310.72	398.19
310.949	416.19
311.179	408.19
311.409	403.19
311.639	415.19
311.868	404.19
312.098	394.19
312.328	399.19
312.557	420.19
312.787	432.19
313.017	444.19
313.246	414.19
313.476	382.19
313.706	401.19
313.935	388.19
314.165	426.19
314.394	434.19
314.624	405.19
314.853	406.19
315.083	376.19
315.312	382.19
315.542	370.19
315.771	382.19
316.001	378.19
316.23	357.19
316.46	370.19
316.689	372.19
316.919	376.19
317.148	402.19
317.377	418.19
317.607	405.19
317.836	384.19
318.065	405.19
318.295	393.19
318.524	380.19
318.753	395.19
318.983	383.19
319.212	403.19
319.441	409.19
319.67	408.19
319.9	404.19
320.129	393.19
320.358	394.19
320.587	401.19
320.816	399.19
321.046	415.19
321.275	413.19
321.504	420.19
321.733	418.19
321.962	450.19
322.191	448.19
322.42	464.19
322.649	490.19
322.878	493.19
323.108	521.19
323.337	563.19
323.566	570.19
323.795	620.19
324.024	690.19
324.253	874.19
324.482	1230.19
324.71	1987.19
324.939	2812.19
325.168	2434.19
325.397	1227.19
325.626	811.19
325.855	655.19
326.084	588.19
326.313	570.19
326.542	584.19
326.77	649.19
326.999	760.19
327.228	1092.19
327.457	1706.19
327.686	2135.19
327.914	1354.19
328.143	896.19
328.372	758.19
328.6	709.19
328.829	668.19
329.058	674.19
329.287	707.19
329.515	629.19
329.744	574.19
329.972	586.19
330.201	627.19
330.43	669.19
330.658	685.19
330.887	727.19
331.115	698.19
331.344	592.19
331.572	553.19
331.801	564.19
332.03	555.19
332.258	504.19
332.486	480.19
332.715	488.19
332.943	481.19
333.172	484.19
333.4	464.19
333.629	472.19
333.857	507.19
334.085	510.19
334.314	532.19
334.542	569.19
334.771	579.19
334.999	549.19
335.227	503.19
335.455	486.19
335.684	454.19
335.912	451.19
336.14	442.19
336.369	453.19
336.597	462.19
336.825	462.19
337.053	459.19
337.281	440.19
337.51	432.19
337.738	416.19
337.966	436.19
338.194	464.19
338.422	441.19
338.65	452.19
338.878	449.19
339.106	450.19
339.334	448.19
339.562	425.19
339.79	436.19
340.018	442.19
340.246	442.19
340.474	448.19
340.702	446.19
340.93	454.19
341.158	448.19
341.386	452.19
341.614	451.19
341.842	447.19
342.07	434.19
342.298	466.19
342.526	435.19
342.754	432.19
342.981	418.19
343.209	421.19
343.437	422.19
343.665	411.19
343.893	440.19
344.12	426.19
344.348	443.19
344.576	445.19
344.804	467.19
345.031	475.19
345.259	461.19
345.487	485.19
345.714	450.19
345.942	458.19
346.17	428.19
346.397	447.19
346.625	448.19
346.853	447.19
347.08	441.19
347.308	450.19
347.535	455.19
347.763	472.19
347.99	471.19
348.218	472.19
348.445	460.19
348.673	470.19
348.9	460.19
349.128	441.19
349.355	418.19
349.583	428.19
349.81	423.19
350.037	428.19
350.265	431.19
350.492	430.19
350.72	421.19
350.947	439.19
351.174	456.19
351.402	477.19
351.629	428.19
351.856	427.19
352.083	463.19
352.311	478.19
352.538	468.19
352.765	470.19
352.992	463.19
353.22	460.19
353.447	468.19
353.674	439.19
353.901	408.19
354.128	430.19
354.355	405.19
354.583	387.19
354.81	427.19
355.037	388.19
355.264	392.19
355.491	408.19
355.718	406.19
355.945	411.19
356.172	382.19
356.399	420.19
356.626	398.19
356.853	406.19
357.08	405.19
357.307	397.19
357.534	384.19
357.761	390.19
357.988	384.19
358.215	399.19
358.441	407.19
358.668	391.19
358.895	408.19
359.122	409.19
359.349	438.19
359.576	436.19
359.802	482.19
360.029	524.19
360.256	554.19
360.483	533.19
360.709	471.19
360.936	450.19
361.163	454.19
361.39	430.19
361.616	454.19
361.843	433.19
362.07	471.19
362.296	452.19
362.523	434.19
362.749	445.19
362.976	468.19
363.203	454.19
363.429	416.19
363.656	432.19
363.882	448.19
364.109	436.19
364.335	424.19
364.562	421.19
364.788	431.19
365.015	436.19
365.241	436.19
365.468	443.19
365.694	455.19
365.92	456.19
366.147	405.19
366.373	425.19
366.599	409.19
366.826	412.19
367.052	414.19
367.278	405.19
367.505	415.19
367.731	430.19
367.957	431.19
368.184	425.19
368.41	406.19
368.636	451.19
368.862	476.19
369.089	438.19
369.315	444.19
369.541	415.19
369.767	412.19
369.993	404.19
370.219	417.19
370.445	432.19
370.672	419.19
370.898	423.19
371.124	422.19
371.35	419.19
371.576	397.19
371.802	406.19
372.028	400.19
372.254	421.19
372.48	415.19
372.706	403.19
372.932	422.19
373.158	426.19
373.384	404.19
373.61	416.19
373.835	424.19
374.061	408.19
374.287	431.19
374.513	434.19
374.739	419.19
374.965	434.19
375.191	404.19
375.416	418.19
375.642	408.19
375.868	417.19
376.094	415.19
376.319	409.19
376.545	403.19
376.771	399.19
376.997	395.19
377.222	413.19
377.448	444.19
377.674	412.19
377.899	394.19
378.125	417.19
378.35	404.19
378.576	410.19
378.802	418.19
379.027	390.19
379.253	385.19
379.478	400.19
379.704	397.19
379.929	447.19
380.155	434.19
380.38	425.19
380.606	423.19
380.831	413.19
381.057	430.19
381.282	439.19
381.507	411.19
381.733	422.19
381.958	422.19
382.184	395.19
382.409	411.19
382.634	422.19
382.86	407.19
383.085	428.19
383.31	441.19
383.535	426.19
383.761	404.19
383.986	438.19
384.211	450.19
384.436	439.19
384.662	427.19
384.887	446.19
385.112	442.19
385.337	439.19
385.562	419.19
385.787	455.19
386.013	444.19
386.238	456.19
386.463	471.19
386.688	454.19
386.913	446.19
387.138	447.19
387.363	441.19
387.588	431.19
387.813	455.19
388.038	436.19
388.263	439.19
388.488	441.19
388.713	425.19
388.938	440.19
389.163	448.19
389.387	467.19
389.612	450.19
389.837	432.19
390.062	436.19
390.287	437.19
390.512	452.19
390.736	442.19
390.961	462.19
391.186	429.19
391.411	442.19
391.636	451.19
391.86	463.19
392.085	444.19
392.31	471.19
392.534	460.19
392.759	459.19
392.984	453.19
393.208	446.19
393.433	450.19
393.658	435.19
393.882	445.19
394.107	438.19
394.331	459.19
394.556	453.19
394.78	445.19
395.005	459.19
395.229	483.19
395.454	497.19
395.678	472.19
395.903	476.19
396.127	493.19
396.352	499.19
396.576	478.19
396.801	474.19
397.025	481.19
397.249	473.19
397.474	487.19
397.698	482.19
397.922	482.19
398.147	498.19
398.371	523.19
398.595	506.19
398.82	504.19
399.044	501.19
399.268	520.19
399.492	522.19
399.717	558.19
399.941	579.19
400.165	644.19
400.389	628.19
400.613	572.19
400.837	528.19
401.062	540.19
401.286	534.19
401.51	548.19
401.734	510.19
401.958	537.19
402.182	508.19
402.406	544.19
402.63	540.19
402.854	538.19
403.078	538.19
403.302	537.19
403.526	550.19
403.75	529.19
403.974	515.19
404.198	519.19
404.422	536.19
404.645	540.19
404.869	551.19
405.093	588.19
405.317	636.19
405.541	681.19
405.765	614.19
405.988	565.19
406.212	621.19
406.436	620.19
406.66	635.19
406.883	612.19
407.107	640.19
407.331	668.19
407.555	758.19
407.778	738.19
408.002	651.19
408.226	635.19
408.449	613.19
408.673	594.19
408.896	634.19
409.12	674.19
409.344	630.19
409.567	596.19
409.791	537.19
410.014	564.19
410.238	538.19
410.461	537.19
410.685	559.19
410.908	587.19
411.132	600.19
411.355	653.19
411.578	609.19
411.802	577.19
412.025	552.19
412.249	573.19
412.472	571.19
412.695	630.19
412.919	634.19
413.142	573.19
413.365	564.19
413.589	547.19
413.812	522.19
414.035	524.19
414.258	530.19
414.482	509.19
414.705	505.19
414.928	519.19
415.151	504.19
415.374	518.19
415.597	511.19
415.821	502.19
416.044	530.19
416.267	529.19
416.49	517.19
416.713	514.19
416.936	527.19
417.159	521.19
417.382	555.19
417.605	558.19
417.828	557.19
418.051	544.19
418.274	561.19
418.497	535.19
418.72	532.19
418.943	504.19
419.166	532.19
419.389	581.19
419.611	538.19
419.834	543.19
420.057	559.19
420.28	565.19
420.503	538.19
420.726	540.19
420.948	591.19
421.171	655.19
421.394	667.19
421.617	588.19
421.839	558.19
422.062	566.19
422.285	592.19
422.507	646.19
422.73	733.19
422.953	687.19
423.175	630.19
423.398	583.19
423.621	597.19
423.843	618.19
424.066	625.19
424.288	618.19
424.511	631.19
424.733	708.19
424.956	798.19
425.178	744.19
425.401	748.19
425.623	778.19
425.846	678.19
426.068	646.19
426.291	645.19
426.513	636.19
426.735	626.19
426.958	694.19
427.18	783.19
427.402	950.19
427.625	1007.19
427.847	920.19
428.069	801.19
428.292	698.19
428.514	648.19
428.736	611.19
428.958	598.19
429.181	572.19
429.403	580.19
429.625	582.19
429.847	638.19
430.069	746.19
430.292	691.19
430.514	596.19
430.736	585.19
430.958	572.19
431.18	544.19
431.402	540.19
431.624	540.19
431.846	539.19
432.068	525.19
432.29	536.19
432.512	538.19
432.734	549.19
432.956	552.19
433.178	564.19
433.4	555.19
433.622	564.19
433.844	526.19
434.066	538.19
434.287	530.19
434.509	545.19
434.731	554.19
434.953	540.19
435.175	585.19
435.397	598.19
435.618	616.19
435.84	690.19
436.062	796.19
436.284	872.19
436.505	728.19
436.727	649.19
436.949	599.19
437.17	576.19
437.392	569.19
437.614	606.19
437.835	650.19
438.057	785.19
438.278	896.19
438.5	870.19
438.721	953.19
438.943	923.19
439.165	728.19
439.386	678.19
439.608	676.19
439.829	651.19
440.05	700.19
440.272	752.19
440.493	681.19
440.715	631.19
440.936	613.19
441.158	593.19
441.379	584.19
441.6	618.19
441.822	642.19
442.043	685.19
442.264	788.19
442.486	811.19
442.707	715.19
442.928	644.19
443.149	649.19
443.371	684.19
443.592	743.19
443.813	835.19
444.034	892.19
444.255	771.19
444.476	664.19
444.698	616.19
444.919	636.19
445.14	782.19
445.361	698.19
445.582	677.19
445.803	763.19
446.024	889.19
446.245	887.19
446.466	831.19
446.687	706.19
446.908	644.19
447.129	626.19
447.35	568.19
447.571	595.19
447.792	595.19
448.013	602.19
448.234	615.19
448.455	676.19
448.675	812.19
448.896	939.19
449.117	801.19
449.338	770.19
449.559	856.19
449.779	960.19
450	805.19
450.221	677.19
450.442	621.19
450.662	583.19
450.883	607.19
451.104	627.19
451.324	621.19
451.545	566.19
451.766	550.19
451.986	534.19
452.207	511.19
452.428	503.19
452.648	516.19
452.869	530.19
453.089	532.19
453.31	560.19
453.53	566.19
453.751	528.19
453.971	555.19
454.192	558.19
454.412	567.19
454.633	530.19
454.853	541.19
455.073	532.19
455.294	557.19
455.514	654.19
455.734	628.19
455.955	536.19
456.175	496.19
456.395	486.19
456.616	470.19
456.836	475.19
457.056	499.19
457.276	482.19
457.497	490.19
457.717	499.19
457.937	500.19
458.157	494.19
458.377	510.19
458.598	530.19
458.818	632.19
459.038	735.19
459.258	734.19
459.478	631.19
459.698	570.19
459.918	532.19
460.138	534.19
460.358	537.19
460.578	517.19
460.798	531.19
461.018	524.19
461.238	532.19
461.458	518.19
461.678	528.19
461.898	534.19
462.118	511.19
462.338	546.19
462.558	518.19
462.777	534.19
462.997	526.19
463.217	557.19
463.437	551.19
463.657	548.19
463.876	559.19
464.096	561.19
464.316	562.19
464.536	569.19
464.755	575.19
464.975	581.19
465.195	634.19
465.414	784.19
465.634	668.19
465.854	604.19
466.073	580.19
466.293	571.19
466.512	566.19
466.732	524.19
466.951	542.19
467.171	504.19
467.391	512.19
467.61	562.19
467.829	554.19
468.049	553.19
468.268	514.19
468.488	510.19
468.707	518.19
468.927	506.19
469.146	486.19
469.365	502.19
469.585	506.19
469.804	517.19
470.023	550.19
470.243	550.19
470.462	546.19
470.681	595.19
470.901	558.19
471.12	543.19
471.339	541.19
471.558	531.19
471.777	556.19
471.997	556.19
472.216	540.19
472.435	597.19
472.654	566.19
472.873	570.19
473.092	538.19
473.311	519.19
473.53	536.19
473.749	557.19
473.968	626.19
474.187	740.19
474.406	724.19
474.625	633.19
474.844	560.19
475.063	540.19
475.282	551.19
475.501	572.19
475.72	558.19
475.939	523.19
476.158	562.19
476.377	542.19
476.596	548.19
476.814	560.19
477.033	571.19
477.252	562.19
477.471	575.19
477.69	599.19
477.908	587.19
478.127	605.19
478.346	609.19
478.564	584.19
478.783	598.19
479.002	594.19
479.22	619.19
479.439	630.19
479.658	618.19
479.876	657.19
480.095	656.19
480.313	724.19
480.532	668.19
480.751	628.19
480.969	657.19
481.188	761.19
481.406	818.19
481.624	709.19
481.843	669.19
482.061	663.19
482.28	669.19
482.498	640.19
482.717	652.19
482.935	646.19
483.153	636.19
483.372	660.19
483.59	650.19
483.808	638.19
484.027	657.19
484.245	651.19
484.463	640.19
484.681	642.19
484.9	657.19
485.118	646.19
485.336	661.19
485.554	658.19
485.772	668.19
485.99	636.19
486.209	656.19
486.427	693.19
486.645	688.19
486.863	694.19
487.081	728.19
487.299	706.19
487.517	718.19
487.735	706.19
487.953	699.19
488.171	714.19
488.389	692.19
488.607	713.19
488.825	725.19
489.043	710.19
489.261	712.19
489.479	722.19
489.696	716.19
489.914	752.19
490.132	757.19
490.35	724.19
490.568	766.19
490.786	757.19
491.003	796.19
491.221	759.19
491.439	813.19
491.657	800.19
491.874	821.19
492.092	818.19
492.31	826.19
492.527	847.19
492.745	835.19
492.963	862.19
493.18	867.19
493.398	828.19
493.615	871.19
493.833	835.19
494.05	826.19
494.268	854.19
494.485	879.19
494.703	794.19
494.92	851.19
495.138	842.19
495.355	847.19
495.573	867.19
495.79	843.19
496.008	893.19
496.225	844.19
496.442	862.19
496.66	852.19
496.877	834.19
497.094	859.19
497.312	848.19
497.529	846.19
497.746	853.19
497.963	887.19
498.181	894.19
498.398	902.19
498.615	922.19
498.832	905.19
499.049	932.19
499.267	917.19
499.484	922.19
499.701	927.19
499.918	996.19
500.135	994.19
500.352	1025.19
500.569	1063.19
500.786	1024.19
501.003	1019.19
501.22	1010.19
501.437	999.19
