Data from 1971.PennyLincolnUp.Lamp.En5.5.200Scan.071719.P1._HRD10591_15-18-00-841.txt Node
Date: Thu Jul 18 15:18:00 EDT 2019
User: cochatt
Spectrometer: HR+D1059
Trigger mode: 1
Integration Time (sec): 1.000000E-1
Scans to average: 1
Electric dark correction enabled: true
Nonlinearity correction enabled: false
Boxcar width: 0
XAxis mode: Wavelengths
Number of Pixels in Spectrum: 2048
>>>>>Begin Spectral Data<<<<<
223.165	-13.06
223.4	-13.06
223.635	-13.06
223.869	-11.06
224.104	-4.06
224.338	-23.06
224.573	-21.06
224.808	-19.06
225.042	-8.06
225.277	-0.06
225.511	10.94
225.746	7.94
225.98	1.94
226.215	-0.06
226.449	10.94
226.683	29.94
226.918	1.94
227.152	35.94
227.387	41.94
227.621	37.94
227.856	38.94
228.09	37.94
228.324	49.94
228.559	52.94
228.793	66.94
229.027	75.94
229.262	86.94
229.496	106.94
229.73	103.94
229.964	121.94
230.199	100.94
230.433	92.94
230.667	98.94
230.901	103.94
231.136	109.94
231.37	101.94
231.604	98.94
231.838	102.94
232.072	98.94
232.306	92.94
232.541	108.94
232.775	94.94
233.009	106.94
233.243	100.94
233.477	105.94
233.711	91.94
233.945	92.94
234.179	103.94
234.413	101.94
234.647	108.94
234.881	91.94
235.115	116.94
235.349	106.94
235.583	103.94
235.817	95.94
236.051	104.94
236.285	115.94
236.519	123.94
236.753	123.94
236.987	118.94
237.221	147.94
237.455	181.94
237.689	148.94
237.922	116.94
238.156	98.94
238.39	96.94
238.624	115.94
238.858	116.94
239.091	116.94
239.325	114.94
239.559	120.94
239.793	107.94
240.027	115.94
240.26	123.94
240.494	121.94
240.728	129.94
240.961	121.94
241.195	135.94
241.429	117.94
241.662	120.94
241.896	129.94
242.13	122.94
242.363	115.94
242.597	127.94
242.83	127.94
243.064	107.94
243.298	140.94
243.531	115.94
243.765	114.94
243.998	123.94
244.232	133.94
244.465	134.94
244.699	151.94
244.932	136.94
245.166	123.94
245.399	125.94
245.633	131.94
245.866	140.94
246.099	129.94
246.333	136.94
246.566	137.94
246.8	135.94
247.033	132.94
247.266	148.94
247.5	127.94
247.733	141.94
247.966	142.94
248.2	151.94
248.433	147.94
248.666	150.94
248.899	159.94
249.133	180.94
249.366	191.94
249.599	168.94
249.832	159.94
250.066	175.94
250.299	169.94
250.532	159.94
250.765	181.94
250.998	185.94
251.231	190.94
251.465	189.94
251.698	169.94
251.931	183.94
252.164	186.94
252.397	168.94
252.63	183.94
252.863	189.94
253.096	200.94
253.329	208.94
253.562	209.94
253.795	177.94
254.028	196.94
254.261	178.94
254.494	190.94
254.727	215.94
254.96	229.94
255.193	228.94
255.426	219.94
255.659	210.94
255.892	222.94
256.124	201.94
256.357	194.94
256.59	181.94
256.823	200.94
257.056	159.94
257.289	185.94
257.521	195.94
257.754	186.94
257.987	184.94
258.22	194.94
258.452	179.94
258.685	188.94
258.918	180.94
259.151	189.94
259.383	198.94
259.616	212.94
259.849	206.94
260.081	207.94
260.314	207.94
260.547	225.94
260.779	226.94
261.012	215.94
261.244	205.94
261.477	202.94
261.71	204.94
261.942	188.94
262.175	205.94
262.407	223.94
262.64	191.94
262.872	209.94
263.105	194.94
263.337	216.94
263.57	194.94
263.802	191.94
264.035	181.94
264.267	191.94
264.499	187.94
264.732	178.94
264.964	183.94
265.197	185.94
265.429	190.94
265.661	185.94
265.894	196.94
266.126	191.94
266.358	171.94
266.591	187.94
266.823	208.94
267.055	205.94
267.287	204.94
267.52	203.94
267.752	202.94
267.984	189.94
268.216	209.94
268.448	200.94
268.681	207.94
268.913	207.94
269.145	221.94
269.377	247.94
269.609	245.94
269.841	245.94
270.073	236.94
270.306	269.94
270.538	253.94
270.77	275.94
271.002	269.94
271.234	247.94
271.466	258.94
271.698	255.94
271.93	263.94
272.162	264.94
272.394	281.94
272.626	248.94
272.858	263.94
273.09	243.94
273.322	252.94
273.553	230.94
273.785	253.94
274.017	261.94
274.249	225.94
274.481	223.94
274.713	244.94
274.945	236.94
275.176	231.94
275.408	213.94
275.64	239.94
275.872	242.94
276.104	230.94
276.335	244.94
276.567	234.94
276.799	252.94
277.031	265.94
277.262	259.94
277.494	276.94
277.726	261.94
277.957	277.94
278.189	253.94
278.421	246.94
278.652	239.94
278.884	247.94
279.115	256.94
279.347	236.94
279.579	231.94
279.81	231.94
280.042	222.94
280.273	226.94
280.505	231.94
280.736	239.94
280.968	245.94
281.199	232.94
281.431	242.94
281.662	253.94
281.894	264.94
282.125	239.94
282.356	227.94
282.588	243.94
282.819	254.94
283.051	243.94
283.282	247.94
283.513	255.94
283.745	236.94
283.976	256.94
284.207	244.94
284.439	242.94
284.67	248.94
284.901	235.94
285.132	242.94
285.364	263.94
285.595	258.94
285.826	246.94
286.057	234.94
286.288	253.94
286.52	246.94
286.751	235.94
286.982	240.94
287.213	266.94
287.444	248.94
287.675	282.94
287.906	269.94
288.138	261.94
288.369	257.94
288.6	290.94
288.831	264.94
289.062	249.94
289.293	248.94
289.524	251.94
289.755	244.94
289.986	263.94
290.217	252.94
290.448	279.94
290.679	250.94
290.91	248.94
291.141	265.94
291.371	283.94
291.602	257.94
291.833	264.94
292.064	246.94
292.295	258.94
292.526	260.94
292.757	274.94
292.987	277.94
293.218	253.94
293.449	272.94
293.68	266.94
293.91	269.94
294.141	260.94
294.372	263.94
294.603	261.94
294.833	262.94
295.064	257.94
295.295	275.94
295.525	257.94
295.756	267.94
295.987	258.94
296.217	261.94
296.448	286.94
296.679	261.94
296.909	261.94
297.14	261.94
297.37	270.94
297.601	277.94
297.831	273.94
298.062	268.94
298.292	266.94
298.523	261.94
298.753	270.94
298.984	252.94
299.214	260.94
299.445	274.94
299.675	265.94
299.905	276.94
300.136	274.94
300.366	277.94
300.597	294.94
300.827	261.94
301.057	283.94
301.288	275.94
301.518	282.94
301.748	300.94
301.979	292.94
302.209	284.94
302.439	292.94
302.669	294.94
302.9	297.94
303.13	292.94
303.36	283.94
303.59	275.94
303.82	303.94
304.051	308.94
304.281	298.94
304.511	292.94
304.741	298.94
304.971	283.94
305.201	291.94
305.431	289.94
305.661	307.94
305.891	302.94
306.121	287.94
306.352	293.94
306.582	295.94
306.812	287.94
307.042	289.94
307.272	280.94
307.502	275.94
307.731	292.94
307.961	301.94
308.191	298.94
308.421	319.94
308.651	282.94
308.881	285.94
309.111	317.94
309.341	313.94
309.571	312.94
309.8	320.94
310.03	298.94
310.26	329.94
310.49	321.94
310.72	345.94
310.949	328.94
311.179	318.94
311.409	321.94
311.639	330.94
311.868	313.94
312.098	348.94
312.328	348.94
312.557	335.94
312.787	340.94
313.017	334.94
313.246	339.94
313.476	315.94
313.706	322.94
313.935	328.94
314.165	335.94
314.394	349.94
314.624	346.94
314.853	325.94
315.083	315.94
315.312	330.94
315.542	324.94
315.771	315.94
316.001	319.94
316.23	329.94
316.46	356.94
316.689	312.94
316.919	346.94
317.148	341.94
317.377	337.94
317.607	352.94
317.836	313.94
318.065	339.94
318.295	332.94
318.524	323.94
318.753	339.94
318.983	341.94
319.212	330.94
319.441	331.94
319.67	331.94
319.9	319.94
320.129	327.94
320.358	348.94
320.587	314.94
320.816	326.94
321.046	340.94
321.275	339.94
321.504	344.94
321.733	355.94
321.962	345.94
322.191	362.94
322.42	344.94
322.649	368.94
322.878	353.94
323.108	379.94
323.337	391.94
323.566	411.94
323.795	415.94
324.024	457.94
324.253	530.94
324.482	721.94
324.71	1023.94
324.939	1425.94
325.168	1217.94
325.397	676.94
325.626	487.94
325.855	416.94
326.084	409.94
326.313	410.94
326.542	415.94
326.77	432.94
326.999	498.94
327.228	636.94
327.457	945.94
327.686	1045.94
327.914	741.94
328.143	508.94
328.372	458.94
328.6	425.94
328.829	421.94
329.058	421.94
329.287	447.94
329.515	413.94
329.744	409.94
329.972	402.94
330.201	420.94
330.43	445.94
330.658	446.94
330.887	467.94
331.115	416.94
331.344	409.94
331.572	409.94
331.801	401.94
332.03	387.94
332.258	383.94
332.486	348.94
332.715	393.94
332.943	379.94
333.172	375.94
333.4	360.94
333.629	397.94
333.857	387.94
334.085	386.94
334.314	416.94
334.542	392.94
334.771	410.94
334.999	399.94
335.227	383.94
335.455	382.94
335.684	388.94
335.912	384.94
336.14	392.94
336.369	379.94
336.597	397.94
336.825	388.94
337.053	379.94
337.281	368.94
337.51	369.94
337.738	373.94
337.966	371.94
338.194	375.94
338.422	386.94
338.65	378.94
338.878	362.94
339.106	343.94
339.334	354.94
339.562	359.94
339.79	345.94
340.018	352.94
340.246	360.94
340.474	357.94
340.702	364.94
340.93	354.94
341.158	343.94
341.386	336.94
341.614	357.94
341.842	367.94
342.07	340.94
342.298	352.94
342.526	340.94
342.754	352.94
342.981	351.94
343.209	367.94
343.437	339.94
343.665	351.94
343.893	356.94
344.12	369.94
344.348	359.94
344.576	370.94
344.804	368.94
345.031	375.94
345.259	398.94
345.487	347.94
345.714	356.94
345.942	354.94
346.17	339.94
346.397	351.94
346.625	354.94
346.853	339.94
347.08	347.94
347.308	335.94
347.535	346.94
347.763	357.94
347.99	353.94
348.218	329.94
348.445	336.94
348.673	348.94
348.9	371.94
349.128	352.94
349.355	335.94
349.583	336.94
349.81	355.94
350.037	340.94
350.265	302.94
350.492	331.94
350.72	341.94
350.947	335.94
351.174	331.94
351.402	334.94
351.629	347.94
351.856	348.94
352.083	348.94
352.311	345.94
352.538	347.94
352.765	353.94
352.992	333.94
353.22	333.94
353.447	330.94
353.674	308.94
353.901	301.94
354.128	337.94
354.355	327.94
354.583	312.94
354.81	327.94
355.037	312.94
355.264	329.94
355.491	313.94
355.718	330.94
355.945	326.94
356.172	315.94
356.399	317.94
356.626	315.94
356.853	296.94
357.08	332.94
357.307	320.94
357.534	315.94
357.761	321.94
357.988	325.94
358.215	314.94
358.441	335.94
358.668	319.94
358.895	337.94
359.122	323.94
359.349	321.94
359.576	338.94
359.802	335.94
360.029	344.94
360.256	370.94
360.483	333.94
360.709	329.94
360.936	356.94
361.163	338.94
361.39	356.94
361.616	339.94
361.843	315.94
362.07	322.94
362.296	342.94
362.523	323.94
362.749	333.94
362.976	334.94
363.203	339.94
363.429	332.94
363.656	305.94
363.882	299.94
364.109	315.94
364.335	322.94
364.562	319.94
364.788	319.94
365.015	319.94
365.241	323.94
365.468	332.94
365.694	327.94
365.92	323.94
366.147	323.94
366.373	326.94
366.599	325.94
366.826	312.94
367.052	328.94
367.278	301.94
367.505	308.94
367.731	321.94
367.957	317.94
368.184	328.94
368.41	340.94
368.636	315.94
368.862	330.94
369.089	309.94
369.315	325.94
369.541	320.94
369.767	318.94
369.993	324.94
370.219	334.94
370.445	311.94
370.672	340.94
370.898	323.94
371.124	296.94
371.35	326.94
371.576	326.94
371.802	321.94
372.028	338.94
372.254	328.94
372.48	337.94
372.706	314.94
372.932	326.94
373.158	318.94
373.384	330.94
373.61	325.94
373.835	326.94
374.061	305.94
374.287	314.94
374.513	314.94
374.739	328.94
374.965	323.94
375.191	333.94
375.416	333.94
375.642	300.94
375.868	323.94
376.094	333.94
376.319	317.94
376.545	321.94
376.771	316.94
376.997	322.94
377.222	327.94
377.448	309.94
377.674	314.94
377.899	323.94
378.125	319.94
378.35	323.94
378.576	325.94
378.802	293.94
379.027	310.94
379.253	313.94
379.478	312.94
379.704	304.94
379.929	326.94
380.155	308.94
380.38	327.94
380.606	308.94
380.831	317.94
381.057	336.94
381.282	301.94
381.507	324.94
381.733	309.94
381.958	307.94
382.184	317.94
382.409	301.94
382.634	320.94
382.86	333.94
383.085	333.94
383.31	330.94
383.535	338.94
383.761	317.94
383.986	318.94
384.211	340.94
384.436	326.94
384.662	321.94
384.887	339.94
385.112	332.94
385.337	339.94
385.562	330.94
385.787	321.94
386.013	335.94
386.238	318.94
386.463	324.94
386.688	347.94
386.913	323.94
387.138	323.94
387.363	353.94
387.588	351.94
387.813	331.94
388.038	333.94
388.263	331.94
388.488	328.94
388.713	346.94
388.938	322.94
389.163	339.94
389.387	330.94
389.612	323.94
389.837	339.94
390.062	309.94
390.287	330.94
390.512	331.94
390.736	341.94
390.961	327.94
391.186	325.94
391.411	335.94
391.636	347.94
391.86	348.94
392.085	335.94
392.31	347.94
392.534	340.94
392.759	343.94
392.984	342.94
393.208	363.94
393.433	355.94
393.658	343.94
393.882	343.94
394.107	328.94
394.331	331.94
394.556	338.94
394.78	328.94
395.005	335.94
395.229	337.94
395.454	323.94
395.678	348.94
395.903	358.94
396.127	371.94
396.352	362.94
396.576	353.94
396.801	345.94
397.025	357.94
397.249	355.94
397.474	348.94
397.698	352.94
397.922	340.94
398.147	345.94
398.371	387.94
398.595	386.94
398.82	360.94
399.044	373.94
399.268	377.94
399.492	413.94
399.717	433.94
399.941	450.94
400.165	447.94
400.389	455.94
400.613	418.94
400.837	381.94
401.062	365.94
401.286	387.94
401.51	362.94
401.734	367.94
401.958	369.94
402.182	376.94
402.406	370.94
402.63	355.94
402.854	379.94
403.078	370.94
403.302	388.94
403.526	370.94
403.75	363.94
403.974	377.94
404.198	369.94
404.422	371.94
404.645	394.94
404.869	395.94
405.093	376.94
405.317	437.94
405.541	446.94
405.765	397.94
405.988	388.94
406.212	413.94
406.436	390.94
406.66	419.94
406.883	394.94
407.107	426.94
407.331	456.94
407.555	497.94
407.778	515.94
408.002	460.94
408.226	414.94
408.449	407.94
408.673	411.94
408.896	432.94
409.12	438.94
409.344	436.94
409.567	398.94
409.791	387.94
410.014	371.94
410.238	355.94
410.461	388.94
410.685	390.94
410.908	391.94
411.132	388.94
411.355	423.94
411.578	421.94
411.802	377.94
412.025	368.94
412.249	380.94
412.472	388.94
412.695	407.94
412.919	393.94
413.142	388.94
413.365	364.94
413.589	363.94
413.812	369.94
414.035	351.94
414.258	347.94
414.482	336.94
414.705	344.94
414.928	362.94
415.151	371.94
415.374	352.94
415.597	355.94
415.821	357.94
416.044	362.94
416.267	340.94
416.49	365.94
416.713	343.94
416.936	350.94
417.159	349.94
417.382	353.94
417.605	358.94
417.828	354.94
418.051	369.94
418.274	357.94
418.497	373.94
418.72	361.94
418.943	342.94
419.166	371.94
419.389	387.94
419.611	377.94
419.834	371.94
420.057	381.94
420.28	373.94
420.503	365.94
420.726	377.94
420.948	363.94
421.171	405.94
421.394	431.94
421.617	374.94
421.839	374.94
422.062	396.94
422.285	391.94
422.507	423.94
422.73	454.94
422.953	445.94
423.175	391.94
423.398	381.94
423.621	394.94
423.843	397.94
424.066	399.94
424.288	407.94
424.511	394.94
424.733	441.94
424.956	486.94
425.178	505.94
425.401	477.94
425.623	474.94
425.846	416.94
426.068	401.94
426.291	387.94
426.513	393.94
426.735	404.94
426.958	417.94
427.18	457.94
427.402	565.94
427.625	595.94
427.847	544.94
428.069	453.94
428.292	399.94
428.514	393.94
428.736	362.94
428.958	379.94
429.181	371.94
429.403	377.94
429.625	377.94
429.847	387.94
430.069	417.94
430.292	424.94
430.514	368.94
430.736	371.94
430.958	334.94
431.18	343.94
431.402	325.94
431.624	355.94
431.846	332.94
432.068	334.94
432.29	347.94
432.512	338.94
432.734	355.94
432.956	342.94
433.178	339.94
433.4	359.94
433.622	361.94
433.844	340.94
434.066	349.94
434.287	344.94
434.509	341.94
434.731	354.94
434.953	368.94
435.175	371.94
435.397	390.94
435.618	390.94
435.84	410.94
436.062	479.94
436.284	544.94
436.505	452.94
436.727	397.94
436.949	383.94
437.17	359.94
437.392	362.94
437.614	374.94
437.835	389.94
438.057	443.94
438.278	511.94
438.5	535.94
438.721	575.94
438.943	535.94
439.165	448.94
439.386	419.94
439.608	377.94
439.829	377.94
440.05	388.94
440.272	438.94
440.493	427.94
440.715	388.94
440.936	372.94
441.158	375.94
441.379	372.94
441.6	377.94
441.822	409.94
442.043	421.94
442.264	474.94
442.486	509.94
442.707	420.94
442.928	384.94
443.149	403.94
443.371	412.94
443.592	453.94
443.813	539.94
444.034	552.94
444.255	469.94
444.476	409.94
444.698	405.94
444.919	395.94
445.14	536.94
445.361	483.94
445.582	418.94
445.803	457.94
446.024	516.94
446.245	533.94
446.466	485.94
446.687	418.94
446.908	403.94
447.129	367.94
447.35	347.94
447.571	359.94
447.792	367.94
448.013	359.94
448.234	398.94
448.455	400.94
448.675	472.94
448.896	579.94
449.117	489.94
449.338	473.94
449.559	518.94
449.779	592.94
450	468.94
450.221	397.94
450.442	354.94
450.662	351.94
450.883	359.94
451.104	359.94
451.324	368.94
451.545	345.94
451.766	320.94
451.986	321.94
452.207	325.94
452.428	315.94
452.648	319.94
452.869	330.94
453.089	313.94
453.31	320.94
453.53	320.94
453.751	332.94
453.971	315.94
454.192	324.94
454.412	333.94
454.633	318.94
454.853	324.94
455.073	328.94
455.294	347.94
455.514	369.94
455.734	372.94
455.955	322.94
456.175	318.94
456.395	291.94
456.616	307.94
456.836	304.94
457.056	322.94
457.276	307.94
457.497	299.94
457.717	314.94
457.937	331.94
458.157	327.94
458.377	331.94
458.598	323.94
458.818	335.94
459.038	384.94
459.258	407.94
459.478	352.94
459.698	345.94
459.918	334.94
460.138	347.94
460.358	331.94
460.578	334.94
460.798	334.94
461.018	348.94
461.238	319.94
461.458	337.94
461.678	343.94
461.898	347.94
462.118	351.94
462.338	359.94
462.558	340.94
462.777	364.94
462.997	368.94
463.217	378.94
463.437	375.94
463.657	353.94
463.876	377.94
464.096	375.94
464.316	360.94
464.536	381.94
464.755	354.94
464.975	381.94
465.195	401.94
465.414	418.94
465.634	360.94
465.854	356.94
466.073	340.94
466.293	347.94
466.512	329.94
466.732	311.94
466.951	335.94
467.171	322.94
467.391	339.94
467.61	347.94
467.829	348.94
468.049	337.94
468.268	328.94
468.488	317.94
468.707	337.94
468.927	317.94
469.146	343.94
469.365	331.94
469.585	312.94
469.804	344.94
470.023	337.94
470.243	337.94
470.462	319.94
470.681	335.94
470.901	344.94
471.12	336.94
471.339	320.94
471.558	343.94
471.777	343.94
471.997	344.94
472.216	335.94
472.435	344.94
472.654	347.94
472.873	348.94
473.092	306.94
473.311	342.94
473.53	315.94
473.749	334.94
473.968	368.94
474.187	440.94
474.406	438.94
474.625	379.94
474.844	369.94
475.063	341.94
475.282	339.94
475.501	341.94
475.72	345.94
475.939	363.94
476.158	355.94
476.377	354.94
476.596	345.94
476.814	348.94
477.033	327.94
477.252	338.94
477.471	341.94
477.69	367.94
477.908	359.94
478.127	353.94
478.346	380.94
478.564	383.94
478.783	370.94
479.002	385.94
479.22	371.94
479.439	391.94
479.658	391.94
479.876	378.94
480.095	371.94
480.313	413.94
480.532	407.94
480.751	383.94
480.969	419.94
481.188	425.94
481.406	415.94
481.624	407.94
481.843	389.94
482.061	391.94
482.28	391.94
482.498	380.94
482.717	392.94
482.935	373.94
483.153	380.94
483.372	377.94
483.59	377.94
483.808	376.94
484.027	384.94
484.245	394.94
484.463	408.94
484.681	397.94
484.9	399.94
485.118	385.94
485.336	409.94
485.554	390.94
485.772	411.94
485.99	409.94
486.209	404.94
486.427	416.94
486.645	419.94
486.863	403.94
487.081	405.94
487.299	416.94
487.517	415.94
487.735	417.94
487.953	408.94
488.171	409.94
488.389	430.94
488.607	427.94
488.825	430.94
489.043	415.94
489.261	434.94
489.479	433.94
489.696	401.94
489.914	420.94
490.132	430.94
490.35	411.94
490.568	447.94
490.786	437.94
491.003	457.94
491.221	432.94
491.439	456.94
491.657	459.94
491.874	488.94
492.092	476.94
492.31	476.94
492.527	484.94
492.745	492.94
492.963	481.94
493.18	453.94
493.398	482.94
493.615	489.94
493.833	492.94
494.05	467.94
494.268	486.94
494.485	480.94
494.703	483.94
494.92	490.94
495.138	486.94
495.355	484.94
495.573	513.94
495.79	466.94
496.008	509.94
496.225	483.94
496.442	489.94
496.66	484.94
496.877	492.94
497.094	483.94
497.312	505.94
497.529	509.94
497.746	487.94
497.963	497.94
498.181	519.94
498.398	524.94
498.615	538.94
498.832	520.94
499.049	541.94
499.267	548.94
499.484	552.94
499.701	620.94
499.918	603.94
500.135	623.94
500.352	657.94
500.569	659.94
500.786	693.94
501.003	649.94
501.22	645.94
501.437	638.94
501.654	595.94
501.871	592.94
502.088	568.94
