Data from 1971.PennyLincolnUp.Lamp.En5.5.200Scan.071719.P1.Scan 2. Changed Angle._HRD10591_15-25-07-842.txt Node
Date: Thu Jul 18 15:25:07 EDT 2019
User: cochatt
Spectrometer: HR+D1059
Trigger mode: 1
Integration Time (sec): 1.000000E-1
Scans to average: 1
Electric dark correction enabled: true
Nonlinearity correction enabled: false
Boxcar width: 0
XAxis mode: Wavelengths
Number of Pixels in Spectrum: 2048
>>>>>Begin Spectral Data<<<<<
223.165	-19.81
223.4	-19.81
223.635	-19.81
223.869	-13.81
224.104	-10.81
224.338	-15.81
224.573	-10.81
224.808	-26.81
225.042	-4.81
225.277	-0.81
225.511	-5.81
225.746	9.19
225.98	11.19
226.215	6.19
226.449	12.19
226.683	16.19
226.918	40.19
227.152	14.19
227.387	31.19
227.621	46.19
227.856	50.19
228.09	48.19
228.324	43.19
228.559	63.19
228.793	70.19
229.027	131.19
229.262	129.19
229.496	139.19
229.73	161.19
229.964	174.19
230.199	157.19
230.433	133.19
230.667	131.19
230.901	126.19
231.136	119.19
231.37	111.19
231.604	135.19
231.838	130.19
232.072	129.19
232.306	133.19
232.541	113.19
232.775	131.19
233.009	114.19
233.243	109.19
233.477	129.19
233.711	114.19
233.945	103.19
234.179	137.19
234.413	134.19
234.647	146.19
234.881	140.19
235.115	138.19
235.349	129.19
235.583	131.19
235.817	132.19
236.051	132.19
236.285	151.19
236.519	147.19
236.753	162.19
236.987	172.19
237.221	210.19
237.455	284.19
237.689	226.19
237.922	161.19
238.156	155.19
238.39	137.19
238.624	154.19
238.858	139.19
239.091	138.19
239.325	129.19
239.559	147.19
239.793	157.19
240.027	153.19
240.26	164.19
240.494	181.19
240.728	165.19
240.961	180.19
241.195	169.19
241.429	161.19
241.662	149.19
241.896	147.19
242.13	141.19
242.363	129.19
242.597	153.19
242.83	156.19
243.064	166.19
243.298	170.19
243.531	158.19
243.765	161.19
243.998	151.19
244.232	140.19
244.465	157.19
244.699	165.19
244.932	154.19
245.166	157.19
245.399	161.19
245.633	163.19
245.866	155.19
246.099	161.19
246.333	154.19
246.566	170.19
246.8	172.19
247.033	175.19
247.266	169.19
247.5	162.19
247.733	174.19
247.966	188.19
248.2	201.19
248.433	194.19
248.666	197.19
248.899	221.19
249.133	241.19
249.366	221.19
249.599	216.19
249.832	224.19
250.066	200.19
250.299	205.19
250.532	217.19
250.765	239.19
250.998	263.19
251.231	259.19
251.465	249.19
251.698	241.19
251.931	225.19
252.164	236.19
252.397	212.19
252.63	235.19
252.863	235.19
253.096	254.19
253.329	262.19
253.562	258.19
253.795	249.19
254.028	258.19
254.261	272.19
254.494	272.19
254.727	297.19
254.96	320.19
255.193	315.19
255.426	298.19
255.659	274.19
255.892	257.19
256.124	261.19
256.357	282.19
256.59	251.19
256.823	236.19
257.056	248.19
257.289	253.19
257.521	240.19
257.754	227.19
257.987	227.19
258.22	231.19
258.452	224.19
258.685	248.19
258.918	226.19
259.151	239.19
259.383	246.19
259.616	234.19
259.849	262.19
260.081	277.19
260.314	272.19
260.547	287.19
260.779	285.19
261.012	262.19
261.244	238.19
261.477	228.19
261.71	248.19
261.942	246.19
262.175	260.19
262.407	258.19
262.64	242.19
262.872	235.19
263.105	227.19
263.337	231.19
263.57	235.19
263.802	226.19
264.035	234.19
264.267	248.19
264.499	220.19
264.732	237.19
264.964	216.19
265.197	213.19
265.429	235.19
265.661	245.19
265.894	225.19
266.126	240.19
266.358	225.19
266.591	242.19
266.823	243.19
267.055	242.19
267.287	240.19
267.52	237.19
267.752	250.19
267.984	251.19
268.216	232.19
268.448	244.19
268.681	265.19
268.913	258.19
269.145	273.19
269.377	309.19
269.609	305.19
269.841	306.19
270.073	298.19
270.306	332.19
270.538	352.19
270.77	355.19
271.002	350.19
271.234	328.19
271.466	329.19
271.698	342.19
271.93	351.19
272.162	365.19
272.394	353.19
272.626	330.19
272.858	317.19
273.09	314.19
273.322	313.19
273.553	315.19
273.785	270.19
274.017	269.19
274.249	290.19
274.481	289.19
274.713	295.19
274.945	294.19
275.176	294.19
275.408	287.19
275.64	275.19
275.872	285.19
276.104	281.19
276.335	287.19
276.567	287.19
276.799	320.19
277.031	323.19
277.262	357.19
277.494	353.19
277.726	329.19
277.957	303.19
278.189	313.19
278.421	263.19
278.652	297.19
278.884	295.19
279.115	285.19
279.347	287.19
279.579	303.19
279.81	273.19
280.042	268.19
280.273	288.19
280.505	303.19
280.736	272.19
280.968	277.19
281.199	279.19
281.431	279.19
281.662	269.19
281.894	277.19
282.125	285.19
282.356	315.19
282.588	333.19
282.819	330.19
283.051	293.19
283.282	277.19
283.513	281.19
283.745	283.19
283.976	291.19
284.207	302.19
284.439	296.19
284.67	287.19
284.901	293.19
285.132	288.19
285.364	274.19
285.595	270.19
285.826	282.19
286.057	289.19
286.288	277.19
286.52	285.19
286.751	293.19
286.982	274.19
287.213	283.19
287.444	295.19
287.675	287.19
287.906	298.19
288.138	289.19
288.369	298.19
288.6	329.19
288.831	318.19
289.062	308.19
289.293	299.19
289.524	299.19
289.755	288.19
289.986	295.19
290.217	294.19
290.448	305.19
290.679	299.19
290.91	287.19
291.141	281.19
291.371	312.19
291.602	281.19
291.833	282.19
292.064	281.19
292.295	286.19
292.526	301.19
292.757	305.19
292.987	294.19
293.218	311.19
293.449	289.19
293.68	279.19
293.91	295.19
294.141	282.19
294.372	309.19
294.603	279.19
294.833	307.19
295.064	294.19
295.295	290.19
295.525	286.19
295.756	298.19
295.987	316.19
296.217	334.19
296.448	361.19
296.679	313.19
296.909	311.19
297.14	285.19
297.37	313.19
297.601	294.19
297.831	285.19
298.062	290.19
298.292	318.19
298.523	318.19
298.753	307.19
298.984	313.19
299.214	304.19
299.445	325.19
299.675	314.19
299.905	317.19
300.136	306.19
300.366	319.19
300.597	316.19
300.827	325.19
301.057	321.19
301.288	315.19
301.518	325.19
301.748	317.19
301.979	315.19
302.209	324.19
302.439	319.19
302.669	329.19
302.9	332.19
303.13	326.19
303.36	321.19
303.59	356.19
303.82	352.19
304.051	358.19
304.281	340.19
304.511	326.19
304.741	319.19
304.971	326.19
305.201	311.19
305.431	327.19
305.661	326.19
305.891	337.19
306.121	333.19
306.352	344.19
306.582	353.19
306.812	359.19
307.042	353.19
307.272	337.19
307.502	339.19
307.731	349.19
307.961	368.19
308.191	334.19
308.421	345.19
308.651	346.19
308.881	350.19
309.111	355.19
309.341	362.19
309.571	385.19
309.8	387.19
310.03	381.19
310.26	385.19
310.49	421.19
310.72	414.19
310.949	439.19
311.179	453.19
311.409	426.19
311.639	415.19
311.868	395.19
312.098	401.19
312.328	413.19
312.557	445.19
312.787	450.19
313.017	430.19
313.246	407.19
313.476	406.19
313.706	383.19
313.935	417.19
314.165	417.19
314.394	434.19
314.624	430.19
314.853	434.19
315.083	396.19
315.312	399.19
315.542	397.19
315.771	383.19
316.001	391.19
316.23	374.19
316.46	380.19
316.689	409.19
316.919	388.19
317.148	395.19
317.377	424.19
317.607	407.19
317.836	394.19
318.065	403.19
318.295	398.19
318.524	397.19
318.753	391.19
318.983	390.19
319.212	383.19
319.441	422.19
319.67	430.19
319.9	410.19
320.129	394.19
320.358	409.19
320.587	411.19
320.816	413.19
321.046	429.19
321.275	424.19
321.504	412.19
321.733	445.19
321.962	444.19
322.191	438.19
322.42	472.19
322.649	514.19
322.878	519.19
323.108	517.19
323.337	547.19
323.566	588.19
323.795	637.19
324.024	680.19
324.253	853.19
324.482	1283.19
324.71	1963.19
324.939	2859.19
325.168	2419.19
325.397	1275.19
325.626	829.19
325.855	683.19
326.084	619.19
326.313	614.19
326.542	587.19
326.77	666.19
326.999	773.19
327.228	1116.19
327.457	1707.19
327.686	2119.19
327.914	1405.19
328.143	922.19
328.372	769.19
328.6	707.19
328.829	676.19
329.058	683.19
329.287	726.19
329.515	656.19
329.744	619.19
329.972	589.19
330.201	628.19
330.43	675.19
330.658	714.19
330.887	739.19
331.115	695.19
331.344	623.19
331.572	557.19
331.801	546.19
332.03	541.19
332.258	523.19
332.486	518.19
332.715	490.19
332.943	479.19
333.172	480.19
333.4	496.19
333.629	488.19
333.857	522.19
334.085	527.19
334.314	557.19
334.542	571.19
334.771	591.19
334.999	530.19
335.227	500.19
335.455	498.19
335.684	492.19
335.912	472.19
336.14	463.19
336.369	466.19
336.597	454.19
336.825	475.19
337.053	478.19
337.281	469.19
337.51	465.19
337.738	464.19
337.966	458.19
338.194	463.19
338.422	467.19
338.65	448.19
338.878	444.19
339.106	440.19
339.334	464.19
339.562	443.19
339.79	466.19
340.018	459.19
340.246	456.19
340.474	438.19
340.702	465.19
340.93	463.19
341.158	456.19
341.386	452.19
341.614	465.19
341.842	451.19
342.07	463.19
342.298	433.19
342.526	430.19
342.754	426.19
342.981	434.19
343.209	431.19
343.437	454.19
343.665	440.19
343.893	460.19
344.12	463.19
344.348	458.19
344.576	452.19
344.804	459.19
345.031	472.19
345.259	503.19
345.487	470.19
345.714	466.19
345.942	449.19
346.17	457.19
346.397	466.19
346.625	446.19
346.853	440.19
347.08	441.19
347.308	455.19
347.535	482.19
347.763	479.19
347.99	486.19
348.218	469.19
348.445	467.19
348.673	473.19
348.9	446.19
349.128	450.19
349.355	431.19
349.583	435.19
349.81	441.19
350.037	449.19
350.265	426.19
350.492	447.19
350.72	422.19
350.947	430.19
351.174	470.19
351.402	451.19
351.629	450.19
351.856	469.19
352.083	489.19
352.311	479.19
352.538	488.19
352.765	507.19
352.992	491.19
353.22	455.19
353.447	462.19
353.674	440.19
353.901	434.19
354.128	430.19
354.355	423.19
354.583	413.19
354.81	418.19
355.037	417.19
355.264	403.19
355.491	415.19
355.718	398.19
355.945	392.19
356.172	394.19
356.399	393.19
356.626	409.19
356.853	413.19
357.08	400.19
357.307	410.19
357.534	414.19
357.761	415.19
357.988	409.19
358.215	398.19
358.441	411.19
358.668	410.19
358.895	430.19
359.122	447.19
359.349	440.19
359.576	447.19
359.802	470.19
360.029	545.19
360.256	543.19
360.483	509.19
360.709	483.19
360.936	469.19
361.163	471.19
361.39	470.19
361.616	481.19
361.843	459.19
362.07	447.19
362.296	481.19
362.523	461.19
362.749	467.19
362.976	430.19
363.203	465.19
363.429	439.19
363.656	447.19
363.882	441.19
364.109	425.19
364.335	446.19
364.562	426.19
364.788	419.19
365.015	455.19
365.241	435.19
365.468	425.19
365.694	439.19
365.92	447.19
366.147	439.19
366.373	443.19
366.599	441.19
366.826	415.19
367.052	442.19
367.278	432.19
367.505	439.19
367.731	429.19
367.957	431.19
368.184	425.19
368.41	451.19
368.636	439.19
368.862	454.19
369.089	458.19
369.315	441.19
369.541	433.19
369.767	435.19
369.993	446.19
370.219	432.19
370.445	411.19
370.672	435.19
370.898	418.19
371.124	408.19
371.35	411.19
371.576	407.19
371.802	419.19
372.028	413.19
372.254	429.19
372.48	428.19
372.706	395.19
372.932	393.19
373.158	421.19
373.384	441.19
373.61	423.19
373.835	433.19
374.061	442.19
374.287	445.19
374.513	423.19
374.739	425.19
374.965	427.19
375.191	433.19
375.416	423.19
375.642	404.19
375.868	417.19
376.094	397.19
376.319	414.19
376.545	411.19
376.771	417.19
376.997	427.19
377.222	419.19
377.448	418.19
377.674	426.19
377.899	418.19
378.125	421.19
378.35	412.19
378.576	423.19
378.802	421.19
379.027	406.19
379.253	413.19
379.478	397.19
379.704	420.19
379.929	460.19
380.155	441.19
380.38	433.19
380.606	432.19
380.831	441.19
381.057	413.19
381.282	434.19
381.507	435.19
381.733	429.19
381.958	444.19
382.184	447.19
382.409	411.19
382.634	432.19
382.86	434.19
383.085	440.19
383.31	449.19
383.535	425.19
383.761	447.19
383.986	460.19
384.211	443.19
384.436	419.19
384.662	432.19
384.887	433.19
385.112	433.19
385.337	466.19
385.562	430.19
385.787	459.19
386.013	458.19
386.238	461.19
386.463	464.19
386.688	450.19
386.913	458.19
387.138	447.19
387.363	467.19
387.588	457.19
387.813	449.19
388.038	455.19
388.263	450.19
388.488	464.19
388.713	455.19
388.938	449.19
389.163	433.19
389.387	453.19
389.612	455.19
389.837	463.19
390.062	447.19
390.287	440.19
390.512	459.19
390.736	448.19
390.961	449.19
391.186	472.19
391.411	456.19
391.636	477.19
391.86	456.19
392.085	433.19
392.31	465.19
392.534	467.19
392.759	459.19
392.984	463.19
393.208	477.19
393.433	469.19
393.658	456.19
393.882	476.19
394.107	478.19
394.331	491.19
394.556	455.19
394.78	435.19
395.005	467.19
395.229	439.19
395.454	505.19
395.678	496.19
395.903	505.19
396.127	521.19
396.352	522.19
396.576	475.19
396.801	477.19
397.025	475.19
397.249	504.19
397.474	503.19
397.698	496.19
397.922	506.19
398.147	508.19
398.371	544.19
398.595	513.19
398.82	496.19
399.044	532.19
399.268	523.19
399.492	553.19
399.717	579.19
399.941	601.19
400.165	607.19
400.389	640.19
400.613	601.19
400.837	557.19
401.062	546.19
401.286	537.19
401.51	523.19
401.734	524.19
401.958	528.19
402.182	557.19
402.406	565.19
402.63	556.19
402.854	540.19
403.078	545.19
403.302	567.19
403.526	538.19
403.75	538.19
403.974	543.19
404.198	537.19
404.422	546.19
404.645	545.19
404.869	561.19
405.093	605.19
405.317	645.19
405.541	659.19
405.765	626.19
405.988	609.19
406.212	601.19
406.436	621.19
406.66	640.19
406.883	631.19
407.107	631.19
407.331	656.19
407.555	742.19
407.778	757.19
408.002	687.19
408.226	659.19
408.449	603.19
408.673	610.19
408.896	681.19
409.12	680.19
409.344	658.19
409.567	587.19
409.791	581.19
410.014	581.19
410.238	551.19
410.461	543.19
410.685	575.19
410.908	608.19
411.132	619.19
411.355	661.19
411.578	634.19
411.802	583.19
412.025	579.19
412.249	572.19
412.472	591.19
412.695	650.19
412.919	634.19
413.142	571.19
413.365	562.19
413.589	560.19
413.812	553.19
414.035	540.19
414.258	520.19
414.482	544.19
414.705	540.19
414.928	540.19
415.151	516.19
415.374	537.19
415.597	525.19
415.821	513.19
416.044	540.19
416.267	537.19
416.49	536.19
416.713	521.19
416.936	521.19
417.159	539.19
417.382	535.19
417.605	546.19
417.828	557.19
418.051	579.19
418.274	551.19
418.497	549.19
418.72	526.19
418.943	527.19
419.166	544.19
419.389	582.19
419.611	553.19
419.834	553.19
420.057	584.19
420.28	586.19
420.503	551.19
420.726	575.19
420.948	587.19
421.171	646.19
421.394	646.19
421.617	591.19
421.839	567.19
422.062	578.19
422.285	601.19
422.507	660.19
422.73	750.19
422.953	715.19
423.175	621.19
423.398	607.19
423.621	602.19
423.843	624.19
424.066	613.19
424.288	622.19
424.511	682.19
424.733	698.19
424.956	795.19
425.178	785.19
425.401	762.19
425.623	794.19
425.846	672.19
426.068	621.19
426.291	634.19
426.513	639.19
426.735	647.19
426.958	715.19
427.18	792.19
427.402	919.19
427.625	1029.19
427.847	943.19
428.069	811.19
428.292	705.19
428.514	639.19
428.736	622.19
428.958	598.19
429.181	590.19
429.403	594.19
429.625	622.19
429.847	640.19
430.069	705.19
430.292	725.19
430.514	621.19
430.736	587.19
430.958	574.19
431.18	565.19
431.402	557.19
431.624	539.19
431.846	528.19
432.068	546.19
432.29	538.19
432.512	549.19
432.734	555.19
432.956	542.19
433.178	571.19
433.4	581.19
433.622	545.19
433.844	556.19
434.066	538.19
434.287	530.19
434.509	529.19
434.731	538.19
434.953	569.19
435.175	594.19
435.397	621.19
435.618	643.19
435.84	715.19
436.062	805.19
436.284	867.19
436.505	742.19
436.727	643.19
436.949	620.19
437.17	599.19
437.392	605.19
437.614	598.19
437.835	659.19
438.057	780.19
438.278	893.19
438.5	894.19
438.721	944.19
438.943	930.19
439.165	752.19
439.386	651.19
439.608	667.19
439.829	661.19
440.05	703.19
440.272	755.19
440.493	688.19
440.715	654.19
440.936	611.19
441.158	617.19
441.379	597.19
441.6	619.19
441.822	638.19
442.043	685.19
442.264	788.19
442.486	839.19
442.707	710.19
442.928	665.19
443.149	679.19
443.371	689.19
443.592	735.19
443.813	867.19
444.034	900.19
444.255	749.19
444.476	658.19
444.698	641.19
444.919	638.19
445.14	777.19
445.361	722.19
445.582	694.19
445.803	777.19
446.024	930.19
446.245	913.19
446.466	850.19
446.687	696.19
446.908	651.19
447.129	638.19
447.35	609.19
447.571	587.19
447.792	601.19
448.013	607.19
448.234	639.19
448.455	679.19
448.675	840.19
448.896	907.19
449.117	801.19
449.338	771.19
449.559	893.19
449.779	966.19
450	798.19
450.221	681.19
450.442	610.19
450.662	592.19
450.883	608.19
451.104	626.19
451.324	607.19
451.545	573.19
451.766	567.19
451.986	546.19
452.207	534.19
452.428	547.19
452.648	548.19
452.869	537.19
453.089	577.19
453.31	558.19
453.53	521.19
453.751	551.19
453.971	571.19
454.192	589.19
454.412	563.19
454.633	532.19
454.853	542.19
455.073	540.19
455.294	570.19
455.514	651.19
455.734	637.19
455.955	542.19
456.175	523.19
456.395	505.19
456.616	485.19
456.836	497.19
457.056	483.19
457.276	476.19
457.497	493.19
457.717	487.19
457.937	501.19
458.157	510.19
458.377	509.19
458.598	548.19
458.818	624.19
459.038	716.19
459.258	731.19
459.478	621.19
459.698	558.19
459.918	531.19
460.138	536.19
460.358	529.19
460.578	535.19
460.798	529.19
461.018	510.19
461.238	520.19
461.458	549.19
461.678	534.19
461.898	533.19
462.118	516.19
462.338	525.19
462.558	519.19
462.777	548.19
462.997	561.19
463.217	586.19
463.437	585.19
463.657	558.19
463.876	573.19
464.096	561.19
464.316	553.19
464.536	576.19
464.755	593.19
464.975	603.19
465.195	657.19
465.414	799.19
465.634	682.19
465.854	603.19
466.073	572.19
466.293	569.19
466.512	553.19
466.732	553.19
466.951	547.19
467.171	513.19
467.391	539.19
467.61	554.19
467.829	558.19
468.049	572.19
468.268	559.19
468.488	568.19
468.707	531.19
468.927	531.19
469.146	521.19
469.365	539.19
469.585	538.19
469.804	545.19
470.023	558.19
470.243	561.19
470.462	565.19
470.681	579.19
470.901	568.19
471.12	554.19
471.339	545.19
471.558	551.19
471.777	559.19
471.997	560.19
472.216	556.19
472.435	603.19
472.654	591.19
472.873	550.19
473.092	560.19
473.311	557.19
473.53	532.19
473.749	562.19
473.968	615.19
474.187	743.19
474.406	787.19
474.625	621.19
474.844	583.19
475.063	559.19
475.282	567.19
475.501	553.19
475.72	567.19
475.939	563.19
476.158	578.19
476.377	572.19
476.596	541.19
476.814	590.19
477.033	583.19
477.252	589.19
477.471	581.19
477.69	579.19
477.908	577.19
478.127	581.19
478.346	590.19
478.564	607.19
478.783	622.19
479.002	605.19
479.22	620.19
479.439	657.19
479.658	659.19
479.876	655.19
480.095	651.19
480.313	685.19
480.532	690.19
480.751	681.19
480.969	695.19
481.188	769.19
481.406	851.19
481.624	728.19
481.843	693.19
482.061	685.19
482.28	659.19
482.498	660.19
482.717	657.19
482.935	653.19
483.153	654.19
483.372	655.19
483.59	655.19
483.808	662.19
484.027	637.19
484.245	663.19
484.463	654.19
484.681	675.19
484.9	687.19
485.118	675.19
485.336	655.19
485.554	659.19
485.772	669.19
485.99	677.19
486.209	694.19
486.427	705.19
486.645	716.19
486.863	717.19
487.081	734.19
487.299	721.19
487.517	707.19
487.735	702.19
487.953	736.19
488.171	703.19
488.389	737.19
488.607	730.19
488.825	713.19
489.043	695.19
489.261	720.19
489.479	730.19
489.696	729.19
489.914	726.19
490.132	748.19
490.35	760.19
490.568	761.19
490.786	774.19
491.003	778.19
491.221	817.19
491.439	814.19
491.657	809.19
491.874	841.19
492.092	830.19
492.31	838.19
492.527	841.19
492.745	846.19
492.963	871.19
493.18	867.19
493.398	889.19
493.615	875.19
493.833	841.19
494.05	861.19
494.268	865.19
494.485	855.19
494.703	865.19
494.92	864.19
495.138	829.19
495.355	856.19
495.573	898.19
495.79	878.19
496.008	857.19
496.225	853.19
496.442	842.19
496.66	876.19
496.877	863.19
497.094	855.19
497.312	836.19
497.529	889.19
497.746	871.19
497.963	893.19
498.181	947.19
498.398	942.19
498.615	913.19
498.832	921.19
499.049	913.19
499.267	937.19
499.484	974.19
499.701	964.19
499.918	977.19
500.135	1013.19
500.352	1047.19
500.569	1044.19
500.786	1062.19
501.003	1068.19
501.22	1022.19
501.437	1042.19
