Data from 1971.PennyLincolnUp.Lamp.En5.5.200Scan.071719.P1._HRD10591_15-19-13-842.txt Node
Date: Thu Jul 18 15:19:13 EDT 2019
User: cochatt
Spectrometer: HR+D1059
Trigger mode: 1
Integration Time (sec): 1.000000E-1
Scans to average: 1
Electric dark correction enabled: true
Nonlinearity correction enabled: false
Boxcar width: 0
XAxis mode: Wavelengths
Number of Pixels in Spectrum: 2048
>>>>>Begin Spectral Data<<<<<
223.165	-15.69
223.4	-15.69
223.635	-15.69
223.869	-21.69
224.104	-10.69
224.338	-9.69
224.573	-25.69
224.808	-13.69
225.042	-12.69
225.277	5.31
225.511	-1.69
225.746	2.31
225.98	0.31
226.215	12.31
226.449	5.31
226.683	31.31
226.918	31.31
227.152	23.31
227.387	16.31
227.621	37.31
227.856	43.31
228.09	45.31
228.324	49.31
228.559	58.31
228.793	75.31
229.027	91.31
229.262	113.31
229.496	111.31
229.73	113.31
229.964	130.31
230.199	118.31
230.433	93.31
230.667	93.31
230.901	98.31
231.136	105.31
231.37	118.31
231.604	103.31
231.838	112.31
232.072	110.31
232.306	106.31
232.541	111.31
232.775	111.31
233.009	102.31
233.243	103.31
233.477	116.31
233.711	119.31
233.945	108.31
234.179	117.31
234.413	111.31
234.647	114.31
234.881	114.31
235.115	103.31
235.349	114.31
235.583	108.31
235.817	121.31
236.051	128.31
236.285	132.31
236.519	122.31
236.753	128.31
236.987	127.31
237.221	164.31
237.455	209.31
237.689	161.31
237.922	132.31
238.156	131.31
238.39	130.31
238.624	128.31
238.858	126.31
239.091	128.31
239.325	109.31
239.559	132.31
239.793	117.31
240.027	131.31
240.26	149.31
240.494	133.31
240.728	128.31
240.961	132.31
241.195	125.31
241.429	146.31
241.662	127.31
241.896	117.31
242.13	129.31
242.363	114.31
242.597	121.31
242.83	131.31
243.064	123.31
243.298	135.31
243.531	138.31
243.765	152.31
243.998	147.31
244.232	144.31
244.465	144.31
244.699	140.31
244.932	131.31
245.166	142.31
245.399	140.31
245.633	146.31
245.866	130.31
246.099	145.31
246.333	144.31
246.566	151.31
246.8	152.31
247.033	155.31
247.266	158.31
247.5	147.31
247.733	150.31
247.966	162.31
248.2	152.31
248.433	161.31
248.666	156.31
248.899	195.31
249.133	193.31
249.366	186.31
249.599	183.31
249.832	177.31
250.066	178.31
250.299	187.31
250.532	178.31
250.765	182.31
250.998	209.31
251.231	205.31
251.465	205.31
251.698	189.31
251.931	207.31
252.164	219.31
252.397	197.31
252.63	194.31
252.863	212.31
253.096	201.31
253.329	234.31
253.562	195.31
253.795	211.31
254.028	212.31
254.261	205.31
254.494	225.31
254.727	247.31
254.96	271.31
255.193	252.31
255.426	249.31
255.659	233.31
255.892	220.31
256.124	232.31
256.357	244.31
256.59	224.31
256.823	221.31
257.056	210.31
257.289	222.31
257.521	220.31
257.754	207.31
257.987	201.31
258.22	210.31
258.452	215.31
258.685	220.31
258.918	210.31
259.151	208.31
259.383	214.31
259.616	228.31
259.849	215.31
260.081	240.31
260.314	241.31
260.547	255.31
260.779	239.31
261.012	211.31
261.244	227.31
261.477	225.31
261.71	210.31
261.942	212.31
262.175	221.31
262.407	218.31
262.64	214.31
262.872	209.31
263.105	214.31
263.337	221.31
263.57	219.31
263.802	210.31
264.035	226.31
264.267	218.31
264.499	213.31
264.732	213.31
264.964	208.31
265.197	215.31
265.429	209.31
265.661	218.31
265.894	210.31
266.126	210.31
266.358	224.31
266.591	223.31
266.823	231.31
267.055	218.31
267.287	232.31
267.52	236.31
267.752	245.31
267.984	226.31
268.216	237.31
268.448	233.31
268.681	240.31
268.913	247.31
269.145	267.31
269.377	261.31
269.609	287.31
269.841	277.31
270.073	268.31
270.306	289.31
270.538	320.31
270.77	300.31
271.002	287.31
271.234	290.31
271.466	297.31
271.698	331.31
271.93	314.31
272.162	319.31
272.394	310.31
272.626	292.31
272.858	282.31
273.09	274.31
273.322	277.31
273.553	270.31
273.785	247.31
274.017	269.31
274.249	274.31
274.481	265.31
274.713	264.31
274.945	250.31
275.176	267.31
275.408	268.31
275.64	280.31
275.872	251.31
276.104	277.31
276.335	273.31
276.567	255.31
276.799	281.31
277.031	311.31
277.262	339.31
277.494	308.31
277.726	304.31
277.957	291.31
278.189	273.31
278.421	282.31
278.652	266.31
278.884	263.31
279.115	258.31
279.347	268.31
279.579	268.31
279.81	280.31
280.042	287.31
280.273	282.31
280.505	278.31
280.736	287.31
280.968	277.31
281.199	267.31
281.431	286.31
281.662	274.31
281.894	279.31
282.125	287.31
282.356	283.31
282.588	284.31
282.819	296.31
283.051	283.31
283.282	284.31
283.513	287.31
283.745	269.31
283.976	276.31
284.207	272.31
284.439	286.31
284.67	279.31
284.901	288.31
285.132	288.31
285.364	279.31
285.595	285.31
285.826	290.31
286.057	293.31
286.288	285.31
286.52	290.31
286.751	284.31
286.982	275.31
287.213	272.31
287.444	293.31
287.675	303.31
287.906	286.31
288.138	279.31
288.369	287.31
288.6	311.31
288.831	308.31
289.062	291.31
289.293	292.31
289.524	309.31
289.755	284.31
289.986	315.31
290.217	286.31
290.448	301.31
290.679	294.31
290.91	289.31
291.141	293.31
291.371	295.31
291.602	305.31
291.833	295.31
292.064	297.31
292.295	297.31
292.526	289.31
292.757	297.31
292.987	295.31
293.218	290.31
293.449	299.31
293.68	295.31
293.91	276.31
294.141	279.31
294.372	283.31
294.603	291.31
294.833	287.31
295.064	303.31
295.295	292.31
295.525	305.31
295.756	314.31
295.987	307.31
296.217	330.31
296.448	314.31
296.679	310.31
296.909	298.31
297.14	288.31
297.37	297.31
297.601	304.31
297.831	300.31
298.062	297.31
298.292	309.31
298.523	303.31
298.753	303.31
298.984	301.31
299.214	301.31
299.445	308.31
299.675	312.31
299.905	329.31
300.136	332.31
300.366	324.31
300.597	321.31
300.827	331.31
301.057	330.31
301.288	334.31
301.518	344.31
301.748	321.31
301.979	351.31
302.209	335.31
302.439	323.31
302.669	323.31
302.9	345.31
303.13	322.31
303.36	325.31
303.59	348.31
303.82	353.31
304.051	338.31
304.281	331.31
304.511	332.31
304.741	338.31
304.971	337.31
305.201	323.31
305.431	337.31
305.661	327.31
305.891	304.31
306.121	324.31
306.352	331.31
306.582	339.31
306.812	341.31
307.042	349.31
307.272	339.31
307.502	338.31
307.731	340.31
307.961	360.31
308.191	339.31
308.421	332.31
308.651	342.31
308.881	342.31
309.111	355.31
309.341	347.31
309.571	371.31
309.8	351.31
310.03	370.31
310.26	385.31
310.49	383.31
310.72	359.31
310.949	387.31
311.179	385.31
311.409	384.31
311.639	376.31
311.868	374.31
312.098	371.31
312.328	384.31
312.557	386.31
312.787	404.31
313.017	388.31
313.246	371.31
313.476	367.31
313.706	378.31
313.935	392.31
314.165	381.31
314.394	387.31
314.624	393.31
314.853	392.31
315.083	371.31
315.312	363.31
315.542	365.31
315.771	363.31
316.001	385.31
316.23	363.31
316.46	379.31
316.689	392.31
316.919	358.31
317.148	390.31
317.377	359.31
317.607	377.31
317.836	369.31
318.065	385.31
318.295	389.31
318.524	377.31
318.753	379.31
318.983	383.31
319.212	395.31
319.441	375.31
319.67	377.31
319.9	376.31
320.129	388.31
320.358	387.31
320.587	404.31
320.816	387.31
321.046	393.31
321.275	397.31
321.504	406.31
321.733	407.31
321.962	417.31
322.191	415.31
322.42	428.31
322.649	457.31
322.878	458.31
323.108	460.31
323.337	468.31
323.566	485.31
323.795	515.31
324.024	536.31
324.253	681.31
324.482	929.31
324.71	1408.31
324.939	1853.31
325.168	1549.31
325.397	840.31
325.626	608.31
325.855	531.31
326.084	497.31
326.313	481.31
326.542	511.31
326.77	520.31
326.999	618.31
327.228	840.31
327.457	1201.31
327.686	1392.31
327.914	947.31
328.143	660.31
328.372	581.31
328.6	561.31
328.829	526.31
329.058	505.31
329.287	545.31
329.515	490.31
329.744	497.31
329.972	491.31
330.201	476.31
330.43	513.31
330.658	538.31
330.887	549.31
331.115	545.31
331.344	487.31
331.572	472.31
331.801	481.31
332.03	454.31
332.258	456.31
332.486	437.31
332.715	431.31
332.943	437.31
333.172	436.31
333.4	432.31
333.629	445.31
333.857	469.31
334.085	461.31
334.314	476.31
334.542	512.31
334.771	507.31
334.999	479.31
335.227	458.31
335.455	442.31
335.684	435.31
335.912	434.31
336.14	421.31
336.369	430.31
336.597	431.31
336.825	431.31
337.053	440.31
337.281	413.31
337.51	402.31
337.738	411.31
337.966	443.31
338.194	421.31
338.422	419.31
338.65	429.31
338.878	428.31
339.106	428.31
339.334	414.31
339.562	419.31
339.79	416.31
340.018	411.31
340.246	432.31
340.474	399.31
340.702	411.31
340.93	419.31
341.158	398.31
341.386	421.31
341.614	405.31
341.842	426.31
342.07	412.31
342.298	411.31
342.526	390.31
342.754	399.31
342.981	386.31
343.209	397.31
343.437	408.31
343.665	393.31
343.893	420.31
344.12	431.31
344.348	422.31
344.576	409.31
344.804	426.31
345.031	424.31
345.259	421.31
345.487	431.31
345.714	409.31
345.942	401.31
346.17	406.31
346.397	397.31
346.625	398.31
346.853	393.31
347.08	385.31
347.308	391.31
347.535	399.31
347.763	391.31
347.99	412.31
348.218	401.31
348.445	403.31
348.673	405.31
348.9	393.31
349.128	396.31
349.355	392.31
349.583	396.31
349.81	394.31
350.037	377.31
350.265	381.31
350.492	385.31
350.72	388.31
350.947	398.31
351.174	389.31
351.402	402.31
351.629	395.31
351.856	376.31
352.083	409.31
352.311	403.31
352.538	382.31
352.765	403.31
352.992	395.31
353.22	369.31
353.447	389.31
353.674	362.31
353.901	379.31
354.128	373.31
354.355	369.31
354.583	380.31
354.81	365.31
355.037	347.31
355.264	375.31
355.491	355.31
355.718	360.31
355.945	367.31
356.172	348.31
356.399	358.31
356.626	354.31
356.853	375.31
357.08	355.31
357.307	371.31
357.534	362.31
357.761	353.31
357.988	374.31
358.215	369.31
358.441	371.31
358.668	356.31
358.895	348.31
359.122	359.31
359.349	373.31
359.576	375.31
359.802	409.31
360.029	426.31
360.256	401.31
360.483	425.31
360.709	370.31
360.936	390.31
361.163	385.31
361.39	368.31
361.616	395.31
361.843	384.31
362.07	392.31
362.296	375.31
362.523	375.31
362.749	384.31
362.976	365.31
363.203	371.31
363.429	362.31
363.656	373.31
363.882	369.31
364.109	371.31
364.335	363.31
364.562	356.31
364.788	360.31
365.015	375.31
365.241	367.31
365.468	376.31
365.694	370.31
365.92	386.31
366.147	377.31
366.373	353.31
366.599	357.31
366.826	343.31
367.052	361.31
367.278	351.31
367.505	354.31
367.731	372.31
367.957	348.31
368.184	346.31
368.41	352.31
368.636	360.31
368.862	372.31
369.089	369.31
369.315	367.31
369.541	358.31
369.767	377.31
369.993	381.31
370.219	358.31
370.445	345.31
370.672	374.31
370.898	365.31
371.124	362.31
371.35	376.31
371.576	378.31
371.802	352.31
372.028	367.31
372.254	371.31
372.48	344.31
372.706	358.31
372.932	343.31
373.158	371.31
373.384	372.31
373.61	374.31
373.835	337.31
374.061	353.31
374.287	353.31
374.513	347.31
374.739	363.31
374.965	365.31
375.191	370.31
375.416	352.31
375.642	349.31
375.868	352.31
376.094	362.31
376.319	341.31
376.545	363.31
376.771	353.31
376.997	338.31
377.222	360.31
377.448	334.31
377.674	352.31
377.899	339.31
378.125	345.31
378.35	348.31
378.576	361.31
378.802	349.31
379.027	347.31
379.253	356.31
379.478	357.31
379.704	357.31
379.929	342.31
380.155	337.31
380.38	339.31
380.606	337.31
380.831	357.31
381.057	347.31
381.282	357.31
381.507	335.31
381.733	351.31
381.958	368.31
382.184	358.31
382.409	341.31
382.634	371.31
382.86	357.31
383.085	353.31
383.31	369.31
383.535	353.31
383.761	356.31
383.986	368.31
384.211	356.31
384.436	373.31
384.662	343.31
384.887	367.31
385.112	370.31
385.337	360.31
385.562	375.31
385.787	373.31
386.013	398.31
386.238	372.31
386.463	372.31
386.688	364.31
386.913	360.31
387.138	371.31
387.363	367.31
387.588	370.31
387.813	375.31
388.038	364.31
388.263	371.31
388.488	355.31
388.713	363.31
388.938	378.31
389.163	375.31
389.387	384.31
389.612	373.31
389.837	376.31
390.062	367.31
390.287	366.31
390.512	370.31
390.736	372.31
390.961	368.31
391.186	359.31
391.411	383.31
391.636	360.31
391.86	381.31
392.085	370.31
392.31	374.31
392.534	372.31
392.759	393.31
392.984	405.31
393.208	383.31
393.433	375.31
393.658	360.31
393.882	358.31
394.107	363.31
394.331	369.31
394.556	381.31
394.78	381.31
395.005	392.31
395.229	364.31
395.454	377.31
395.678	380.31
395.903	361.31
396.127	403.31
396.352	413.31
396.576	390.31
396.801	387.31
397.025	387.31
397.249	392.31
397.474	399.31
397.698	404.31
397.922	409.31
398.147	409.31
398.371	412.31
398.595	426.31
398.82	418.31
399.044	426.31
399.268	429.31
399.492	466.31
399.717	490.31
399.941	498.31
400.165	487.31
400.389	491.31
400.613	452.31
400.837	443.31
401.062	405.31
401.286	412.31
401.51	421.31
401.734	401.31
401.958	406.31
402.182	413.31
402.406	412.31
402.63	408.31
402.854	434.31
403.078	434.31
403.302	417.31
403.526	434.31
403.75	443.31
403.974	426.31
404.198	389.31
404.422	426.31
404.645	419.31
404.869	435.31
405.093	453.31
405.317	464.31
405.541	509.31
405.765	474.31
405.988	455.31
406.212	438.31
406.436	478.31
406.66	471.31
406.883	449.31
407.107	479.31
407.331	502.31
407.555	549.31
407.778	561.31
408.002	504.31
408.226	475.31
408.449	457.31
408.673	458.31
408.896	491.31
409.12	510.31
409.344	479.31
409.567	463.31
409.791	434.31
410.014	433.31
410.238	403.31
410.461	427.31
410.685	420.31
410.908	452.31
411.132	444.31
411.355	496.31
411.578	500.31
411.802	448.31
412.025	421.31
412.249	427.31
412.472	438.31
412.695	460.31
412.919	473.31
413.142	412.31
413.365	393.31
413.589	414.31
413.812	407.31
414.035	410.31
414.258	411.31
414.482	412.31
414.705	388.31
414.928	410.31
415.151	421.31
415.374	396.31
415.597	409.31
415.821	397.31
416.044	407.31
416.267	401.31
416.49	403.31
416.713	407.31
416.936	382.31
417.159	398.31
417.382	398.31
417.605	394.31
417.828	393.31
418.051	426.31
418.274	411.31
418.497	414.31
418.72	407.31
418.943	393.31
419.166	412.31
419.389	406.31
419.611	429.31
419.834	420.31
420.057	407.31
420.28	413.31
420.503	432.31
420.726	409.31
420.948	438.31
421.171	462.31
421.394	458.31
421.617	423.31
421.839	426.31
422.062	408.31
422.285	461.31
422.507	476.31
422.73	535.31
422.953	533.31
423.175	460.31
423.398	426.31
423.621	419.31
423.843	453.31
424.066	449.31
424.288	417.31
424.511	452.31
424.733	493.31
424.956	559.31
425.178	569.31
425.401	524.31
425.623	555.31
425.846	483.31
426.068	459.31
426.291	434.31
426.513	435.31
426.735	456.31
426.958	487.31
427.18	536.31
427.402	653.31
427.625	689.31
427.847	600.31
428.069	529.31
428.292	479.31
428.514	446.31
428.736	432.31
428.958	422.31
429.181	420.31
429.403	411.31
429.625	421.31
429.847	458.31
430.069	491.31
430.292	496.31
430.514	434.31
430.736	415.31
430.958	392.31
431.18	410.31
431.402	376.31
431.624	391.31
431.846	380.31
432.068	386.31
432.29	377.31
432.512	384.31
432.734	398.31
432.956	389.31
433.178	391.31
433.4	406.31
433.622	393.31
433.844	390.31
434.066	388.31
434.287	397.31
434.509	412.31
434.731	403.31
434.953	397.31
435.175	427.31
435.397	412.31
435.618	452.31
435.84	483.31
436.062	541.31
436.284	577.31
436.505	496.31
436.727	436.31
436.949	418.31
437.17	412.31
437.392	413.31
437.614	428.31
437.835	453.31
438.057	496.31
438.278	596.31
438.5	613.31
438.721	662.31
438.943	647.31
439.165	504.31
439.386	470.31
439.608	464.31
439.829	432.31
440.05	500.31
440.272	493.31
440.493	478.31
440.715	432.31
440.936	441.31
441.158	441.31
441.379	426.31
441.6	437.31
441.822	442.31
442.043	485.31
442.264	541.31
442.486	549.31
442.707	475.31
442.928	460.31
443.149	477.31
443.371	496.31
443.592	521.31
443.813	577.31
444.034	644.31
444.255	525.31
444.476	479.31
444.698	452.31
444.919	446.31
445.14	565.31
445.361	502.31
445.582	487.31
445.803	520.31
446.024	614.31
446.245	627.31
446.466	571.31
446.687	469.31
446.908	451.31
447.129	411.31
447.35	409.31
447.571	421.31
447.792	417.31
448.013	426.31
448.234	430.31
448.455	476.31
448.675	565.31
448.896	663.31
449.117	549.31
449.338	513.31
449.559	618.31
449.779	691.31
450	560.31
450.221	482.31
450.442	415.31
450.662	416.31
450.883	413.31
451.104	405.31
451.324	410.31
451.545	368.31
451.766	360.31
451.986	370.31
452.207	361.31
452.428	367.31
452.648	387.31
452.869	358.31
453.089	339.31
453.31	363.31
453.53	372.31
453.751	356.31
453.971	383.31
454.192	381.31
454.412	369.31
454.633	362.31
454.853	355.31
455.073	347.31
455.294	400.31
455.514	441.31
455.734	420.31
455.955	394.31
456.175	364.31
456.395	352.31
456.616	324.31
456.836	338.31
457.056	329.31
457.276	330.31
457.497	357.31
457.717	345.31
457.937	358.31
458.157	361.31
458.377	370.31
458.598	377.31
458.818	408.31
459.038	462.31
459.258	454.31
459.478	406.31
459.698	405.31
459.918	385.31
460.138	400.31
460.358	377.31
460.578	403.31
460.798	374.31
461.018	391.31
461.238	372.31
461.458	391.31
461.678	375.31
461.898	377.31
462.118	374.31
462.338	378.31
462.558	405.31
462.777	403.31
462.997	427.31
463.217	427.31
463.437	411.31
463.657	415.31
463.876	410.31
464.096	414.31
464.316	413.31
464.536	416.31
464.755	448.31
464.975	407.31
465.195	441.31
465.414	517.31
465.634	431.31
465.854	411.31
466.073	392.31
466.293	369.31
466.512	361.31
466.732	369.31
466.951	377.31
467.171	357.31
467.391	379.31
467.61	391.31
467.829	362.31
468.049	375.31
468.268	359.31
468.488	362.31
468.707	372.31
468.927	371.31
469.146	367.31
469.365	386.31
469.585	372.31
469.804	367.31
470.023	395.31
470.243	388.31
470.462	393.31
470.681	388.31
470.901	394.31
471.12	383.31
471.339	378.31
471.558	374.31
471.777	376.31
471.997	393.31
472.216	373.31
472.435	398.31
472.654	374.31
472.873	378.31
473.092	369.31
473.311	360.31
473.53	379.31
473.749	371.31
473.968	436.31
474.187	511.31
474.406	508.31
474.625	421.31
474.844	388.31
475.063	385.31
475.282	396.31
475.501	374.31
475.72	387.31
475.939	393.31
476.158	392.31
476.377	393.31
476.596	395.31
476.814	383.31
477.033	390.31
477.252	397.31
477.471	414.31
477.69	393.31
477.908	422.31
478.127	411.31
478.346	416.31
478.564	425.31
478.783	401.31
479.002	431.31
479.22	442.31
479.439	452.31
479.658	440.31
479.876	435.31
480.095	453.31
480.313	471.31
480.532	488.31
480.751	461.31
480.969	457.31
481.188	509.31
481.406	511.31
481.624	461.31
481.843	457.31
482.061	427.31
482.28	431.31
482.498	444.31
482.717	423.31
482.935	443.31
483.153	440.31
483.372	436.31
483.59	448.31
483.808	430.31
484.027	422.31
484.245	435.31
484.463	459.31
484.681	443.31
484.9	459.31
485.118	436.31
485.336	463.31
485.554	457.31
485.772	435.31
485.99	432.31
486.209	458.31
486.427	466.31
486.645	471.31
486.863	495.31
487.081	482.31
487.299	456.31
487.517	460.31
487.735	456.31
487.953	471.31
488.171	472.31
488.389	472.31
488.607	477.31
488.825	476.31
489.043	473.31
489.261	496.31
489.479	482.31
489.696	463.31
489.914	467.31
490.132	486.31
490.35	491.31
490.568	516.31
490.786	479.31
491.003	523.31
491.221	500.31
491.439	513.31
491.657	523.31
491.874	546.31
492.092	548.31
492.31	552.31
492.527	569.31
492.745	543.31
492.963	564.31
493.18	547.31
493.398	565.31
493.615	566.31
493.833	543.31
494.05	565.31
494.268	571.31
494.485	557.31
494.703	550.31
494.92	562.31
495.138	539.31
495.355	546.31
495.573	566.31
495.79	561.31
496.008	548.31
496.225	563.31
496.442	563.31
496.66	568.31
496.877	553.31
497.094	561.31
497.312	569.31
497.529	569.31
497.746	585.31
497.963	588.31
498.181	593.31
498.398	601.31
498.615	594.31
498.832	592.31
499.049	628.31
499.267	637.31
499.484	646.31
499.701	668.31
499.918	689.31
500.135	701.31
500.352	722.31
500.569	738.31
500.786	755.31
501.003	736.31
501.22	723.31
501.437	717.31
501.654	688.31
501.871	668.31
502.088	657.31
