Data from 1971.PennyLincolnUp.Lamp.En5.5.200Scan.071719.P1.Scan 2. Changed Angle._HRD10591_15-24-53-843.txt Node
Date: Thu Jul 18 15:24:53 EDT 2019
User: cochatt
Spectrometer: HR+D1059
Trigger mode: 1
Integration Time (sec): 1.000000E-1
Scans to average: 1
Electric dark correction enabled: true
Nonlinearity correction enabled: false
Boxcar width: 0
XAxis mode: Wavelengths
Number of Pixels in Spectrum: 2048
>>>>>Begin Spectral Data<<<<<
223.165	-13.56
223.4	-13.56
223.635	-13.56
223.869	-33.56
224.104	-19.56
224.338	-15.56
224.573	-14.56
224.808	-10.56
225.042	1.44
225.277	-8.56
225.511	5.44
225.746	1.44
225.98	7.44
226.215	0.44
226.449	15.44
226.683	35.44
226.918	11.44
227.152	37.44
227.387	13.44
227.621	47.44
227.856	33.44
228.09	40.44
228.324	47.44
228.559	38.44
228.793	62.44
229.027	101.44
229.262	95.44
229.496	117.44
229.73	151.44
229.964	165.44
230.199	150.44
230.433	129.44
230.667	108.44
230.901	115.44
231.136	123.44
231.37	126.44
231.604	94.44
231.838	114.44
232.072	132.44
232.306	113.44
232.541	121.44
232.775	109.44
233.009	123.44
233.243	119.44
233.477	109.44
233.711	118.44
233.945	124.44
234.179	113.44
234.413	117.44
234.647	110.44
234.881	133.44
235.115	119.44
235.349	111.44
235.583	117.44
235.817	135.44
236.051	134.44
236.285	141.44
236.519	138.44
236.753	139.44
236.987	156.44
237.221	215.44
237.455	274.44
237.689	214.44
237.922	141.44
238.156	161.44
238.39	157.44
238.624	144.44
238.858	145.44
239.091	126.44
239.325	137.44
239.559	138.44
239.793	147.44
240.027	151.44
240.26	165.44
240.494	183.44
240.728	162.44
240.961	152.44
241.195	158.44
241.429	143.44
241.662	145.44
241.896	153.44
242.13	138.44
242.363	147.44
242.597	132.44
242.83	161.44
243.064	152.44
243.298	151.44
243.531	143.44
243.765	142.44
243.998	152.44
244.232	152.44
244.465	149.44
244.699	152.44
244.932	146.44
245.166	145.44
245.399	166.44
245.633	136.44
245.866	161.44
246.099	150.44
246.333	156.44
246.566	159.44
246.8	147.44
247.033	173.44
247.266	153.44
247.5	175.44
247.733	165.44
247.966	187.44
248.2	197.44
248.433	176.44
248.666	185.44
248.899	200.44
249.133	236.44
249.366	251.44
249.599	221.44
249.832	201.44
250.066	191.44
250.299	192.44
250.532	214.44
250.765	217.44
250.998	257.44
251.231	265.44
251.465	261.44
251.698	233.44
251.931	220.44
252.164	233.44
252.397	207.44
252.63	228.44
252.863	229.44
253.096	237.44
253.329	259.44
253.562	266.44
253.795	260.44
254.028	226.44
254.261	248.44
254.494	271.44
254.727	294.44
254.96	317.44
255.193	325.44
255.426	276.44
255.659	272.44
255.892	263.44
256.124	263.44
256.357	264.44
256.59	252.44
256.823	239.44
257.056	238.44
257.289	231.44
257.521	231.44
257.754	228.44
257.987	222.44
258.22	235.44
258.452	240.44
258.685	221.44
258.918	207.44
259.151	220.44
259.383	229.44
259.616	248.44
259.849	239.44
260.081	249.44
260.314	294.44
260.547	299.44
260.779	259.44
261.012	268.44
261.244	251.44
261.477	243.44
261.71	241.44
261.942	268.44
262.175	255.44
262.407	258.44
262.64	239.44
262.872	232.44
263.105	233.44
263.337	236.44
263.57	249.44
263.802	232.44
264.035	237.44
264.267	228.44
264.499	216.44
264.732	221.44
264.964	203.44
265.197	221.44
265.429	237.44
265.661	224.44
265.894	229.44
266.126	225.44
266.358	201.44
266.591	218.44
266.823	232.44
267.055	239.44
267.287	237.44
267.52	230.44
267.752	229.44
267.984	246.44
268.216	255.44
268.448	241.44
268.681	238.44
268.913	251.44
269.145	265.44
269.377	311.44
269.609	306.44
269.841	301.44
270.073	298.44
270.306	328.44
270.538	328.44
270.77	342.44
271.002	335.44
271.234	316.44
271.466	339.44
271.698	358.44
271.93	349.44
272.162	350.44
272.394	363.44
272.626	344.44
272.858	315.44
273.09	297.44
273.322	300.44
273.553	292.44
273.785	293.44
274.017	291.44
274.249	296.44
274.481	265.44
274.713	277.44
274.945	286.44
275.176	288.44
275.408	275.44
275.64	283.44
275.872	289.44
276.104	277.44
276.335	274.44
276.567	291.44
276.799	305.44
277.031	335.44
277.262	346.44
277.494	349.44
277.726	335.44
277.957	324.44
278.189	303.44
278.421	278.44
278.652	286.44
278.884	284.44
279.115	276.44
279.347	299.44
279.579	280.44
279.81	267.44
280.042	257.44
280.273	269.44
280.505	297.44
280.736	262.44
280.968	279.44
281.199	280.44
281.431	271.44
281.662	280.44
281.894	280.44
282.125	277.44
282.356	294.44
282.588	335.44
282.819	326.44
283.051	280.44
283.282	282.44
283.513	275.44
283.745	280.44
283.976	290.44
284.207	295.44
284.439	283.44
284.67	296.44
284.901	279.44
285.132	274.44
285.364	271.44
285.595	299.44
285.826	303.44
286.057	258.44
286.288	280.44
286.52	286.44
286.751	294.44
286.982	290.44
287.213	267.44
287.444	289.44
287.675	280.44
287.906	290.44
288.138	299.44
288.369	290.44
288.6	292.44
288.831	289.44
289.062	296.44
289.293	305.44
289.524	307.44
289.755	294.44
289.986	282.44
290.217	277.44
290.448	287.44
290.679	291.44
290.91	290.44
291.141	275.44
291.371	276.44
291.602	300.44
291.833	291.44
292.064	278.44
292.295	302.44
292.526	302.44
292.757	304.44
292.987	295.44
293.218	310.44
293.449	303.44
293.68	286.44
293.91	289.44
294.141	275.44
294.372	294.44
294.603	297.44
294.833	312.44
295.064	282.44
295.295	267.44
295.525	300.44
295.756	301.44
295.987	297.44
296.217	327.44
296.448	364.44
296.679	303.44
296.909	311.44
297.14	300.44
297.37	292.44
297.601	303.44
297.831	304.44
298.062	323.44
298.292	301.44
298.523	306.44
298.753	315.44
298.984	311.44
299.214	317.44
299.445	307.44
299.675	325.44
299.905	304.44
300.136	312.44
300.366	305.44
300.597	328.44
300.827	316.44
301.057	327.44
301.288	321.44
301.518	330.44
301.748	325.44
301.979	338.44
302.209	330.44
302.439	339.44
302.669	344.44
302.9	334.44
303.13	319.44
303.36	315.44
303.59	340.44
303.82	339.44
304.051	329.44
304.281	327.44
304.511	320.44
304.741	333.44
304.971	316.44
305.201	336.44
305.431	342.44
305.661	328.44
305.891	329.44
306.121	329.44
306.352	348.44
306.582	353.44
306.812	324.44
307.042	350.44
307.272	355.44
307.502	365.44
307.731	335.44
307.961	324.44
308.191	354.44
308.421	343.44
308.651	352.44
308.881	331.44
309.111	357.44
309.341	366.44
309.571	363.44
309.8	375.44
310.03	390.44
310.26	386.44
310.49	389.44
310.72	413.44
310.949	446.44
311.179	437.44
311.409	429.44
311.639	403.44
311.868	407.44
312.098	415.44
312.328	416.44
312.557	430.44
312.787	454.44
313.017	444.44
313.246	406.44
313.476	408.44
313.706	382.44
313.935	419.44
314.165	393.44
314.394	447.44
314.624	421.44
314.853	414.44
315.083	404.44
315.312	407.44
315.542	397.44
315.771	373.44
316.001	367.44
316.23	397.44
316.46	375.44
316.689	377.44
316.919	395.44
317.148	422.44
317.377	419.44
317.607	406.44
317.836	399.44
318.065	410.44
318.295	384.44
318.524	385.44
318.753	402.44
318.983	406.44
319.212	377.44
319.441	401.44
319.67	406.44
319.9	408.44
320.129	387.44
320.358	403.44
320.587	408.44
320.816	413.44
321.046	431.44
321.275	433.44
321.504	423.44
321.733	437.44
321.962	451.44
322.191	477.44
322.42	475.44
322.649	501.44
322.878	521.44
323.108	533.44
323.337	553.44
323.566	589.44
323.795	615.44
324.024	700.44
324.253	885.44
324.482	1292.44
324.71	2053.44
324.939	2982.44
325.168	2502.44
325.397	1296.44
325.626	835.44
325.855	675.44
326.084	611.44
326.313	596.44
326.542	600.44
326.77	652.44
326.999	799.44
327.228	1152.44
327.457	1789.44
327.686	2219.44
327.914	1466.44
328.143	924.44
328.372	782.44
328.6	704.44
328.829	683.44
329.058	724.44
329.287	708.44
329.515	681.44
329.744	595.44
329.972	592.44
330.201	648.44
330.43	713.44
330.658	711.44
330.887	766.44
331.115	709.44
331.344	601.44
331.572	579.44
331.801	553.44
332.03	567.44
332.258	529.44
332.486	492.44
332.715	504.44
332.943	488.44
333.172	505.44
333.4	493.44
333.629	492.44
333.857	515.44
334.085	546.44
334.314	561.44
334.542	590.44
334.771	607.44
334.999	537.44
335.227	510.44
335.455	492.44
335.684	496.44
335.912	465.44
336.14	448.44
336.369	462.44
336.597	478.44
336.825	460.44
337.053	471.44
337.281	456.44
337.51	450.44
337.738	453.44
337.966	460.44
338.194	457.44
338.422	472.44
338.65	477.44
338.878	441.44
339.106	451.44
339.334	451.44
339.562	447.44
339.79	452.44
340.018	447.44
340.246	436.44
340.474	467.44
340.702	476.44
340.93	453.44
341.158	465.44
341.386	462.44
341.614	468.44
341.842	457.44
342.07	446.44
342.298	443.44
342.526	451.44
342.754	419.44
342.981	433.44
343.209	443.44
343.437	434.44
343.665	435.44
343.893	456.44
344.12	463.44
344.348	452.44
344.576	468.44
344.804	465.44
345.031	473.44
345.259	478.44
345.487	479.44
345.714	487.44
345.942	480.44
346.17	449.44
346.397	434.44
346.625	452.44
346.853	459.44
347.08	434.44
347.308	469.44
347.535	464.44
347.763	479.44
347.99	470.44
348.218	481.44
348.445	473.44
348.673	493.44
348.9	471.44
349.128	448.44
349.355	459.44
349.583	436.44
349.81	434.44
350.037	431.44
350.265	435.44
350.492	432.44
350.72	439.44
350.947	461.44
351.174	453.44
351.402	483.44
351.629	470.44
351.856	454.44
352.083	474.44
352.311	495.44
352.538	499.44
352.765	513.44
352.992	473.44
353.22	467.44
353.447	448.44
353.674	455.44
353.901	420.44
354.128	417.44
354.355	415.44
354.583	445.44
354.81	429.44
355.037	417.44
355.264	412.44
355.491	427.44
355.718	388.44
355.945	414.44
356.172	422.44
356.399	406.44
356.626	391.44
356.853	407.44
357.08	404.44
357.307	434.44
357.534	420.44
357.761	431.44
357.988	432.44
358.215	415.44
358.441	417.44
358.668	423.44
358.895	430.44
359.122	438.44
359.349	436.44
359.576	475.44
359.802	499.44
360.029	557.44
360.256	563.44
360.483	519.44
360.709	467.44
360.936	446.44
361.163	455.44
361.39	459.44
361.616	503.44
361.843	443.44
362.07	443.44
362.296	464.44
362.523	456.44
362.749	456.44
362.976	454.44
363.203	440.44
363.429	453.44
363.656	437.44
363.882	418.44
364.109	429.44
364.335	429.44
364.562	411.44
364.788	431.44
365.015	446.44
365.241	441.44
365.468	433.44
365.694	455.44
365.92	457.44
366.147	423.44
366.373	435.44
366.599	424.44
366.826	427.44
367.052	404.44
367.278	421.44
367.505	443.44
367.731	439.44
367.957	424.44
368.184	444.44
368.41	454.44
368.636	450.44
368.862	465.44
369.089	454.44
369.315	422.44
369.541	431.44
369.767	432.44
369.993	436.44
370.219	445.44
370.445	413.44
370.672	430.44
370.898	412.44
371.124	404.44
371.35	434.44
371.576	423.44
371.802	420.44
372.028	419.44
372.254	412.44
372.48	414.44
372.706	428.44
372.932	416.44
373.158	431.44
373.384	433.44
373.61	432.44
373.835	434.44
374.061	420.44
374.287	439.44
374.513	423.44
374.739	422.44
374.965	446.44
375.191	461.44
375.416	427.44
375.642	408.44
375.868	434.44
376.094	435.44
376.319	438.44
376.545	411.44
376.771	427.44
376.997	405.44
377.222	407.44
377.448	423.44
377.674	420.44
377.899	408.44
378.125	423.44
378.35	423.44
378.576	423.44
378.802	432.44
379.027	423.44
379.253	420.44
379.478	416.44
379.704	418.44
379.929	440.44
380.155	398.44
380.38	429.44
380.606	435.44
380.831	439.44
381.057	415.44
381.282	421.44
381.507	425.44
381.733	394.44
381.958	436.44
382.184	428.44
382.409	427.44
382.634	440.44
382.86	422.44
383.085	423.44
383.31	419.44
383.535	443.44
383.761	447.44
383.986	438.44
384.211	434.44
384.436	436.44
384.662	427.44
384.887	438.44
385.112	433.44
385.337	454.44
385.562	443.44
385.787	424.44
386.013	470.44
386.238	467.44
386.463	460.44
386.688	466.44
386.913	449.44
387.138	449.44
387.363	443.44
387.588	444.44
387.813	444.44
388.038	448.44
388.263	455.44
388.488	435.44
388.713	456.44
388.938	467.44
389.163	462.44
389.387	468.44
389.612	455.44
389.837	452.44
390.062	444.44
390.287	473.44
390.512	471.44
390.736	458.44
390.961	447.44
391.186	444.44
391.411	451.44
391.636	479.44
391.86	457.44
392.085	457.44
392.31	457.44
392.534	469.44
392.759	472.44
392.984	469.44
393.208	475.44
393.433	459.44
393.658	464.44
393.882	457.44
394.107	457.44
394.331	477.44
394.556	430.44
394.78	448.44
395.005	472.44
395.229	454.44
395.454	465.44
395.678	471.44
395.903	470.44
396.127	500.44
396.352	517.44
396.576	485.44
396.801	480.44
397.025	501.44
397.249	475.44
397.474	476.44
397.698	489.44
397.922	507.44
398.147	521.44
398.371	528.44
398.595	522.44
398.82	520.44
399.044	545.44
399.268	508.44
399.492	555.44
399.717	588.44
399.941	598.44
400.165	658.44
400.389	646.44
400.613	595.44
400.837	576.44
401.062	572.44
401.286	541.44
401.51	544.44
401.734	552.44
401.958	521.44
402.182	536.44
402.406	557.44
402.63	539.44
402.854	573.44
403.078	555.44
403.302	557.44
403.526	573.44
403.75	563.44
403.974	548.44
404.198	539.44
404.422	555.44
404.645	586.44
404.869	592.44
405.093	619.44
405.317	674.44
405.541	696.44
405.765	623.44
405.988	605.44
406.212	616.44
406.436	633.44
406.66	671.44
406.883	636.44
407.107	643.44
407.331	688.44
407.555	751.44
407.778	763.44
408.002	700.44
408.226	633.44
408.449	616.44
408.673	644.44
408.896	671.44
409.12	708.44
409.344	669.44
409.567	613.44
409.791	580.44
410.014	568.44
410.238	571.44
410.461	564.44
410.685	589.44
410.908	611.44
411.132	647.44
411.355	672.44
411.578	649.44
411.802	568.44
412.025	557.44
412.249	581.44
412.472	603.44
412.695	658.44
412.919	638.44
413.142	580.44
413.365	563.44
413.589	547.44
413.812	542.44
414.035	542.44
414.258	533.44
414.482	520.44
414.705	526.44
414.928	532.44
415.151	504.44
415.374	509.44
415.597	519.44
415.821	527.44
416.044	544.44
416.267	548.44
416.49	521.44
416.713	509.44
416.936	520.44
417.159	521.44
417.382	548.44
417.605	549.44
417.828	576.44
418.051	569.44
418.274	559.44
418.497	535.44
418.72	542.44
418.943	541.44
419.166	564.44
419.389	581.44
419.611	572.44
419.834	563.44
420.057	596.44
420.28	569.44
420.503	592.44
420.726	567.44
420.948	611.44
421.171	630.44
421.394	673.44
421.617	611.44
421.839	587.44
422.062	580.44
422.285	586.44
422.507	691.44
422.73	742.44
422.953	719.44
423.175	632.44
423.398	604.44
423.621	598.44
423.843	638.44
424.066	654.44
424.288	648.44
424.511	641.44
424.733	723.44
424.956	839.44
425.178	793.44
425.401	796.44
425.623	786.44
425.846	680.44
426.068	653.44
426.291	647.44
426.513	607.44
426.735	653.44
426.958	723.44
427.18	831.44
427.402	956.44
427.625	1041.44
427.847	958.44
428.069	832.44
428.292	714.44
428.514	657.44
428.736	622.44
428.958	611.44
429.181	589.44
429.403	574.44
429.625	619.44
429.847	672.44
430.069	735.44
430.292	736.44
430.514	621.44
430.736	604.44
430.958	584.44
431.18	544.44
431.402	579.44
431.624	527.44
431.846	545.44
432.068	547.44
432.29	552.44
432.512	527.44
432.734	566.44
432.956	555.44
433.178	569.44
433.4	592.44
433.622	560.44
433.844	558.44
434.066	548.44
434.287	531.44
434.509	556.44
434.731	572.44
434.953	552.44
435.175	574.44
435.397	611.44
435.618	655.44
435.84	692.44
436.062	811.44
436.284	847.44
436.505	735.44
436.727	669.44
436.949	640.44
437.17	584.44
437.392	606.44
437.614	620.44
437.835	687.44
438.057	808.44
438.278	901.44
438.5	893.44
438.721	968.44
438.943	929.44
439.165	785.44
439.386	687.44
439.608	669.44
439.829	678.44
440.05	709.44
440.272	757.44
440.493	709.44
440.715	646.44
440.936	611.44
441.158	594.44
441.379	592.44
441.6	628.44
441.822	641.44
442.043	712.44
442.264	787.44
442.486	858.44
442.707	734.44
442.928	693.44
443.149	651.44
443.371	727.44
443.592	760.44
443.813	849.44
444.034	940.44
444.255	757.44
444.476	652.44
444.698	651.44
444.919	646.44
445.14	774.44
445.361	719.44
445.582	683.44
445.803	781.44
446.024	943.44
446.245	913.44
446.466	834.44
446.687	724.44
446.908	673.44
447.129	615.44
447.35	595.44
447.571	587.44
447.792	587.44
448.013	603.44
448.234	644.44
448.455	693.44
448.675	853.44
448.896	960.44
449.117	811.44
449.338	795.44
449.559	897.44
449.779	1010.44
450	802.44
450.221	676.44
450.442	626.44
450.662	598.44
450.883	597.44
451.104	638.44
451.324	618.44
451.545	580.44
451.766	545.44
451.986	537.44
452.207	547.44
452.428	521.44
452.648	546.44
452.869	551.44
453.089	547.44
453.31	576.44
453.53	550.44
453.751	548.44
453.971	539.44
454.192	560.44
454.412	551.44
454.633	539.44
454.853	516.44
455.073	520.44
455.294	575.44
455.514	663.44
455.734	649.44
455.955	544.44
456.175	491.44
456.395	496.44
456.616	503.44
456.836	512.44
457.056	483.44
457.276	473.44
457.497	476.44
457.717	487.44
457.937	503.44
458.157	505.44
458.377	505.44
458.598	553.44
458.818	611.44
459.038	725.44
459.258	751.44
459.478	630.44
459.698	572.44
459.918	532.44
460.138	536.44
460.358	544.44
460.578	540.44
460.798	553.44
461.018	552.44
461.238	529.44
461.458	533.44
461.678	551.44
461.898	557.44
462.118	540.44
462.338	541.44
462.558	548.44
462.777	568.44
462.997	571.44
463.217	590.44
463.437	582.44
463.657	563.44
463.876	569.44
464.096	564.44
464.316	549.44
464.536	571.44
464.755	579.44
464.975	588.44
465.195	662.44
465.414	789.44
465.634	683.44
465.854	615.44
466.073	603.44
466.293	572.44
466.512	545.44
466.732	540.44
466.951	552.44
467.171	516.44
467.391	566.44
467.61	560.44
467.829	565.44
468.049	577.44
468.268	544.44
468.488	556.44
468.707	534.44
468.927	551.44
469.146	549.44
469.365	526.44
469.585	509.44
469.804	536.44
470.023	558.44
470.243	558.44
470.462	564.44
470.681	605.44
470.901	585.44
471.12	566.44
471.339	549.44
471.558	565.44
471.777	545.44
471.997	565.44
472.216	552.44
472.435	595.44
472.654	613.44
472.873	559.44
473.092	566.44
473.311	540.44
473.53	551.44
473.749	571.44
473.968	631.44
474.187	750.44
474.406	768.44
474.625	620.44
474.844	580.44
475.063	560.44
475.282	546.44
475.501	565.44
475.72	553.44
475.939	545.44
476.158	585.44
476.377	559.44
476.596	576.44
476.814	581.44
477.033	573.44
477.252	604.44
477.471	571.44
477.69	610.44
477.908	576.44
478.127	615.44
478.346	588.44
478.564	593.44
478.783	596.44
479.002	625.44
479.22	623.44
479.439	647.44
479.658	662.44
479.876	677.44
480.095	675.44
480.313	712.44
480.532	706.44
480.751	677.44
480.969	684.44
481.188	779.44
481.406	864.44
481.624	717.44
481.843	671.44
482.061	683.44
482.28	685.44
482.498	653.44
482.717	667.44
482.935	686.44
483.153	653.44
483.372	665.44
483.59	664.44
483.808	672.44
484.027	656.44
484.245	661.44
484.463	665.44
484.681	638.44
484.9	693.44
485.118	683.44
485.336	655.44
485.554	672.44
485.772	684.44
485.99	691.44
486.209	686.44
486.427	687.44
486.645	713.44
486.863	756.44
487.081	736.44
487.299	708.44
487.517	714.44
487.735	721.44
487.953	718.44
488.171	712.44
488.389	736.44
488.607	730.44
488.825	726.44
489.043	705.44
489.261	733.44
489.479	723.44
489.696	730.44
489.914	747.44
490.132	761.44
490.35	766.44
490.568	763.44
490.786	760.44
491.003	753.44
491.221	812.44
491.439	827.44
491.657	818.44
491.874	838.44
492.092	857.44
492.31	871.44
492.527	852.44
492.745	876.44
492.963	851.44
493.18	878.44
493.398	879.44
493.615	847.44
493.833	869.44
494.05	887.44
494.268	891.44
494.485	860.44
494.703	872.44
494.92	878.44
495.138	866.44
495.355	862.44
495.573	849.44
495.79	863.44
496.008	863.44
496.225	856.44
496.442	856.44
496.66	889.44
496.877	872.44
497.094	856.44
497.312	860.44
497.529	889.44
497.746	870.44
497.963	892.44
498.181	919.44
498.398	889.44
498.615	922.44
498.832	957.44
499.049	960.44
499.267	980.44
499.484	955.44
499.701	971.44
499.918	1000.44
500.135	1041.44
500.352	1057.44
500.569	1064.44
500.786	1071.44
501.003	1079.44
501.22	1054.44
501.437	1027.44
