Data from 1971.PennyLincolnUp.Lamp.En5.5.200Scan.071719.P1.Scan 2. Changed Angle._HRD10591_15-23-00-842.txt Node
Date: Thu Jul 18 15:23:00 EDT 2019
User: cochatt
Spectrometer: HR+D1059
Trigger mode: 1
Integration Time (sec): 1.000000E-1
Scans to average: 1
Electric dark correction enabled: true
Nonlinearity correction enabled: false
Boxcar width: 0
XAxis mode: Wavelengths
Number of Pixels in Spectrum: 2048
>>>>>Begin Spectral Data<<<<<
223.165	-11.94
223.4	-11.94
223.635	-11.94
223.869	-27.94
224.104	-11.94
224.338	-31.94
224.573	-12.94
224.808	-5.94
225.042	-2.94
225.277	0.06
225.511	-12.94
225.746	0.06
225.98	23.06
226.215	1.06
226.449	1.06
226.683	22.06
226.918	38.06
227.152	33.06
227.387	38.06
227.621	34.06
227.856	25.06
228.09	47.06
228.324	45.06
228.559	57.06
228.793	64.06
229.027	94.06
229.262	125.06
229.496	105.06
229.73	132.06
229.964	157.06
230.199	135.06
230.433	116.06
230.667	109.06
230.901	91.06
231.136	117.06
231.37	121.06
231.604	114.06
231.838	106.06
232.072	103.06
232.306	120.06
232.541	99.06
232.775	113.06
233.009	119.06
233.243	103.06
233.477	105.06
233.711	111.06
233.945	105.06
234.179	108.06
234.413	119.06
234.647	118.06
234.881	131.06
235.115	112.06
235.349	101.06
235.583	115.06
235.817	103.06
236.051	123.06
236.285	124.06
236.519	122.06
236.753	111.06
236.987	170.06
237.221	187.06
237.455	223.06
237.689	191.06
237.922	129.06
238.156	143.06
238.39	139.06
238.624	122.06
238.858	123.06
239.091	118.06
239.325	114.06
239.559	129.06
239.793	139.06
240.027	127.06
240.26	139.06
240.494	167.06
240.728	152.06
240.961	138.06
241.195	154.06
241.429	123.06
241.662	133.06
241.896	128.06
242.13	122.06
242.363	133.06
242.597	133.06
242.83	137.06
243.064	150.06
243.298	131.06
243.531	134.06
243.765	138.06
243.998	131.06
244.232	129.06
244.465	141.06
244.699	143.06
244.932	137.06
245.166	141.06
245.399	137.06
245.633	156.06
245.866	145.06
246.099	145.06
246.333	154.06
246.566	151.06
246.8	145.06
247.033	152.06
247.266	137.06
247.5	159.06
247.733	175.06
247.966	171.06
248.2	171.06
248.433	174.06
248.666	184.06
248.899	176.06
249.133	195.06
249.366	209.06
249.599	190.06
249.832	175.06
250.066	185.06
250.299	183.06
250.532	193.06
250.765	206.06
250.998	227.06
251.231	213.06
251.465	220.06
251.698	204.06
251.931	210.06
252.164	193.06
252.397	210.06
252.63	200.06
252.863	214.06
253.096	197.06
253.329	229.06
253.562	221.06
253.795	226.06
254.028	225.06
254.261	227.06
254.494	233.06
254.727	253.06
254.96	283.06
255.193	278.06
255.426	259.06
255.659	235.06
255.892	237.06
256.124	224.06
256.357	222.06
256.59	217.06
256.823	208.06
257.056	209.06
257.289	213.06
257.521	197.06
257.754	218.06
257.987	201.06
258.22	198.06
258.452	196.06
258.685	207.06
258.918	213.06
259.151	209.06
259.383	215.06
259.616	210.06
259.849	207.06
260.081	226.06
260.314	246.06
260.547	256.06
260.779	233.06
261.012	234.06
261.244	223.06
261.477	223.06
261.71	203.06
261.942	224.06
262.175	219.06
262.407	205.06
262.64	204.06
262.872	202.06
263.105	204.06
263.337	208.06
263.57	194.06
263.802	196.06
264.035	212.06
264.267	194.06
264.499	179.06
264.732	192.06
264.964	207.06
265.197	202.06
265.429	210.06
265.661	209.06
265.894	215.06
266.126	203.06
266.358	199.06
266.591	210.06
266.823	212.06
267.055	203.06
267.287	206.06
267.52	201.06
267.752	229.06
267.984	202.06
268.216	214.06
268.448	225.06
268.681	206.06
268.913	215.06
269.145	240.06
269.377	263.06
269.609	253.06
269.841	266.06
270.073	257.06
270.306	287.06
270.538	288.06
270.77	295.06
271.002	286.06
271.234	287.06
271.466	276.06
271.698	279.06
271.93	301.06
272.162	296.06
272.394	307.06
272.626	297.06
272.858	285.06
273.09	260.06
273.322	269.06
273.553	257.06
273.785	264.06
274.017	234.06
274.249	236.06
274.481	235.06
274.713	253.06
274.945	236.06
275.176	251.06
275.408	244.06
275.64	244.06
275.872	234.06
276.104	243.06
276.335	256.06
276.567	238.06
276.799	250.06
277.031	290.06
277.262	299.06
277.494	285.06
277.726	274.06
277.957	276.06
278.189	263.06
278.421	246.06
278.652	247.06
278.884	249.06
279.115	234.06
279.347	228.06
279.579	242.06
279.81	249.06
280.042	253.06
280.273	231.06
280.505	227.06
280.736	237.06
280.968	223.06
281.199	242.06
281.431	231.06
281.662	246.06
281.894	228.06
282.125	247.06
282.356	266.06
282.588	278.06
282.819	289.06
283.051	249.06
283.282	243.06
283.513	229.06
283.745	233.06
283.976	250.06
284.207	265.06
284.439	247.06
284.67	248.06
284.901	247.06
285.132	228.06
285.364	232.06
285.595	243.06
285.826	247.06
286.057	256.06
286.288	255.06
286.52	255.06
286.751	251.06
286.982	250.06
287.213	249.06
287.444	241.06
287.675	246.06
287.906	255.06
288.138	274.06
288.369	275.06
288.6	281.06
288.831	252.06
289.062	272.06
289.293	262.06
289.524	256.06
289.755	264.06
289.986	234.06
290.217	268.06
290.448	245.06
290.679	260.06
290.91	265.06
291.141	255.06
291.371	260.06
291.602	257.06
291.833	240.06
292.064	235.06
292.295	255.06
292.526	241.06
292.757	265.06
292.987	251.06
293.218	240.06
293.449	246.06
293.68	273.06
293.91	262.06
294.141	240.06
294.372	260.06
294.603	260.06
294.833	259.06
295.064	269.06
295.295	239.06
295.525	254.06
295.756	260.06
295.987	274.06
296.217	308.06
296.448	295.06
296.679	266.06
296.909	235.06
297.14	244.06
297.37	264.06
297.601	256.06
297.831	247.06
298.062	246.06
298.292	281.06
298.523	262.06
298.753	265.06
298.984	268.06
299.214	270.06
299.445	270.06
299.675	271.06
299.905	274.06
300.136	273.06
300.366	281.06
300.597	275.06
300.827	288.06
301.057	303.06
301.288	277.06
301.518	292.06
301.748	267.06
301.979	280.06
302.209	289.06
302.439	289.06
302.669	277.06
302.9	292.06
303.13	294.06
303.36	286.06
303.59	291.06
303.82	291.06
304.051	292.06
304.281	287.06
304.511	288.06
304.741	295.06
304.971	299.06
305.201	297.06
305.431	290.06
305.661	275.06
305.891	277.06
306.121	287.06
306.352	305.06
306.582	295.06
306.812	290.06
307.042	295.06
307.272	290.06
307.502	288.06
307.731	292.06
307.961	313.06
308.191	291.06
308.421	277.06
308.651	293.06
308.881	311.06
309.111	325.06
309.341	298.06
309.571	322.06
309.8	331.06
310.03	317.06
310.26	317.06
310.49	340.06
310.72	346.06
310.949	366.06
311.179	377.06
311.409	339.06
311.639	321.06
311.868	350.06
312.098	346.06
312.328	354.06
312.557	356.06
312.787	353.06
313.017	377.06
313.246	349.06
313.476	337.06
313.706	337.06
313.935	347.06
314.165	358.06
314.394	339.06
314.624	377.06
314.853	349.06
315.083	351.06
315.312	354.06
315.542	338.06
315.771	338.06
316.001	314.06
316.23	335.06
316.46	330.06
316.689	344.06
316.919	346.06
317.148	346.06
317.377	349.06
317.607	347.06
317.836	346.06
318.065	345.06
318.295	326.06
318.524	324.06
318.753	319.06
318.983	337.06
319.212	337.06
319.441	347.06
319.67	352.06
319.9	353.06
320.129	366.06
320.358	334.06
320.587	327.06
320.816	329.06
321.046	335.06
321.275	378.06
321.504	368.06
321.733	369.06
321.962	369.06
322.191	370.06
322.42	388.06
322.649	418.06
322.878	426.06
323.108	423.06
323.337	450.06
323.566	471.06
323.795	535.06
324.024	552.06
324.253	673.06
324.482	968.06
324.71	1487.06
324.939	2176.06
325.168	1909.06
325.397	961.06
325.626	655.06
325.855	539.06
326.084	485.06
326.313	450.06
326.542	474.06
326.77	513.06
326.999	601.06
327.228	846.06
327.457	1342.06
327.686	1622.06
327.914	1086.06
328.143	702.06
328.372	617.06
328.6	576.06
328.829	522.06
329.058	549.06
329.287	583.06
329.515	528.06
329.744	487.06
329.972	491.06
330.201	486.06
330.43	513.06
330.658	569.06
330.887	579.06
331.115	584.06
331.344	493.06
331.572	435.06
331.801	462.06
332.03	445.06
332.258	435.06
332.486	418.06
332.715	405.06
332.943	420.06
333.172	399.06
333.4	401.06
333.629	393.06
333.857	414.06
334.085	438.06
334.314	436.06
334.542	475.06
334.771	479.06
334.999	429.06
335.227	412.06
335.455	406.06
335.684	416.06
335.912	403.06
336.14	378.06
336.369	411.06
336.597	405.06
336.825	398.06
337.053	393.06
337.281	395.06
337.51	371.06
337.738	377.06
337.966	395.06
338.194	388.06
338.422	396.06
338.65	404.06
338.878	389.06
339.106	385.06
339.334	386.06
339.562	393.06
339.79	372.06
340.018	375.06
340.246	371.06
340.474	400.06
340.702	384.06
340.93	394.06
341.158	381.06
341.386	376.06
341.614	386.06
341.842	408.06
342.07	391.06
342.298	362.06
342.526	369.06
342.754	374.06
342.981	385.06
343.209	365.06
343.437	387.06
343.665	378.06
343.893	385.06
344.12	375.06
344.348	389.06
344.576	382.06
344.804	399.06
345.031	404.06
345.259	429.06
345.487	403.06
345.714	385.06
345.942	379.06
346.17	379.06
346.397	371.06
346.625	365.06
346.853	405.06
347.08	387.06
347.308	387.06
347.535	407.06
347.763	393.06
347.99	392.06
348.218	407.06
348.445	389.06
348.673	385.06
348.9	397.06
349.128	388.06
349.355	374.06
349.583	385.06
349.81	365.06
350.037	362.06
350.265	375.06
350.492	367.06
350.72	395.06
350.947	378.06
351.174	402.06
351.402	391.06
351.629	424.06
351.856	403.06
352.083	386.06
352.311	414.06
352.538	402.06
352.765	413.06
352.992	420.06
353.22	394.06
353.447	375.06
353.674	380.06
353.901	385.06
354.128	357.06
354.355	352.06
354.583	336.06
354.81	362.06
355.037	353.06
355.264	353.06
355.491	341.06
355.718	347.06
355.945	326.06
356.172	377.06
356.399	351.06
356.626	363.06
356.853	362.06
357.08	352.06
357.307	342.06
357.534	341.06
357.761	333.06
357.988	353.06
358.215	352.06
358.441	373.06
358.668	377.06
358.895	343.06
359.122	365.06
359.349	377.06
359.576	412.06
359.802	414.06
360.029	432.06
360.256	431.06
360.483	443.06
360.709	414.06
360.936	381.06
361.163	392.06
361.39	408.06
361.616	408.06
361.843	389.06
362.07	397.06
362.296	400.06
362.523	379.06
362.749	391.06
362.976	375.06
363.203	382.06
363.429	359.06
363.656	369.06
363.882	373.06
364.109	373.06
364.335	368.06
364.562	381.06
364.788	368.06
365.015	366.06
365.241	363.06
365.468	380.06
365.694	389.06
365.92	358.06
366.147	379.06
366.373	386.06
366.599	375.06
366.826	374.06
367.052	359.06
367.278	365.06
367.505	371.06
367.731	390.06
367.957	363.06
368.184	365.06
368.41	396.06
368.636	370.06
368.862	389.06
369.089	399.06
369.315	385.06
369.541	385.06
369.767	398.06
369.993	365.06
370.219	380.06
370.445	377.06
370.672	374.06
370.898	373.06
371.124	371.06
371.35	366.06
371.576	360.06
371.802	378.06
372.028	371.06
372.254	360.06
372.48	358.06
372.706	357.06
372.932	365.06
373.158	365.06
373.384	368.06
373.61	377.06
373.835	372.06
374.061	371.06
374.287	369.06
374.513	373.06
374.739	380.06
374.965	355.06
375.191	377.06
375.416	361.06
375.642	371.06
375.868	358.06
376.094	354.06
376.319	381.06
376.545	373.06
376.771	380.06
376.997	373.06
377.222	354.06
377.448	372.06
377.674	362.06
377.899	369.06
378.125	357.06
378.35	351.06
378.576	354.06
378.802	377.06
379.027	381.06
379.253	393.06
379.478	368.06
379.704	355.06
379.929	385.06
380.155	381.06
380.38	376.06
380.606	367.06
380.831	383.06
381.057	379.06
381.282	376.06
381.507	355.06
381.733	375.06
381.958	377.06
382.184	387.06
382.409	382.06
382.634	385.06
382.86	378.06
383.085	374.06
383.31	387.06
383.535	398.06
383.761	411.06
383.986	388.06
384.211	397.06
384.436	387.06
384.662	401.06
384.887	396.06
385.112	384.06
385.337	401.06
385.562	392.06
385.787	406.06
386.013	410.06
386.238	410.06
386.463	399.06
386.688	394.06
386.913	398.06
387.138	393.06
387.363	393.06
387.588	391.06
387.813	393.06
388.038	400.06
388.263	407.06
388.488	421.06
388.713	402.06
388.938	411.06
389.163	407.06
389.387	406.06
389.612	393.06
389.837	393.06
390.062	402.06
390.287	393.06
390.512	410.06
390.736	394.06
390.961	388.06
391.186	386.06
391.411	405.06
391.636	418.06
391.86	425.06
392.085	414.06
392.31	414.06
392.534	402.06
392.759	401.06
392.984	422.06
393.208	420.06
393.433	429.06
393.658	438.06
393.882	411.06
394.107	425.06
394.331	420.06
394.556	395.06
394.78	408.06
395.005	421.06
395.229	405.06
395.454	419.06
395.678	434.06
395.903	431.06
396.127	435.06
396.352	450.06
396.576	445.06
396.801	433.06
397.025	431.06
397.249	463.06
397.474	431.06
397.698	434.06
397.922	441.06
398.147	455.06
398.371	484.06
398.595	455.06
398.82	451.06
399.044	435.06
399.268	474.06
399.492	482.06
399.717	498.06
399.941	529.06
400.165	560.06
400.389	592.06
400.613	537.06
400.837	481.06
401.062	496.06
401.286	499.06
401.51	474.06
401.734	436.06
401.958	444.06
402.182	460.06
402.406	487.06
402.63	477.06
402.854	486.06
403.078	479.06
403.302	494.06
403.526	488.06
403.75	487.06
403.974	475.06
404.198	473.06
404.422	495.06
404.645	486.06
404.869	487.06
405.093	518.06
405.317	542.06
405.541	582.06
405.765	543.06
405.988	504.06
406.212	532.06
406.436	548.06
406.66	561.06
406.883	528.06
407.107	578.06
407.331	587.06
407.555	648.06
407.778	655.06
408.002	579.06
408.226	553.06
408.449	546.06
408.673	547.06
408.896	557.06
409.12	624.06
409.344	583.06
409.567	533.06
409.791	521.06
410.014	499.06
410.238	482.06
410.461	505.06
410.685	480.06
410.908	499.06
411.132	573.06
411.355	580.06
411.578	577.06
411.802	509.06
412.025	504.06
412.249	498.06
412.472	528.06
412.695	574.06
412.919	535.06
413.142	511.06
413.365	468.06
413.589	478.06
413.812	456.06
414.035	445.06
414.258	472.06
414.482	447.06
414.705	451.06
414.928	450.06
415.151	467.06
415.374	444.06
415.597	446.06
415.821	441.06
416.044	461.06
416.267	471.06
416.49	460.06
416.713	455.06
416.936	486.06
417.159	473.06
417.382	489.06
417.605	464.06
417.828	503.06
418.051	505.06
418.274	500.06
418.497	471.06
418.72	481.06
418.943	472.06
419.166	488.06
419.389	518.06
419.611	481.06
419.834	513.06
420.057	507.06
420.28	488.06
420.503	483.06
420.726	497.06
420.948	507.06
421.171	539.06
421.394	586.06
421.617	501.06
421.839	483.06
422.062	505.06
422.285	497.06
422.507	577.06
422.73	633.06
422.953	608.06
423.175	566.06
423.398	507.06
423.621	539.06
423.843	539.06
424.066	540.06
424.288	547.06
424.511	579.06
424.733	618.06
424.956	709.06
425.178	675.06
425.401	660.06
425.623	671.06
425.846	605.06
426.068	545.06
426.291	571.06
426.513	538.06
426.735	567.06
426.958	582.06
427.18	682.06
427.402	811.06
427.625	880.06
427.847	827.06
428.069	696.06
428.292	630.06
428.514	563.06
428.736	532.06
428.958	530.06
429.181	514.06
429.403	519.06
429.625	519.06
429.847	546.06
430.069	622.06
430.292	634.06
430.514	549.06
430.736	521.06
430.958	508.06
431.18	511.06
431.402	490.06
431.624	481.06
431.846	473.06
432.068	466.06
432.29	489.06
432.512	498.06
432.734	482.06
432.956	490.06
433.178	493.06
433.4	497.06
433.622	493.06
433.844	478.06
434.066	488.06
434.287	470.06
434.509	485.06
434.731	491.06
434.953	516.06
435.175	510.06
435.397	569.06
435.618	572.06
435.84	593.06
436.062	677.06
436.284	740.06
436.505	630.06
436.727	584.06
436.949	531.06
437.17	529.06
437.392	527.06
437.614	534.06
437.835	576.06
438.057	670.06
438.278	759.06
438.5	758.06
438.721	838.06
438.943	809.06
439.165	665.06
439.386	602.06
439.608	562.06
439.829	587.06
440.05	618.06
440.272	649.06
440.493	595.06
440.715	554.06
440.936	550.06
441.158	514.06
441.379	501.06
441.6	521.06
441.822	546.06
442.043	608.06
442.264	701.06
442.486	713.06
442.707	601.06
442.928	601.06
443.149	581.06
443.371	602.06
443.592	650.06
443.813	740.06
444.034	778.06
444.255	666.06
444.476	593.06
444.698	565.06
444.919	583.06
445.14	679.06
445.361	629.06
445.582	594.06
445.803	661.06
446.024	786.06
446.245	810.06
446.466	714.06
446.687	609.06
446.908	573.06
447.129	536.06
447.35	523.06
447.571	547.06
447.792	501.06
448.013	515.06
448.234	555.06
448.455	598.06
448.675	704.06
448.896	810.06
449.117	693.06
449.338	678.06
449.559	786.06
449.779	851.06
450	685.06
450.221	612.06
450.442	541.06
450.662	534.06
450.883	538.06
451.104	545.06
451.324	538.06
451.545	486.06
451.766	499.06
451.986	476.06
452.207	485.06
452.428	473.06
452.648	470.06
452.869	481.06
453.089	493.06
453.31	489.06
453.53	470.06
453.751	469.06
453.971	460.06
454.192	489.06
454.412	481.06
454.633	486.06
454.853	455.06
455.073	460.06
455.294	495.06
455.514	563.06
455.734	541.06
455.955	475.06
456.175	451.06
456.395	435.06
456.616	422.06
456.836	422.06
457.056	441.06
457.276	415.06
457.497	418.06
457.717	431.06
457.937	439.06
458.157	449.06
458.377	472.06
458.598	466.06
458.818	539.06
459.038	632.06
459.258	648.06
459.478	550.06
459.698	475.06
459.918	464.06
460.138	470.06
460.358	485.06
460.578	461.06
460.798	445.06
461.018	487.06
461.238	457.06
461.458	469.06
461.678	466.06
461.898	465.06
462.118	486.06
462.338	459.06
462.558	472.06
462.777	494.06
462.997	502.06
463.217	513.06
463.437	497.06
463.657	482.06
463.876	496.06
464.096	497.06
464.316	492.06
464.536	510.06
464.755	521.06
464.975	534.06
465.195	568.06
465.414	683.06
465.634	581.06
465.854	519.06
466.073	524.06
466.293	486.06
466.512	479.06
466.732	470.06
466.951	479.06
467.171	492.06
467.391	471.06
467.61	473.06
467.829	488.06
468.049	482.06
468.268	484.06
468.488	469.06
468.707	463.06
468.927	468.06
469.146	456.06
469.365	456.06
469.585	459.06
469.804	479.06
470.023	478.06
470.243	454.06
470.462	474.06
470.681	491.06
470.901	517.06
471.12	459.06
471.339	478.06
471.558	486.06
471.777	481.06
471.997	475.06
472.216	471.06
472.435	541.06
472.654	520.06
472.873	486.06
473.092	484.06
473.311	472.06
473.53	456.06
473.749	492.06
473.968	548.06
474.187	634.06
474.406	655.06
474.625	588.06
474.844	502.06
475.063	495.06
475.282	474.06
475.501	480.06
475.72	512.06
475.939	487.06
476.158	476.06
476.377	493.06
476.596	508.06
476.814	511.06
477.033	533.06
477.252	534.06
477.471	522.06
477.69	511.06
477.908	509.06
478.127	517.06
478.346	535.06
478.564	541.06
478.783	529.06
479.002	541.06
479.22	541.06
479.439	557.06
479.658	585.06
479.876	581.06
480.095	574.06
480.313	597.06
480.532	601.06
480.751	611.06
480.969	607.06
481.188	647.06
481.406	692.06
481.624	618.06
481.843	610.06
482.061	579.06
482.28	582.06
482.498	562.06
482.717	574.06
482.935	597.06
483.153	581.06
483.372	582.06
483.59	568.06
483.808	565.06
484.027	550.06
484.245	569.06
484.463	565.06
484.681	603.06
484.9	586.06
485.118	586.06
485.336	593.06
485.554	595.06
485.772	579.06
485.99	602.06
486.209	582.06
486.427	605.06
486.645	611.06
486.863	642.06
487.081	645.06
487.299	635.06
487.517	631.06
487.735	606.06
487.953	630.06
488.171	610.06
488.389	607.06
488.607	629.06
488.825	611.06
489.043	629.06
489.261	647.06
489.479	634.06
489.696	650.06
489.914	661.06
490.132	661.06
490.35	653.06
490.568	627.06
490.786	661.06
491.003	699.06
491.221	701.06
491.439	715.06
491.657	710.06
491.874	694.06
492.092	728.06
492.31	746.06
492.527	724.06
492.745	734.06
492.963	730.06
493.18	728.06
493.398	743.06
493.615	734.06
493.833	748.06
494.05	778.06
494.268	752.06
494.485	727.06
494.703	778.06
494.92	757.06
495.138	738.06
495.355	737.06
495.573	749.06
495.79	767.06
496.008	755.06
496.225	765.06
496.442	740.06
496.66	742.06
496.877	742.06
497.094	789.06
497.312	740.06
497.529	757.06
497.746	777.06
497.963	777.06
498.181	822.06
498.398	797.06
498.615	793.06
498.832	807.06
499.049	801.06
499.267	851.06
499.484	857.06
499.701	847.06
499.918	839.06
500.135	893.06
500.352	905.06
500.569	913.06
500.786	927.06
501.003	915.06
501.22	911.06
501.437	907.06
501.654	917.06
