Data from 1971.PennyLincolnUp.Lamp.En5.5.200Scan.071719.P1._HRD10591_15-19-08-841.txt Node
Date: Thu Jul 18 15:19:08 EDT 2019
User: cochatt
Spectrometer: HR+D1059
Trigger mode: 1
Integration Time (sec): 1.000000E-1
Scans to average: 1
Electric dark correction enabled: true
Nonlinearity correction enabled: false
Boxcar width: 0
XAxis mode: Wavelengths
Number of Pixels in Spectrum: 2048
>>>>>Begin Spectral Data<<<<<
223.165	-10.75
223.4	-10.75
223.635	-10.75
223.869	-13.75
224.104	-4.75
224.338	-16.75
224.573	-6.75
224.808	-22.75
225.042	-17.75
225.277	-1.75
225.511	11.25
225.746	-5.75
225.98	8.25
226.215	-0.75
226.449	11.25
226.683	26.25
226.918	28.25
227.152	16.25
227.387	28.25
227.621	27.25
227.856	32.25
228.09	52.25
228.324	49.25
228.559	51.25
228.793	59.25
229.027	87.25
229.262	105.25
229.496	102.25
229.73	125.25
229.964	139.25
230.199	124.25
230.433	107.25
230.667	101.25
230.901	107.25
231.136	114.25
231.37	117.25
231.604	107.25
231.838	116.25
232.072	101.25
232.306	105.25
232.541	108.25
232.775	120.25
233.009	109.25
233.243	105.25
233.477	101.25
233.711	93.25
233.945	120.25
234.179	103.25
234.413	104.25
234.647	108.25
234.881	128.25
235.115	111.25
235.349	114.25
235.583	115.25
235.817	125.25
236.051	126.25
236.285	121.25
236.519	116.25
236.753	120.25
236.987	132.25
237.221	167.25
237.455	203.25
237.689	151.25
237.922	131.25
238.156	130.25
238.39	117.25
238.624	129.25
238.858	139.25
239.091	114.25
239.325	128.25
239.559	131.25
239.793	131.25
240.027	137.25
240.26	146.25
240.494	140.25
240.728	157.25
240.961	139.25
241.195	140.25
241.429	151.25
241.662	137.25
241.896	116.25
242.13	148.25
242.363	127.25
242.597	131.25
242.83	164.25
243.064	147.25
243.298	128.25
243.531	145.25
243.765	129.25
243.998	150.25
244.232	128.25
244.465	135.25
244.699	136.25
244.932	157.25
245.166	168.25
245.399	142.25
245.633	151.25
245.866	147.25
246.099	151.25
246.333	149.25
246.566	160.25
246.8	156.25
247.033	145.25
247.266	140.25
247.5	158.25
247.733	160.25
247.966	186.25
248.2	174.25
248.433	168.25
248.666	175.25
248.899	191.25
249.133	184.25
249.366	191.25
249.599	191.25
249.832	185.25
250.066	196.25
250.299	191.25
250.532	195.25
250.765	198.25
250.998	215.25
251.231	232.25
251.465	211.25
251.698	201.25
251.931	206.25
252.164	199.25
252.397	213.25
252.63	204.25
252.863	204.25
253.096	203.25
253.329	224.25
253.562	263.25
253.795	214.25
254.028	214.25
254.261	228.25
254.494	228.25
254.727	251.25
254.96	272.25
255.193	265.25
255.426	268.25
255.659	220.25
255.892	227.25
256.124	233.25
256.357	231.25
256.59	243.25
256.823	228.25
257.056	217.25
257.289	217.25
257.521	217.25
257.754	204.25
257.987	209.25
258.22	217.25
258.452	214.25
258.685	209.25
258.918	212.25
259.151	212.25
259.383	216.25
259.616	216.25
259.849	216.25
260.081	239.25
260.314	267.25
260.547	247.25
260.779	260.25
261.012	241.25
261.244	211.25
261.477	242.25
261.71	219.25
261.942	234.25
262.175	239.25
262.407	208.25
262.64	229.25
262.872	231.25
263.105	220.25
263.337	214.25
263.57	198.25
263.802	213.25
264.035	216.25
264.267	238.25
264.499	205.25
264.732	223.25
264.964	210.25
265.197	215.25
265.429	216.25
265.661	234.25
265.894	218.25
266.126	223.25
266.358	224.25
266.591	236.25
266.823	225.25
267.055	224.25
267.287	243.25
267.52	219.25
267.752	232.25
267.984	239.25
268.216	236.25
268.448	249.25
268.681	226.25
268.913	252.25
269.145	271.25
269.377	268.25
269.609	275.25
269.841	263.25
270.073	277.25
270.306	290.25
270.538	314.25
270.77	334.25
271.002	318.25
271.234	277.25
271.466	303.25
271.698	293.25
271.93	321.25
272.162	343.25
272.394	329.25
272.626	294.25
272.858	290.25
273.09	287.25
273.322	289.25
273.553	264.25
273.785	283.25
274.017	263.25
274.249	282.25
274.481	291.25
274.713	244.25
274.945	277.25
275.176	264.25
275.408	277.25
275.64	280.25
275.872	280.25
276.104	273.25
276.335	263.25
276.567	276.25
276.799	280.25
277.031	290.25
277.262	325.25
277.494	312.25
277.726	284.25
277.957	287.25
278.189	263.25
278.421	287.25
278.652	280.25
278.884	283.25
279.115	264.25
279.347	278.25
279.579	249.25
279.81	285.25
280.042	266.25
280.273	290.25
280.505	284.25
280.736	250.25
280.968	281.25
281.199	292.25
281.431	264.25
281.662	275.25
281.894	286.25
282.125	273.25
282.356	291.25
282.588	282.25
282.819	298.25
283.051	276.25
283.282	289.25
283.513	289.25
283.745	281.25
283.976	277.25
284.207	296.25
284.439	294.25
284.67	274.25
284.901	298.25
285.132	265.25
285.364	290.25
285.595	284.25
285.826	283.25
286.057	290.25
286.288	272.25
286.52	293.25
286.751	288.25
286.982	306.25
287.213	278.25
287.444	287.25
287.675	289.25
287.906	304.25
288.138	312.25
288.369	313.25
288.6	313.25
288.831	302.25
289.062	313.25
289.293	314.25
289.524	300.25
289.755	294.25
289.986	295.25
290.217	303.25
290.448	321.25
290.679	277.25
290.91	303.25
291.141	288.25
291.371	298.25
291.602	301.25
291.833	293.25
292.064	297.25
292.295	272.25
292.526	292.25
292.757	276.25
292.987	312.25
293.218	288.25
293.449	301.25
293.68	291.25
293.91	272.25
294.141	288.25
294.372	289.25
294.603	306.25
294.833	293.25
295.064	294.25
295.295	303.25
295.525	307.25
295.756	309.25
295.987	303.25
296.217	323.25
296.448	320.25
296.679	333.25
296.909	312.25
297.14	313.25
297.37	303.25
297.601	297.25
297.831	304.25
298.062	299.25
298.292	299.25
298.523	309.25
298.753	328.25
298.984	316.25
299.214	317.25
299.445	304.25
299.675	314.25
299.905	317.25
300.136	328.25
300.366	328.25
300.597	321.25
300.827	312.25
301.057	329.25
301.288	323.25
301.518	329.25
301.748	333.25
301.979	321.25
302.209	324.25
302.439	328.25
302.669	339.25
302.9	323.25
303.13	336.25
303.36	309.25
303.59	346.25
303.82	335.25
304.051	344.25
304.281	339.25
304.511	359.25
304.741	332.25
304.971	337.25
305.201	317.25
305.431	340.25
305.661	323.25
305.891	332.25
306.121	342.25
306.352	327.25
306.582	352.25
306.812	325.25
307.042	324.25
307.272	336.25
307.502	333.25
307.731	338.25
307.961	339.25
308.191	362.25
308.421	329.25
308.651	347.25
308.881	344.25
309.111	346.25
309.341	349.25
309.571	359.25
309.8	366.25
310.03	354.25
310.26	359.25
310.49	369.25
310.72	366.25
310.949	381.25
311.179	393.25
311.409	376.25
311.639	369.25
311.868	384.25
312.098	372.25
312.328	377.25
312.557	407.25
312.787	417.25
313.017	395.25
313.246	393.25
313.476	367.25
313.706	375.25
313.935	375.25
314.165	384.25
314.394	375.25
314.624	399.25
314.853	383.25
315.083	377.25
315.312	380.25
315.542	376.25
315.771	375.25
316.001	368.25
316.23	365.25
316.46	369.25
316.689	379.25
316.919	360.25
317.148	387.25
317.377	389.25
317.607	375.25
317.836	379.25
318.065	378.25
318.295	385.25
318.524	377.25
318.753	370.25
318.983	369.25
319.212	387.25
319.441	395.25
319.67	372.25
319.9	391.25
320.129	378.25
320.358	377.25
320.587	397.25
320.816	403.25
321.046	394.25
321.275	389.25
321.504	391.25
321.733	402.25
321.962	397.25
322.191	420.25
322.42	437.25
322.649	438.25
322.878	430.25
323.108	440.25
323.337	473.25
323.566	469.25
323.795	501.25
324.024	560.25
324.253	669.25
324.482	906.25
324.71	1391.25
324.939	1877.25
325.168	1537.25
325.397	843.25
325.626	622.25
325.855	526.25
326.084	485.25
326.313	491.25
326.542	497.25
326.77	523.25
326.999	626.25
327.228	827.25
327.457	1209.25
327.686	1385.25
327.914	929.25
328.143	657.25
328.372	576.25
328.6	552.25
328.829	530.25
329.058	551.25
329.287	525.25
329.515	518.25
329.744	503.25
329.972	491.25
330.201	515.25
330.43	539.25
330.658	540.25
330.887	565.25
331.115	557.25
331.344	475.25
331.572	458.25
331.801	480.25
332.03	467.25
332.258	460.25
332.486	445.25
332.715	443.25
332.943	415.25
333.172	439.25
333.4	433.25
333.629	462.25
333.857	462.25
334.085	476.25
334.314	480.25
334.542	493.25
334.771	491.25
334.999	460.25
335.227	440.25
335.455	447.25
335.684	456.25
335.912	444.25
336.14	435.25
336.369	428.25
336.597	440.25
336.825	436.25
337.053	436.25
337.281	442.25
337.51	427.25
337.738	450.25
337.966	428.25
338.194	425.25
338.422	429.25
338.65	424.25
338.878	419.25
339.106	413.25
339.334	419.25
339.562	419.25
339.79	404.25
340.018	405.25
340.246	425.25
340.474	408.25
340.702	420.25
340.93	397.25
341.158	405.25
341.386	423.25
341.614	412.25
341.842	422.25
342.07	419.25
342.298	412.25
342.526	402.25
342.754	419.25
342.981	408.25
343.209	389.25
343.437	413.25
343.665	411.25
343.893	405.25
344.12	414.25
344.348	433.25
344.576	420.25
344.804	438.25
345.031	412.25
345.259	412.25
345.487	397.25
345.714	416.25
345.942	384.25
346.17	405.25
346.397	396.25
346.625	391.25
346.853	400.25
347.08	392.25
347.308	407.25
347.535	416.25
347.763	406.25
347.99	405.25
348.218	395.25
348.445	411.25
348.673	425.25
348.9	409.25
349.128	402.25
349.355	381.25
349.583	379.25
349.81	396.25
350.037	379.25
350.265	377.25
350.492	400.25
350.72	398.25
350.947	395.25
351.174	387.25
351.402	387.25
351.629	385.25
351.856	381.25
352.083	394.25
352.311	407.25
352.538	374.25
352.765	393.25
352.992	379.25
353.22	399.25
353.447	391.25
353.674	377.25
353.901	373.25
354.128	365.25
354.355	389.25
354.583	357.25
354.81	365.25
355.037	368.25
355.264	363.25
355.491	359.25
355.718	376.25
355.945	370.25
356.172	359.25
356.399	359.25
356.626	369.25
356.853	377.25
357.08	374.25
357.307	373.25
357.534	377.25
357.761	380.25
357.988	367.25
358.215	346.25
358.441	332.25
358.668	359.25
358.895	352.25
359.122	370.25
359.349	357.25
359.576	385.25
359.802	387.25
360.029	432.25
360.256	426.25
360.483	389.25
360.709	367.25
360.936	376.25
361.163	393.25
361.39	373.25
361.616	377.25
361.843	387.25
362.07	376.25
362.296	386.25
362.523	391.25
362.749	387.25
362.976	381.25
363.203	372.25
363.429	378.25
363.656	352.25
363.882	348.25
364.109	381.25
364.335	379.25
364.562	355.25
364.788	351.25
365.015	351.25
365.241	354.25
365.468	373.25
365.694	376.25
365.92	381.25
366.147	357.25
366.373	339.25
366.599	375.25
366.826	352.25
367.052	350.25
367.278	346.25
367.505	376.25
367.731	354.25
367.957	360.25
368.184	361.25
368.41	358.25
368.636	376.25
368.862	369.25
369.089	361.25
369.315	359.25
369.541	370.25
369.767	349.25
369.993	355.25
370.219	348.25
370.445	354.25
370.672	362.25
370.898	372.25
371.124	341.25
371.35	348.25
371.576	358.25
371.802	342.25
372.028	362.25
372.254	358.25
372.48	348.25
372.706	356.25
372.932	382.25
373.158	354.25
373.384	356.25
373.61	363.25
373.835	351.25
374.061	362.25
374.287	368.25
374.513	359.25
374.739	349.25
374.965	354.25
375.191	359.25
375.416	368.25
375.642	349.25
375.868	343.25
376.094	333.25
376.319	355.25
376.545	352.25
376.771	357.25
376.997	342.25
377.222	342.25
377.448	344.25
377.674	339.25
377.899	359.25
378.125	358.25
378.35	353.25
378.576	360.25
378.802	328.25
379.027	368.25
379.253	346.25
379.478	341.25
379.704	339.25
379.929	340.25
380.155	349.25
380.38	340.25
380.606	354.25
380.831	337.25
381.057	365.25
381.282	356.25
381.507	354.25
381.733	362.25
381.958	364.25
382.184	362.25
382.409	364.25
382.634	361.25
382.86	351.25
383.085	351.25
383.31	367.25
383.535	351.25
383.761	355.25
383.986	341.25
384.211	369.25
384.436	350.25
384.662	357.25
384.887	377.25
385.112	373.25
385.337	359.25
385.562	375.25
385.787	377.25
386.013	379.25
386.238	383.25
386.463	391.25
386.688	343.25
386.913	369.25
387.138	375.25
387.363	371.25
387.588	380.25
387.813	365.25
388.038	356.25
388.263	374.25
388.488	377.25
388.713	364.25
388.938	370.25
389.163	351.25
389.387	375.25
389.612	359.25
389.837	365.25
390.062	370.25
390.287	369.25
390.512	369.25
390.736	360.25
390.961	364.25
391.186	365.25
391.411	362.25
391.636	375.25
391.86	385.25
392.085	360.25
392.31	366.25
392.534	360.25
392.759	379.25
392.984	371.25
393.208	388.25
393.433	373.25
393.658	382.25
393.882	342.25
394.107	367.25
394.331	361.25
394.556	351.25
394.78	356.25
395.005	368.25
395.229	373.25
395.454	404.25
395.678	386.25
395.903	394.25
396.127	398.25
396.352	386.25
396.576	396.25
396.801	398.25
397.025	368.25
397.249	391.25
397.474	393.25
397.698	397.25
397.922	395.25
398.147	390.25
398.371	411.25
398.595	405.25
398.82	403.25
399.044	412.25
399.268	415.25
399.492	454.25
399.717	485.25
399.941	492.25
400.165	497.25
400.389	497.25
400.613	472.25
400.837	420.25
401.062	422.25
401.286	406.25
401.51	419.25
401.734	427.25
401.958	410.25
402.182	406.25
402.406	407.25
402.63	439.25
402.854	416.25
403.078	412.25
403.302	431.25
403.526	426.25
403.75	435.25
403.974	448.25
404.198	426.25
404.422	429.25
404.645	413.25
404.869	411.25
405.093	454.25
405.317	492.25
405.541	514.25
405.765	476.25
405.988	439.25
406.212	455.25
406.436	465.25
406.66	467.25
406.883	460.25
407.107	465.25
407.331	495.25
407.555	543.25
407.778	546.25
408.002	511.25
408.226	468.25
408.449	455.25
408.673	467.25
408.896	503.25
409.12	529.25
409.344	478.25
409.567	452.25
409.791	425.25
410.014	424.25
410.238	420.25
410.461	407.25
410.685	444.25
410.908	427.25
411.132	456.25
411.355	483.25
411.578	436.25
411.802	417.25
412.025	409.25
412.249	424.25
412.472	428.25
412.695	456.25
412.919	453.25
413.142	416.25
413.365	433.25
413.589	414.25
413.812	399.25
414.035	404.25
414.258	407.25
414.482	383.25
414.705	381.25
414.928	383.25
415.151	387.25
415.374	388.25
415.597	392.25
415.821	387.25
416.044	395.25
416.267	391.25
416.49	406.25
416.713	392.25
416.936	403.25
417.159	401.25
417.382	393.25
417.605	392.25
417.828	384.25
418.051	421.25
418.274	433.25
418.497	393.25
418.72	407.25
418.943	405.25
419.166	411.25
419.389	426.25
419.611	417.25
419.834	422.25
420.057	417.25
420.28	414.25
420.503	427.25
420.726	428.25
420.948	461.25
421.171	468.25
421.394	488.25
421.617	451.25
421.839	424.25
422.062	399.25
422.285	426.25
422.507	480.25
422.73	547.25
422.953	494.25
423.175	455.25
423.398	433.25
423.621	426.25
423.843	437.25
424.066	452.25
424.288	440.25
424.511	468.25
424.733	498.25
424.956	577.25
425.178	523.25
425.401	536.25
425.623	549.25
425.846	457.25
426.068	448.25
426.291	443.25
426.513	433.25
426.735	449.25
426.958	489.25
427.18	555.25
427.402	664.25
427.625	693.25
427.847	606.25
428.069	503.25
428.292	474.25
428.514	429.25
428.736	420.25
428.958	410.25
429.181	406.25
429.403	419.25
429.625	395.25
429.847	443.25
430.069	495.25
430.292	489.25
430.514	425.25
430.736	408.25
430.958	409.25
431.18	407.25
431.402	369.25
431.624	379.25
431.846	398.25
432.068	395.25
432.29	377.25
432.512	400.25
432.734	403.25
432.956	412.25
433.178	388.25
433.4	401.25
433.622	398.25
433.844	385.25
434.066	385.25
434.287	386.25
434.509	394.25
434.731	386.25
434.953	395.25
435.175	416.25
435.397	455.25
435.618	459.25
435.84	492.25
436.062	563.25
436.284	598.25
436.505	515.25
436.727	435.25
436.949	423.25
437.17	409.25
437.392	418.25
437.614	427.25
437.835	449.25
438.057	519.25
438.278	602.25
438.5	611.25
438.721	655.25
438.943	622.25
439.165	491.25
439.386	485.25
439.608	445.25
439.829	433.25
440.05	465.25
440.272	514.25
440.493	460.25
440.715	444.25
440.936	433.25
441.158	421.25
441.379	416.25
441.6	423.25
441.822	434.25
442.043	475.25
442.264	542.25
442.486	556.25
442.707	491.25
442.928	471.25
443.149	453.25
443.371	472.25
443.592	529.25
443.813	582.25
444.034	625.25
444.255	513.25
444.476	445.25
444.698	464.25
444.919	460.25
445.14	552.25
445.361	513.25
445.582	488.25
445.803	539.25
446.024	586.25
446.245	596.25
446.466	559.25
446.687	471.25
446.908	447.25
447.129	428.25
447.35	414.25
447.571	423.25
447.792	419.25
448.013	417.25
448.234	431.25
448.455	468.25
448.675	573.25
448.896	647.25
449.117	566.25
449.338	532.25
449.559	603.25
449.779	669.25
450	540.25
450.221	447.25
450.442	411.25
450.662	403.25
450.883	417.25
451.104	397.25
451.324	410.25
451.545	385.25
451.766	393.25
451.986	379.25
452.207	347.25
452.428	365.25
452.648	363.25
452.869	358.25
453.089	374.25
453.31	377.25
453.53	364.25
453.751	371.25
453.971	368.25
454.192	372.25
454.412	378.25
454.633	353.25
454.853	361.25
455.073	374.25
455.294	373.25
455.514	433.25
455.734	426.25
455.955	353.25
456.175	347.25
456.395	362.25
456.616	335.25
456.836	338.25
457.056	331.25
457.276	342.25
457.497	345.25
457.717	337.25
457.937	351.25
458.157	367.25
458.377	345.25
458.598	383.25
458.818	413.25
459.038	461.25
459.258	486.25
459.478	415.25
459.698	378.25
459.918	388.25
460.138	373.25
460.358	397.25
460.578	391.25
460.798	393.25
461.018	410.25
461.238	408.25
461.458	385.25
461.678	381.25
461.898	407.25
462.118	375.25
462.338	406.25
462.558	416.25
462.777	396.25
462.997	410.25
463.217	425.25
463.437	404.25
463.657	408.25
463.876	405.25
464.096	408.25
464.316	395.25
464.536	389.25
464.755	410.25
464.975	389.25
465.195	443.25
465.414	475.25
465.634	448.25
465.854	408.25
466.073	379.25
466.293	397.25
466.512	362.25
466.732	371.25
466.951	360.25
467.171	355.25
467.391	373.25
467.61	370.25
467.829	371.25
468.049	371.25
468.268	379.25
468.488	357.25
468.707	364.25
468.927	372.25
469.146	371.25
469.365	370.25
469.585	352.25
469.804	363.25
470.023	364.25
470.243	381.25
470.462	361.25
470.681	390.25
470.901	396.25
471.12	379.25
471.339	375.25
471.558	384.25
471.777	375.25
471.997	358.25
472.216	379.25
472.435	406.25
472.654	383.25
472.873	381.25
473.092	380.25
473.311	376.25
473.53	370.25
473.749	388.25
473.968	410.25
474.187	516.25
474.406	488.25
474.625	422.25
474.844	393.25
475.063	385.25
475.282	376.25
475.501	384.25
475.72	400.25
475.939	384.25
476.158	391.25
476.377	373.25
476.596	398.25
476.814	400.25
477.033	406.25
477.252	376.25
477.471	383.25
477.69	393.25
477.908	408.25
478.127	420.25
478.346	405.25
478.564	391.25
478.783	404.25
479.002	406.25
479.22	434.25
479.439	416.25
479.658	422.25
479.876	454.25
480.095	463.25
480.313	483.25
480.532	443.25
480.751	433.25
480.969	456.25
481.188	485.25
481.406	488.25
481.624	472.25
481.843	446.25
482.061	448.25
482.28	451.25
482.498	443.25
482.717	443.25
482.935	436.25
483.153	427.25
483.372	416.25
483.59	441.25
483.808	426.25
484.027	433.25
484.245	427.25
484.463	443.25
484.681	440.25
484.9	417.25
485.118	455.25
485.336	454.25
485.554	439.25
485.772	460.25
485.99	452.25
486.209	464.25
486.427	433.25
486.645	464.25
486.863	466.25
487.081	471.25
487.299	480.25
487.517	459.25
487.735	457.25
487.953	451.25
488.171	455.25
488.389	468.25
488.607	479.25
488.825	486.25
489.043	438.25
489.261	472.25
489.479	461.25
489.696	474.25
489.914	470.25
490.132	476.25
490.35	481.25
490.568	497.25
490.786	508.25
491.003	513.25
491.221	515.25
491.439	539.25
491.657	530.25
491.874	542.25
492.092	546.25
492.31	540.25
492.527	541.25
492.745	569.25
492.963	554.25
493.18	557.25
493.398	546.25
493.615	560.25
493.833	552.25
494.05	544.25
494.268	543.25
494.485	556.25
494.703	547.25
494.92	547.25
495.138	568.25
495.355	565.25
495.573	570.25
495.79	563.25
496.008	572.25
496.225	569.25
496.442	554.25
496.66	551.25
496.877	569.25
497.094	553.25
497.312	554.25
497.529	564.25
497.746	579.25
497.963	600.25
498.181	585.25
498.398	601.25
498.615	589.25
498.832	593.25
499.049	617.25
499.267	630.25
499.484	640.25
499.701	659.25
499.918	697.25
500.135	704.25
500.352	728.25
500.569	742.25
500.786	737.25
501.003	723.25
501.22	717.25
501.437	690.25
501.654	687.25
501.871	655.25
