Data from 1971.PennyLincolnUp.Lamp.En5.5.200Scan.071719.P1.Scan 2. Changed Angle._HRD10591_15-24-18-842.txt Node
Date: Thu Jul 18 15:24:18 EDT 2019
User: cochatt
Spectrometer: HR+D1059
Trigger mode: 1
Integration Time (sec): 1.000000E-1
Scans to average: 1
Electric dark correction enabled: true
Nonlinearity correction enabled: false
Boxcar width: 0
XAxis mode: Wavelengths
Number of Pixels in Spectrum: 2048
>>>>>Begin Spectral Data<<<<<
223.165	3.19
223.4	3.19
223.635	3.19
223.869	-14.81
224.104	-29.81
224.338	-10.81
224.573	-23.81
224.808	-9.81
225.042	-3.81
225.277	-11.81
225.511	-0.81
225.746	1.19
225.98	1.19
226.215	12.19
226.449	15.19
226.683	22.19
226.918	25.19
227.152	25.19
227.387	40.19
227.621	27.19
227.856	50.19
228.09	44.19
228.324	55.19
228.559	49.19
228.793	59.19
229.027	94.19
229.262	121.19
229.496	126.19
229.73	148.19
229.964	175.19
230.199	144.19
230.433	126.19
230.667	120.19
230.901	111.19
231.136	133.19
231.37	121.19
231.604	110.19
231.838	129.19
232.072	127.19
232.306	119.19
232.541	111.19
232.775	119.19
233.009	119.19
233.243	139.19
233.477	132.19
233.711	111.19
233.945	123.19
234.179	117.19
234.413	131.19
234.647	131.19
234.881	110.19
235.115	115.19
235.349	124.19
235.583	140.19
235.817	126.19
236.051	135.19
236.285	143.19
236.519	128.19
236.753	139.19
236.987	162.19
237.221	212.19
237.455	278.19
237.689	198.19
237.922	145.19
238.156	146.19
238.39	140.19
238.624	128.19
238.858	139.19
239.091	129.19
239.325	129.19
239.559	129.19
239.793	140.19
240.027	124.19
240.26	151.19
240.494	177.19
240.728	170.19
240.961	165.19
241.195	164.19
241.429	143.19
241.662	139.19
241.896	135.19
242.13	155.19
242.363	142.19
242.597	151.19
242.83	156.19
243.064	143.19
243.298	159.19
243.531	145.19
243.765	143.19
243.998	150.19
244.232	151.19
244.465	151.19
244.699	135.19
244.932	154.19
245.166	153.19
245.399	163.19
245.633	167.19
245.866	160.19
246.099	157.19
246.333	170.19
246.566	152.19
246.8	150.19
247.033	168.19
247.266	153.19
247.5	179.19
247.733	183.19
247.966	175.19
248.2	182.19
248.433	185.19
248.666	198.19
248.899	196.19
249.133	216.19
249.366	224.19
249.599	214.19
249.832	205.19
250.066	218.19
250.299	204.19
250.532	206.19
250.765	230.19
250.998	229.19
251.231	254.19
251.465	227.19
251.698	212.19
251.931	230.19
252.164	215.19
252.397	223.19
252.63	238.19
252.863	221.19
253.096	244.19
253.329	259.19
253.562	246.19
253.795	263.19
254.028	245.19
254.261	249.19
254.494	231.19
254.727	299.19
254.96	318.19
255.193	301.19
255.426	279.19
255.659	268.19
255.892	257.19
256.124	253.19
256.357	255.19
256.59	247.19
256.823	232.19
257.056	231.19
257.289	250.19
257.521	228.19
257.754	219.19
257.987	228.19
258.22	214.19
258.452	230.19
258.685	238.19
258.918	228.19
259.151	218.19
259.383	236.19
259.616	229.19
259.849	240.19
260.081	246.19
260.314	257.19
260.547	284.19
260.779	273.19
261.012	264.19
261.244	250.19
261.477	234.19
261.71	251.19
261.942	243.19
262.175	248.19
262.407	266.19
262.64	235.19
262.872	235.19
263.105	221.19
263.337	221.19
263.57	244.19
263.802	230.19
264.035	226.19
264.267	227.19
264.499	223.19
264.732	225.19
264.964	217.19
265.197	215.19
265.429	223.19
265.661	208.19
265.894	225.19
266.126	212.19
266.358	221.19
266.591	216.19
266.823	225.19
267.055	228.19
267.287	245.19
267.52	209.19
267.752	222.19
267.984	224.19
268.216	231.19
268.448	247.19
268.681	250.19
268.913	289.19
269.145	275.19
269.377	288.19
269.609	292.19
269.841	268.19
270.073	284.19
270.306	304.19
270.538	345.19
270.77	345.19
271.002	323.19
271.234	317.19
271.466	313.19
271.698	337.19
271.93	332.19
272.162	334.19
272.394	335.19
272.626	317.19
272.858	318.19
273.09	305.19
273.322	305.19
273.553	287.19
273.785	270.19
274.017	276.19
274.249	280.19
274.481	279.19
274.713	265.19
274.945	275.19
275.176	268.19
275.408	255.19
275.64	277.19
275.872	279.19
276.104	281.19
276.335	293.19
276.567	287.19
276.799	277.19
277.031	309.19
277.262	338.19
277.494	323.19
277.726	314.19
277.957	315.19
278.189	285.19
278.421	293.19
278.652	272.19
278.884	272.19
279.115	282.19
279.347	268.19
279.579	267.19
279.81	266.19
280.042	270.19
280.273	282.19
280.505	283.19
280.736	263.19
280.968	262.19
281.199	269.19
281.431	267.19
281.662	261.19
281.894	252.19
282.125	267.19
282.356	284.19
282.588	302.19
282.819	319.19
283.051	283.19
283.282	269.19
283.513	283.19
283.745	272.19
283.976	282.19
284.207	302.19
284.439	272.19
284.67	284.19
284.901	280.19
285.132	280.19
285.364	271.19
285.595	270.19
285.826	254.19
286.057	280.19
286.288	271.19
286.52	267.19
286.751	289.19
286.982	281.19
287.213	281.19
287.444	272.19
287.675	293.19
287.906	267.19
288.138	326.19
288.369	296.19
288.6	305.19
288.831	299.19
289.062	304.19
289.293	270.19
289.524	282.19
289.755	291.19
289.986	290.19
290.217	298.19
290.448	285.19
290.679	262.19
290.91	275.19
291.141	265.19
291.371	262.19
291.602	274.19
291.833	283.19
292.064	292.19
292.295	284.19
292.526	308.19
292.757	293.19
292.987	258.19
293.218	280.19
293.449	304.19
293.68	292.19
293.91	272.19
294.141	283.19
294.372	283.19
294.603	270.19
294.833	278.19
295.064	281.19
295.295	279.19
295.525	291.19
295.756	283.19
295.987	292.19
296.217	320.19
296.448	330.19
296.679	314.19
296.909	290.19
297.14	282.19
297.37	288.19
297.601	297.19
297.831	274.19
298.062	283.19
298.292	286.19
298.523	309.19
298.753	314.19
298.984	288.19
299.214	301.19
299.445	308.19
299.675	304.19
299.905	301.19
300.136	301.19
300.366	285.19
300.597	319.19
300.827	289.19
301.057	314.19
301.288	334.19
301.518	319.19
301.748	309.19
301.979	322.19
302.209	319.19
302.439	312.19
302.669	315.19
302.9	329.19
303.13	333.19
303.36	321.19
303.59	312.19
303.82	329.19
304.051	328.19
304.281	343.19
304.511	313.19
304.741	307.19
304.971	310.19
305.201	329.19
305.431	324.19
305.661	310.19
305.891	317.19
306.121	333.19
306.352	344.19
306.582	344.19
306.812	320.19
307.042	333.19
307.272	323.19
307.502	327.19
307.731	329.19
307.961	336.19
308.191	308.19
308.421	324.19
308.651	328.19
308.881	330.19
309.111	328.19
309.341	350.19
309.571	360.19
309.8	377.19
310.03	379.19
310.26	395.19
310.49	381.19
310.72	392.19
310.949	418.19
311.179	415.19
311.409	405.19
311.639	387.19
311.868	381.19
312.098	406.19
312.328	408.19
312.557	425.19
312.787	415.19
313.017	427.19
313.246	411.19
313.476	379.19
313.706	381.19
313.935	407.19
314.165	405.19
314.394	419.19
314.624	420.19
314.853	396.19
315.083	376.19
315.312	375.19
315.542	364.19
315.771	365.19
316.001	383.19
316.23	375.19
316.46	375.19
316.689	374.19
316.919	378.19
317.148	395.19
317.377	397.19
317.607	375.19
317.836	376.19
318.065	394.19
318.295	359.19
318.524	385.19
318.753	377.19
318.983	386.19
319.212	385.19
319.441	407.19
319.67	411.19
319.9	389.19
320.129	384.19
320.358	374.19
320.587	392.19
320.816	401.19
321.046	414.19
321.275	413.19
321.504	417.19
321.733	403.19
321.962	417.19
322.191	460.19
322.42	474.19
322.649	469.19
322.878	477.19
323.108	477.19
323.337	519.19
323.566	580.19
323.795	594.19
324.024	660.19
324.253	800.19
324.482	1216.19
324.71	1877.19
324.939	2695.19
325.168	2281.19
325.397	1192.19
325.626	787.19
325.855	639.19
326.084	587.19
326.313	581.19
326.542	569.19
326.77	654.19
326.999	772.19
327.228	1063.19
327.457	1648.19
327.686	2001.19
327.914	1338.19
328.143	870.19
328.372	753.19
328.6	668.19
328.829	644.19
329.058	658.19
329.287	709.19
329.515	612.19
329.744	595.19
329.972	567.19
330.201	590.19
330.43	632.19
330.658	653.19
330.887	704.19
331.115	699.19
331.344	592.19
331.572	542.19
331.801	547.19
332.03	543.19
332.258	490.19
332.486	466.19
332.715	471.19
332.943	459.19
333.172	453.19
333.4	464.19
333.629	464.19
333.857	493.19
334.085	509.19
334.314	536.19
334.542	558.19
334.771	551.19
334.999	519.19
335.227	472.19
335.455	453.19
335.684	444.19
335.912	465.19
336.14	440.19
336.369	440.19
336.597	462.19
336.825	470.19
337.053	465.19
337.281	445.19
337.51	457.19
337.738	459.19
337.966	454.19
338.194	444.19
338.422	460.19
338.65	432.19
338.878	428.19
339.106	432.19
339.334	449.19
339.562	427.19
339.79	444.19
340.018	445.19
340.246	441.19
340.474	465.19
340.702	453.19
340.93	415.19
341.158	443.19
341.386	426.19
341.614	446.19
341.842	440.19
342.07	444.19
342.298	446.19
342.526	429.19
342.754	419.19
342.981	445.19
343.209	435.19
343.437	423.19
343.665	410.19
343.893	432.19
344.12	426.19
344.348	416.19
344.576	429.19
344.804	455.19
345.031	487.19
345.259	481.19
345.487	478.19
345.714	446.19
345.942	431.19
346.17	444.19
346.397	426.19
346.625	431.19
346.853	447.19
347.08	416.19
347.308	426.19
347.535	440.19
347.763	444.19
347.99	461.19
348.218	467.19
348.445	450.19
348.673	452.19
348.9	443.19
349.128	425.19
349.355	425.19
349.583	408.19
349.81	417.19
350.037	411.19
350.265	414.19
350.492	421.19
350.72	409.19
350.947	432.19
351.174	424.19
351.402	444.19
351.629	431.19
351.856	468.19
352.083	441.19
352.311	462.19
352.538	468.19
352.765	472.19
352.992	430.19
353.22	455.19
353.447	431.19
353.674	420.19
353.901	433.19
354.128	404.19
354.355	417.19
354.583	421.19
354.81	413.19
355.037	403.19
355.264	399.19
355.491	393.19
355.718	385.19
355.945	399.19
356.172	389.19
356.399	388.19
356.626	397.19
356.853	393.19
357.08	404.19
357.307	390.19
357.534	385.19
357.761	383.19
357.988	420.19
358.215	391.19
358.441	407.19
358.668	389.19
358.895	393.19
359.122	409.19
359.349	427.19
359.576	445.19
359.802	501.19
360.029	513.19
360.256	519.19
360.483	496.19
360.709	475.19
360.936	440.19
361.163	459.19
361.39	453.19
361.616	441.19
361.843	444.19
362.07	456.19
362.296	445.19
362.523	439.19
362.749	443.19
362.976	433.19
363.203	443.19
363.429	409.19
363.656	425.19
363.882	429.19
364.109	408.19
364.335	428.19
364.562	421.19
364.788	420.19
365.015	432.19
365.241	416.19
365.468	442.19
365.694	415.19
365.92	427.19
366.147	429.19
366.373	404.19
366.599	426.19
366.826	407.19
367.052	400.19
367.278	410.19
367.505	416.19
367.731	418.19
367.957	438.19
368.184	412.19
368.41	435.19
368.636	443.19
368.862	445.19
369.089	438.19
369.315	422.19
369.541	421.19
369.767	401.19
369.993	432.19
370.219	417.19
370.445	416.19
370.672	415.19
370.898	401.19
371.124	415.19
371.35	407.19
371.576	412.19
371.802	407.19
372.028	403.19
372.254	393.19
372.48	413.19
372.706	407.19
372.932	422.19
373.158	394.19
373.384	405.19
373.61	410.19
373.835	398.19
374.061	422.19
374.287	416.19
374.513	427.19
374.739	437.19
374.965	428.19
375.191	396.19
375.416	400.19
375.642	407.19
375.868	413.19
376.094	414.19
376.319	422.19
376.545	401.19
376.771	409.19
376.997	413.19
377.222	419.19
377.448	422.19
377.674	417.19
377.899	427.19
378.125	408.19
378.35	412.19
378.576	397.19
378.802	415.19
379.027	387.19
379.253	401.19
379.478	422.19
379.704	418.19
379.929	443.19
380.155	392.19
380.38	423.19
380.606	406.19
380.831	428.19
381.057	426.19
381.282	414.19
381.507	408.19
381.733	414.19
381.958	414.19
382.184	400.19
382.409	406.19
382.634	435.19
382.86	427.19
383.085	448.19
383.31	423.19
383.535	430.19
383.761	437.19
383.986	406.19
384.211	427.19
384.436	433.19
384.662	453.19
384.887	433.19
385.112	410.19
385.337	417.19
385.562	437.19
385.787	427.19
386.013	444.19
386.238	471.19
386.463	458.19
386.688	441.19
386.913	451.19
387.138	455.19
387.363	453.19
387.588	446.19
387.813	420.19
388.038	415.19
388.263	444.19
388.488	462.19
388.713	449.19
388.938	429.19
389.163	467.19
389.387	446.19
389.612	447.19
389.837	424.19
390.062	434.19
390.287	457.19
390.512	446.19
390.736	430.19
390.961	459.19
391.186	438.19
391.411	455.19
391.636	457.19
391.86	442.19
392.085	457.19
392.31	474.19
392.534	447.19
392.759	449.19
392.984	459.19
393.208	441.19
393.433	459.19
393.658	457.19
393.882	462.19
394.107	455.19
394.331	448.19
394.556	459.19
394.78	456.19
395.005	442.19
395.229	469.19
395.454	448.19
395.678	462.19
395.903	475.19
396.127	488.19
396.352	505.19
396.576	479.19
396.801	472.19
397.025	460.19
397.249	475.19
397.474	471.19
397.698	512.19
397.922	497.19
398.147	506.19
398.371	520.19
398.595	503.19
398.82	469.19
399.044	508.19
399.268	526.19
399.492	541.19
399.717	579.19
399.941	590.19
400.165	609.19
400.389	617.19
400.613	577.19
400.837	549.19
401.062	528.19
401.286	513.19
401.51	516.19
401.734	488.19
401.958	541.19
402.182	519.19
402.406	556.19
402.63	547.19
402.854	530.19
403.078	533.19
403.302	550.19
403.526	507.19
403.75	519.19
403.974	531.19
404.198	533.19
404.422	555.19
404.645	551.19
404.869	564.19
405.093	579.19
405.317	655.19
405.541	667.19
405.765	603.19
405.988	594.19
406.212	576.19
406.436	609.19
406.66	633.19
406.883	601.19
407.107	633.19
407.331	660.19
407.555	717.19
407.778	716.19
408.002	669.19
408.226	630.19
408.449	623.19
408.673	592.19
408.896	657.19
409.12	681.19
409.344	647.19
409.567	579.19
409.791	569.19
410.014	544.19
410.238	542.19
410.461	553.19
410.685	533.19
410.908	563.19
411.132	629.19
411.355	636.19
411.578	616.19
411.802	570.19
412.025	561.19
412.249	591.19
412.472	564.19
412.695	592.19
412.919	614.19
413.142	564.19
413.365	529.19
413.589	535.19
413.812	546.19
414.035	523.19
414.258	515.19
414.482	508.19
414.705	503.19
414.928	495.19
415.151	501.19
415.374	516.19
415.597	508.19
415.821	519.19
416.044	543.19
416.267	500.19
416.49	518.19
416.713	511.19
416.936	498.19
417.159	520.19
417.382	507.19
417.605	532.19
417.828	530.19
418.051	545.19
418.274	550.19
418.497	527.19
418.72	525.19
418.943	508.19
419.166	544.19
419.389	555.19
419.611	576.19
419.834	549.19
420.057	563.19
420.28	568.19
420.503	575.19
420.726	514.19
420.948	575.19
421.171	633.19
421.394	646.19
421.617	579.19
421.839	568.19
422.062	589.19
422.285	589.19
422.507	666.19
422.73	721.19
422.953	666.19
423.175	637.19
423.398	599.19
423.621	590.19
423.843	627.19
424.066	606.19
424.288	609.19
424.511	629.19
424.733	693.19
424.956	791.19
425.178	769.19
425.401	759.19
425.623	771.19
425.846	663.19
426.068	631.19
426.291	613.19
426.513	606.19
426.735	633.19
426.958	677.19
427.18	752.19
427.402	901.19
427.625	993.19
427.847	897.19
428.069	797.19
428.292	687.19
428.514	636.19
428.736	629.19
428.958	586.19
429.181	571.19
429.403	574.19
429.625	576.19
429.847	624.19
430.069	701.19
430.292	683.19
430.514	590.19
430.736	568.19
430.958	558.19
431.18	538.19
431.402	557.19
431.624	539.19
431.846	515.19
432.068	520.19
432.29	536.19
432.512	534.19
432.734	545.19
432.956	516.19
433.178	539.19
433.4	568.19
433.622	566.19
433.844	529.19
434.066	521.19
434.287	513.19
434.509	519.19
434.731	527.19
434.953	548.19
435.175	577.19
435.397	625.19
435.618	611.19
435.84	672.19
436.062	775.19
436.284	844.19
436.505	711.19
436.727	631.19
436.949	607.19
437.17	583.19
437.392	595.19
437.614	614.19
437.835	645.19
438.057	760.19
438.278	882.19
438.5	835.19
438.721	892.19
438.943	885.19
439.165	727.19
439.386	661.19
439.608	649.19
439.829	650.19
440.05	684.19
440.272	725.19
440.493	701.19
440.715	615.19
440.936	588.19
441.158	571.19
441.379	577.19
441.6	592.19
441.822	645.19
442.043	673.19
442.264	749.19
442.486	829.19
442.707	672.19
442.928	656.19
443.149	660.19
443.371	678.19
443.592	701.19
443.813	806.19
444.034	873.19
444.255	724.19
444.476	653.19
444.698	625.19
444.919	612.19
445.14	718.19
445.361	701.19
445.582	677.19
445.803	773.19
446.024	894.19
446.245	871.19
446.466	792.19
446.687	695.19
446.908	623.19
447.129	610.19
447.35	587.19
447.571	608.19
447.792	592.19
448.013	569.19
448.234	616.19
448.455	680.19
448.675	782.19
448.896	926.19
449.117	780.19
449.338	728.19
449.559	871.19
449.779	944.19
450	771.19
450.221	637.19
450.442	599.19
450.662	603.19
450.883	582.19
451.104	617.19
451.324	613.19
451.545	559.19
451.766	537.19
451.986	524.19
452.207	515.19
452.428	518.19
452.648	524.19
452.869	496.19
453.089	532.19
453.31	531.19
453.53	530.19
453.751	515.19
453.971	531.19
454.192	569.19
454.412	548.19
454.633	533.19
454.853	520.19
455.073	510.19
455.294	575.19
455.514	632.19
455.734	606.19
455.955	526.19
456.175	489.19
456.395	487.19
456.616	481.19
456.836	481.19
457.056	480.19
457.276	465.19
457.497	478.19
457.717	486.19
457.937	479.19
458.157	513.19
458.377	497.19
458.598	525.19
458.818	607.19
459.038	712.19
459.258	712.19
459.478	601.19
459.698	567.19
459.918	533.19
460.138	523.19
460.358	514.19
460.578	525.19
460.798	528.19
461.018	554.19
461.238	523.19
461.458	507.19
461.678	490.19
461.898	510.19
462.118	518.19
462.338	518.19
462.558	528.19
462.777	532.19
462.997	542.19
463.217	542.19
463.437	560.19
463.657	528.19
463.876	551.19
464.096	571.19
464.316	558.19
464.536	556.19
464.755	575.19
464.975	569.19
465.195	650.19
465.414	782.19
465.634	653.19
465.854	618.19
466.073	574.19
466.293	576.19
466.512	531.19
466.732	529.19
466.951	539.19
467.171	509.19
467.391	520.19
467.61	563.19
467.829	560.19
468.049	551.19
468.268	552.19
468.488	510.19
468.707	503.19
468.927	517.19
469.146	503.19
469.365	513.19
469.585	525.19
469.804	523.19
470.023	548.19
470.243	518.19
470.462	529.19
470.681	543.19
470.901	555.19
471.12	560.19
471.339	549.19
471.558	533.19
471.777	560.19
471.997	510.19
472.216	541.19
472.435	602.19
472.654	553.19
472.873	542.19
473.092	539.19
473.311	529.19
473.53	548.19
473.749	567.19
473.968	607.19
474.187	731.19
474.406	737.19
474.625	637.19
474.844	552.19
475.063	535.19
475.282	535.19
475.501	539.19
475.72	539.19
475.939	525.19
476.158	537.19
476.377	556.19
476.596	553.19
476.814	558.19
477.033	589.19
477.252	551.19
477.471	568.19
477.69	583.19
477.908	593.19
478.127	565.19
478.346	583.19
478.564	561.19
478.783	613.19
479.002	594.19
479.22	587.19
479.439	635.19
479.658	625.19
479.876	647.19
480.095	663.19
480.313	677.19
480.532	652.19
480.751	656.19
480.969	684.19
481.188	729.19
481.406	795.19
481.624	693.19
481.843	691.19
482.061	667.19
482.28	663.19
482.498	630.19
482.717	629.19
482.935	647.19
483.153	620.19
483.372	627.19
483.59	621.19
483.808	638.19
484.027	652.19
484.245	645.19
484.463	647.19
484.681	626.19
484.9	643.19
485.118	643.19
485.336	660.19
485.554	647.19
485.772	647.19
485.99	657.19
486.209	669.19
486.427	661.19
486.645	687.19
486.863	718.19
487.081	696.19
487.299	687.19
487.517	693.19
487.735	689.19
487.953	684.19
488.171	680.19
488.389	692.19
488.607	713.19
488.825	699.19
489.043	695.19
489.261	721.19
489.479	727.19
489.696	740.19
489.914	721.19
490.132	734.19
490.35	749.19
490.568	749.19
490.786	744.19
491.003	738.19
491.221	778.19
491.439	773.19
491.657	785.19
491.874	803.19
492.092	831.19
492.31	820.19
492.527	823.19
492.745	826.19
492.963	835.19
493.18	826.19
493.398	824.19
493.615	831.19
493.833	841.19
494.05	821.19
494.268	841.19
494.485	821.19
494.703	833.19
494.92	831.19
495.138	822.19
495.355	833.19
495.573	844.19
495.79	856.19
496.008	845.19
496.225	859.19
496.442	856.19
496.66	844.19
496.877	823.19
497.094	829.19
497.312	847.19
497.529	868.19
497.746	875.19
497.963	865.19
498.181	890.19
498.398	871.19
498.615	883.19
498.832	920.19
499.049	870.19
499.267	908.19
499.484	931.19
499.701	936.19
499.918	945.19
500.135	967.19
500.352	1017.19
500.569	1019.19
500.786	1037.19
501.003	1021.19
501.22	989.19
501.437	980.19
501.654	1007.19
