Data from 1971.PennyLincolnUp.Lamp.En5.5.200Scan.071719.P1._HRD10591_15-17-59-842.txt Node
Date: Thu Jul 18 15:17:59 EDT 2019
User: cochatt
Spectrometer: HR+D1059
Trigger mode: 1
Integration Time (sec): 1.000000E-1
Scans to average: 1
Electric dark correction enabled: true
Nonlinearity correction enabled: false
Boxcar width: 0
XAxis mode: Wavelengths
Number of Pixels in Spectrum: 2048
>>>>>Begin Spectral Data<<<<<
223.165	-4.62
223.4	-4.62
223.635	-4.62
223.869	-17.62
224.104	-15.62
224.338	-20.62
224.573	-18.62
224.808	8.38
225.042	-9.62
225.277	-1.62
225.511	-8.62
225.746	-2.62
225.98	-1.62
226.215	12.38
226.449	9.38
226.683	18.38
226.918	24.38
227.152	28.38
227.387	36.38
227.621	46.38
227.856	37.38
228.09	41.38
228.324	35.38
228.559	62.38
228.793	53.38
229.027	73.38
229.262	96.38
229.496	106.38
229.73	113.38
229.964	100.38
230.199	106.38
230.433	112.38
230.667	110.38
230.901	95.38
231.136	98.38
231.37	97.38
231.604	94.38
231.838	93.38
232.072	96.38
232.306	98.38
232.541	86.38
232.775	98.38
233.009	108.38
233.243	109.38
233.477	95.38
233.711	98.38
233.945	98.38
234.179	104.38
234.413	113.38
234.647	93.38
234.881	104.38
235.115	110.38
235.349	113.38
235.583	109.38
235.817	100.38
236.051	118.38
236.285	115.38
236.519	123.38
236.753	116.38
236.987	134.38
237.221	138.38
237.455	179.38
237.689	126.38
237.922	118.38
238.156	123.38
238.39	103.38
238.624	103.38
238.858	94.38
239.091	106.38
239.325	111.38
239.559	123.38
239.793	108.38
240.027	117.38
240.26	107.38
240.494	128.38
240.728	121.38
240.961	127.38
241.195	134.38
241.429	119.38
241.662	137.38
241.896	123.38
242.13	107.38
242.363	121.38
242.597	110.38
242.83	123.38
243.064	118.38
243.298	124.38
243.531	142.38
243.765	119.38
243.998	130.38
244.232	132.38
244.465	124.38
244.699	129.38
244.932	134.38
245.166	121.38
245.399	129.38
245.633	141.38
245.866	136.38
246.099	127.38
246.333	145.38
246.566	135.38
246.8	136.38
247.033	121.38
247.266	141.38
247.5	134.38
247.733	148.38
247.966	154.38
248.2	163.38
248.433	161.38
248.666	145.38
248.899	162.38
249.133	191.38
249.366	178.38
249.599	149.38
249.832	148.38
250.066	159.38
250.299	160.38
250.532	178.38
250.765	168.38
250.998	181.38
251.231	189.38
251.465	189.38
251.698	160.38
251.931	173.38
252.164	189.38
252.397	185.38
252.63	173.38
252.863	189.38
253.096	184.38
253.329	202.38
253.562	207.38
253.795	195.38
254.028	184.38
254.261	184.38
254.494	186.38
254.727	216.38
254.96	239.38
255.193	219.38
255.426	202.38
255.659	203.38
255.892	192.38
256.124	193.38
256.357	204.38
256.59	199.38
256.823	206.38
257.056	179.38
257.289	184.38
257.521	183.38
257.754	178.38
257.987	191.38
258.22	197.38
258.452	180.38
258.685	207.38
258.918	181.38
259.151	191.38
259.383	184.38
259.616	187.38
259.849	206.38
260.081	192.38
260.314	213.38
260.547	216.38
260.779	218.38
261.012	197.38
261.244	199.38
261.477	204.38
261.71	184.38
261.942	199.38
262.175	202.38
262.407	183.38
262.64	195.38
262.872	191.38
263.105	210.38
263.337	190.38
263.57	204.38
263.802	182.38
264.035	197.38
264.267	192.38
264.499	204.38
264.732	205.38
264.964	193.38
265.197	185.38
265.429	195.38
265.661	194.38
265.894	185.38
266.126	199.38
266.358	206.38
266.591	190.38
266.823	194.38
267.055	207.38
267.287	215.38
267.52	192.38
267.752	202.38
267.984	206.38
268.216	203.38
268.448	207.38
268.681	218.38
268.913	205.38
269.145	219.38
269.377	245.38
269.609	227.38
269.841	254.38
270.073	235.38
270.306	247.38
270.538	258.38
270.77	267.38
271.002	243.38
271.234	244.38
271.466	249.38
271.698	260.38
271.93	271.38
272.162	269.38
272.394	247.38
272.626	255.38
272.858	257.38
273.09	262.38
273.322	234.38
273.553	233.38
273.785	218.38
274.017	233.38
274.249	230.38
274.481	227.38
274.713	245.38
274.945	231.38
275.176	233.38
275.408	218.38
275.64	232.38
275.872	232.38
276.104	238.38
276.335	237.38
276.567	236.38
276.799	253.38
277.031	271.38
277.262	263.38
277.494	274.38
277.726	251.38
277.957	258.38
278.189	237.38
278.421	233.38
278.652	248.38
278.884	227.38
279.115	227.38
279.347	257.38
279.579	235.38
279.81	252.38
280.042	211.38
280.273	258.38
280.505	240.38
280.736	250.38
280.968	235.38
281.199	234.38
281.431	238.38
281.662	215.38
281.894	253.38
282.125	267.38
282.356	262.38
282.588	273.38
282.819	249.38
283.051	246.38
283.282	240.38
283.513	258.38
283.745	257.38
283.976	262.38
284.207	251.38
284.439	246.38
284.67	251.38
284.901	257.38
285.132	254.38
285.364	248.38
285.595	239.38
285.826	231.38
286.057	264.38
286.288	249.38
286.52	252.38
286.751	243.38
286.982	266.38
287.213	250.38
287.444	267.38
287.675	238.38
287.906	254.38
288.138	264.38
288.369	267.38
288.6	263.38
288.831	269.38
289.062	265.38
289.293	265.38
289.524	260.38
289.755	260.38
289.986	273.38
290.217	265.38
290.448	281.38
290.679	276.38
290.91	251.38
291.141	246.38
291.371	240.38
291.602	256.38
291.833	251.38
292.064	261.38
292.295	260.38
292.526	232.38
292.757	239.38
292.987	253.38
293.218	248.38
293.449	279.38
293.68	267.38
293.91	263.38
294.141	271.38
294.372	262.38
294.603	274.38
294.833	268.38
295.064	282.38
295.295	266.38
295.525	272.38
295.756	281.38
295.987	274.38
296.217	273.38
296.448	287.38
296.679	263.38
296.909	265.38
297.14	278.38
297.37	266.38
297.601	276.38
297.831	272.38
298.062	270.38
298.292	270.38
298.523	268.38
298.753	273.38
298.984	267.38
299.214	273.38
299.445	259.38
299.675	294.38
299.905	292.38
300.136	289.38
300.366	274.38
300.597	270.38
300.827	287.38
301.057	282.38
301.288	288.38
301.518	288.38
301.748	301.38
301.979	278.38
302.209	287.38
302.439	306.38
302.669	278.38
302.9	273.38
303.13	303.38
303.36	285.38
303.59	299.38
303.82	301.38
304.051	313.38
304.281	304.38
304.511	294.38
304.741	274.38
304.971	281.38
305.201	303.38
305.431	285.38
305.661	314.38
305.891	305.38
306.121	280.38
306.352	298.38
306.582	291.38
306.812	288.38
307.042	291.38
307.272	290.38
307.502	301.38
307.731	291.38
307.961	313.38
308.191	308.38
308.421	310.38
308.651	309.38
308.881	281.38
309.111	314.38
309.341	305.38
309.571	318.38
309.8	305.38
310.03	317.38
310.26	301.38
310.49	322.38
310.72	329.38
310.949	317.38
311.179	338.38
311.409	319.38
311.639	319.38
311.868	328.38
312.098	297.38
312.328	343.38
312.557	323.38
312.787	330.38
313.017	317.38
313.246	334.38
313.476	328.38
313.706	327.38
313.935	310.38
314.165	324.38
314.394	341.38
314.624	331.38
314.853	333.38
315.083	324.38
315.312	328.38
315.542	332.38
315.771	317.38
316.001	324.38
316.23	317.38
316.46	344.38
316.689	329.38
316.919	346.38
317.148	310.38
317.377	320.38
317.607	328.38
317.836	321.38
318.065	327.38
318.295	325.38
318.524	338.38
318.753	324.38
318.983	343.38
319.212	323.38
319.441	335.38
319.67	338.38
319.9	329.38
320.129	322.38
320.358	326.38
320.587	329.38
320.816	334.38
321.046	327.38
321.275	355.38
321.504	342.38
321.733	319.38
321.962	349.38
322.191	357.38
322.42	347.38
322.649	338.38
322.878	371.38
323.108	390.38
323.337	404.38
323.566	416.38
323.795	397.38
324.024	429.38
324.253	522.38
324.482	686.38
324.71	1027.38
324.939	1415.38
325.168	1205.38
325.397	659.38
325.626	469.38
325.855	417.38
326.084	397.38
326.313	403.38
326.542	403.38
326.77	447.38
326.999	487.38
327.228	634.38
327.457	925.38
327.686	1087.38
327.914	733.38
328.143	526.38
328.372	451.38
328.6	444.38
328.829	435.38
329.058	427.38
329.287	480.38
329.515	422.38
329.744	407.38
329.972	403.38
330.201	422.38
330.43	411.38
330.658	427.38
330.887	445.38
331.115	425.38
331.344	402.38
331.572	389.38
331.801	407.38
332.03	386.38
332.258	380.38
332.486	369.38
332.715	373.38
332.943	371.38
333.172	371.38
333.4	393.38
333.629	390.38
333.857	394.38
334.085	395.38
334.314	398.38
334.542	421.38
334.771	422.38
334.999	410.38
335.227	407.38
335.455	410.38
335.684	385.38
335.912	397.38
336.14	377.38
336.369	373.38
336.597	402.38
336.825	397.38
337.053	388.38
337.281	375.38
337.51	366.38
337.738	375.38
337.966	370.38
338.194	369.38
338.422	373.38
338.65	361.38
338.878	358.38
339.106	359.38
339.334	368.38
339.562	369.38
339.79	362.38
340.018	369.38
340.246	355.38
340.474	357.38
340.702	371.38
340.93	374.38
341.158	369.38
341.386	373.38
341.614	378.38
341.842	369.38
342.07	361.38
342.298	358.38
342.526	370.38
342.754	361.38
342.981	370.38
343.209	373.38
343.437	383.38
343.665	369.38
343.893	359.38
344.12	361.38
344.348	373.38
344.576	371.38
344.804	370.38
345.031	346.38
345.259	366.38
345.487	335.38
345.714	355.38
345.942	353.38
346.17	349.38
346.397	348.38
346.625	347.38
346.853	361.38
347.08	347.38
347.308	346.38
347.535	343.38
347.763	359.38
347.99	342.38
348.218	330.38
348.445	357.38
348.673	349.38
348.9	341.38
349.128	349.38
349.355	330.38
349.583	349.38
349.81	355.38
350.037	338.38
350.265	335.38
350.492	329.38
350.72	322.38
350.947	343.38
351.174	350.38
351.402	336.38
351.629	338.38
351.856	350.38
352.083	330.38
352.311	358.38
352.538	356.38
352.765	361.38
352.992	361.38
353.22	326.38
353.447	322.38
353.674	331.38
353.901	328.38
354.128	315.38
354.355	329.38
354.583	310.38
354.81	314.38
355.037	309.38
355.264	311.38
355.491	309.38
355.718	338.38
355.945	337.38
356.172	335.38
356.399	314.38
356.626	309.38
356.853	315.38
357.08	323.38
357.307	314.38
357.534	326.38
357.761	309.38
357.988	311.38
358.215	338.38
358.441	332.38
358.668	308.38
358.895	334.38
359.122	334.38
359.349	346.38
359.576	338.38
359.802	349.38
360.029	359.38
360.256	383.38
360.483	359.38
360.709	342.38
360.936	338.38
361.163	345.38
361.39	344.38
361.616	333.38
361.843	335.38
362.07	328.38
362.296	352.38
362.523	326.38
362.749	339.38
362.976	327.38
363.203	325.38
363.429	340.38
363.656	311.38
363.882	323.38
364.109	337.38
364.335	319.38
364.562	306.38
364.788	336.38
365.015	318.38
365.241	342.38
365.468	339.38
365.694	330.38
365.92	313.38
366.147	318.38
366.373	298.38
366.599	316.38
366.826	324.38
367.052	315.38
367.278	305.38
367.505	311.38
367.731	306.38
367.957	317.38
368.184	319.38
368.41	330.38
368.636	339.38
368.862	346.38
369.089	337.38
369.315	330.38
369.541	310.38
369.767	322.38
369.993	331.38
370.219	319.38
370.445	315.38
370.672	326.38
370.898	327.38
371.124	326.38
371.35	312.38
371.576	309.38
371.802	330.38
372.028	319.38
372.254	329.38
372.48	331.38
372.706	327.38
372.932	312.38
373.158	323.38
373.384	337.38
373.61	329.38
373.835	337.38
374.061	327.38
374.287	335.38
374.513	323.38
374.739	338.38
374.965	331.38
375.191	341.38
375.416	324.38
375.642	318.38
375.868	318.38
376.094	321.38
376.319	309.38
376.545	321.38
376.771	322.38
376.997	323.38
377.222	318.38
377.448	318.38
377.674	307.38
377.899	314.38
378.125	305.38
378.35	319.38
378.576	294.38
378.802	297.38
379.027	295.38
379.253	328.38
379.478	329.38
379.704	288.38
379.929	330.38
380.155	303.38
380.38	321.38
380.606	314.38
380.831	315.38
381.057	331.38
381.282	320.38
381.507	311.38
381.733	317.38
381.958	312.38
382.184	327.38
382.409	319.38
382.634	334.38
382.86	330.38
383.085	320.38
383.31	319.38
383.535	333.38
383.761	318.38
383.986	341.38
384.211	352.38
384.436	328.38
384.662	346.38
384.887	350.38
385.112	310.38
385.337	327.38
385.562	317.38
385.787	327.38
386.013	335.38
386.238	335.38
386.463	362.38
386.688	337.38
386.913	322.38
387.138	346.38
387.363	338.38
387.588	335.38
387.813	342.38
388.038	339.38
388.263	329.38
388.488	318.38
388.713	348.38
388.938	354.38
389.163	323.38
389.387	361.38
389.612	344.38
389.837	347.38
390.062	339.38
390.287	346.38
390.512	357.38
390.736	344.38
390.961	332.38
391.186	338.38
391.411	333.38
391.636	356.38
391.86	362.38
392.085	344.38
392.31	350.38
392.534	341.38
392.759	356.38
392.984	344.38
393.208	360.38
393.433	357.38
393.658	347.38
393.882	340.38
394.107	334.38
394.331	340.38
394.556	343.38
394.78	341.38
395.005	347.38
395.229	361.38
395.454	346.38
395.678	346.38
395.903	351.38
396.127	360.38
396.352	360.38
396.576	351.38
396.801	346.38
397.025	340.38
397.249	369.38
397.474	374.38
397.698	354.38
397.922	351.38
398.147	386.38
398.371	378.38
398.595	366.38
398.82	371.38
399.044	383.38
399.268	389.38
399.492	396.38
399.717	438.38
399.941	441.38
400.165	459.38
400.389	436.38
400.613	395.38
400.837	403.38
401.062	380.38
401.286	375.38
401.51	378.38
401.734	365.38
401.958	391.38
402.182	390.38
402.406	400.38
402.63	377.38
402.854	374.38
403.078	373.38
403.302	387.38
403.526	398.38
403.75	385.38
403.974	375.38
404.198	369.38
404.422	399.38
404.645	395.38
404.869	391.38
405.093	416.38
405.317	423.38
405.541	456.38
405.765	424.38
405.988	414.38
406.212	390.38
406.436	406.38
406.66	422.38
406.883	420.38
407.107	434.38
407.331	456.38
407.555	493.38
407.778	506.38
408.002	438.38
408.226	426.38
408.449	417.38
408.673	419.38
408.896	422.38
409.12	473.38
409.344	425.38
409.567	378.38
409.791	387.38
410.014	374.38
410.238	382.38
410.461	375.38
410.685	396.38
410.908	397.38
411.132	416.38
411.355	438.38
411.578	406.38
411.802	402.38
412.025	366.38
412.249	378.38
412.472	394.38
412.695	409.38
412.919	425.38
413.142	391.38
413.365	379.38
413.589	362.38
413.812	357.38
414.035	385.38
414.258	373.38
414.482	385.38
414.705	355.38
414.928	365.38
415.151	366.38
415.374	370.38
415.597	344.38
415.821	351.38
416.044	356.38
416.267	367.38
416.49	349.38
416.713	347.38
416.936	350.38
417.159	339.38
417.382	358.38
417.605	353.38
417.828	366.38
418.051	369.38
418.274	373.38
418.497	346.38
418.72	352.38
418.943	365.38
419.166	361.38
419.389	393.38
419.611	406.38
419.834	373.38
420.057	389.38
420.28	392.38
420.503	390.38
420.726	366.38
420.948	383.38
421.171	414.38
421.394	416.38
421.617	393.38
421.839	360.38
422.062	381.38
422.285	392.38
422.507	428.38
422.73	456.38
422.953	477.38
423.175	401.38
423.398	367.38
423.621	387.38
423.843	405.38
424.066	413.38
424.288	380.38
424.511	395.38
424.733	457.38
424.956	479.38
425.178	484.38
425.401	452.38
425.623	476.38
425.846	441.38
426.068	413.38
426.291	392.38
426.513	407.38
426.735	422.38
426.958	434.38
427.18	479.38
427.402	581.38
427.625	613.38
427.847	520.38
428.069	458.38
428.292	413.38
428.514	399.38
428.736	390.38
428.958	383.38
429.181	345.38
429.403	363.38
429.625	374.38
429.847	395.38
430.069	406.38
430.292	424.38
430.514	382.38
430.736	364.38
430.958	375.38
431.18	356.38
431.402	348.38
431.624	348.38
431.846	342.38
432.068	339.38
432.29	359.38
432.512	349.38
432.734	334.38
432.956	358.38
433.178	353.38
433.4	378.38
433.622	339.38
433.844	357.38
434.066	355.38
434.287	335.38
434.509	350.38
434.731	354.38
434.953	360.38
435.175	354.38
435.397	373.38
435.618	383.38
435.84	411.38
436.062	503.38
436.284	513.38
436.505	429.38
436.727	393.38
436.949	370.38
437.17	378.38
437.392	368.38
437.614	381.38
437.835	387.38
438.057	448.38
438.278	529.38
438.5	527.38
438.721	550.38
438.943	545.38
439.165	424.38
439.386	415.38
439.608	391.38
439.829	381.38
440.05	419.38
440.272	441.38
440.493	401.38
440.715	392.38
440.936	389.38
441.158	377.38
441.379	392.38
441.6	371.38
441.822	402.38
442.043	421.38
442.264	477.38
442.486	487.38
442.707	433.38
442.928	388.38
443.149	412.38
443.371	418.38
443.592	465.38
443.813	509.38
444.034	549.38
444.255	466.38
444.476	419.38
444.698	394.38
444.919	391.38
445.14	526.38
445.361	471.38
445.582	414.38
445.803	453.38
446.024	523.38
446.245	514.38
446.466	462.38
446.687	405.38
446.908	411.38
447.129	371.38
447.35	355.38
447.571	378.38
447.792	364.38
448.013	371.38
448.234	394.38
448.455	426.38
448.675	474.38
448.896	551.38
449.117	490.38
449.338	448.38
449.559	519.38
449.779	572.38
450	466.38
450.221	411.38
450.442	379.38
450.662	369.38
450.883	343.38
451.104	368.38
451.324	358.38
451.545	351.38
451.766	330.38
451.986	331.38
452.207	342.38
452.428	315.38
452.648	318.38
452.869	349.38
453.089	318.38
453.31	339.38
453.53	337.38
453.751	339.38
453.971	320.38
454.192	326.38
454.412	322.38
454.633	318.38
454.853	301.38
455.073	312.38
455.294	361.38
455.514	375.38
455.734	378.38
455.955	329.38
456.175	331.38
456.395	308.38
456.616	299.38
456.836	307.38
457.056	327.38
457.276	301.38
457.497	333.38
457.717	309.38
457.937	313.38
458.157	320.38
458.377	330.38
458.598	331.38
458.818	337.38
459.038	408.38
459.258	419.38
459.478	370.38
459.698	337.38
459.918	360.38
460.138	355.38
460.358	336.38
460.578	341.38
460.798	350.38
461.018	343.38
461.238	362.38
461.458	339.38
461.678	327.38
461.898	337.38
462.118	336.38
462.338	352.38
462.558	385.38
462.777	368.38
462.997	366.38
463.217	365.38
463.437	385.38
463.657	361.38
463.876	374.38
464.096	382.38
464.316	369.38
464.536	373.38
464.755	380.38
464.975	375.38
465.195	378.38
465.414	435.38
465.634	389.38
465.854	376.38
466.073	344.38
466.293	345.38
466.512	343.38
466.732	321.38
466.951	341.38
467.171	344.38
467.391	330.38
467.61	332.38
467.829	340.38
468.049	346.38
468.268	337.38
468.488	314.38
468.707	331.38
468.927	325.38
469.146	324.38
469.365	308.38
469.585	332.38
469.804	347.38
470.023	343.38
470.243	344.38
470.462	342.38
470.681	345.38
470.901	340.38
471.12	345.38
471.339	349.38
471.558	343.38
471.777	353.38
471.997	333.38
472.216	345.38
472.435	343.38
472.654	336.38
472.873	330.38
473.092	322.38
473.311	337.38
473.53	351.38
473.749	360.38
473.968	390.38
474.187	433.38
474.406	443.38
474.625	368.38
474.844	353.38
475.063	322.38
475.282	343.38
475.501	334.38
475.72	337.38
475.939	344.38
476.158	335.38
476.377	347.38
476.596	360.38
476.814	341.38
477.033	355.38
477.252	325.38
477.471	366.38
477.69	367.38
477.908	371.38
478.127	355.38
478.346	397.38
478.564	355.38
478.783	383.38
479.002	389.38
479.22	352.38
479.439	393.38
479.658	397.38
479.876	386.38
480.095	374.38
480.313	409.38
480.532	407.38
480.751	413.38
480.969	397.38
481.188	441.38
481.406	431.38
481.624	425.38
481.843	399.38
482.061	413.38
482.28	393.38
482.498	394.38
482.717	386.38
482.935	413.38
483.153	381.38
483.372	404.38
483.59	384.38
483.808	395.38
484.027	402.38
484.245	383.38
484.463	399.38
484.681	401.38
484.9	397.38
485.118	390.38
485.336	394.38
485.554	403.38
485.772	410.38
485.99	411.38
486.209	409.38
486.427	405.38
486.645	424.38
486.863	419.38
487.081	410.38
487.299	414.38
487.517	410.38
487.735	425.38
487.953	423.38
488.171	418.38
488.389	413.38
488.607	429.38
488.825	419.38
489.043	435.38
489.261	422.38
489.479	423.38
489.696	408.38
489.914	405.38
490.132	426.38
490.35	434.38
490.568	442.38
490.786	457.38
491.003	467.38
491.221	447.38
491.439	467.38
491.657	451.38
491.874	469.38
492.092	470.38
492.31	475.38
492.527	465.38
492.745	471.38
492.963	494.38
493.18	469.38
493.398	473.38
493.615	488.38
493.833	477.38
494.05	461.38
494.268	472.38
494.485	485.38
494.703	486.38
494.92	488.38
495.138	487.38
495.355	490.38
495.573	491.38
495.79	492.38
496.008	477.38
496.225	493.38
496.442	499.38
496.66	493.38
496.877	492.38
497.094	499.38
497.312	473.38
497.529	525.38
497.746	512.38
497.963	509.38
498.181	536.38
498.398	545.38
498.615	534.38
498.832	567.38
499.049	551.38
499.267	568.38
499.484	578.38
499.701	591.38
499.918	615.38
500.135	635.38
500.352	676.38
500.569	665.38
500.786	672.38
501.003	671.38
501.22	633.38
501.437	633.38
501.654	625.38
501.871	585.38
502.088	571.38
502.305	569.38
