Data from 1971.PennyLincolnUp.Lamp.En5.5.200Scan.071719.P1.Scan 2. Changed Angle._HRD10591_15-23-23-842.txt Node
Date: Thu Jul 18 15:23:23 EDT 2019
User: cochatt
Spectrometer: HR+D1059
Trigger mode: 1
Integration Time (sec): 1.000000E-1
Scans to average: 1
Electric dark correction enabled: true
Nonlinearity correction enabled: false
Boxcar width: 0
XAxis mode: Wavelengths
Number of Pixels in Spectrum: 2048
>>>>>Begin Spectral Data<<<<<
223.165	-11.19
223.4	-11.19
223.635	-11.19
223.869	-13.19
224.104	-12.19
224.338	-30.19
224.573	-6.19
224.808	-22.19
225.042	-23.19
225.277	-9.19
225.511	10.81
225.746	0.81
225.98	15.81
226.215	12.81
226.449	20.81
226.683	17.81
226.918	17.81
227.152	30.81
227.387	38.81
227.621	42.81
227.856	41.81
228.09	41.81
228.324	51.81
228.559	58.81
228.793	65.81
229.027	110.81
229.262	104.81
229.496	122.81
229.73	152.81
229.964	171.81
230.199	151.81
230.433	132.81
230.667	117.81
230.901	115.81
231.136	126.81
231.37	120.81
231.604	97.81
231.838	113.81
232.072	118.81
232.306	122.81
232.541	112.81
232.775	114.81
233.009	112.81
233.243	113.81
233.477	103.81
233.711	125.81
233.945	126.81
234.179	113.81
234.413	119.81
234.647	109.81
234.881	109.81
235.115	109.81
235.349	123.81
235.583	130.81
235.817	112.81
236.051	133.81
236.285	122.81
236.519	123.81
236.753	131.81
236.987	133.81
237.221	192.81
237.455	256.81
237.689	202.81
237.922	157.81
238.156	142.81
238.39	117.81
238.624	136.81
238.858	147.81
239.091	140.81
239.325	132.81
239.559	129.81
239.793	134.81
240.027	136.81
240.26	145.81
240.494	163.81
240.728	160.81
240.961	135.81
241.195	150.81
241.429	143.81
241.662	131.81
241.896	151.81
242.13	143.81
242.363	128.81
242.597	129.81
242.83	152.81
243.064	132.81
243.298	143.81
243.531	152.81
243.765	140.81
243.998	138.81
244.232	144.81
244.465	161.81
244.699	138.81
244.932	149.81
245.166	153.81
245.399	140.81
245.633	140.81
245.866	142.81
246.099	142.81
246.333	170.81
246.566	156.81
246.8	162.81
247.033	162.81
247.266	166.81
247.5	173.81
247.733	186.81
247.966	174.81
248.2	203.81
248.433	168.81
248.666	197.81
248.899	191.81
249.133	210.81
249.366	232.81
249.599	212.81
249.832	188.81
250.066	193.81
250.299	190.81
250.532	200.81
250.765	225.81
250.998	243.81
251.231	249.81
251.465	240.81
251.698	220.81
251.931	227.81
252.164	205.81
252.397	213.81
252.63	219.81
252.863	204.81
253.096	227.81
253.329	245.81
253.562	260.81
253.795	247.81
254.028	231.81
254.261	235.81
254.494	234.81
254.727	252.81
254.96	295.81
255.193	284.81
255.426	259.81
255.659	247.81
255.892	241.81
256.124	244.81
256.357	258.81
256.59	230.81
256.823	218.81
257.056	233.81
257.289	221.81
257.521	240.81
257.754	216.81
257.987	220.81
258.22	242.81
258.452	226.81
258.685	205.81
258.918	222.81
259.151	213.81
259.383	231.81
259.616	220.81
259.849	229.81
260.081	246.81
260.314	274.81
260.547	259.81
260.779	251.81
261.012	257.81
261.244	214.81
261.477	221.81
261.71	229.81
261.942	231.81
262.175	254.81
262.407	236.81
262.64	232.81
262.872	230.81
263.105	204.81
263.337	220.81
263.57	214.81
263.802	214.81
264.035	231.81
264.267	218.81
264.499	218.81
264.732	212.81
264.964	192.81
265.197	204.81
265.429	207.81
265.661	188.81
265.894	226.81
266.126	209.81
266.358	207.81
266.591	208.81
266.823	207.81
267.055	218.81
267.287	237.81
267.52	213.81
267.752	230.81
267.984	234.81
268.216	222.81
268.448	220.81
268.681	224.81
268.913	233.81
269.145	270.81
269.377	257.81
269.609	260.81
269.841	263.81
270.073	297.81
270.306	278.81
270.538	314.81
270.77	311.81
271.002	321.81
271.234	295.81
271.466	292.81
271.698	318.81
271.93	317.81
272.162	346.81
272.394	333.81
272.626	306.81
272.858	287.81
273.09	294.81
273.322	285.81
273.553	261.81
273.785	253.81
274.017	267.81
274.249	277.81
274.481	268.81
274.713	275.81
274.945	275.81
275.176	261.81
275.408	251.81
275.64	252.81
275.872	255.81
276.104	259.81
276.335	250.81
276.567	269.81
276.799	293.81
277.031	317.81
277.262	326.81
277.494	336.81
277.726	289.81
277.957	305.81
278.189	262.81
278.421	267.81
278.652	284.81
278.884	268.81
279.115	259.81
279.347	252.81
279.579	254.81
279.81	269.81
280.042	270.81
280.273	259.81
280.505	271.81
280.736	237.81
280.968	244.81
281.199	273.81
281.431	274.81
281.662	276.81
281.894	249.81
282.125	261.81
282.356	269.81
282.588	307.81
282.819	304.81
283.051	268.81
283.282	261.81
283.513	245.81
283.745	243.81
283.976	275.81
284.207	264.81
284.439	258.81
284.67	253.81
284.901	274.81
285.132	273.81
285.364	276.81
285.595	272.81
285.826	257.81
286.057	268.81
286.288	270.81
286.52	265.81
286.751	272.81
286.982	265.81
287.213	270.81
287.444	259.81
287.675	278.81
287.906	285.81
288.138	296.81
288.369	279.81
288.6	268.81
288.831	269.81
289.062	290.81
289.293	278.81
289.524	278.81
289.755	274.81
289.986	268.81
290.217	279.81
290.448	275.81
290.679	271.81
290.91	270.81
291.141	254.81
291.371	279.81
291.602	280.81
291.833	272.81
292.064	279.81
292.295	280.81
292.526	270.81
292.757	266.81
292.987	281.81
293.218	273.81
293.449	278.81
293.68	246.81
293.91	276.81
294.141	288.81
294.372	270.81
294.603	269.81
294.833	282.81
295.064	269.81
295.295	276.81
295.525	286.81
295.756	295.81
295.987	290.81
296.217	310.81
296.448	299.81
296.679	297.81
296.909	280.81
297.14	294.81
297.37	302.81
297.601	276.81
297.831	292.81
298.062	273.81
298.292	282.81
298.523	285.81
298.753	283.81
298.984	293.81
299.214	273.81
299.445	290.81
299.675	296.81
299.905	283.81
300.136	286.81
300.366	289.81
300.597	283.81
300.827	265.81
301.057	286.81
301.288	312.81
301.518	297.81
301.748	305.81
301.979	289.81
302.209	297.81
302.439	310.81
302.669	304.81
302.9	304.81
303.13	296.81
303.36	308.81
303.59	305.81
303.82	322.81
304.051	322.81
304.281	323.81
304.511	313.81
304.741	326.81
304.971	296.81
305.201	317.81
305.431	308.81
305.661	306.81
305.891	314.81
306.121	311.81
306.352	311.81
306.582	328.81
306.812	299.81
307.042	317.81
307.272	330.81
307.502	314.81
307.731	318.81
307.961	317.81
308.191	315.81
308.421	315.81
308.651	320.81
308.881	320.81
309.111	309.81
309.341	324.81
309.571	345.81
309.8	338.81
310.03	347.81
310.26	362.81
310.49	386.81
310.72	387.81
310.949	389.81
311.179	390.81
311.409	395.81
311.639	375.81
311.868	354.81
312.098	375.81
312.328	376.81
312.557	376.81
312.787	411.81
313.017	415.81
313.246	390.81
313.476	366.81
313.706	352.81
313.935	380.81
314.165	388.81
314.394	409.81
314.624	398.81
314.853	357.81
315.083	374.81
315.312	354.81
315.542	368.81
315.771	357.81
316.001	368.81
316.23	351.81
316.46	355.81
316.689	360.81
316.919	376.81
317.148	361.81
317.377	382.81
317.607	390.81
317.836	391.81
318.065	385.81
318.295	364.81
318.524	378.81
318.753	337.81
318.983	360.81
319.212	363.81
319.441	370.81
319.67	399.81
319.9	380.81
320.129	359.81
320.358	378.81
320.587	368.81
320.816	378.81
321.046	416.81
321.275	409.81
321.504	402.81
321.733	398.81
321.962	378.81
322.191	422.81
322.42	431.81
322.649	466.81
322.878	477.81
323.108	484.81
323.337	516.81
323.566	543.81
323.795	576.81
324.024	590.81
324.253	728.81
324.482	1076.81
324.71	1688.81
324.939	2456.81
325.168	2137.81
325.397	1094.81
325.626	743.81
325.855	595.81
326.084	549.81
326.313	523.81
326.542	517.81
326.77	586.81
326.999	684.81
327.228	974.81
327.457	1512.81
327.686	1816.81
327.914	1246.81
328.143	802.81
328.372	691.81
328.6	640.81
328.829	604.81
329.058	624.81
329.287	646.81
329.515	585.81
329.744	505.81
329.972	517.81
330.201	552.81
330.43	566.81
330.658	634.81
330.887	664.81
331.115	673.81
331.344	525.81
331.572	514.81
331.801	479.81
332.03	488.81
332.258	476.81
332.486	450.81
332.715	441.81
332.943	456.81
333.172	425.81
333.4	438.81
333.629	444.81
333.857	448.81
334.085	458.81
334.314	484.81
334.542	529.81
334.771	527.81
334.999	503.81
335.227	460.81
335.455	436.81
335.684	442.81
335.912	424.81
336.14	438.81
336.369	456.81
336.597	427.81
336.825	472.81
337.053	443.81
337.281	434.81
337.51	414.81
337.738	424.81
337.966	436.81
338.194	425.81
338.422	451.81
338.65	409.81
338.878	431.81
339.106	407.81
339.334	417.81
339.562	422.81
339.79	439.81
340.018	425.81
340.246	432.81
340.474	450.81
340.702	426.81
340.93	414.81
341.158	411.81
341.386	424.81
341.614	447.81
341.842	435.81
342.07	409.81
342.298	416.81
342.526	414.81
342.754	424.81
342.981	412.81
343.209	395.81
343.437	426.81
343.665	409.81
343.893	407.81
344.12	429.81
344.348	414.81
344.576	437.81
344.804	440.81
345.031	441.81
345.259	466.81
345.487	456.81
345.714	429.81
345.942	408.81
346.17	417.81
346.397	397.81
346.625	417.81
346.853	424.81
347.08	400.81
347.308	423.81
347.535	443.81
347.763	449.81
347.99	412.81
348.218	426.81
348.445	446.81
348.673	447.81
348.9	424.81
349.128	419.81
349.355	400.81
349.583	382.81
349.81	391.81
350.037	407.81
350.265	386.81
350.492	422.81
350.72	409.81
350.947	416.81
351.174	404.81
351.402	442.81
351.629	440.81
351.856	428.81
352.083	435.81
352.311	445.81
352.538	466.81
352.765	458.81
352.992	445.81
353.22	432.81
353.447	416.81
353.674	408.81
353.901	410.81
354.128	401.81
354.355	394.81
354.583	376.81
354.81	389.81
355.037	384.81
355.264	364.81
355.491	377.81
355.718	395.81
355.945	382.81
356.172	378.81
356.399	374.81
356.626	375.81
356.853	379.81
357.08	384.81
357.307	378.81
357.534	381.81
357.761	370.81
357.988	407.81
358.215	394.81
358.441	408.81
358.668	376.81
358.895	394.81
359.122	395.81
359.349	396.81
359.576	427.81
359.802	467.81
360.029	468.81
360.256	501.81
360.483	480.81
360.709	461.81
360.936	421.81
361.163	446.81
361.39	411.81
361.616	440.81
361.843	411.81
362.07	418.81
362.296	426.81
362.523	444.81
362.749	414.81
362.976	410.81
363.203	407.81
363.429	424.81
363.656	415.81
363.882	409.81
364.109	424.81
364.335	417.81
364.562	404.81
364.788	404.81
365.015	409.81
365.241	405.81
365.468	408.81
365.694	398.81
365.92	408.81
366.147	408.81
366.373	419.81
366.599	411.81
366.826	409.81
367.052	395.81
367.278	397.81
367.505	404.81
367.731	421.81
367.957	400.81
368.184	386.81
368.41	406.81
368.636	430.81
368.862	429.81
369.089	424.81
369.315	419.81
369.541	390.81
369.767	408.81
369.993	409.81
370.219	409.81
370.445	399.81
370.672	413.81
370.898	383.81
371.124	395.81
371.35	411.81
371.576	404.81
371.802	390.81
372.028	396.81
372.254	388.81
372.48	390.81
372.706	395.81
372.932	383.81
373.158	416.81
373.384	420.81
373.61	390.81
373.835	397.81
374.061	390.81
374.287	423.81
374.513	418.81
374.739	409.81
374.965	403.81
375.191	408.81
375.416	422.81
375.642	406.81
375.868	420.81
376.094	404.81
376.319	396.81
376.545	395.81
376.771	413.81
376.997	406.81
377.222	400.81
377.448	393.81
377.674	401.81
377.899	376.81
378.125	417.81
378.35	424.81
378.576	402.81
378.802	384.81
379.027	398.81
379.253	390.81
379.478	392.81
379.704	394.81
379.929	417.81
380.155	406.81
380.38	420.81
380.606	405.81
380.831	395.81
381.057	414.81
381.282	366.81
381.507	406.81
381.733	394.81
381.958	401.81
382.184	414.81
382.409	419.81
382.634	434.81
382.86	408.81
383.085	426.81
383.31	425.81
383.535	421.81
383.761	417.81
383.986	418.81
384.211	404.81
384.436	416.81
384.662	423.81
384.887	422.81
385.112	419.81
385.337	423.81
385.562	421.81
385.787	425.81
386.013	444.81
386.238	452.81
386.463	446.81
386.688	440.81
386.913	442.81
387.138	436.81
387.363	440.81
387.588	455.81
387.813	436.81
388.038	427.81
388.263	435.81
388.488	430.81
388.713	412.81
388.938	433.81
389.163	426.81
389.387	437.81
389.612	441.81
389.837	428.81
390.062	434.81
390.287	425.81
390.512	421.81
390.736	413.81
390.961	422.81
391.186	424.81
391.411	438.81
391.636	427.81
391.86	430.81
392.085	432.81
392.31	440.81
392.534	411.81
392.759	433.81
392.984	438.81
393.208	443.81
393.433	463.81
393.658	444.81
393.882	423.81
394.107	425.81
394.331	430.81
394.556	428.81
394.78	434.81
395.005	430.81
395.229	454.81
395.454	448.81
395.678	433.81
395.903	491.81
396.127	500.81
396.352	474.81
396.576	470.81
396.801	444.81
397.025	454.81
397.249	470.81
397.474	460.81
397.698	466.81
397.922	499.81
398.147	491.81
398.371	485.81
398.595	477.81
398.82	470.81
399.044	492.81
399.268	500.81
399.492	508.81
399.717	536.81
399.941	554.81
400.165	610.81
400.389	606.81
400.613	557.81
400.837	522.81
401.062	529.81
401.286	484.81
401.51	506.81
401.734	496.81
401.958	492.81
402.182	494.81
402.406	506.81
402.63	538.81
402.854	502.81
403.078	503.81
403.302	512.81
403.526	550.81
403.75	542.81
403.974	515.81
404.198	506.81
404.422	523.81
404.645	539.81
404.869	538.81
405.093	562.81
405.317	592.81
405.541	639.81
405.765	594.81
405.988	560.81
406.212	577.81
406.436	588.81
406.66	627.81
406.883	578.81
407.107	606.81
407.331	656.81
407.555	707.81
407.778	692.81
408.002	651.81
408.226	609.81
408.449	584.81
408.673	596.81
408.896	642.81
409.12	688.81
409.344	622.81
409.567	562.81
409.791	533.81
410.014	535.81
410.238	531.81
410.461	504.81
410.685	538.81
410.908	546.81
411.132	562.81
411.355	621.81
411.578	590.81
411.802	565.81
412.025	525.81
412.249	524.81
412.472	560.81
412.695	580.81
412.919	601.81
413.142	536.81
413.365	515.81
413.589	507.81
413.812	499.81
414.035	527.81
414.258	508.81
414.482	510.81
414.705	494.81
414.928	482.81
415.151	484.81
415.374	469.81
415.597	491.81
415.821	476.81
416.044	507.81
416.267	490.81
416.49	499.81
416.713	491.81
416.936	500.81
417.159	509.81
417.382	521.81
417.605	502.81
417.828	524.81
418.051	554.81
418.274	510.81
418.497	512.81
418.72	489.81
418.943	502.81
419.166	521.81
419.389	555.81
419.611	527.81
419.834	548.81
420.057	532.81
420.28	553.81
420.503	544.81
420.726	529.81
420.948	570.81
421.171	585.81
421.394	604.81
421.617	564.81
421.839	531.81
422.062	526.81
422.285	557.81
422.507	620.81
422.73	701.81
422.953	694.81
423.175	602.81
423.398	570.81
423.621	544.81
423.843	576.81
424.066	598.81
424.288	578.81
424.511	617.81
424.733	669.81
424.956	770.81
425.178	718.81
425.401	722.81
425.623	725.81
425.846	640.81
426.068	605.81
426.291	593.81
426.513	590.81
426.735	611.81
426.958	673.81
427.18	744.81
427.402	891.81
427.625	969.81
427.847	893.81
428.069	749.81
428.292	680.81
428.514	599.81
428.736	580.81
428.958	556.81
429.181	589.81
429.403	554.81
429.625	578.81
429.847	588.81
430.069	698.81
430.292	650.81
430.514	582.81
430.736	571.81
430.958	541.81
431.18	549.81
431.402	522.81
431.624	516.81
431.846	512.81
432.068	501.81
432.29	515.81
432.512	529.81
432.734	550.81
432.956	538.81
433.178	551.81
433.4	560.81
433.622	539.81
433.844	523.81
434.066	522.81
434.287	504.81
434.509	528.81
434.731	543.81
434.953	545.81
435.175	555.81
435.397	598.81
435.618	595.81
435.84	635.81
436.062	715.81
436.284	818.81
436.505	683.81
436.727	630.81
436.949	592.81
437.17	550.81
437.392	583.81
437.614	601.81
437.835	620.81
438.057	728.81
438.278	832.81
438.5	824.81
438.721	899.81
438.943	866.81
439.165	692.81
439.386	650.81
439.608	617.81
439.829	628.81
440.05	658.81
440.272	688.81
440.493	666.81
440.715	601.81
440.936	592.81
441.158	562.81
441.379	557.81
441.6	581.81
441.822	587.81
442.043	655.81
442.264	730.81
442.486	788.81
442.707	688.81
442.928	616.81
443.149	628.81
443.371	631.81
443.592	704.81
443.813	806.81
444.034	840.81
444.255	692.81
444.476	657.81
444.698	628.81
444.919	594.81
445.14	678.81
445.361	654.81
445.582	631.81
445.803	724.81
446.024	865.81
446.245	854.81
446.466	758.81
446.687	666.81
446.908	631.81
447.129	601.81
447.35	563.81
447.571	577.81
447.792	561.81
448.013	572.81
448.234	582.81
448.455	634.81
448.675	765.81
448.896	865.81
449.117	766.81
449.338	706.81
449.559	824.81
449.779	904.81
450	749.81
450.221	635.81
450.442	593.81
450.662	552.81
450.883	560.81
451.104	587.81
451.324	579.81
451.545	546.81
451.766	520.81
451.986	495.81
452.207	481.81
452.428	483.81
452.648	489.81
452.869	521.81
453.089	516.81
453.31	546.81
453.53	523.81
453.751	508.81
453.971	513.81
454.192	543.81
454.412	517.81
454.633	515.81
454.853	488.81
455.073	506.81
455.294	537.81
455.514	586.81
455.734	580.81
455.955	526.81
456.175	470.81
456.395	474.81
456.616	458.81
456.836	454.81
457.056	469.81
457.276	452.81
457.497	475.81
457.717	466.81
457.937	483.81
458.157	468.81
458.377	480.81
458.598	518.81
458.818	581.81
459.038	679.81
459.258	705.81
459.478	587.81
459.698	546.81
459.918	524.81
460.138	502.81
460.358	521.81
460.578	513.81
460.798	518.81
461.018	536.81
461.238	508.81
461.458	494.81
461.678	512.81
461.898	512.81
462.118	503.81
462.338	527.81
462.558	512.81
462.777	533.81
462.997	533.81
463.217	512.81
463.437	537.81
463.657	545.81
463.876	550.81
464.096	530.81
464.316	531.81
464.536	539.81
464.755	560.81
464.975	557.81
465.195	636.81
465.414	724.81
465.634	606.81
465.854	569.81
466.073	546.81
466.293	530.81
466.512	515.81
466.732	514.81
466.951	499.81
467.171	490.81
467.391	517.81
467.61	524.81
467.829	531.81
468.049	506.81
468.268	529.81
468.488	497.81
468.707	509.81
468.927	502.81
469.146	517.81
469.365	491.81
469.585	492.81
469.804	499.81
470.023	510.81
470.243	524.81
470.462	539.81
470.681	564.81
470.901	555.81
471.12	532.81
471.339	512.81
471.558	517.81
471.777	524.81
471.997	518.81
472.216	523.81
472.435	570.81
472.654	552.81
472.873	530.81
473.092	530.81
473.311	520.81
473.53	525.81
473.749	527.81
473.968	588.81
474.187	700.81
474.406	727.81
474.625	614.81
474.844	543.81
475.063	551.81
475.282	545.81
475.501	507.81
475.72	525.81
475.939	540.81
476.158	532.81
476.377	544.81
476.596	561.81
476.814	556.81
477.033	560.81
477.252	566.81
477.471	562.81
477.69	567.81
477.908	584.81
478.127	583.81
478.346	581.81
478.564	552.81
478.783	576.81
479.002	583.81
479.22	586.81
479.439	602.81
479.658	609.81
479.876	613.81
480.095	637.81
480.313	668.81
480.532	646.81
480.751	620.81
480.969	623.81
481.188	713.81
481.406	728.81
481.624	660.81
481.843	609.81
482.061	608.81
482.28	610.81
482.498	613.81
482.717	606.81
482.935	612.81
483.153	602.81
483.372	615.81
483.59	631.81
483.808	618.81
484.027	610.81
484.245	642.81
484.463	635.81
484.681	617.81
484.9	634.81
485.118	650.81
485.336	653.81
485.554	642.81
485.772	643.81
485.99	628.81
486.209	636.81
486.427	672.81
486.645	642.81
486.863	692.81
487.081	690.81
487.299	681.81
487.517	682.81
487.735	641.81
487.953	660.81
488.171	694.81
488.389	659.81
488.607	667.81
488.825	675.81
489.043	663.81
489.261	651.81
489.479	665.81
489.696	690.81
489.914	685.81
490.132	701.81
490.35	706.81
490.568	701.81
490.786	733.81
491.003	706.81
491.221	749.81
491.439	783.81
491.657	760.81
491.874	776.81
492.092	807.81
492.31	784.81
492.527	800.81
492.745	828.81
492.963	801.81
493.18	794.81
493.398	816.81
493.615	812.81
493.833	806.81
494.05	826.81
494.268	807.81
494.485	797.81
494.703	783.81
494.92	801.81
495.138	818.81
495.355	810.81
495.573	812.81
495.79	826.81
496.008	798.81
496.225	812.81
496.442	819.81
496.66	808.81
496.877	812.81
497.094	812.81
497.312	828.81
497.529	833.81
497.746	840.81
497.963	842.81
498.181	875.81
498.398	877.81
498.615	868.81
498.832	905.81
499.049	886.81
499.267	896.81
499.484	906.81
499.701	916.81
499.918	954.81
500.135	963.81
500.352	987.81
500.569	1031.81
500.786	1010.81
501.003	1000.81
501.22	986.81
501.437	949.81
