Data from 1971.PennyLincolnUp.Lamp.En5.5.200Scan.071719.P1._HRD10591_15-19-38-841.txt Node
Date: Thu Jul 18 15:19:38 EDT 2019
User: cochatt
Spectrometer: HR+D1059
Trigger mode: 1
Integration Time (sec): 1.000000E-1
Scans to average: 1
Electric dark correction enabled: true
Nonlinearity correction enabled: false
Boxcar width: 0
XAxis mode: Wavelengths
Number of Pixels in Spectrum: 2048
>>>>>Begin Spectral Data<<<<<
223.165	-23.44
223.4	-23.44
223.635	-23.44
223.869	-12.44
224.104	-13.44
224.338	-13.44
224.573	-19.44
224.808	-9.44
225.042	-3.44
225.277	-1.44
225.511	-7.44
225.746	0.56
225.98	5.56
226.215	6.56
226.449	25.56
226.683	19.56
226.918	16.56
227.152	29.56
227.387	25.56
227.621	36.56
227.856	48.56
228.09	41.56
228.324	48.56
228.559	47.56
228.793	75.56
229.027	94.56
229.262	107.56
229.496	116.56
229.73	116.56
229.964	134.56
230.199	122.56
230.433	96.56
230.667	99.56
230.901	125.56
231.136	100.56
231.37	104.56
231.604	107.56
231.838	109.56
232.072	118.56
232.306	114.56
232.541	121.56
232.775	110.56
233.009	105.56
233.243	103.56
233.477	100.56
233.711	103.56
233.945	116.56
234.179	109.56
234.413	106.56
234.647	117.56
234.881	107.56
235.115	106.56
235.349	113.56
235.583	119.56
235.817	116.56
236.051	126.56
236.285	125.56
236.519	120.56
236.753	130.56
236.987	142.56
237.221	174.56
237.455	219.56
237.689	174.56
237.922	128.56
238.156	122.56
238.39	130.56
238.624	120.56
238.858	125.56
239.091	114.56
239.325	135.56
239.559	141.56
239.793	129.56
240.027	136.56
240.26	152.56
240.494	150.56
240.728	159.56
240.961	142.56
241.195	148.56
241.429	135.56
241.662	126.56
241.896	123.56
242.13	144.56
242.363	125.56
242.597	132.56
242.83	145.56
243.064	146.56
243.298	151.56
243.531	137.56
243.765	123.56
243.998	131.56
244.232	144.56
244.465	138.56
244.699	128.56
244.932	143.56
245.166	144.56
245.399	146.56
245.633	143.56
245.866	156.56
246.099	149.56
246.333	141.56
246.566	126.56
246.8	142.56
247.033	141.56
247.266	152.56
247.5	160.56
247.733	143.56
247.966	171.56
248.2	177.56
248.433	166.56
248.666	187.56
248.899	172.56
249.133	191.56
249.366	192.56
249.599	190.56
249.832	167.56
250.066	186.56
250.299	196.56
250.532	194.56
250.765	201.56
250.998	204.56
251.231	232.56
251.465	211.56
251.698	188.56
251.931	211.56
252.164	188.56
252.397	208.56
252.63	216.56
252.863	212.56
253.096	213.56
253.329	229.56
253.562	220.56
253.795	212.56
254.028	229.56
254.261	245.56
254.494	233.56
254.727	253.56
254.96	272.56
255.193	264.56
255.426	267.56
255.659	236.56
255.892	226.56
256.124	213.56
256.357	216.56
256.59	216.56
256.823	213.56
257.056	217.56
257.289	209.56
257.521	222.56
257.754	232.56
257.987	207.56
258.22	206.56
258.452	195.56
258.685	222.56
258.918	212.56
259.151	203.56
259.383	210.56
259.616	197.56
259.849	216.56
260.081	215.56
260.314	261.56
260.547	262.56
260.779	245.56
261.012	237.56
261.244	226.56
261.477	219.56
261.71	211.56
261.942	219.56
262.175	234.56
262.407	233.56
262.64	212.56
262.872	232.56
263.105	209.56
263.337	231.56
263.57	224.56
263.802	230.56
264.035	230.56
264.267	219.56
264.499	221.56
264.732	204.56
264.964	207.56
265.197	217.56
265.429	214.56
265.661	218.56
265.894	209.56
266.126	218.56
266.358	216.56
266.591	237.56
266.823	232.56
267.055	243.56
267.287	232.56
267.52	220.56
267.752	219.56
267.984	226.56
268.216	222.56
268.448	245.56
268.681	237.56
268.913	264.56
269.145	266.56
269.377	279.56
269.609	284.56
269.841	288.56
270.073	270.56
270.306	299.56
270.538	304.56
270.77	308.56
271.002	304.56
271.234	323.56
271.466	310.56
271.698	330.56
271.93	310.56
272.162	316.56
272.394	326.56
272.626	309.56
272.858	286.56
273.09	266.56
273.322	293.56
273.553	275.56
273.785	275.56
274.017	273.56
274.249	266.56
274.481	277.56
274.713	280.56
274.945	262.56
275.176	284.56
275.408	257.56
275.64	275.56
275.872	256.56
276.104	266.56
276.335	272.56
276.567	284.56
276.799	291.56
277.031	296.56
277.262	326.56
277.494	311.56
277.726	309.56
277.957	289.56
278.189	289.56
278.421	281.56
278.652	261.56
278.884	295.56
279.115	268.56
279.347	271.56
279.579	293.56
279.81	279.56
280.042	260.56
280.273	274.56
280.505	285.56
280.736	264.56
280.968	258.56
281.199	287.56
281.431	293.56
281.662	273.56
281.894	283.56
282.125	292.56
282.356	314.56
282.588	310.56
282.819	297.56
283.051	281.56
283.282	284.56
283.513	269.56
283.745	266.56
283.976	272.56
284.207	286.56
284.439	285.56
284.67	292.56
284.901	290.56
285.132	286.56
285.364	266.56
285.595	286.56
285.826	270.56
286.057	298.56
286.288	288.56
286.52	287.56
286.751	281.56
286.982	290.56
287.213	305.56
287.444	295.56
287.675	294.56
287.906	299.56
288.138	310.56
288.369	308.56
288.6	327.56
288.831	284.56
289.062	297.56
289.293	300.56
289.524	288.56
289.755	319.56
289.986	308.56
290.217	280.56
290.448	281.56
290.679	277.56
290.91	279.56
291.141	288.56
291.371	285.56
291.602	297.56
291.833	304.56
292.064	288.56
292.295	297.56
292.526	298.56
292.757	301.56
292.987	283.56
293.218	286.56
293.449	286.56
293.68	294.56
293.91	272.56
294.141	289.56
294.372	280.56
294.603	294.56
294.833	307.56
295.064	299.56
295.295	302.56
295.525	304.56
295.756	294.56
295.987	287.56
296.217	305.56
296.448	318.56
296.679	309.56
296.909	315.56
297.14	302.56
297.37	288.56
297.601	286.56
297.831	294.56
298.062	295.56
298.292	310.56
298.523	311.56
298.753	318.56
298.984	299.56
299.214	307.56
299.445	316.56
299.675	293.56
299.905	299.56
300.136	307.56
300.366	297.56
300.597	329.56
300.827	304.56
301.057	342.56
301.288	337.56
301.518	320.56
301.748	324.56
301.979	337.56
302.209	339.56
302.439	327.56
302.669	316.56
302.9	322.56
303.13	321.56
303.36	340.56
303.59	338.56
303.82	336.56
304.051	331.56
304.281	350.56
304.511	329.56
304.741	328.56
304.971	339.56
305.201	336.56
305.431	329.56
305.661	310.56
305.891	334.56
306.121	323.56
306.352	342.56
306.582	339.56
306.812	327.56
307.042	340.56
307.272	325.56
307.502	341.56
307.731	341.56
307.961	338.56
308.191	334.56
308.421	330.56
308.651	322.56
308.881	342.56
309.111	358.56
309.341	328.56
309.571	354.56
309.8	361.56
310.03	368.56
310.26	386.56
310.49	377.56
310.72	373.56
310.949	393.56
311.179	387.56
311.409	382.56
311.639	372.56
311.868	376.56
312.098	377.56
312.328	394.56
312.557	390.56
312.787	411.56
313.017	405.56
313.246	398.56
313.476	379.56
313.706	386.56
313.935	372.56
314.165	377.56
314.394	386.56
314.624	386.56
314.853	391.56
315.083	392.56
315.312	401.56
315.542	372.56
315.771	374.56
316.001	364.56
316.23	378.56
316.46	360.56
316.689	380.56
316.919	344.56
317.148	380.56
317.377	390.56
317.607	384.56
317.836	392.56
318.065	396.56
318.295	367.56
318.524	388.56
318.753	365.56
318.983	369.56
319.212	378.56
319.441	378.56
319.67	392.56
319.9	400.56
320.129	392.56
320.358	361.56
320.587	397.56
320.816	384.56
321.046	405.56
321.275	419.56
321.504	390.56
321.733	390.56
321.962	391.56
322.191	405.56
322.42	416.56
322.649	433.56
322.878	443.56
323.108	452.56
323.337	469.56
323.566	460.56
323.795	514.56
324.024	566.56
324.253	682.56
324.482	958.56
324.71	1384.56
324.939	1946.56
325.168	1618.56
325.397	851.56
325.626	612.56
325.855	540.56
326.084	500.56
326.313	507.56
326.542	495.56
326.77	539.56
326.999	636.56
327.228	864.56
327.457	1234.56
327.686	1418.56
327.914	948.56
328.143	662.56
328.372	588.56
328.6	565.56
328.829	542.56
329.058	575.56
329.287	548.56
329.515	509.56
329.744	488.56
329.972	494.56
330.201	522.56
330.43	514.56
330.658	553.56
330.887	581.56
331.115	560.56
331.344	498.56
331.572	478.56
331.801	463.56
332.03	462.56
332.258	457.56
332.486	444.56
332.715	436.56
332.943	441.56
333.172	451.56
333.4	427.56
333.629	450.56
333.857	444.56
334.085	473.56
334.314	481.56
334.542	477.56
334.771	485.56
334.999	452.56
335.227	446.56
335.455	438.56
335.684	445.56
335.912	435.56
336.14	419.56
336.369	419.56
336.597	444.56
336.825	438.56
337.053	432.56
337.281	421.56
337.51	414.56
337.738	448.56
337.966	436.56
338.194	418.56
338.422	422.56
338.65	425.56
338.878	419.56
339.106	421.56
339.334	427.56
339.562	408.56
339.79	419.56
340.018	404.56
340.246	405.56
340.474	401.56
340.702	398.56
340.93	413.56
341.158	411.56
341.386	409.56
341.614	398.56
341.842	412.56
342.07	396.56
342.298	373.56
342.526	393.56
342.754	412.56
342.981	400.56
343.209	388.56
343.437	415.56
343.665	420.56
343.893	412.56
344.12	425.56
344.348	402.56
344.576	427.56
344.804	403.56
345.031	425.56
345.259	424.56
345.487	408.56
345.714	395.56
345.942	404.56
346.17	397.56
346.397	398.56
346.625	408.56
346.853	411.56
347.08	391.56
347.308	421.56
347.535	400.56
347.763	396.56
347.99	384.56
348.218	390.56
348.445	404.56
348.673	412.56
348.9	386.56
349.128	405.56
349.355	371.56
349.583	378.56
349.81	395.56
350.037	386.56
350.265	381.56
350.492	358.56
350.72	374.56
350.947	373.56
351.174	378.56
351.402	398.56
351.629	380.56
351.856	381.56
352.083	369.56
352.311	392.56
352.538	391.56
352.765	392.56
352.992	396.56
353.22	370.56
353.447	386.56
353.674	354.56
353.901	374.56
354.128	363.56
354.355	382.56
354.583	372.56
354.81	378.56
355.037	358.56
355.264	354.56
355.491	356.56
355.718	345.56
355.945	347.56
356.172	352.56
356.399	360.56
356.626	359.56
356.853	370.56
357.08	357.56
357.307	374.56
357.534	372.56
357.761	353.56
357.988	350.56
358.215	358.56
358.441	363.56
358.668	339.56
358.895	358.56
359.122	359.56
359.349	396.56
359.576	375.56
359.802	414.56
360.029	394.56
360.256	404.56
360.483	379.56
360.709	397.56
360.936	382.56
361.163	373.56
361.39	381.56
361.616	383.56
361.843	365.56
362.07	380.56
362.296	398.56
362.523	388.56
362.749	377.56
362.976	368.56
363.203	376.56
363.429	361.56
363.656	380.56
363.882	353.56
364.109	369.56
364.335	378.56
364.562	356.56
364.788	364.56
365.015	355.56
365.241	363.56
365.468	356.56
365.694	358.56
365.92	354.56
366.147	354.56
366.373	351.56
366.599	335.56
366.826	368.56
367.052	353.56
367.278	340.56
367.505	361.56
367.731	347.56
367.957	346.56
368.184	358.56
368.41	370.56
368.636	380.56
368.862	363.56
369.089	365.56
369.315	364.56
369.541	354.56
369.767	347.56
369.993	351.56
370.219	350.56
370.445	348.56
370.672	352.56
370.898	360.56
371.124	361.56
371.35	363.56
371.576	348.56
371.802	354.56
372.028	346.56
372.254	345.56
372.48	380.56
372.706	370.56
372.932	352.56
373.158	361.56
373.384	362.56
373.61	363.56
373.835	361.56
374.061	368.56
374.287	337.56
374.513	352.56
374.739	360.56
374.965	356.56
375.191	357.56
375.416	365.56
375.642	350.56
375.868	362.56
376.094	347.56
376.319	349.56
376.545	363.56
376.771	349.56
376.997	361.56
377.222	350.56
377.448	353.56
377.674	344.56
377.899	341.56
378.125	350.56
378.35	326.56
378.576	349.56
378.802	339.56
379.027	331.56
379.253	348.56
379.478	341.56
379.704	362.56
379.929	356.56
380.155	342.56
380.38	341.56
380.606	355.56
380.831	336.56
381.057	373.56
381.282	357.56
381.507	352.56
381.733	342.56
381.958	345.56
382.184	340.56
382.409	349.56
382.634	362.56
382.86	347.56
383.085	352.56
383.31	334.56
383.535	336.56
383.761	338.56
383.986	361.56
384.211	357.56
384.436	347.56
384.662	355.56
384.887	364.56
385.112	374.56
385.337	370.56
385.562	370.56
385.787	369.56
386.013	373.56
386.238	362.56
386.463	374.56
386.688	370.56
386.913	378.56
387.138	380.56
387.363	364.56
387.588	371.56
387.813	369.56
388.038	374.56
388.263	371.56
388.488	355.56
388.713	355.56
388.938	377.56
389.163	375.56
389.387	376.56
389.612	365.56
389.837	352.56
390.062	364.56
390.287	370.56
390.512	374.56
390.736	343.56
390.961	351.56
391.186	347.56
391.411	381.56
391.636	371.56
391.86	375.56
392.085	388.56
392.31	376.56
392.534	375.56
392.759	375.56
392.984	372.56
393.208	348.56
393.433	355.56
393.658	376.56
393.882	352.56
394.107	365.56
394.331	360.56
394.556	361.56
394.78	364.56
395.005	365.56
395.229	356.56
395.454	348.56
395.678	400.56
395.903	398.56
396.127	401.56
396.352	391.56
396.576	382.56
396.801	370.56
397.025	380.56
397.249	365.56
397.474	389.56
397.698	378.56
397.922	390.56
398.147	394.56
398.371	380.56
398.595	408.56
398.82	390.56
399.044	418.56
399.268	427.56
399.492	437.56
399.717	464.56
399.941	487.56
400.165	493.56
400.389	492.56
400.613	441.56
400.837	430.56
401.062	425.56
401.286	389.56
401.51	393.56
401.734	398.56
401.958	418.56
402.182	411.56
402.406	418.56
402.63	406.56
402.854	422.56
403.078	415.56
403.302	406.56
403.526	433.56
403.75	427.56
403.974	404.56
404.198	416.56
404.422	417.56
404.645	425.56
404.869	411.56
405.093	429.56
405.317	459.56
405.541	492.56
405.765	466.56
405.988	456.56
406.212	442.56
406.436	462.56
406.66	450.56
406.883	424.56
407.107	473.56
407.331	496.56
407.555	546.56
407.778	531.56
408.002	506.56
408.226	465.56
408.449	479.56
408.673	443.56
408.896	475.56
409.12	501.56
409.344	474.56
409.567	453.56
409.791	444.56
410.014	425.56
410.238	429.56
410.461	414.56
410.685	432.56
410.908	416.56
411.132	442.56
411.355	475.56
411.578	461.56
411.802	423.56
412.025	421.56
412.249	427.56
412.472	442.56
412.695	466.56
412.919	461.56
413.142	439.56
413.365	416.56
413.589	412.56
413.812	416.56
414.035	400.56
414.258	389.56
414.482	397.56
414.705	398.56
414.928	384.56
415.151	392.56
415.374	394.56
415.597	395.56
415.821	381.56
416.044	397.56
416.267	392.56
416.49	378.56
416.713	403.56
416.936	390.56
417.159	403.56
417.382	409.56
417.605	400.56
417.828	396.56
418.051	434.56
418.274	398.56
418.497	399.56
418.72	392.56
418.943	396.56
419.166	410.56
419.389	405.56
419.611	422.56
419.834	409.56
420.057	428.56
420.28	434.56
420.503	402.56
420.726	406.56
420.948	448.56
421.171	453.56
421.394	466.56
421.617	436.56
421.839	428.56
422.062	437.56
422.285	417.56
422.507	477.56
422.73	542.56
422.953	494.56
423.175	466.56
423.398	444.56
423.621	432.56
423.843	443.56
424.066	451.56
424.288	435.56
424.511	470.56
424.733	524.56
424.956	582.56
425.178	518.56
425.401	554.56
425.623	554.56
425.846	482.56
426.068	466.56
426.291	440.56
426.513	426.56
426.735	468.56
426.958	493.56
427.18	564.56
427.402	640.56
427.625	702.56
427.847	615.56
428.069	530.56
428.292	482.56
428.514	436.56
428.736	415.56
428.958	427.56
429.181	404.56
429.403	410.56
429.625	428.56
429.847	454.56
430.069	486.56
430.292	474.56
430.514	412.56
430.736	423.56
430.958	415.56
431.18	387.56
431.402	374.56
431.624	374.56
431.846	365.56
432.068	377.56
432.29	384.56
432.512	374.56
432.734	389.56
432.956	371.56
433.178	390.56
433.4	399.56
433.622	399.56
433.844	378.56
434.066	397.56
434.287	372.56
434.509	394.56
434.731	393.56
434.953	390.56
435.175	407.56
435.397	436.56
435.618	437.56
435.84	479.56
436.062	536.56
436.284	599.56
436.505	517.56
436.727	450.56
436.949	432.56
437.17	422.56
437.392	404.56
437.614	413.56
437.835	419.56
438.057	529.56
438.278	594.56
438.5	590.56
438.721	656.56
438.943	609.56
439.165	494.56
439.386	462.56
439.608	437.56
439.829	468.56
440.05	472.56
440.272	523.56
440.493	468.56
440.715	418.56
440.936	432.56
441.158	408.56
441.379	424.56
441.6	428.56
441.822	430.56
442.043	484.56
442.264	538.56
442.486	556.56
442.707	485.56
442.928	446.56
443.149	480.56
443.371	466.56
443.592	502.56
443.813	596.56
444.034	604.56
444.255	518.56
444.476	451.56
444.698	448.56
444.919	440.56
445.14	583.56
445.361	520.56
445.582	481.56
445.803	531.56
446.024	613.56
446.245	604.56
446.466	544.56
446.687	474.56
446.908	442.56
447.129	408.56
447.35	412.56
447.571	406.56
447.792	405.56
448.013	427.56
448.234	423.56
448.455	492.56
448.675	574.56
448.896	652.56
449.117	570.56
449.338	522.56
449.559	610.56
449.779	657.56
450	542.56
450.221	475.56
450.442	420.56
450.662	413.56
450.883	411.56
451.104	401.56
451.324	399.56
451.545	391.56
451.766	392.56
451.986	368.56
452.207	356.56
452.428	372.56
452.648	370.56
452.869	354.56
453.089	368.56
453.31	374.56
453.53	371.56
453.751	355.56
453.971	360.56
454.192	365.56
454.412	354.56
454.633	369.56
454.853	336.56
455.073	384.56
455.294	392.56
455.514	441.56
455.734	402.56
455.955	368.56
456.175	356.56
456.395	360.56
456.616	347.56
456.836	332.56
457.056	321.56
457.276	328.56
457.497	348.56
457.717	349.56
457.937	331.56
458.157	336.56
458.377	351.56
458.598	364.56
458.818	408.56
459.038	484.56
459.258	462.56
459.478	418.56
459.698	396.56
459.918	394.56
460.138	363.56
460.358	369.56
460.578	363.56
460.798	373.56
461.018	390.56
461.238	380.56
461.458	392.56
461.678	377.56
461.898	388.56
462.118	398.56
462.338	401.56
462.558	392.56
462.777	386.56
462.997	395.56
463.217	381.56
463.437	417.56
463.657	414.56
463.876	405.56
464.096	400.56
464.316	390.56
464.536	412.56
464.755	416.56
464.975	396.56
465.195	439.56
465.414	482.56
465.634	439.56
465.854	432.56
466.073	387.56
466.293	384.56
466.512	379.56
466.732	364.56
466.951	351.56
467.171	368.56
467.391	372.56
467.61	368.56
467.829	408.56
468.049	368.56
468.268	373.56
468.488	366.56
468.707	353.56
468.927	348.56
469.146	358.56
469.365	365.56
469.585	361.56
469.804	376.56
470.023	384.56
470.243	370.56
470.462	380.56
470.681	399.56
470.901	387.56
471.12	372.56
471.339	364.56
471.558	387.56
471.777	392.56
471.997	391.56
472.216	395.56
472.435	380.56
472.654	388.56
472.873	365.56
473.092	377.56
473.311	361.56
473.53	377.56
473.749	396.56
473.968	419.56
474.187	499.56
474.406	513.56
474.625	440.56
474.844	381.56
475.063	374.56
475.282	393.56
475.501	372.56
475.72	392.56
475.939	393.56
476.158	389.56
476.377	390.56
476.596	385.56
476.814	384.56
477.033	392.56
477.252	391.56
477.471	405.56
477.69	390.56
477.908	408.56
478.127	392.56
478.346	418.56
478.564	422.56
478.783	414.56
479.002	425.56
479.22	436.56
479.439	441.56
479.658	429.56
479.876	457.56
480.095	443.56
480.313	492.56
480.532	473.56
480.751	451.56
480.969	456.56
481.188	478.56
481.406	500.56
481.624	487.56
481.843	436.56
482.061	431.56
482.28	458.56
482.498	420.56
482.717	430.56
482.935	437.56
483.153	440.56
483.372	430.56
483.59	434.56
483.808	428.56
484.027	450.56
484.245	437.56
484.463	424.56
484.681	458.56
484.9	440.56
485.118	439.56
485.336	445.56
485.554	429.56
485.772	427.56
485.99	438.56
486.209	441.56
486.427	441.56
486.645	451.56
486.863	472.56
487.081	466.56
487.299	450.56
487.517	468.56
487.735	468.56
487.953	478.56
488.171	465.56
488.389	459.56
488.607	457.56
488.825	458.56
489.043	472.56
489.261	453.56
489.479	457.56
489.696	481.56
489.914	500.56
490.132	470.56
490.35	482.56
490.568	453.56
490.786	489.56
491.003	514.56
491.221	529.56
491.439	534.56
491.657	530.56
491.874	516.56
492.092	521.56
492.31	541.56
492.527	549.56
492.745	539.56
492.963	534.56
493.18	541.56
493.398	569.56
493.615	582.56
493.833	536.56
494.05	556.56
494.268	553.56
494.485	559.56
494.703	537.56
494.92	540.56
495.138	557.56
495.355	558.56
495.573	561.56
495.79	554.56
496.008	560.56
496.225	544.56
496.442	544.56
496.66	557.56
496.877	555.56
497.094	557.56
497.312	562.56
497.529	578.56
497.746	589.56
497.963	547.56
498.181	589.56
498.398	600.56
498.615	607.56
498.832	594.56
499.049	619.56
499.267	613.56
499.484	639.56
499.701	666.56
499.918	682.56
500.135	686.56
500.352	710.56
500.569	745.56
500.786	729.56
501.003	702.56
501.22	697.56
501.437	675.56
501.654	676.56
501.871	690.56
502.088	666.56
