Data from 1971.PennyLincolnUp.Lamp.En5.5.200Scan.071719.P1._HRD10591_15-20-27-841.txt Node
Date: Thu Jul 18 15:20:27 EDT 2019
User: cochatt
Spectrometer: HR+D1059
Trigger mode: 1
Integration Time (sec): 1.000000E-1
Scans to average: 1
Electric dark correction enabled: true
Nonlinearity correction enabled: false
Boxcar width: 0
XAxis mode: Wavelengths
Number of Pixels in Spectrum: 2048
>>>>>Begin Spectral Data<<<<<
223.165	-21.56
223.4	-21.56
223.635	-21.56
223.869	-5.56
224.104	-22.56
224.338	-26.56
224.573	-19.56
224.808	-9.56
225.042	-18.56
225.277	-6.56
225.511	6.44
225.746	9.44
225.98	12.44
226.215	5.44
226.449	14.44
226.683	23.44
226.918	26.44
227.152	32.44
227.387	37.44
227.621	51.44
227.856	37.44
228.09	54.44
228.324	59.44
228.559	58.44
228.793	77.44
229.027	94.44
229.262	103.44
229.496	100.44
229.73	116.44
229.964	144.44
230.199	114.44
230.433	110.44
230.667	103.44
230.901	90.44
231.136	105.44
231.37	113.44
231.604	109.44
231.838	91.44
232.072	105.44
232.306	110.44
232.541	107.44
232.775	102.44
233.009	112.44
233.243	103.44
233.477	111.44
233.711	107.44
233.945	118.44
234.179	124.44
234.413	121.44
234.647	116.44
234.881	122.44
235.115	105.44
235.349	95.44
235.583	129.44
235.817	111.44
236.051	130.44
236.285	118.44
236.519	126.44
236.753	146.44
236.987	135.44
237.221	176.44
237.455	231.44
237.689	165.44
237.922	135.44
238.156	125.44
238.39	143.44
238.624	135.44
238.858	119.44
239.091	132.44
239.325	123.44
239.559	107.44
239.793	131.44
240.027	147.44
240.26	131.44
240.494	164.44
240.728	138.44
240.961	147.44
241.195	124.44
241.429	152.44
241.662	140.44
241.896	140.44
242.13	150.44
242.363	148.44
242.597	128.44
242.83	119.44
243.064	138.44
243.298	125.44
243.531	138.44
243.765	147.44
243.998	132.44
244.232	151.44
244.465	146.44
244.699	142.44
244.932	148.44
245.166	143.44
245.399	155.44
245.633	142.44
245.866	152.44
246.099	150.44
246.333	173.44
246.566	150.44
246.8	156.44
247.033	154.44
247.266	160.44
247.5	172.44
247.733	186.44
247.966	179.44
248.2	171.44
248.433	167.44
248.666	179.44
248.899	191.44
249.133	213.44
249.366	207.44
249.599	201.44
249.832	199.44
250.066	182.44
250.299	201.44
250.532	191.44
250.765	212.44
250.998	229.44
251.231	226.44
251.465	224.44
251.698	210.44
251.931	204.44
252.164	199.44
252.397	216.44
252.63	211.44
252.863	216.44
253.096	219.44
253.329	235.44
253.562	237.44
253.795	227.44
254.028	214.44
254.261	242.44
254.494	247.44
254.727	278.44
254.96	283.44
255.193	270.44
255.426	272.44
255.659	238.44
255.892	246.44
256.124	236.44
256.357	232.44
256.59	229.44
256.823	220.44
257.056	217.44
257.289	226.44
257.521	227.44
257.754	228.44
257.987	213.44
258.22	234.44
258.452	225.44
258.685	220.44
258.918	231.44
259.151	214.44
259.383	225.44
259.616	204.44
259.849	234.44
260.081	247.44
260.314	260.44
260.547	286.44
260.779	269.44
261.012	235.44
261.244	224.44
261.477	244.44
261.71	232.44
261.942	224.44
262.175	231.44
262.407	244.44
262.64	231.44
262.872	216.44
263.105	216.44
263.337	209.44
263.57	226.44
263.802	228.44
264.035	214.44
264.267	235.44
264.499	227.44
264.732	240.44
264.964	228.44
265.197	215.44
265.429	246.44
265.661	223.44
265.894	200.44
266.126	225.44
266.358	237.44
266.591	224.44
266.823	233.44
267.055	238.44
267.287	242.44
267.52	240.44
267.752	243.44
267.984	242.44
268.216	250.44
268.448	233.44
268.681	252.44
268.913	246.44
269.145	264.44
269.377	291.44
269.609	286.44
269.841	292.44
270.073	286.44
270.306	309.44
270.538	324.44
270.77	320.44
271.002	319.44
271.234	304.44
271.466	317.44
271.698	328.44
271.93	339.44
272.162	338.44
272.394	338.44
272.626	312.44
272.858	306.44
273.09	284.44
273.322	295.44
273.553	295.44
273.785	277.44
274.017	279.44
274.249	284.44
274.481	262.44
274.713	265.44
274.945	259.44
275.176	286.44
275.408	280.44
275.64	270.44
275.872	291.44
276.104	281.44
276.335	274.44
276.567	284.44
276.799	288.44
277.031	306.44
277.262	328.44
277.494	318.44
277.726	324.44
277.957	289.44
278.189	308.44
278.421	296.44
278.652	291.44
278.884	278.44
279.115	261.44
279.347	278.44
279.579	284.44
279.81	283.44
280.042	297.44
280.273	268.44
280.505	285.44
280.736	292.44
280.968	280.44
281.199	283.44
281.431	301.44
281.662	277.44
281.894	274.44
282.125	280.44
282.356	315.44
282.588	313.44
282.819	321.44
283.051	289.44
283.282	299.44
283.513	297.44
283.745	308.44
283.976	293.44
284.207	287.44
284.439	302.44
284.67	285.44
284.901	300.44
285.132	283.44
285.364	306.44
285.595	299.44
285.826	292.44
286.057	303.44
286.288	288.44
286.52	279.44
286.751	298.44
286.982	293.44
287.213	302.44
287.444	302.44
287.675	314.44
287.906	322.44
288.138	312.44
288.369	301.44
288.6	307.44
288.831	310.44
289.062	310.44
289.293	306.44
289.524	298.44
289.755	290.44
289.986	309.44
290.217	298.44
290.448	311.44
290.679	284.44
290.91	286.44
291.141	311.44
291.371	299.44
291.602	300.44
291.833	298.44
292.064	306.44
292.295	297.44
292.526	323.44
292.757	291.44
292.987	303.44
293.218	300.44
293.449	314.44
293.68	306.44
293.91	311.44
294.141	290.44
294.372	297.44
294.603	311.44
294.833	312.44
295.064	302.44
295.295	314.44
295.525	307.44
295.756	315.44
295.987	307.44
296.217	309.44
296.448	340.44
296.679	322.44
296.909	308.44
297.14	314.44
297.37	316.44
297.601	311.44
297.831	311.44
298.062	310.44
298.292	299.44
298.523	329.44
298.753	326.44
298.984	314.44
299.214	315.44
299.445	326.44
299.675	314.44
299.905	315.44
300.136	334.44
300.366	322.44
300.597	315.44
300.827	329.44
301.057	332.44
301.288	336.44
301.518	327.44
301.748	327.44
301.979	323.44
302.209	333.44
302.439	361.44
302.669	357.44
302.9	334.44
303.13	331.44
303.36	344.44
303.59	338.44
303.82	342.44
304.051	351.44
304.281	336.44
304.511	343.44
304.741	339.44
304.971	337.44
305.201	348.44
305.431	339.44
305.661	337.44
305.891	341.44
306.121	326.44
306.352	336.44
306.582	335.44
306.812	352.44
307.042	327.44
307.272	317.44
307.502	357.44
307.731	365.44
307.961	357.44
308.191	348.44
308.421	350.44
308.651	354.44
308.881	339.44
309.111	344.44
309.341	340.44
309.571	361.44
309.8	363.44
310.03	379.44
310.26	393.44
310.49	381.44
310.72	396.44
310.949	409.44
311.179	396.44
311.409	389.44
311.639	366.44
311.868	386.44
312.098	394.44
312.328	395.44
312.557	412.44
312.787	420.44
313.017	402.44
313.246	392.44
313.476	382.44
313.706	408.44
313.935	379.44
314.165	400.44
314.394	418.44
314.624	400.44
314.853	400.44
315.083	411.44
315.312	374.44
315.542	397.44
315.771	380.44
316.001	374.44
316.23	376.44
316.46	383.44
316.689	400.44
316.919	386.44
317.148	400.44
317.377	407.44
317.607	395.44
317.836	392.44
318.065	387.44
318.295	386.44
318.524	390.44
318.753	365.44
318.983	407.44
319.212	400.44
319.441	399.44
319.67	411.44
319.9	404.44
320.129	394.44
320.358	380.44
320.587	392.44
320.816	412.44
321.046	414.44
321.275	406.44
321.504	410.44
321.733	426.44
321.962	436.44
322.191	420.44
322.42	432.44
322.649	452.44
322.878	458.44
323.108	468.44
323.337	513.44
323.566	510.44
323.795	549.44
324.024	605.44
324.253	722.44
324.482	991.44
324.71	1516.44
324.939	2010.44
325.168	1690.44
325.397	891.44
325.626	634.44
325.855	544.44
326.084	522.44
326.313	507.44
326.542	530.44
326.77	543.44
326.999	654.44
327.228	911.44
327.457	1304.44
327.686	1500.44
327.914	1020.44
328.143	678.44
328.372	626.44
328.6	575.44
328.829	551.44
329.058	569.44
329.287	559.44
329.515	546.44
329.744	506.44
329.972	503.44
330.201	526.44
330.43	564.44
330.658	568.44
330.887	581.44
331.115	583.44
331.344	524.44
331.572	478.44
331.801	472.44
332.03	482.44
332.258	474.44
332.486	477.44
332.715	442.44
332.943	456.44
333.172	444.44
333.4	464.44
333.629	467.44
333.857	501.44
334.085	492.44
334.314	501.44
334.542	539.44
334.771	524.44
334.999	501.44
335.227	469.44
335.455	475.44
335.684	448.44
335.912	439.44
336.14	461.44
336.369	451.44
336.597	442.44
336.825	468.44
337.053	430.44
337.281	452.44
337.51	442.44
337.738	432.44
337.966	455.44
338.194	449.44
338.422	422.44
338.65	440.44
338.878	435.44
339.106	422.44
339.334	423.44
339.562	399.44
339.79	417.44
340.018	430.44
340.246	435.44
340.474	448.44
340.702	442.44
340.93	415.44
341.158	428.44
341.386	427.44
341.614	440.44
341.842	434.44
342.07	427.44
342.298	420.44
342.526	421.44
342.754	420.44
342.981	416.44
343.209	416.44
343.437	417.44
343.665	427.44
343.893	436.44
344.12	439.44
344.348	424.44
344.576	440.44
344.804	452.44
345.031	420.44
345.259	446.44
345.487	434.44
345.714	422.44
345.942	421.44
346.17	400.44
346.397	414.44
346.625	406.44
346.853	426.44
347.08	400.44
347.308	403.44
347.535	395.44
347.763	430.44
347.99	406.44
348.218	421.44
348.445	412.44
348.673	400.44
348.9	406.44
349.128	395.44
349.355	419.44
349.583	393.44
349.81	378.44
350.037	390.44
350.265	404.44
350.492	376.44
350.72	398.44
350.947	395.44
351.174	408.44
351.402	410.44
351.629	410.44
351.856	398.44
352.083	395.44
352.311	387.44
352.538	415.44
352.765	403.44
352.992	404.44
353.22	410.44
353.447	396.44
353.674	399.44
353.901	362.44
354.128	383.44
354.355	380.44
354.583	374.44
354.81	400.44
355.037	388.44
355.264	377.44
355.491	377.44
355.718	387.44
355.945	374.44
356.172	380.44
356.399	371.44
356.626	380.44
356.853	377.44
357.08	356.44
357.307	388.44
357.534	397.44
357.761	379.44
357.988	353.44
358.215	370.44
358.441	380.44
358.668	365.44
358.895	384.44
359.122	355.44
359.349	389.44
359.576	394.44
359.802	416.44
360.029	436.44
360.256	434.44
360.483	411.44
360.709	397.44
360.936	404.44
361.163	390.44
361.39	394.44
361.616	386.44
361.843	405.44
362.07	411.44
362.296	380.44
362.523	395.44
362.749	371.44
362.976	371.44
363.203	366.44
363.429	370.44
363.656	379.44
363.882	387.44
364.109	386.44
364.335	390.44
364.562	379.44
364.788	357.44
365.015	373.44
365.241	347.44
365.468	377.44
365.694	364.44
365.92	367.44
366.147	365.44
366.373	375.44
366.599	365.44
366.826	372.44
367.052	378.44
367.278	363.44
367.505	357.44
367.731	375.44
367.957	367.44
368.184	358.44
368.41	374.44
368.636	408.44
368.862	385.44
369.089	394.44
369.315	380.44
369.541	368.44
369.767	364.44
369.993	358.44
370.219	374.44
370.445	346.44
370.672	358.44
370.898	343.44
371.124	364.44
371.35	366.44
371.576	367.44
371.802	371.44
372.028	373.44
372.254	363.44
372.48	359.44
372.706	370.44
372.932	372.44
373.158	375.44
373.384	365.44
373.61	374.44
373.835	386.44
374.061	384.44
374.287	346.44
374.513	365.44
374.739	359.44
374.965	369.44
375.191	350.44
375.416	367.44
375.642	354.44
375.868	356.44
376.094	361.44
376.319	378.44
376.545	368.44
376.771	362.44
376.997	349.44
377.222	378.44
377.448	359.44
377.674	370.44
377.899	340.44
378.125	381.44
378.35	361.44
378.576	347.44
378.802	331.44
379.027	360.44
379.253	362.44
379.478	360.44
379.704	360.44
379.929	349.44
380.155	362.44
380.38	358.44
380.606	366.44
380.831	365.44
381.057	378.44
381.282	365.44
381.507	357.44
381.733	359.44
381.958	351.44
382.184	354.44
382.409	363.44
382.634	356.44
382.86	351.44
383.085	366.44
383.31	364.44
383.535	362.44
383.761	357.44
383.986	379.44
384.211	376.44
384.436	367.44
384.662	368.44
384.887	374.44
385.112	375.44
385.337	380.44
385.562	374.44
385.787	387.44
386.013	396.44
386.238	366.44
386.463	365.44
386.688	377.44
386.913	372.44
387.138	386.44
387.363	370.44
387.588	371.44
387.813	398.44
388.038	377.44
388.263	359.44
388.488	370.44
388.713	382.44
388.938	356.44
389.163	385.44
389.387	390.44
389.612	373.44
389.837	359.44
390.062	374.44
390.287	389.44
390.512	384.44
390.736	371.44
390.961	374.44
391.186	377.44
391.411	370.44
391.636	378.44
391.86	392.44
392.085	386.44
392.31	399.44
392.534	360.44
392.759	408.44
392.984	387.44
393.208	383.44
393.433	372.44
393.658	369.44
393.882	366.44
394.107	386.44
394.331	365.44
394.556	367.44
394.78	371.44
395.005	374.44
395.229	379.44
395.454	370.44
395.678	396.44
395.903	395.44
396.127	401.44
396.352	415.44
396.576	396.44
396.801	396.44
397.025	390.44
397.249	384.44
397.474	377.44
397.698	394.44
397.922	420.44
398.147	414.44
398.371	402.44
398.595	431.44
398.82	416.44
399.044	424.44
399.268	430.44
399.492	448.44
399.717	455.44
399.941	482.44
400.165	524.44
400.389	518.44
400.613	494.44
400.837	458.44
401.062	457.44
401.286	434.44
401.51	426.44
401.734	408.44
401.958	405.44
402.182	437.44
402.406	447.44
402.63	437.44
402.854	444.44
403.078	418.44
403.302	438.44
403.526	427.44
403.75	434.44
403.974	426.44
404.198	430.44
404.422	452.44
404.645	422.44
404.869	445.44
405.093	467.44
405.317	468.44
405.541	533.44
405.765	484.44
405.988	436.44
406.212	447.44
406.436	456.44
406.66	492.44
406.883	490.44
407.107	486.44
407.331	511.44
407.555	570.44
407.778	561.44
408.002	507.44
408.226	471.44
408.449	514.44
408.673	488.44
408.896	487.44
409.12	521.44
409.344	518.44
409.567	486.44
409.791	423.44
410.014	428.44
410.238	428.44
410.461	426.44
410.685	453.44
410.908	440.44
411.132	476.44
411.355	517.44
411.578	488.44
411.802	450.44
412.025	421.44
412.249	440.44
412.472	460.44
412.695	488.44
412.919	468.44
413.142	441.44
413.365	407.44
413.589	414.44
413.812	422.44
414.035	410.44
414.258	406.44
414.482	416.44
414.705	419.44
414.928	410.44
415.151	421.44
415.374	392.44
415.597	400.44
415.821	430.44
416.044	410.44
416.267	420.44
416.49	416.44
416.713	396.44
416.936	398.44
417.159	388.44
417.382	397.44
417.605	408.44
417.828	427.44
418.051	447.44
418.274	429.44
418.497	414.44
418.72	396.44
418.943	423.44
419.166	427.44
419.389	463.44
419.611	431.44
419.834	414.44
420.057	424.44
420.28	427.44
420.503	417.44
420.726	422.44
420.948	424.44
421.171	453.44
421.394	502.44
421.617	461.44
421.839	430.44
422.062	431.44
422.285	439.44
422.507	505.44
422.73	552.44
422.953	539.44
423.175	459.44
423.398	447.44
423.621	464.44
423.843	468.44
424.066	482.44
424.288	461.44
424.511	490.44
424.733	526.44
424.956	588.44
425.178	553.44
425.401	555.44
425.623	570.44
425.846	503.44
426.068	452.44
426.291	479.44
426.513	462.44
426.735	469.44
426.958	518.44
427.18	575.44
427.402	657.44
427.625	734.44
427.847	632.44
428.069	557.44
428.292	528.44
428.514	477.44
428.736	444.44
428.958	431.44
429.181	428.44
429.403	423.44
429.625	447.44
429.847	456.44
430.069	498.44
430.292	533.44
430.514	427.44
430.736	416.44
430.958	415.44
431.18	399.44
431.402	414.44
431.624	402.44
431.846	392.44
432.068	392.44
432.29	390.44
432.512	400.44
432.734	381.44
432.956	400.44
433.178	406.44
433.4	421.44
433.622	423.44
433.844	402.44
434.066	401.44
434.287	403.44
434.509	390.44
434.731	404.44
434.953	429.44
435.175	435.44
435.397	438.44
435.618	468.44
435.84	514.44
436.062	580.44
436.284	629.44
436.505	533.44
436.727	467.44
436.949	442.44
437.17	424.44
437.392	409.44
437.614	444.44
437.835	459.44
438.057	559.44
438.278	626.44
438.5	628.44
438.721	676.44
438.943	634.44
439.165	547.44
439.386	471.44
439.608	478.44
439.829	480.44
440.05	501.44
440.272	543.44
440.493	488.44
440.715	456.44
440.936	424.44
441.158	440.44
441.379	430.44
441.6	437.44
441.822	455.44
442.043	512.44
442.264	576.44
442.486	574.44
442.707	489.44
442.928	477.44
443.149	468.44
443.371	513.44
443.592	536.44
443.813	608.44
444.034	638.44
444.255	539.44
444.476	491.44
444.698	463.44
444.919	442.44
445.14	533.44
445.361	514.44
445.582	525.44
445.803	552.44
446.024	624.44
446.245	643.44
446.466	586.44
446.687	505.44
446.908	459.44
447.129	450.44
447.35	419.44
447.571	417.44
447.792	399.44
448.013	435.44
448.234	428.44
448.455	492.44
448.675	600.44
448.896	666.44
449.117	578.44
449.338	563.44
449.559	638.44
449.779	682.44
450	572.44
450.221	465.44
450.442	430.44
450.662	391.44
450.883	419.44
451.104	441.44
451.324	422.44
451.545	431.44
451.766	399.44
451.986	397.44
452.207	379.44
452.428	367.44
452.648	363.44
452.869	372.44
453.089	398.44
453.31	406.44
453.53	376.44
453.751	382.44
453.971	391.44
454.192	395.44
454.412	395.44
454.633	368.44
454.853	369.44
455.073	372.44
455.294	413.44
455.514	460.44
455.734	440.44
455.955	382.44
456.175	352.44
456.395	357.44
456.616	350.44
456.836	352.44
457.056	348.44
457.276	349.44
457.497	358.44
457.717	362.44
457.937	346.44
458.157	362.44
458.377	368.44
458.598	390.44
458.818	422.44
459.038	443.44
459.258	500.44
459.478	422.44
459.698	380.44
459.918	398.44
460.138	402.44
460.358	360.44
460.578	366.44
460.798	392.44
461.018	408.44
461.238	389.44
461.458	382.44
461.678	368.44
461.898	378.44
462.118	397.44
462.338	388.44
462.558	390.44
462.777	400.44
462.997	412.44
463.217	415.44
463.437	421.44
463.657	398.44
463.876	416.44
464.096	387.44
464.316	396.44
464.536	397.44
464.755	421.44
464.975	421.44
465.195	444.44
465.414	514.44
465.634	455.44
465.854	423.44
466.073	411.44
466.293	396.44
466.512	372.44
466.732	376.44
466.951	375.44
467.171	368.44
467.391	384.44
467.61	392.44
467.829	406.44
468.049	384.44
468.268	385.44
468.488	382.44
468.707	374.44
468.927	357.44
469.146	366.44
469.365	360.44
469.585	386.44
469.804	380.44
470.023	393.44
470.243	384.44
470.462	378.44
470.681	393.44
470.901	402.44
471.12	397.44
471.339	394.44
471.558	388.44
471.777	390.44
471.997	377.44
472.216	374.44
472.435	388.44
472.654	398.44
472.873	400.44
473.092	365.44
473.311	387.44
473.53	396.44
473.749	414.44
473.968	457.44
474.187	543.44
474.406	544.44
474.625	424.44
474.844	400.44
475.063	377.44
475.282	407.44
475.501	397.44
475.72	402.44
475.939	396.44
476.158	396.44
476.377	413.44
476.596	399.44
476.814	404.44
477.033	421.44
477.252	386.44
477.471	395.44
477.69	421.44
477.908	407.44
478.127	420.44
478.346	422.44
478.564	413.44
478.783	417.44
479.002	442.44
479.22	427.44
479.439	431.44
479.658	456.44
479.876	471.44
480.095	457.44
480.313	483.44
480.532	460.44
480.751	455.44
480.969	442.44
481.188	515.44
481.406	533.44
481.624	491.44
481.843	462.44
482.061	447.44
482.28	466.44
482.498	437.44
482.717	432.44
482.935	430.44
483.153	451.44
483.372	453.44
483.59	446.44
483.808	442.44
484.027	438.44
484.245	444.44
484.463	457.44
484.681	468.44
484.9	470.44
485.118	477.44
485.336	467.44
485.554	468.44
485.772	478.44
485.99	461.44
486.209	464.44
486.427	455.44
486.645	482.44
486.863	486.44
487.081	473.44
487.299	471.44
487.517	487.44
487.735	479.44
487.953	493.44
488.171	483.44
488.389	486.44
488.607	498.44
488.825	469.44
489.043	464.44
489.261	463.44
489.479	480.44
489.696	478.44
489.914	501.44
490.132	509.44
490.35	508.44
490.568	500.44
490.786	500.44
491.003	547.44
491.221	556.44
491.439	544.44
491.657	544.44
491.874	547.44
492.092	579.44
492.31	560.44
492.527	562.44
492.745	564.44
492.963	555.44
493.18	572.44
493.398	572.44
493.615	563.44
493.833	562.44
494.05	548.44
494.268	583.44
494.485	554.44
494.703	572.44
494.92	589.44
495.138	580.44
495.355	576.44
495.573	587.44
495.79	594.44
496.008	597.44
496.225	595.44
496.442	559.44
496.66	573.44
496.877	555.44
497.094	585.44
497.312	572.44
497.529	594.44
497.746	583.44
497.963	593.44
498.181	622.44
498.398	600.44
498.615	615.44
498.832	623.44
499.049	619.44
499.267	617.44
499.484	645.44
499.701	684.44
499.918	689.44
500.135	744.44
500.352	746.44
500.569	752.44
500.786	747.44
501.003	742.44
501.22	724.44
501.437	711.44
501.654	715.44
501.871	698.44
502.088	694.44
