Data from 1971.PennyLincolnUp.Lamp.En5.5.200Scan.071719.P1._HRD10591_15-18-20-841.txt Node
Date: Thu Jul 18 15:18:20 EDT 2019
User: cochatt
Spectrometer: HR+D1059
Trigger mode: 1
Integration Time (sec): 1.000000E-1
Scans to average: 1
Electric dark correction enabled: true
Nonlinearity correction enabled: false
Boxcar width: 0
XAxis mode: Wavelengths
Number of Pixels in Spectrum: 2048
>>>>>Begin Spectral Data<<<<<
223.165	-26.44
223.4	-26.44
223.635	-26.44
223.869	-21.44
224.104	-10.44
224.338	-12.44
224.573	-14.44
224.808	1.56
225.042	-7.44
225.277	-10.44
225.511	-17.44
225.746	-0.44
225.98	-10.44
226.215	18.56
226.449	9.56
226.683	23.56
226.918	36.56
227.152	41.56
227.387	35.56
227.621	47.56
227.856	47.56
228.09	26.56
228.324	43.56
228.559	52.56
228.793	56.56
229.027	91.56
229.262	98.56
229.496	88.56
229.73	115.56
229.964	125.56
230.199	107.56
230.433	104.56
230.667	119.56
230.901	105.56
231.136	103.56
231.37	91.56
231.604	110.56
231.838	114.56
232.072	119.56
232.306	118.56
232.541	108.56
232.775	120.56
233.009	109.56
233.243	103.56
233.477	103.56
233.711	105.56
233.945	118.56
234.179	126.56
234.413	110.56
234.647	90.56
234.881	117.56
235.115	115.56
235.349	109.56
235.583	105.56
235.817	105.56
236.051	125.56
236.285	95.56
236.519	110.56
236.753	119.56
236.987	150.56
237.221	150.56
237.455	190.56
237.689	159.56
237.922	121.56
238.156	121.56
238.39	125.56
238.624	134.56
238.858	117.56
239.091	120.56
239.325	99.56
239.559	118.56
239.793	127.56
240.027	118.56
240.26	134.56
240.494	152.56
240.728	129.56
240.961	147.56
241.195	129.56
241.429	124.56
241.662	129.56
241.896	111.56
242.13	127.56
242.363	133.56
242.597	127.56
242.83	143.56
243.064	144.56
243.298	123.56
243.531	143.56
243.765	150.56
243.998	135.56
244.232	134.56
244.465	131.56
244.699	146.56
244.932	133.56
245.166	151.56
245.399	137.56
245.633	138.56
245.866	140.56
246.099	154.56
246.333	153.56
246.566	141.56
246.8	123.56
247.033	147.56
247.266	157.56
247.5	166.56
247.733	167.56
247.966	157.56
248.2	157.56
248.433	167.56
248.666	169.56
248.899	173.56
249.133	180.56
249.366	193.56
249.599	161.56
249.832	170.56
250.066	165.56
250.299	173.56
250.532	175.56
250.765	193.56
250.998	187.56
251.231	201.56
251.465	203.56
251.698	194.56
251.931	191.56
252.164	178.56
252.397	197.56
252.63	185.56
252.863	201.56
253.096	197.56
253.329	218.56
253.562	201.56
253.795	201.56
254.028	187.56
254.261	218.56
254.494	225.56
254.727	238.56
254.96	248.56
255.193	262.56
255.426	239.56
255.659	222.56
255.892	226.56
256.124	226.56
256.357	217.56
256.59	214.56
256.823	217.56
257.056	204.56
257.289	199.56
257.521	193.56
257.754	207.56
257.987	220.56
258.22	194.56
258.452	199.56
258.685	197.56
258.918	220.56
259.151	197.56
259.383	218.56
259.616	220.56
259.849	210.56
260.081	212.56
260.314	237.56
260.547	240.56
260.779	231.56
261.012	223.56
261.244	217.56
261.477	207.56
261.71	191.56
261.942	211.56
262.175	218.56
262.407	210.56
262.64	181.56
262.872	202.56
263.105	210.56
263.337	214.56
263.57	186.56
263.802	207.56
264.035	211.56
264.267	200.56
264.499	190.56
264.732	200.56
264.964	207.56
265.197	207.56
265.429	229.56
265.661	210.56
265.894	207.56
266.126	206.56
266.358	231.56
266.591	223.56
266.823	203.56
267.055	211.56
267.287	215.56
267.52	207.56
267.752	222.56
267.984	229.56
268.216	204.56
268.448	222.56
268.681	223.56
268.913	235.56
269.145	241.56
269.377	255.56
269.609	256.56
269.841	251.56
270.073	245.56
270.306	280.56
270.538	289.56
270.77	305.56
271.002	283.56
271.234	277.56
271.466	290.56
271.698	297.56
271.93	301.56
272.162	267.56
272.394	275.56
272.626	266.56
272.858	268.56
273.09	270.56
273.322	238.56
273.553	242.56
273.785	260.56
274.017	248.56
274.249	241.56
274.481	248.56
274.713	255.56
274.945	245.56
275.176	252.56
275.408	236.56
275.64	249.56
275.872	259.56
276.104	264.56
276.335	253.56
276.567	247.56
276.799	241.56
277.031	269.56
277.262	289.56
277.494	294.56
277.726	282.56
277.957	268.56
278.189	271.56
278.421	251.56
278.652	267.56
278.884	243.56
279.115	259.56
279.347	247.56
279.579	269.56
279.81	264.56
280.042	254.56
280.273	242.56
280.505	246.56
280.736	249.56
280.968	245.56
281.199	241.56
281.431	249.56
281.662	243.56
281.894	250.56
282.125	243.56
282.356	277.56
282.588	269.56
282.819	274.56
283.051	263.56
283.282	234.56
283.513	261.56
283.745	246.56
283.976	262.56
284.207	270.56
284.439	275.56
284.67	285.56
284.901	235.56
285.132	264.56
285.364	266.56
285.595	257.56
285.826	261.56
286.057	278.56
286.288	279.56
286.52	263.56
286.751	272.56
286.982	267.56
287.213	275.56
287.444	274.56
287.675	279.56
287.906	274.56
288.138	290.56
288.369	272.56
288.6	289.56
288.831	274.56
289.062	270.56
289.293	280.56
289.524	263.56
289.755	265.56
289.986	267.56
290.217	270.56
290.448	280.56
290.679	264.56
290.91	271.56
291.141	277.56
291.371	276.56
291.602	284.56
291.833	276.56
292.064	291.56
292.295	270.56
292.526	288.56
292.757	276.56
292.987	283.56
293.218	275.56
293.449	273.56
293.68	292.56
293.91	285.56
294.141	280.56
294.372	280.56
294.603	277.56
294.833	291.56
295.064	278.56
295.295	280.56
295.525	278.56
295.756	282.56
295.987	281.56
296.217	290.56
296.448	290.56
296.679	299.56
296.909	289.56
297.14	285.56
297.37	294.56
297.601	273.56
297.831	271.56
298.062	297.56
298.292	294.56
298.523	302.56
298.753	306.56
298.984	276.56
299.214	295.56
299.445	291.56
299.675	293.56
299.905	299.56
300.136	283.56
300.366	292.56
300.597	302.56
300.827	311.56
301.057	288.56
301.288	297.56
301.518	314.56
301.748	303.56
301.979	291.56
302.209	308.56
302.439	311.56
302.669	318.56
302.9	308.56
303.13	301.56
303.36	320.56
303.59	297.56
303.82	324.56
304.051	309.56
304.281	312.56
304.511	315.56
304.741	309.56
304.971	305.56
305.201	310.56
305.431	313.56
305.661	331.56
305.891	313.56
306.121	298.56
306.352	321.56
306.582	307.56
306.812	320.56
307.042	309.56
307.272	313.56
307.502	310.56
307.731	310.56
307.961	308.56
308.191	318.56
308.421	302.56
308.651	311.56
308.881	318.56
309.111	311.56
309.341	326.56
309.571	342.56
309.8	327.56
310.03	341.56
310.26	342.56
310.49	320.56
310.72	329.56
310.949	333.56
311.179	372.56
311.409	341.56
311.639	350.56
311.868	352.56
312.098	335.56
312.328	338.56
312.557	379.56
312.787	356.56
313.017	367.56
313.246	341.56
313.476	342.56
313.706	342.56
313.935	339.56
314.165	341.56
314.394	374.56
314.624	350.56
314.853	345.56
315.083	335.56
315.312	358.56
315.542	346.56
315.771	349.56
316.001	343.56
316.23	334.56
316.46	344.56
316.689	338.56
316.919	359.56
317.148	369.56
317.377	369.56
317.607	351.56
317.836	332.56
318.065	329.56
318.295	347.56
318.524	338.56
318.753	344.56
318.983	342.56
319.212	343.56
319.441	370.56
319.67	345.56
319.9	358.56
320.129	369.56
320.358	339.56
320.587	343.56
320.816	377.56
321.046	369.56
321.275	356.56
321.504	373.56
321.733	385.56
321.962	366.56
322.191	383.56
322.42	369.56
322.649	392.56
322.878	406.56
323.108	414.56
323.337	433.56
323.566	446.56
323.795	453.56
324.024	463.56
324.253	585.56
324.482	790.56
324.71	1173.56
324.939	1571.56
325.168	1343.56
325.397	741.56
325.626	552.56
325.855	471.56
326.084	437.56
326.313	433.56
326.542	448.56
326.77	474.56
326.999	567.56
327.228	723.56
327.457	1005.56
327.686	1191.56
327.914	823.56
328.143	576.56
328.372	505.56
328.6	486.56
328.829	466.56
329.058	461.56
329.287	469.56
329.515	453.56
329.744	435.56
329.972	431.56
330.201	449.56
330.43	484.56
330.658	486.56
330.887	507.56
331.115	489.56
331.344	434.56
331.572	434.56
331.801	419.56
332.03	422.56
332.258	426.56
332.486	411.56
332.715	415.56
332.943	397.56
333.172	407.56
333.4	409.56
333.629	414.56
333.857	429.56
334.085	427.56
334.314	429.56
334.542	453.56
334.771	429.56
334.999	439.56
335.227	421.56
335.455	402.56
335.684	417.56
335.912	403.56
336.14	384.56
336.369	406.56
336.597	388.56
336.825	389.56
337.053	397.56
337.281	377.56
337.51	381.56
337.738	394.56
337.966	400.56
338.194	393.56
338.422	403.56
338.65	403.56
338.878	374.56
339.106	392.56
339.334	395.56
339.562	387.56
339.79	373.56
340.018	391.56
340.246	388.56
340.474	378.56
340.702	377.56
340.93	370.56
341.158	382.56
341.386	373.56
341.614	372.56
341.842	374.56
342.07	381.56
342.298	379.56
342.526	375.56
342.754	376.56
342.981	385.56
343.209	377.56
343.437	390.56
343.665	391.56
343.893	382.56
344.12	398.56
344.348	388.56
344.576	377.56
344.804	391.56
345.031	385.56
345.259	391.56
345.487	391.56
345.714	373.56
345.942	360.56
346.17	361.56
346.397	353.56
346.625	372.56
346.853	359.56
347.08	353.56
347.308	341.56
347.535	370.56
347.763	371.56
347.99	372.56
348.218	373.56
348.445	374.56
348.673	378.56
348.9	375.56
349.128	378.56
349.355	366.56
349.583	365.56
349.81	349.56
350.037	356.56
350.265	362.56
350.492	347.56
350.72	369.56
350.947	362.56
351.174	364.56
351.402	376.56
351.629	358.56
351.856	371.56
352.083	374.56
352.311	371.56
352.538	372.56
352.765	376.56
352.992	378.56
353.22	361.56
353.447	355.56
353.674	355.56
353.901	352.56
354.128	343.56
354.355	328.56
354.583	350.56
354.81	340.56
355.037	324.56
355.264	343.56
355.491	324.56
355.718	331.56
355.945	334.56
356.172	347.56
356.399	329.56
356.626	325.56
356.853	332.56
357.08	353.56
357.307	317.56
357.534	339.56
357.761	327.56
357.988	343.56
358.215	339.56
358.441	319.56
358.668	362.56
358.895	339.56
359.122	348.56
359.349	357.56
359.576	363.56
359.802	385.56
360.029	375.56
360.256	383.56
360.483	393.56
360.709	361.56
360.936	350.56
361.163	358.56
361.39	363.56
361.616	349.56
361.843	369.56
362.07	338.56
362.296	369.56
362.523	351.56
362.749	353.56
362.976	348.56
363.203	353.56
363.429	333.56
363.656	342.56
363.882	344.56
364.109	353.56
364.335	340.56
364.562	344.56
364.788	347.56
365.015	333.56
365.241	341.56
365.468	345.56
365.694	357.56
365.92	358.56
366.147	357.56
366.373	361.56
366.599	361.56
366.826	330.56
367.052	339.56
367.278	346.56
367.505	321.56
367.731	327.56
367.957	350.56
368.184	341.56
368.41	355.56
368.636	330.56
368.862	335.56
369.089	359.56
369.315	336.56
369.541	343.56
369.767	342.56
369.993	324.56
370.219	345.56
370.445	329.56
370.672	328.56
370.898	316.56
371.124	330.56
371.35	353.56
371.576	333.56
371.802	343.56
372.028	334.56
372.254	341.56
372.48	332.56
372.706	345.56
372.932	325.56
373.158	310.56
373.384	349.56
373.61	348.56
373.835	350.56
374.061	359.56
374.287	345.56
374.513	341.56
374.739	335.56
374.965	343.56
375.191	331.56
375.416	353.56
375.642	342.56
375.868	343.56
376.094	353.56
376.319	337.56
376.545	322.56
376.771	336.56
376.997	328.56
377.222	329.56
377.448	331.56
377.674	319.56
377.899	342.56
378.125	333.56
378.35	326.56
378.576	320.56
378.802	332.56
379.027	341.56
379.253	333.56
379.478	327.56
379.704	335.56
379.929	324.56
380.155	358.56
380.38	329.56
380.606	332.56
380.831	330.56
381.057	317.56
381.282	324.56
381.507	337.56
381.733	338.56
381.958	330.56
382.184	317.56
382.409	329.56
382.634	334.56
382.86	332.56
383.085	331.56
383.31	347.56
383.535	350.56
383.761	345.56
383.986	337.56
384.211	357.56
384.436	336.56
384.662	348.56
384.887	346.56
385.112	342.56
385.337	341.56
385.562	360.56
385.787	374.56
386.013	359.56
386.238	373.56
386.463	363.56
386.688	349.56
386.913	352.56
387.138	348.56
387.363	365.56
387.588	351.56
387.813	362.56
388.038	367.56
388.263	343.56
388.488	339.56
388.713	348.56
388.938	365.56
389.163	370.56
389.387	373.56
389.612	369.56
389.837	361.56
390.062	354.56
390.287	343.56
390.512	340.56
390.736	344.56
390.961	331.56
391.186	355.56
391.411	354.56
391.636	355.56
391.86	355.56
392.085	346.56
392.31	374.56
392.534	358.56
392.759	363.56
392.984	351.56
393.208	358.56
393.433	357.56
393.658	364.56
393.882	377.56
394.107	364.56
394.331	349.56
394.556	344.56
394.78	346.56
395.005	349.56
395.229	350.56
395.454	355.56
395.678	357.56
395.903	371.56
396.127	406.56
396.352	371.56
396.576	355.56
396.801	367.56
397.025	369.56
397.249	373.56
397.474	388.56
397.698	385.56
397.922	373.56
398.147	382.56
398.371	376.56
398.595	385.56
398.82	370.56
399.044	379.56
399.268	390.56
399.492	411.56
399.717	450.56
399.941	441.56
400.165	462.56
400.389	475.56
400.613	426.56
400.837	427.56
401.062	399.56
401.286	413.56
401.51	371.56
401.734	384.56
401.958	382.56
402.182	386.56
402.406	397.56
402.63	385.56
402.854	376.56
403.078	394.56
403.302	374.56
403.526	391.56
403.75	380.56
403.974	399.56
404.198	401.56
404.422	394.56
404.645	418.56
404.869	397.56
405.093	425.56
405.317	444.56
405.541	462.56
405.765	418.56
405.988	427.56
406.212	428.56
406.436	425.56
406.66	424.56
406.883	441.56
407.107	452.56
407.331	456.56
407.555	545.56
407.778	513.56
408.002	472.56
408.226	446.56
408.449	452.56
408.673	452.56
408.896	454.56
409.12	484.56
409.344	443.56
409.567	414.56
409.791	408.56
410.014	410.56
410.238	402.56
410.461	402.56
410.685	397.56
410.908	419.56
411.132	419.56
411.355	446.56
411.578	452.56
411.802	403.56
412.025	392.56
412.249	396.56
412.472	423.56
412.695	454.56
412.919	409.56
413.142	377.56
413.365	395.56
413.589	389.56
413.812	383.56
414.035	364.56
414.258	385.56
414.482	375.56
414.705	372.56
414.928	366.56
415.151	365.56
415.374	359.56
415.597	354.56
415.821	361.56
416.044	367.56
416.267	382.56
416.49	365.56
416.713	366.56
416.936	367.56
417.159	364.56
417.382	387.56
417.605	374.56
417.828	389.56
418.051	412.56
418.274	390.56
418.497	365.56
418.72	385.56
418.943	355.56
419.166	367.56
419.389	400.56
419.611	393.56
419.834	397.56
420.057	396.56
420.28	387.56
420.503	401.56
420.726	373.56
420.948	407.56
421.171	435.56
421.394	437.56
421.617	422.56
421.839	393.56
422.062	398.56
422.285	410.56
422.507	426.56
422.73	473.56
422.953	476.56
423.175	444.56
423.398	423.56
423.621	403.56
423.843	418.56
424.066	421.56
424.288	426.56
424.511	440.56
424.733	469.56
424.956	526.56
425.178	514.56
425.401	491.56
425.623	506.56
425.846	435.56
426.068	412.56
426.291	423.56
426.513	413.56
426.735	412.56
426.958	465.56
427.18	502.56
427.402	597.56
427.625	644.56
427.847	563.56
428.069	484.56
428.292	445.56
428.514	411.56
428.736	414.56
428.958	407.56
429.181	396.56
429.403	397.56
429.625	405.56
429.847	418.56
430.069	453.56
430.292	452.56
430.514	397.56
430.736	396.56
430.958	385.56
431.18	383.56
431.402	362.56
431.624	363.56
431.846	342.56
432.068	357.56
432.29	369.56
432.512	363.56
432.734	361.56
432.956	372.56
433.178	373.56
433.4	383.56
433.622	356.56
433.844	361.56
434.066	348.56
434.287	361.56
434.509	359.56
434.731	358.56
434.953	380.56
435.175	379.56
435.397	379.56
435.618	413.56
435.84	422.56
436.062	503.56
436.284	527.56
436.505	458.56
436.727	413.56
436.949	389.56
437.17	384.56
437.392	391.56
437.614	389.56
437.835	419.56
438.057	482.56
438.278	540.56
438.5	571.56
438.721	587.56
438.943	573.56
439.165	450.56
439.386	449.56
439.608	426.56
439.829	433.56
440.05	439.56
440.272	451.56
440.493	437.56
440.715	399.56
440.936	410.56
441.158	393.56
441.379	395.56
441.6	402.56
441.822	404.56
442.043	434.56
442.264	514.56
442.486	531.56
442.707	456.56
442.928	435.56
443.149	429.56
443.371	439.56
443.592	474.56
443.813	530.56
444.034	574.56
444.255	491.56
444.476	441.56
444.698	442.56
444.919	437.56
445.14	537.56
445.361	491.56
445.582	443.56
445.803	494.56
446.024	573.56
446.245	565.56
446.466	520.56
446.687	448.56
446.908	410.56
447.129	394.56
447.35	385.56
447.571	379.56
447.792	386.56
448.013	382.56
448.234	396.56
448.455	439.56
448.675	543.56
448.896	586.56
449.117	531.56
449.338	487.56
449.559	562.56
449.779	611.56
450	487.56
450.221	416.56
450.442	399.56
450.662	378.56
450.883	380.56
451.104	386.56
451.324	360.56
451.545	348.56
451.766	370.56
451.986	345.56
452.207	353.56
452.428	343.56
452.648	334.56
452.869	335.56
453.089	347.56
453.31	347.56
453.53	362.56
453.751	345.56
453.971	336.56
454.192	341.56
454.412	357.56
454.633	356.56
454.853	348.56
455.073	332.56
455.294	348.56
455.514	422.56
455.734	383.56
455.955	330.56
456.175	319.56
456.395	319.56
456.616	313.56
456.836	323.56
457.056	317.56
457.276	317.56
457.497	315.56
457.717	308.56
457.937	336.56
458.157	351.56
458.377	341.56
458.598	354.56
458.818	378.56
459.038	423.56
459.258	443.56
459.478	393.56
459.698	361.56
459.918	366.56
460.138	369.56
460.358	351.56
460.578	370.56
460.798	375.56
461.018	369.56
461.238	358.56
461.458	367.56
461.678	349.56
461.898	350.56
462.118	369.56
462.338	371.56
462.558	364.56
462.777	381.56
462.997	378.56
463.217	388.56
463.437	396.56
463.657	402.56
463.876	385.56
464.096	386.56
464.316	387.56
464.536	386.56
464.755	383.56
464.975	393.56
465.195	426.56
465.414	450.56
465.634	409.56
465.854	395.56
466.073	362.56
466.293	362.56
466.512	357.56
466.732	368.56
466.951	350.56
467.171	350.56
467.391	338.56
467.61	351.56
467.829	374.56
468.049	351.56
468.268	367.56
468.488	349.56
468.707	346.56
468.927	343.56
469.146	319.56
469.365	344.56
469.585	339.56
469.804	351.56
470.023	345.56
470.243	362.56
470.462	367.56
470.681	376.56
470.901	346.56
471.12	347.56
471.339	357.56
471.558	357.56
471.777	345.56
471.997	332.56
472.216	354.56
472.435	372.56
472.654	348.56
472.873	353.56
473.092	352.56
473.311	349.56
473.53	381.56
473.749	377.56
473.968	394.56
474.187	458.56
474.406	469.56
474.625	390.56
474.844	360.56
475.063	374.56
475.282	337.56
475.501	342.56
475.72	352.56
475.939	382.56
476.158	378.56
476.377	362.56
476.596	372.56
476.814	370.56
477.033	375.56
477.252	374.56
477.471	374.56
477.69	381.56
477.908	379.56
478.127	386.56
478.346	389.56
478.564	388.56
478.783	389.56
479.002	380.56
479.22	390.56
479.439	408.56
479.658	409.56
479.876	399.56
480.095	442.56
480.313	433.56
480.532	434.56
480.751	442.56
480.969	430.56
481.188	450.56
481.406	434.56
481.624	422.56
481.843	409.56
482.061	407.56
482.28	412.56
482.498	399.56
482.717	408.56
482.935	428.56
483.153	423.56
483.372	405.56
483.59	417.56
483.808	399.56
484.027	426.56
484.245	415.56
484.463	411.56
484.681	420.56
484.9	402.56
485.118	425.56
485.336	405.56
485.554	420.56
485.772	403.56
485.99	407.56
486.209	419.56
486.427	421.56
486.645	426.56
486.863	449.56
487.081	426.56
487.299	418.56
487.517	422.56
487.735	445.56
487.953	436.56
488.171	438.56
488.389	425.56
488.607	430.56
488.825	417.56
489.043	439.56
489.261	457.56
489.479	450.56
489.696	437.56
489.914	430.56
490.132	454.56
490.35	465.56
490.568	454.56
490.786	476.56
491.003	459.56
491.221	469.56
491.439	471.56
491.657	505.56
491.874	503.56
492.092	521.56
492.31	524.56
492.527	498.56
492.745	484.56
492.963	500.56
493.18	513.56
493.398	511.56
493.615	523.56
493.833	520.56
494.05	520.56
494.268	519.56
494.485	527.56
494.703	518.56
494.92	503.56
495.138	523.56
495.355	500.56
495.573	518.56
495.79	516.56
496.008	498.56
496.225	505.56
496.442	509.56
496.66	534.56
496.877	525.56
497.094	547.56
497.312	512.56
497.529	564.56
497.746	532.56
497.963	537.56
498.181	578.56
498.398	571.56
498.615	559.56
498.832	575.56
499.049	582.56
499.267	589.56
499.484	602.56
499.701	614.56
499.918	645.56
500.135	666.56
500.352	667.56
500.569	702.56
500.786	693.56
501.003	680.56
501.22	661.56
501.437	673.56
501.654	629.56
501.871	620.56
502.088	630.56
