Data from 1971.PennyLincolnUp.Lamp.En5.5.200Scan.071719.P1.Scan 2. Changed Angle._HRD10591_15-25-36-843.txt Node
Date: Thu Jul 18 15:25:36 EDT 2019
User: cochatt
Spectrometer: HR+D1059
Trigger mode: 1
Integration Time (sec): 1.000000E-1
Scans to average: 1
Electric dark correction enabled: true
Nonlinearity correction enabled: false
Boxcar width: 0
XAxis mode: Wavelengths
Number of Pixels in Spectrum: 2048
>>>>>Begin Spectral Data<<<<<
223.165	-13.69
223.4	-13.69
223.635	-13.69
223.869	-21.69
224.104	-19.69
224.338	-15.69
224.573	-13.69
224.808	-8.69
225.042	-4.69
225.277	1.31
225.511	-8.69
225.746	4.31
225.98	5.31
226.215	10.31
226.449	19.31
226.683	25.31
226.918	25.31
227.152	15.31
227.387	24.31
227.621	50.31
227.856	58.31
228.09	50.31
228.324	58.31
228.559	70.31
228.793	72.31
229.027	111.31
229.262	111.31
229.496	129.31
229.73	145.31
229.964	197.31
230.199	156.31
230.433	147.31
230.667	130.31
230.901	122.31
231.136	133.31
231.37	120.31
231.604	103.31
231.838	130.31
232.072	122.31
232.306	119.31
232.541	129.31
232.775	125.31
233.009	124.31
233.243	134.31
233.477	121.31
233.711	136.31
233.945	124.31
234.179	126.31
234.413	133.31
234.647	118.31
234.881	124.31
235.115	137.31
235.349	123.31
235.583	117.31
235.817	122.31
236.051	132.31
236.285	139.31
236.519	133.31
236.753	128.31
236.987	153.31
237.221	221.31
237.455	270.31
237.689	223.31
237.922	171.31
238.156	144.31
238.39	153.31
238.624	132.31
238.858	134.31
239.091	137.31
239.325	143.31
239.559	151.31
239.793	137.31
240.027	130.31
240.26	158.31
240.494	184.31
240.728	155.31
240.961	174.31
241.195	155.31
241.429	148.31
241.662	159.31
241.896	141.31
242.13	149.31
242.363	134.31
242.597	162.31
242.83	147.31
243.064	159.31
243.298	149.31
243.531	138.31
243.765	136.31
243.998	152.31
244.232	165.31
244.465	163.31
244.699	149.31
244.932	150.31
245.166	159.31
245.399	142.31
245.633	137.31
245.866	152.31
246.099	150.31
246.333	155.31
246.566	154.31
246.8	175.31
247.033	174.31
247.266	169.31
247.5	180.31
247.733	189.31
247.966	180.31
248.2	176.31
248.433	178.31
248.666	202.31
248.899	206.31
249.133	242.31
249.366	247.31
249.599	224.31
249.832	221.31
250.066	223.31
250.299	213.31
250.532	221.31
250.765	223.31
250.998	255.31
251.231	251.31
251.465	246.31
251.698	229.31
251.931	235.31
252.164	223.31
252.397	236.31
252.63	225.31
252.863	246.31
253.096	257.31
253.329	263.31
253.562	266.31
253.795	256.31
254.028	269.31
254.261	242.31
254.494	266.31
254.727	288.31
254.96	315.31
255.193	323.31
255.426	279.31
255.659	259.31
255.892	287.31
256.124	270.31
256.357	278.31
256.59	251.31
256.823	224.31
257.056	231.31
257.289	246.31
257.521	221.31
257.754	228.31
257.987	229.31
258.22	230.31
258.452	235.31
258.685	244.31
258.918	232.31
259.151	236.31
259.383	258.31
259.616	249.31
259.849	251.31
260.081	250.31
260.314	287.31
260.547	279.31
260.779	279.31
261.012	272.31
261.244	271.31
261.477	243.31
261.71	241.31
261.942	248.31
262.175	255.31
262.407	254.31
262.64	224.31
262.872	240.31
263.105	244.31
263.337	241.31
263.57	221.31
263.802	227.31
264.035	213.31
264.267	216.31
264.499	225.31
264.732	231.31
264.964	235.31
265.197	232.31
265.429	235.31
265.661	226.31
265.894	233.31
266.126	233.31
266.358	223.31
266.591	232.31
266.823	234.31
267.055	254.31
267.287	235.31
267.52	238.31
267.752	252.31
267.984	251.31
268.216	267.31
268.448	259.31
268.681	270.31
268.913	252.31
269.145	265.31
269.377	315.31
269.609	304.31
269.841	298.31
270.073	290.31
270.306	324.31
270.538	372.31
270.77	357.31
271.002	326.31
271.234	333.31
271.466	336.31
271.698	348.31
271.93	351.31
272.162	365.31
272.394	349.31
272.626	335.31
272.858	342.31
273.09	310.31
273.322	307.31
273.553	279.31
273.785	287.31
274.017	284.31
274.249	290.31
274.481	284.31
274.713	276.31
274.945	295.31
275.176	307.31
275.408	285.31
275.64	280.31
275.872	278.31
276.104	275.31
276.335	287.31
276.567	296.31
276.799	308.31
277.031	340.31
277.262	366.31
277.494	367.31
277.726	338.31
277.957	312.31
278.189	307.31
278.421	301.31
278.652	310.31
278.884	279.31
279.115	275.31
279.347	280.31
279.579	272.31
279.81	284.31
280.042	280.31
280.273	272.31
280.505	284.31
280.736	278.31
280.968	269.31
281.199	267.31
281.431	276.31
281.662	274.31
281.894	294.31
282.125	293.31
282.356	289.31
282.588	325.31
282.819	329.31
283.051	310.31
283.282	276.31
283.513	280.31
283.745	277.31
283.976	283.31
284.207	295.31
284.439	278.31
284.67	283.31
284.901	288.31
285.132	283.31
285.364	279.31
285.595	275.31
285.826	295.31
286.057	288.31
286.288	267.31
286.52	287.31
286.751	280.31
286.982	282.31
287.213	294.31
287.444	301.31
287.675	290.31
287.906	309.31
288.138	314.31
288.369	314.31
288.6	316.31
288.831	295.31
289.062	311.31
289.293	294.31
289.524	280.31
289.755	288.31
289.986	299.31
290.217	295.31
290.448	293.31
290.679	286.31
290.91	291.31
291.141	291.31
291.371	279.31
291.602	265.31
291.833	285.31
292.064	291.31
292.295	295.31
292.526	306.31
292.757	286.31
292.987	297.31
293.218	289.31
293.449	314.31
293.68	303.31
293.91	303.31
294.141	302.31
294.372	295.31
294.603	285.31
294.833	311.31
295.064	290.31
295.295	306.31
295.525	308.31
295.756	297.31
295.987	300.31
296.217	342.31
296.448	372.31
296.679	318.31
296.909	321.31
297.14	307.31
297.37	296.31
297.601	295.31
297.831	298.31
298.062	309.31
298.292	308.31
298.523	306.31
298.753	315.31
298.984	314.31
299.214	303.31
299.445	312.31
299.675	286.31
299.905	308.31
300.136	310.31
300.366	316.31
300.597	312.31
300.827	331.31
301.057	322.31
301.288	331.31
301.518	334.31
301.748	337.31
301.979	319.31
302.209	344.31
302.439	331.31
302.669	336.31
302.9	333.31
303.13	327.31
303.36	326.31
303.59	350.31
303.82	346.31
304.051	350.31
304.281	328.31
304.511	318.31
304.741	332.31
304.971	339.31
305.201	314.31
305.431	335.31
305.661	312.31
305.891	332.31
306.121	332.31
306.352	357.31
306.582	347.31
306.812	359.31
307.042	349.31
307.272	322.31
307.502	320.31
307.731	358.31
307.961	343.31
308.191	343.31
308.421	338.31
308.651	340.31
308.881	360.31
309.111	351.31
309.341	361.31
309.571	369.31
309.8	365.31
310.03	376.31
310.26	398.31
310.49	384.31
310.72	407.31
310.949	441.31
311.179	432.31
311.409	408.31
311.639	400.31
311.868	396.31
312.098	408.31
312.328	427.31
312.557	419.31
312.787	436.31
313.017	436.31
313.246	427.31
313.476	400.31
313.706	388.31
313.935	419.31
314.165	439.31
314.394	415.31
314.624	411.31
314.853	404.31
315.083	391.31
315.312	382.31
315.542	376.31
315.771	377.31
316.001	376.31
316.23	404.31
316.46	376.31
316.689	389.31
316.919	403.31
317.148	414.31
317.377	418.31
317.607	426.31
317.836	396.31
318.065	406.31
318.295	393.31
318.524	396.31
318.753	362.31
318.983	394.31
319.212	409.31
319.441	415.31
319.67	411.31
319.9	403.31
320.129	410.31
320.358	386.31
320.587	407.31
320.816	421.31
321.046	409.31
321.275	436.31
321.504	441.31
321.733	414.31
321.962	441.31
322.191	463.31
322.42	478.31
322.649	494.31
322.878	506.31
323.108	535.31
323.337	542.31
323.566	588.31
323.795	632.31
324.024	704.31
324.253	887.31
324.482	1305.31
324.71	2068.31
324.939	2948.31
325.168	2539.31
325.397	1270.31
325.626	834.31
325.855	653.31
326.084	602.31
326.313	589.31
326.542	593.31
326.77	686.31
326.999	810.31
327.228	1138.31
327.457	1778.31
327.686	2233.31
327.914	1423.31
328.143	906.31
328.372	797.31
328.6	740.31
328.829	695.31
329.058	700.31
329.287	723.31
329.515	653.31
329.744	589.31
329.972	594.31
330.201	633.31
330.43	677.31
330.658	714.31
330.887	779.31
331.115	714.31
331.344	590.31
331.572	571.31
331.801	566.31
332.03	547.31
332.258	492.31
332.486	490.31
332.715	487.31
332.943	457.31
333.172	492.31
333.4	475.31
333.629	487.31
333.857	532.31
334.085	536.31
334.314	567.31
334.542	609.31
334.771	620.31
334.999	553.31
335.227	497.31
335.455	494.31
335.684	491.31
335.912	479.31
336.14	468.31
336.369	457.31
336.597	489.31
336.825	477.31
337.053	470.31
337.281	458.31
337.51	481.31
337.738	463.31
337.966	479.31
338.194	482.31
338.422	485.31
338.65	468.31
338.878	462.31
339.106	441.31
339.334	442.31
339.562	441.31
339.79	441.31
340.018	455.31
340.246	466.31
340.474	466.31
340.702	461.31
340.93	464.31
341.158	447.31
341.386	435.31
341.614	435.31
341.842	455.31
342.07	445.31
342.298	436.31
342.526	455.31
342.754	447.31
342.981	438.31
343.209	454.31
343.437	444.31
343.665	443.31
343.893	442.31
344.12	437.31
344.348	436.31
344.576	447.31
344.804	474.31
345.031	488.31
345.259	513.31
345.487	490.31
345.714	464.31
345.942	469.31
346.17	443.31
346.397	458.31
346.625	450.31
346.853	405.31
347.08	458.31
347.308	442.31
347.535	479.31
347.763	487.31
347.99	467.31
348.218	467.31
348.445	455.31
348.673	479.31
348.9	455.31
349.128	446.31
349.355	425.31
349.583	418.31
349.81	423.31
350.037	423.31
350.265	418.31
350.492	436.31
350.72	429.31
350.947	445.31
351.174	460.31
351.402	477.31
351.629	468.31
351.856	469.31
352.083	491.31
352.311	479.31
352.538	478.31
352.765	490.31
352.992	498.31
353.22	476.31
353.447	450.31
353.674	448.31
353.901	440.31
354.128	431.31
354.355	419.31
354.583	420.31
354.81	431.31
355.037	422.31
355.264	411.31
355.491	426.31
355.718	429.31
355.945	404.31
356.172	416.31
356.399	427.31
356.626	410.31
356.853	417.31
357.08	408.31
357.307	406.31
357.534	395.31
357.761	412.31
357.988	420.31
358.215	413.31
358.441	386.31
358.668	429.31
358.895	439.31
359.122	440.31
359.349	438.31
359.576	460.31
359.802	514.31
360.029	547.31
360.256	552.31
360.483	532.31
360.709	495.31
360.936	436.31
361.163	457.31
361.39	479.31
361.616	483.31
361.843	471.31
362.07	450.31
362.296	479.31
362.523	463.31
362.749	475.31
362.976	456.31
363.203	444.31
363.429	422.31
363.656	434.31
363.882	438.31
364.109	434.31
364.335	447.31
364.562	448.31
364.788	425.31
365.015	423.31
365.241	448.31
365.468	438.31
365.694	459.31
365.92	454.31
366.147	434.31
366.373	414.31
366.599	420.31
366.826	427.31
367.052	433.31
367.278	416.31
367.505	446.31
367.731	455.31
367.957	442.31
368.184	451.31
368.41	437.31
368.636	450.31
368.862	475.31
369.089	448.31
369.315	422.31
369.541	418.31
369.767	426.31
369.993	422.31
370.219	404.31
370.445	438.31
370.672	438.31
370.898	425.31
371.124	428.31
371.35	422.31
371.576	429.31
371.802	439.31
372.028	414.31
372.254	422.31
372.48	451.31
372.706	413.31
372.932	411.31
373.158	417.31
373.384	417.31
373.61	424.31
373.835	427.31
374.061	424.31
374.287	428.31
374.513	427.31
374.739	422.31
374.965	435.31
375.191	458.31
375.416	428.31
375.642	428.31
375.868	439.31
376.094	439.31
376.319	432.31
376.545	448.31
376.771	414.31
376.997	412.31
377.222	417.31
377.448	409.31
377.674	416.31
377.899	450.31
378.125	423.31
378.35	412.31
378.576	404.31
378.802	417.31
379.027	432.31
379.253	409.31
379.478	402.31
379.704	430.31
379.929	421.31
380.155	422.31
380.38	424.31
380.606	424.31
380.831	436.31
381.057	436.31
381.282	423.31
381.507	426.31
381.733	416.31
381.958	441.31
382.184	448.31
382.409	440.31
382.634	439.31
382.86	439.31
383.085	428.31
383.31	444.31
383.535	445.31
383.761	440.31
383.986	440.31
384.211	437.31
384.436	445.31
384.662	455.31
384.887	443.31
385.112	450.31
385.337	463.31
385.562	443.31
385.787	442.31
386.013	471.31
386.238	466.31
386.463	443.31
386.688	461.31
386.913	438.31
387.138	460.31
387.363	454.31
387.588	443.31
387.813	464.31
388.038	459.31
388.263	436.31
388.488	437.31
388.713	467.31
388.938	468.31
389.163	454.31
389.387	482.31
389.612	454.31
389.837	444.31
390.062	470.31
390.287	453.31
390.512	462.31
390.736	454.31
390.961	455.31
391.186	456.31
391.411	448.31
391.636	442.31
391.86	460.31
392.085	465.31
392.31	468.31
392.534	467.31
392.759	473.31
392.984	448.31
393.208	470.31
393.433	472.31
393.658	467.31
393.882	453.31
394.107	466.31
394.331	471.31
394.556	465.31
394.78	459.31
395.005	465.31
395.229	476.31
395.454	462.31
395.678	475.31
395.903	484.31
396.127	518.31
396.352	507.31
396.576	500.31
396.801	463.31
397.025	465.31
397.249	499.31
397.474	510.31
397.698	522.31
397.922	506.31
398.147	550.31
398.371	525.31
398.595	520.31
398.82	522.31
399.044	528.31
399.268	535.31
399.492	544.31
399.717	572.31
399.941	602.31
400.165	640.31
400.389	654.31
400.613	603.31
400.837	585.31
401.062	549.31
401.286	527.31
401.51	532.31
401.734	536.31
401.958	540.31
402.182	523.31
402.406	541.31
402.63	559.31
402.854	550.31
403.078	532.31
403.302	538.31
403.526	570.31
403.75	562.31
403.974	565.31
404.198	533.31
404.422	533.31
404.645	562.31
404.869	566.31
405.093	619.31
405.317	644.31
405.541	674.31
405.765	645.31
405.988	575.31
406.212	616.31
406.436	644.31
406.66	656.31
406.883	600.31
407.107	634.31
407.331	689.31
407.555	750.31
407.778	762.31
408.002	684.31
408.226	638.31
408.449	598.31
408.673	606.31
408.896	663.31
409.12	696.31
409.344	676.31
409.567	615.31
409.791	573.31
410.014	572.31
410.238	548.31
410.461	574.31
410.685	560.31
410.908	578.31
411.132	620.31
411.355	659.31
411.578	651.31
411.802	612.31
412.025	562.31
412.249	567.31
412.472	607.31
412.695	645.31
412.919	639.31
413.142	579.31
413.365	557.31
413.589	562.31
413.812	545.31
414.035	543.31
414.258	539.31
414.482	544.31
414.705	520.31
414.928	527.31
415.151	549.31
415.374	532.31
415.597	539.31
415.821	535.31
416.044	552.31
416.267	546.31
416.49	542.31
416.713	528.31
416.936	558.31
417.159	546.31
417.382	542.31
417.605	542.31
417.828	573.31
418.051	588.31
418.274	556.31
418.497	541.31
418.72	543.31
418.943	546.31
419.166	542.31
419.389	605.31
419.611	583.31
419.834	548.31
420.057	591.31
420.28	568.31
420.503	575.31
420.726	581.31
420.948	595.31
421.171	611.31
421.394	669.31
421.617	615.31
421.839	587.31
422.062	598.31
422.285	582.31
422.507	655.31
422.73	764.31
422.953	742.31
423.175	656.31
423.398	605.31
423.621	581.31
423.843	633.31
424.066	651.31
424.288	642.31
424.511	651.31
424.733	708.31
424.956	796.31
425.178	782.31
425.401	781.31
425.623	794.31
425.846	684.31
426.068	644.31
426.291	651.31
426.513	628.31
426.735	645.31
426.958	714.31
427.18	807.31
427.402	935.31
427.625	1039.31
427.847	934.31
428.069	799.31
428.292	729.31
428.514	646.31
428.736	614.31
428.958	618.31
429.181	618.31
429.403	586.31
429.625	601.31
429.847	662.31
430.069	712.31
430.292	718.31
430.514	630.31
430.736	588.31
430.958	583.31
431.18	535.31
431.402	562.31
431.624	528.31
431.846	526.31
432.068	518.31
432.29	567.31
432.512	552.31
432.734	559.31
432.956	546.31
433.178	582.31
433.4	578.31
433.622	554.31
433.844	532.31
434.066	558.31
434.287	559.31
434.509	554.31
434.731	561.31
434.953	559.31
435.175	592.31
435.397	625.31
435.618	638.31
435.84	702.31
436.062	813.31
436.284	877.31
436.505	732.31
436.727	661.31
436.949	634.31
437.17	604.31
437.392	635.31
437.614	594.31
437.835	684.31
438.057	788.31
438.278	915.31
438.5	902.31
438.721	988.31
438.943	933.31
439.165	760.31
439.386	696.31
439.608	684.31
439.829	680.31
440.05	716.31
440.272	736.31
440.493	703.31
440.715	651.31
440.936	615.31
441.158	607.31
441.379	601.31
441.6	611.31
441.822	637.31
442.043	690.31
442.264	808.31
442.486	852.31
442.707	726.31
442.928	675.31
443.149	696.31
443.371	694.31
443.592	762.31
443.813	878.31
444.034	932.31
444.255	758.31
444.476	682.31
444.698	638.31
444.919	642.31
445.14	696.31
445.361	690.31
445.582	710.31
445.803	775.31
446.024	901.31
446.245	919.31
446.466	854.31
446.687	736.31
446.908	649.31
447.129	598.31
447.35	604.31
447.571	604.31
447.792	599.31
448.013	592.31
448.234	620.31
448.455	701.31
448.675	853.31
448.896	942.31
449.117	815.31
449.338	776.31
449.559	911.31
449.779	995.31
450	798.31
450.221	670.31
450.442	611.31
450.662	610.31
450.883	631.31
451.104	635.31
451.324	621.31
451.545	588.31
451.766	554.31
451.986	546.31
452.207	521.31
452.428	519.31
452.648	535.31
452.869	536.31
453.089	554.31
453.31	575.31
453.53	568.31
453.751	551.31
453.971	538.31
454.192	582.31
454.412	564.31
454.633	550.31
454.853	527.31
455.073	550.31
455.294	553.31
455.514	662.31
455.734	644.31
455.955	566.31
456.175	516.31
456.395	516.31
456.616	512.31
456.836	500.31
457.056	467.31
457.276	471.31
457.497	483.31
457.717	479.31
457.937	527.31
458.157	516.31
458.377	524.31
458.598	562.31
458.818	634.31
459.038	752.31
459.258	758.31
459.478	630.31
459.698	572.31
459.918	543.31
460.138	542.31
460.358	539.31
460.578	531.31
460.798	562.31
461.018	559.31
461.238	532.31
461.458	534.31
461.678	509.31
461.898	548.31
462.118	527.31
462.338	558.31
462.558	534.31
462.777	552.31
462.997	559.31
463.217	563.31
463.437	567.31
463.657	572.31
463.876	578.31
464.096	572.31
464.316	560.31
464.536	593.31
464.755	584.31
464.975	601.31
465.195	669.31
465.414	809.31
465.634	709.31
465.854	637.31
466.073	589.31
466.293	574.31
466.512	560.31
466.732	539.31
466.951	546.31
467.171	528.31
467.391	567.31
467.61	545.31
467.829	564.31
468.049	559.31
468.268	565.31
468.488	522.31
468.707	536.31
468.927	541.31
469.146	522.31
469.365	555.31
469.585	547.31
469.804	529.31
470.023	537.31
470.243	534.31
470.462	550.31
470.681	601.31
470.901	597.31
471.12	549.31
471.339	538.31
471.558	566.31
471.777	589.31
471.997	557.31
472.216	563.31
472.435	617.31
472.654	578.31
472.873	580.31
473.092	553.31
473.311	556.31
473.53	574.31
473.749	584.31
473.968	613.31
474.187	747.31
474.406	798.31
474.625	642.31
474.844	591.31
475.063	562.31
475.282	566.31
475.501	572.31
475.72	574.31
475.939	601.31
476.158	588.31
476.377	588.31
476.596	556.31
476.814	569.31
477.033	586.31
477.252	596.31
477.471	588.31
477.69	583.31
477.908	583.31
478.127	591.31
478.346	626.31
478.564	609.31
478.783	603.31
479.002	611.31
479.22	625.31
479.439	639.31
479.658	671.31
479.876	648.31
480.095	684.31
480.313	708.31
480.532	697.31
480.751	698.31
480.969	693.31
481.188	777.31
481.406	840.31
481.624	739.31
481.843	716.31
482.061	655.31
482.28	648.31
482.498	644.31
482.717	636.31
482.935	661.31
483.153	643.31
483.372	666.31
483.59	679.31
483.808	676.31
484.027	646.31
484.245	658.31
484.463	684.31
484.681	678.31
484.9	694.31
485.118	691.31
485.336	683.31
485.554	666.31
485.772	696.31
485.99	703.31
486.209	695.31
486.427	690.31
486.645	724.31
486.863	712.31
487.081	735.31
487.299	716.31
487.517	690.31
487.735	714.31
487.953	720.31
488.171	734.31
488.389	710.31
488.607	711.31
488.825	692.31
489.043	720.31
489.261	737.31
489.479	758.31
489.696	742.31
489.914	725.31
490.132	767.31
490.35	784.31
490.568	789.31
490.786	787.31
491.003	780.31
491.221	829.31
491.439	831.31
491.657	814.31
491.874	834.31
492.092	871.31
492.31	855.31
492.527	874.31
492.745	824.31
492.963	840.31
493.18	856.31
493.398	876.31
493.615	874.31
493.833	856.31
494.05	876.31
494.268	862.31
494.485	860.31
494.703	896.31
494.92	916.31
495.138	867.31
495.355	893.31
495.573	894.31
495.79	868.31
496.008	896.31
496.225	852.31
496.442	871.31
496.66	899.31
496.877	872.31
497.094	862.31
497.312	866.31
497.529	884.31
497.746	874.31
497.963	904.31
498.181	921.31
498.398	948.31
498.615	944.31
498.832	943.31
499.049	973.31
499.267	958.31
499.484	951.31
499.701	974.31
499.918	1012.31
500.135	992.31
500.352	1042.31
500.569	1029.31
500.786	1062.31
501.003	1059.31
501.22	1066.31
501.437	1050.31
