Data from 1971.PennyLincolnUp.Lamp.En5.5.200Scan.071719.P1._HRD10591_15-19-50-842.txt Node
Date: Thu Jul 18 15:19:50 EDT 2019
User: cochatt
Spectrometer: HR+D1059
Trigger mode: 1
Integration Time (sec): 1.000000E-1
Scans to average: 1
Electric dark correction enabled: true
Nonlinearity correction enabled: false
Boxcar width: 0
XAxis mode: Wavelengths
Number of Pixels in Spectrum: 2048
>>>>>Begin Spectral Data<<<<<
223.165	-7.31
223.4	-7.31
223.635	-7.31
223.869	-21.31
224.104	-17.31
224.338	-17.31
224.573	-18.31
224.808	-7.31
225.042	-11.31
225.277	-18.31
225.511	2.69
225.746	-16.31
225.98	14.69
226.215	13.69
226.449	25.69
226.683	20.69
226.918	31.69
227.152	25.69
227.387	40.69
227.621	26.69
227.856	34.69
228.09	47.69
228.324	38.69
228.559	51.69
228.793	68.69
229.027	90.69
229.262	107.69
229.496	114.69
229.73	116.69
229.964	143.69
230.199	114.69
230.433	108.69
230.667	116.69
230.901	112.69
231.136	116.69
231.37	112.69
231.604	108.69
231.838	110.69
232.072	104.69
232.306	122.69
232.541	103.69
232.775	104.69
233.009	103.69
233.243	113.69
233.477	116.69
233.711	113.69
233.945	99.69
234.179	101.69
234.413	115.69
234.647	112.69
234.881	105.69
235.115	115.69
235.349	122.69
235.583	100.69
235.817	117.69
236.051	124.69
236.285	118.69
236.519	106.69
236.753	119.69
236.987	124.69
237.221	174.69
237.455	218.69
237.689	172.69
237.922	148.69
238.156	125.69
238.39	124.69
238.624	127.69
238.858	132.69
239.091	119.69
239.325	110.69
239.559	119.69
239.793	122.69
240.027	120.69
240.26	128.69
240.494	131.69
240.728	135.69
240.961	132.69
241.195	131.69
241.429	133.69
241.662	150.69
241.896	123.69
242.13	132.69
242.363	130.69
242.597	138.69
242.83	133.69
243.064	147.69
243.298	129.69
243.531	127.69
243.765	127.69
243.998	137.69
244.232	149.69
244.465	148.69
244.699	157.69
244.932	115.69
245.166	137.69
245.399	127.69
245.633	151.69
245.866	146.69
246.099	140.69
246.333	140.69
246.566	151.69
246.8	153.69
247.033	159.69
247.266	150.69
247.5	159.69
247.733	174.69
247.966	180.69
248.2	171.69
248.433	158.69
248.666	180.69
248.899	176.69
249.133	194.69
249.366	207.69
249.599	213.69
249.832	204.69
250.066	170.69
250.299	184.69
250.532	192.69
250.765	197.69
250.998	222.69
251.231	201.69
251.465	207.69
251.698	216.69
251.931	204.69
252.164	210.69
252.397	188.69
252.63	209.69
252.863	211.69
253.096	225.69
253.329	235.69
253.562	234.69
253.795	229.69
254.028	220.69
254.261	219.69
254.494	236.69
254.727	240.69
254.96	294.69
255.193	272.69
255.426	233.69
255.659	237.69
255.892	244.69
256.124	239.69
256.357	236.69
256.59	207.69
256.823	213.69
257.056	205.69
257.289	210.69
257.521	226.69
257.754	229.69
257.987	224.69
258.22	217.69
258.452	213.69
258.685	208.69
258.918	216.69
259.151	205.69
259.383	220.69
259.616	231.69
259.849	216.69
260.081	230.69
260.314	260.69
260.547	281.69
260.779	242.69
261.012	235.69
261.244	220.69
261.477	227.69
261.71	224.69
261.942	227.69
262.175	255.69
262.407	232.69
262.64	217.69
262.872	228.69
263.105	240.69
263.337	205.69
263.57	208.69
263.802	204.69
264.035	211.69
264.267	219.69
264.499	209.69
264.732	237.69
264.964	218.69
265.197	220.69
265.429	226.69
265.661	230.69
265.894	241.69
266.126	221.69
266.358	233.69
266.591	233.69
266.823	243.69
267.055	236.69
267.287	230.69
267.52	219.69
267.752	231.69
267.984	228.69
268.216	228.69
268.448	234.69
268.681	229.69
268.913	260.69
269.145	276.69
269.377	280.69
269.609	278.69
269.841	280.69
270.073	292.69
270.306	286.69
270.538	309.69
270.77	327.69
271.002	324.69
271.234	313.69
271.466	304.69
271.698	307.69
271.93	336.69
272.162	328.69
272.394	330.69
272.626	313.69
272.858	300.69
273.09	278.69
273.322	270.69
273.553	275.69
273.785	260.69
274.017	271.69
274.249	289.69
274.481	280.69
274.713	290.69
274.945	291.69
275.176	278.69
275.408	274.69
275.64	268.69
275.872	270.69
276.104	278.69
276.335	279.69
276.567	277.69
276.799	293.69
277.031	308.69
277.262	320.69
277.494	324.69
277.726	314.69
277.957	293.69
278.189	314.69
278.421	282.69
278.652	287.69
278.884	280.69
279.115	284.69
279.347	279.69
279.579	285.69
279.81	265.69
280.042	285.69
280.273	278.69
280.505	275.69
280.736	290.69
280.968	276.69
281.199	269.69
281.431	280.69
281.662	288.69
281.894	265.69
282.125	265.69
282.356	298.69
282.588	315.69
282.819	315.69
283.051	280.69
283.282	279.69
283.513	279.69
283.745	285.69
283.976	296.69
284.207	313.69
284.439	268.69
284.67	280.69
284.901	309.69
285.132	287.69
285.364	270.69
285.595	293.69
285.826	294.69
286.057	294.69
286.288	286.69
286.52	306.69
286.751	289.69
286.982	282.69
287.213	284.69
287.444	291.69
287.675	290.69
287.906	285.69
288.138	304.69
288.369	308.69
288.6	314.69
288.831	308.69
289.062	289.69
289.293	301.69
289.524	309.69
289.755	313.69
289.986	311.69
290.217	307.69
290.448	289.69
290.679	310.69
290.91	296.69
291.141	312.69
291.371	288.69
291.602	289.69
291.833	286.69
292.064	293.69
292.295	293.69
292.526	297.69
292.757	283.69
292.987	300.69
293.218	302.69
293.449	304.69
293.68	298.69
293.91	299.69
294.141	299.69
294.372	309.69
294.603	298.69
294.833	308.69
295.064	283.69
295.295	297.69
295.525	287.69
295.756	314.69
295.987	318.69
296.217	324.69
296.448	340.69
296.679	300.69
296.909	290.69
297.14	292.69
297.37	301.69
297.601	304.69
297.831	310.69
298.062	316.69
298.292	320.69
298.523	320.69
298.753	310.69
298.984	308.69
299.214	308.69
299.445	302.69
299.675	315.69
299.905	321.69
300.136	318.69
300.366	318.69
300.597	312.69
300.827	302.69
301.057	322.69
301.288	345.69
301.518	332.69
301.748	314.69
301.979	327.69
302.209	353.69
302.439	337.69
302.669	341.69
302.9	320.69
303.13	326.69
303.36	345.69
303.59	340.69
303.82	323.69
304.051	348.69
304.281	349.69
304.511	348.69
304.741	344.69
304.971	333.69
305.201	337.69
305.431	321.69
305.661	345.69
305.891	341.69
306.121	343.69
306.352	340.69
306.582	344.69
306.812	333.69
307.042	341.69
307.272	330.69
307.502	348.69
307.731	342.69
307.961	343.69
308.191	346.69
308.421	329.69
308.651	345.69
308.881	324.69
309.111	342.69
309.341	351.69
309.571	360.69
309.8	362.69
310.03	378.69
310.26	368.69
310.49	377.69
310.72	381.69
310.949	414.69
311.179	387.69
311.409	371.69
311.639	369.69
311.868	369.69
312.098	375.69
312.328	393.69
312.557	383.69
312.787	416.69
313.017	375.69
313.246	405.69
313.476	386.69
313.706	354.69
313.935	396.69
314.165	408.69
314.394	405.69
314.624	402.69
314.853	406.69
315.083	375.69
315.312	376.69
315.542	391.69
315.771	379.69
316.001	357.69
316.23	380.69
316.46	376.69
316.689	391.69
316.919	401.69
317.148	399.69
317.377	389.69
317.607	381.69
317.836	402.69
318.065	389.69
318.295	382.69
318.524	371.69
318.753	382.69
318.983	365.69
319.212	378.69
319.441	380.69
319.67	391.69
319.9	381.69
320.129	398.69
320.358	382.69
320.587	398.69
320.816	408.69
321.046	398.69
321.275	411.69
321.504	396.69
321.733	424.69
321.962	424.69
322.191	445.69
322.42	432.69
322.649	440.69
322.878	462.69
323.108	472.69
323.337	476.69
323.566	500.69
323.795	531.69
324.024	576.69
324.253	677.69
324.482	993.69
324.71	1481.69
324.939	1976.69
325.168	1657.69
325.397	883.69
325.626	630.69
325.855	533.69
326.084	510.69
326.313	497.69
326.542	496.69
326.77	549.69
326.999	652.69
327.228	881.69
327.457	1273.69
327.686	1460.69
327.914	989.69
328.143	706.69
328.372	595.69
328.6	580.69
328.829	555.69
329.058	557.69
329.287	554.69
329.515	510.69
329.744	482.69
329.972	509.69
330.201	493.69
330.43	544.69
330.658	554.69
330.887	573.69
331.115	563.69
331.344	503.69
331.572	475.69
331.801	484.69
332.03	484.69
332.258	463.69
332.486	456.69
332.715	454.69
332.943	446.69
333.172	460.69
333.4	438.69
333.629	464.69
333.857	468.69
334.085	486.69
334.314	494.69
334.542	487.69
334.771	505.69
334.999	483.69
335.227	460.69
335.455	467.69
335.684	459.69
335.912	418.69
336.14	473.69
336.369	420.69
336.597	445.69
336.825	446.69
337.053	435.69
337.281	426.69
337.51	422.69
337.738	419.69
337.966	442.69
338.194	459.69
338.422	425.69
338.65	433.69
338.878	417.69
339.106	410.69
339.334	421.69
339.562	406.69
339.79	408.69
340.018	432.69
340.246	419.69
340.474	421.69
340.702	429.69
340.93	429.69
341.158	414.69
341.386	419.69
341.614	437.69
341.842	425.69
342.07	404.69
342.298	414.69
342.526	406.69
342.754	403.69
342.981	393.69
343.209	402.69
343.437	426.69
343.665	426.69
343.893	412.69
344.12	431.69
344.348	428.69
344.576	406.69
344.804	440.69
345.031	419.69
345.259	428.69
345.487	437.69
345.714	396.69
345.942	420.69
346.17	407.69
346.397	377.69
346.625	410.69
346.853	390.69
347.08	401.69
347.308	390.69
347.535	418.69
347.763	423.69
347.99	403.69
348.218	417.69
348.445	402.69
348.673	418.69
348.9	408.69
349.128	397.69
349.355	380.69
349.583	386.69
349.81	386.69
350.037	377.69
350.265	382.69
350.492	393.69
350.72	388.69
350.947	412.69
351.174	405.69
351.402	396.69
351.629	406.69
351.856	411.69
352.083	413.69
352.311	411.69
352.538	401.69
352.765	423.69
352.992	416.69
353.22	409.69
353.447	388.69
353.674	411.69
353.901	388.69
354.128	393.69
354.355	370.69
354.583	379.69
354.81	380.69
355.037	370.69
355.264	384.69
355.491	372.69
355.718	370.69
355.945	385.69
356.172	363.69
356.399	374.69
356.626	376.69
356.853	367.69
357.08	362.69
357.307	365.69
357.534	375.69
357.761	374.69
357.988	365.69
358.215	364.69
358.441	345.69
358.668	362.69
358.895	387.69
359.122	368.69
359.349	361.69
359.576	376.69
359.802	418.69
360.029	426.69
360.256	430.69
360.483	407.69
360.709	379.69
360.936	378.69
361.163	379.69
361.39	390.69
361.616	405.69
361.843	383.69
362.07	375.69
362.296	390.69
362.523	382.69
362.749	374.69
362.976	381.69
363.203	386.69
363.429	375.69
363.656	356.69
363.882	365.69
364.109	382.69
364.335	359.69
364.562	376.69
364.788	360.69
365.015	372.69
365.241	364.69
365.468	380.69
365.694	398.69
365.92	382.69
366.147	368.69
366.373	354.69
366.599	374.69
366.826	375.69
367.052	354.69
367.278	359.69
367.505	360.69
367.731	355.69
367.957	378.69
368.184	366.69
368.41	386.69
368.636	375.69
368.862	388.69
369.089	385.69
369.315	365.69
369.541	380.69
369.767	362.69
369.993	344.69
370.219	365.69
370.445	353.69
370.672	370.69
370.898	362.69
371.124	357.69
371.35	359.69
371.576	361.69
371.802	358.69
372.028	346.69
372.254	350.69
372.48	349.69
372.706	368.69
372.932	366.69
373.158	363.69
373.384	360.69
373.61	349.69
373.835	350.69
374.061	354.69
374.287	353.69
374.513	348.69
374.739	357.69
374.965	340.69
375.191	373.69
375.416	345.69
375.642	376.69
375.868	372.69
376.094	354.69
376.319	344.69
376.545	360.69
376.771	355.69
376.997	350.69
377.222	356.69
377.448	350.69
377.674	349.69
377.899	353.69
378.125	348.69
378.35	325.69
378.576	339.69
378.802	341.69
379.027	341.69
379.253	361.69
379.478	349.69
379.704	361.69
379.929	334.69
380.155	334.69
380.38	345.69
380.606	350.69
380.831	339.69
381.057	351.69
381.282	354.69
381.507	360.69
381.733	346.69
381.958	363.69
382.184	345.69
382.409	348.69
382.634	360.69
382.86	352.69
383.085	346.69
383.31	363.69
383.535	364.69
383.761	343.69
383.986	370.69
384.211	378.69
384.436	361.69
384.662	381.69
384.887	357.69
385.112	356.69
385.337	344.69
385.562	354.69
385.787	368.69
386.013	374.69
386.238	384.69
386.463	379.69
386.688	382.69
386.913	367.69
387.138	372.69
387.363	375.69
387.588	385.69
387.813	396.69
388.038	363.69
388.263	374.69
388.488	373.69
388.713	387.69
388.938	379.69
389.163	364.69
389.387	354.69
389.612	378.69
389.837	380.69
390.062	352.69
390.287	364.69
390.512	337.69
390.736	368.69
390.961	365.69
391.186	376.69
391.411	362.69
391.636	373.69
391.86	376.69
392.085	390.69
392.31	374.69
392.534	375.69
392.759	368.69
392.984	395.69
393.208	373.69
393.433	359.69
393.658	390.69
393.882	380.69
394.107	388.69
394.331	371.69
394.556	379.69
394.78	386.69
395.005	375.69
395.229	378.69
395.454	402.69
395.678	395.69
395.903	386.69
396.127	410.69
396.352	400.69
396.576	389.69
396.801	375.69
397.025	385.69
397.249	407.69
397.474	384.69
397.698	387.69
397.922	402.69
398.147	427.69
398.371	419.69
398.595	393.69
398.82	392.69
399.044	433.69
399.268	422.69
399.492	443.69
399.717	454.69
399.941	491.69
400.165	519.69
400.389	520.69
400.613	454.69
400.837	433.69
401.062	429.69
401.286	430.69
401.51	419.69
401.734	396.69
401.958	416.69
402.182	416.69
402.406	422.69
402.63	424.69
402.854	429.69
403.078	421.69
403.302	417.69
403.526	423.69
403.75	432.69
403.974	436.69
404.198	410.69
404.422	413.69
404.645	448.69
404.869	407.69
405.093	456.69
405.317	477.69
405.541	539.69
405.765	481.69
405.988	440.69
406.212	473.69
406.436	453.69
406.66	482.69
406.883	451.69
407.107	472.69
407.331	512.69
407.555	565.69
407.778	565.69
408.002	502.69
408.226	487.69
408.449	464.69
408.673	461.69
408.896	511.69
409.12	532.69
409.344	513.69
409.567	463.69
409.791	436.69
410.014	430.69
410.238	404.69
410.461	422.69
410.685	430.69
410.908	449.69
411.132	479.69
411.355	490.69
411.578	460.69
411.802	447.69
412.025	429.69
412.249	418.69
412.472	441.69
412.695	452.69
412.919	466.69
413.142	436.69
413.365	419.69
413.589	414.69
413.812	414.69
414.035	402.69
414.258	408.69
414.482	391.69
414.705	380.69
414.928	404.69
415.151	398.69
415.374	393.69
415.597	395.69
415.821	387.69
416.044	390.69
416.267	392.69
416.49	378.69
416.713	387.69
416.936	393.69
417.159	396.69
417.382	396.69
417.605	391.69
417.828	417.69
418.051	423.69
418.274	438.69
418.497	390.69
418.72	393.69
418.943	399.69
419.166	396.69
419.389	396.69
419.611	437.69
419.834	426.69
420.057	442.69
420.28	401.69
420.503	404.69
420.726	413.69
420.948	432.69
421.171	462.69
421.394	481.69
421.617	477.69
421.839	450.69
422.062	428.69
422.285	431.69
422.507	478.69
422.73	512.69
422.953	522.69
423.175	476.69
423.398	437.69
423.621	456.69
423.843	463.69
424.066	462.69
424.288	445.69
424.511	460.69
424.733	529.69
424.956	612.69
425.178	537.69
425.401	521.69
425.623	557.69
425.846	473.69
426.068	441.69
426.291	449.69
426.513	452.69
426.735	475.69
426.958	469.69
427.18	563.69
427.402	668.69
427.625	720.69
427.847	626.69
428.069	548.69
428.292	500.69
428.514	450.69
428.736	428.69
428.958	425.69
429.181	420.69
429.403	416.69
429.625	415.69
429.847	455.69
430.069	487.69
430.292	502.69
430.514	430.69
430.736	423.69
430.958	394.69
431.18	407.69
431.402	401.69
431.624	371.69
431.846	386.69
432.068	373.69
432.29	387.69
432.512	378.69
432.734	397.69
432.956	414.69
433.178	403.69
433.4	401.69
433.622	404.69
433.844	395.69
434.066	373.69
434.287	391.69
434.509	398.69
434.731	389.69
434.953	414.69
435.175	420.69
435.397	453.69
435.618	440.69
435.84	497.69
436.062	556.69
436.284	616.69
436.505	522.69
436.727	460.69
436.949	443.69
437.17	417.69
437.392	406.69
437.614	430.69
437.835	467.69
438.057	539.69
438.278	598.69
438.5	620.69
438.721	676.69
438.943	654.69
439.165	513.69
439.386	466.69
439.608	459.69
439.829	464.69
440.05	492.69
440.272	510.69
440.493	512.69
440.715	454.69
440.936	426.69
441.158	418.69
441.379	430.69
441.6	418.69
441.822	428.69
442.043	474.69
442.264	536.69
442.486	579.69
442.707	503.69
442.928	461.69
443.149	463.69
443.371	480.69
443.592	491.69
443.813	585.69
444.034	669.69
444.255	532.69
444.476	443.69
444.698	473.69
444.919	467.69
445.14	558.69
445.361	523.69
445.582	486.69
445.803	554.69
446.024	617.69
446.245	649.69
446.466	572.69
446.687	499.69
446.908	454.69
447.129	440.69
447.35	437.69
447.571	429.69
447.792	403.69
448.013	430.69
448.234	441.69
448.455	499.69
448.675	586.69
448.896	642.69
449.117	575.69
449.338	549.69
449.559	615.69
449.779	683.69
450	562.69
450.221	472.69
450.442	429.69
450.662	399.69
450.883	422.69
451.104	420.69
451.324	434.69
451.545	410.69
451.766	385.69
451.986	385.69
452.207	372.69
452.428	373.69
452.648	386.69
452.869	384.69
453.089	370.69
453.31	368.69
453.53	392.69
453.751	372.69
453.971	386.69
454.192	397.69
454.412	384.69
454.633	375.69
454.853	364.69
455.073	368.69
455.294	396.69
455.514	429.69
455.734	436.69
455.955	368.69
456.175	377.69
456.395	344.69
456.616	347.69
456.836	351.69
457.056	332.69
457.276	349.69
457.497	336.69
457.717	350.69
457.937	356.69
458.157	386.69
458.377	358.69
458.598	374.69
458.818	424.69
459.038	450.69
459.258	483.69
459.478	447.69
459.698	387.69
459.918	375.69
460.138	356.69
460.358	382.69
460.578	381.69
460.798	379.69
461.018	390.69
461.238	393.69
461.458	405.69
461.678	386.69
461.898	397.69
462.118	393.69
462.338	394.69
462.558	384.69
462.777	413.69
462.997	410.69
463.217	426.69
463.437	424.69
463.657	428.69
463.876	396.69
464.096	407.69
464.316	416.69
464.536	409.69
464.755	429.69
464.975	423.69
465.195	446.69
465.414	489.69
465.634	437.69
465.854	419.69
466.073	405.69
466.293	397.69
466.512	377.69
466.732	360.69
466.951	380.69
467.171	372.69
467.391	374.69
467.61	390.69
467.829	398.69
468.049	392.69
468.268	392.69
468.488	374.69
468.707	388.69
468.927	373.69
469.146	363.69
469.365	376.69
469.585	373.69
469.804	362.69
470.023	392.69
470.243	390.69
470.462	386.69
470.681	408.69
470.901	400.69
471.12	388.69
471.339	390.69
471.558	390.69
471.777	372.69
471.997	378.69
472.216	369.69
472.435	402.69
472.654	395.69
472.873	400.69
473.092	378.69
473.311	394.69
473.53	384.69
473.749	394.69
473.968	435.69
474.187	525.69
474.406	530.69
474.625	438.69
474.844	397.69
475.063	386.69
475.282	394.69
475.501	390.69
475.72	408.69
475.939	389.69
476.158	408.69
476.377	402.69
476.596	383.69
476.814	399.69
477.033	388.69
477.252	386.69
477.471	395.69
477.69	398.69
477.908	424.69
478.127	413.69
478.346	422.69
478.564	435.69
478.783	405.69
479.002	427.69
479.22	439.69
479.439	446.69
479.658	461.69
479.876	457.69
480.095	430.69
480.313	477.69
480.532	476.69
480.751	453.69
480.969	475.69
481.188	499.69
481.406	509.69
481.624	489.69
481.843	463.69
482.061	423.69
482.28	419.69
482.498	440.69
482.717	438.69
482.935	428.69
483.153	446.69
483.372	449.69
483.59	432.69
483.808	422.69
484.027	448.69
484.245	430.69
484.463	430.69
484.681	442.69
484.9	445.69
485.118	455.69
485.336	460.69
485.554	457.69
485.772	459.69
485.99	450.69
486.209	422.69
486.427	430.69
486.645	469.69
486.863	476.69
487.081	477.69
487.299	476.69
487.517	461.69
487.735	469.69
487.953	482.69
488.171	469.69
488.389	471.69
488.607	471.69
488.825	471.69
489.043	462.69
489.261	473.69
489.479	478.69
489.696	497.69
489.914	479.69
490.132	494.69
490.35	483.69
490.568	496.69
490.786	496.69
491.003	542.69
491.221	526.69
491.439	529.69
491.657	532.69
491.874	542.69
492.092	546.69
492.31	540.69
492.527	556.69
492.745	543.69
492.963	549.69
493.18	529.69
493.398	565.69
493.615	545.69
493.833	572.69
494.05	576.69
494.268	564.69
494.485	566.69
494.703	588.69
494.92	557.69
495.138	578.69
495.355	568.69
495.573	584.69
495.79	564.69
496.008	572.69
496.225	569.69
496.442	566.69
496.66	573.69
496.877	585.69
497.094	584.69
497.312	579.69
497.529	584.69
497.746	580.69
497.963	601.69
498.181	618.69
498.398	594.69
498.615	589.69
498.832	636.69
499.049	606.69
499.267	639.69
499.484	648.69
499.701	657.69
499.918	668.69
500.135	724.69
500.352	723.69
500.569	761.69
500.786	750.69
501.003	732.69
501.22	732.69
501.437	724.69
501.654	693.69
501.871	680.69
