Data from 1971.PennyLincolnUp.Lamp.En5.5.200Scan.071719.P1._HRD10591_15-18-01-842.txt Node
Date: Thu Jul 18 15:18:01 EDT 2019
User: cochatt
Spectrometer: HR+D1059
Trigger mode: 1
Integration Time (sec): 1.000000E-1
Scans to average: 1
Electric dark correction enabled: true
Nonlinearity correction enabled: false
Boxcar width: 0
XAxis mode: Wavelengths
Number of Pixels in Spectrum: 2048
>>>>>Begin Spectral Data<<<<<
223.165	-18.25
223.4	-18.25
223.635	-18.25
223.869	-27.25
224.104	-14.25
224.338	-12.25
224.573	-7.25
224.808	-21.25
225.042	-10.25
225.277	-12.25
225.511	1.75
225.746	11.75
225.98	15.75
226.215	-10.25
226.449	28.75
226.683	20.75
226.918	23.75
227.152	30.75
227.387	26.75
227.621	43.75
227.856	54.75
228.09	47.75
228.324	38.75
228.559	54.75
228.793	57.75
229.027	64.75
229.262	84.75
229.496	104.75
229.73	93.75
229.964	116.75
230.199	108.75
230.433	107.75
230.667	108.75
230.901	115.75
231.136	100.75
231.37	105.75
231.604	104.75
231.838	110.75
232.072	102.75
232.306	94.75
232.541	105.75
232.775	95.75
233.009	119.75
233.243	108.75
233.477	110.75
233.711	115.75
233.945	102.75
234.179	118.75
234.413	110.75
234.647	106.75
234.881	110.75
235.115	105.75
235.349	116.75
235.583	113.75
235.817	113.75
236.051	111.75
236.285	107.75
236.519	117.75
236.753	105.75
236.987	118.75
237.221	155.75
237.455	179.75
237.689	147.75
237.922	130.75
238.156	127.75
238.39	115.75
238.624	113.75
238.858	106.75
239.091	106.75
239.325	129.75
239.559	119.75
239.793	117.75
240.027	108.75
240.26	118.75
240.494	137.75
240.728	131.75
240.961	121.75
241.195	125.75
241.429	120.75
241.662	110.75
241.896	114.75
242.13	123.75
242.363	111.75
242.597	142.75
242.83	133.75
243.064	135.75
243.298	128.75
243.531	115.75
243.765	123.75
243.998	130.75
244.232	126.75
244.465	125.75
244.699	123.75
244.932	131.75
245.166	130.75
245.399	131.75
245.633	140.75
245.866	133.75
246.099	140.75
246.333	131.75
246.566	126.75
246.8	149.75
247.033	156.75
247.266	136.75
247.5	142.75
247.733	138.75
247.966	147.75
248.2	155.75
248.433	161.75
248.666	153.75
248.899	159.75
249.133	175.75
249.366	182.75
249.599	173.75
249.832	167.75
250.066	175.75
250.299	157.75
250.532	200.75
250.765	177.75
250.998	187.75
251.231	196.75
251.465	204.75
251.698	184.75
251.931	203.75
252.164	179.75
252.397	169.75
252.63	187.75
252.863	184.75
253.096	197.75
253.329	194.75
253.562	192.75
253.795	211.75
254.028	206.75
254.261	198.75
254.494	207.75
254.727	235.75
254.96	233.75
255.193	222.75
255.426	231.75
255.659	218.75
255.892	217.75
256.124	197.75
256.357	198.75
256.59	210.75
256.823	205.75
257.056	181.75
257.289	200.75
257.521	198.75
257.754	196.75
257.987	187.75
258.22	193.75
258.452	173.75
258.685	197.75
258.918	180.75
259.151	190.75
259.383	200.75
259.616	189.75
259.849	206.75
260.081	205.75
260.314	234.75
260.547	221.75
260.779	218.75
261.012	204.75
261.244	185.75
261.477	205.75
261.71	210.75
261.942	204.75
262.175	209.75
262.407	196.75
262.64	209.75
262.872	195.75
263.105	177.75
263.337	186.75
263.57	219.75
263.802	200.75
264.035	188.75
264.267	183.75
264.499	200.75
264.732	212.75
264.964	219.75
265.197	200.75
265.429	204.75
265.661	198.75
265.894	202.75
266.126	190.75
266.358	197.75
266.591	189.75
266.823	187.75
267.055	223.75
267.287	198.75
267.52	203.75
267.752	208.75
267.984	207.75
268.216	202.75
268.448	215.75
268.681	202.75
268.913	226.75
269.145	230.75
269.377	246.75
269.609	238.75
269.841	250.75
270.073	252.75
270.306	253.75
270.538	285.75
270.77	248.75
271.002	273.75
271.234	269.75
271.466	265.75
271.698	276.75
271.93	270.75
272.162	264.75
272.394	275.75
272.626	268.75
272.858	263.75
273.09	247.75
273.322	236.75
273.553	222.75
273.785	243.75
274.017	232.75
274.249	229.75
274.481	233.75
274.713	227.75
274.945	245.75
275.176	246.75
275.408	230.75
275.64	223.75
275.872	235.75
276.104	226.75
276.335	238.75
276.567	236.75
276.799	247.75
277.031	258.75
277.262	262.75
277.494	280.75
277.726	238.75
277.957	259.75
278.189	262.75
278.421	238.75
278.652	242.75
278.884	234.75
279.115	236.75
279.347	239.75
279.579	245.75
279.81	249.75
280.042	231.75
280.273	234.75
280.505	243.75
280.736	253.75
280.968	227.75
281.199	263.75
281.431	245.75
281.662	244.75
281.894	238.75
282.125	241.75
282.356	245.75
282.588	276.75
282.819	260.75
283.051	242.75
283.282	232.75
283.513	255.75
283.745	256.75
283.976	244.75
284.207	253.75
284.439	248.75
284.67	235.75
284.901	273.75
285.132	245.75
285.364	269.75
285.595	258.75
285.826	244.75
286.057	265.75
286.288	263.75
286.52	259.75
286.751	274.75
286.982	269.75
287.213	259.75
287.444	247.75
287.675	260.75
287.906	251.75
288.138	285.75
288.369	249.75
288.6	274.75
288.831	273.75
289.062	257.75
289.293	264.75
289.524	271.75
289.755	253.75
289.986	270.75
290.217	244.75
290.448	261.75
290.679	262.75
290.91	270.75
291.141	266.75
291.371	257.75
291.602	242.75
291.833	269.75
292.064	277.75
292.295	259.75
292.526	252.75
292.757	256.75
292.987	263.75
293.218	265.75
293.449	271.75
293.68	259.75
293.91	281.75
294.141	264.75
294.372	273.75
294.603	269.75
294.833	263.75
295.064	279.75
295.295	265.75
295.525	252.75
295.756	267.75
295.987	287.75
296.217	279.75
296.448	284.75
296.679	273.75
296.909	256.75
297.14	285.75
297.37	284.75
297.601	273.75
297.831	288.75
298.062	271.75
298.292	271.75
298.523	284.75
298.753	282.75
298.984	265.75
299.214	282.75
299.445	278.75
299.675	270.75
299.905	273.75
300.136	265.75
300.366	281.75
300.597	281.75
300.827	277.75
301.057	284.75
301.288	287.75
301.518	294.75
301.748	298.75
301.979	293.75
302.209	284.75
302.439	287.75
302.669	299.75
302.9	287.75
303.13	285.75
303.36	291.75
303.59	316.75
303.82	305.75
304.051	321.75
304.281	316.75
304.511	296.75
304.741	291.75
304.971	294.75
305.201	290.75
305.431	312.75
305.661	307.75
305.891	274.75
306.121	305.75
306.352	319.75
306.582	311.75
306.812	298.75
307.042	304.75
307.272	276.75
307.502	284.75
307.731	298.75
307.961	293.75
308.191	286.75
308.421	293.75
308.651	322.75
308.881	319.75
309.111	295.75
309.341	298.75
309.571	313.75
309.8	339.75
310.03	318.75
310.26	339.75
310.49	311.75
310.72	317.75
310.949	311.75
311.179	319.75
311.409	323.75
311.639	331.75
311.868	330.75
312.098	342.75
312.328	327.75
312.557	327.75
312.787	352.75
313.017	347.75
313.246	335.75
313.476	309.75
313.706	332.75
313.935	348.75
314.165	358.75
314.394	340.75
314.624	342.75
314.853	327.75
315.083	333.75
315.312	333.75
315.542	333.75
315.771	329.75
316.001	340.75
316.23	332.75
316.46	327.75
316.689	322.75
316.919	341.75
317.148	348.75
317.377	350.75
317.607	347.75
317.836	346.75
318.065	339.75
318.295	336.75
318.524	342.75
318.753	314.75
318.983	307.75
319.212	316.75
319.441	352.75
319.67	329.75
319.9	345.75
320.129	336.75
320.358	332.75
320.587	339.75
320.816	345.75
321.046	367.75
321.275	355.75
321.504	349.75
321.733	338.75
321.962	351.75
322.191	373.75
322.42	380.75
322.649	372.75
322.878	387.75
323.108	376.75
323.337	409.75
323.566	377.75
323.795	416.75
324.024	458.75
324.253	533.75
324.482	729.75
324.71	1053.75
324.939	1419.75
325.168	1187.75
325.397	657.75
325.626	497.75
325.855	418.75
326.084	390.75
326.313	406.75
326.542	420.75
326.77	441.75
326.999	515.75
327.228	673.75
327.457	923.75
327.686	1081.75
327.914	760.75
328.143	529.75
328.372	456.75
328.6	457.75
328.829	434.75
329.058	432.75
329.287	442.75
329.515	421.75
329.744	397.75
329.972	402.75
330.201	424.75
330.43	438.75
330.658	441.75
330.887	450.75
331.115	441.75
331.344	411.75
331.572	415.75
331.801	382.75
332.03	405.75
332.258	382.75
332.486	396.75
332.715	402.75
332.943	381.75
333.172	369.75
333.4	386.75
333.629	385.75
333.857	413.75
334.085	417.75
334.314	397.75
334.542	415.75
334.771	415.75
334.999	389.75
335.227	398.75
335.455	401.75
335.684	375.75
335.912	391.75
336.14	388.75
336.369	374.75
336.597	404.75
336.825	375.75
337.053	394.75
337.281	379.75
337.51	366.75
337.738	364.75
337.966	381.75
338.194	358.75
338.422	373.75
338.65	371.75
338.878	356.75
339.106	364.75
339.334	382.75
339.562	345.75
339.79	366.75
340.018	341.75
340.246	359.75
340.474	370.75
340.702	367.75
340.93	365.75
341.158	350.75
341.386	365.75
341.614	334.75
341.842	369.75
342.07	344.75
342.298	355.75
342.526	352.75
342.754	358.75
342.981	345.75
343.209	356.75
343.437	372.75
343.665	357.75
343.893	375.75
344.12	369.75
344.348	380.75
344.576	394.75
344.804	369.75
345.031	361.75
345.259	387.75
345.487	375.75
345.714	365.75
345.942	355.75
346.17	353.75
346.397	341.75
346.625	362.75
346.853	346.75
347.08	355.75
347.308	353.75
347.535	349.75
347.763	359.75
347.99	352.75
348.218	366.75
348.445	344.75
348.673	354.75
348.9	341.75
349.128	332.75
349.355	338.75
349.583	346.75
349.81	343.75
350.037	332.75
350.265	339.75
350.492	321.75
350.72	310.75
350.947	344.75
351.174	342.75
351.402	342.75
351.629	345.75
351.856	333.75
352.083	339.75
352.311	373.75
352.538	356.75
352.765	346.75
352.992	352.75
353.22	339.75
353.447	326.75
353.674	329.75
353.901	326.75
354.128	325.75
354.355	335.75
354.583	327.75
354.81	327.75
355.037	302.75
355.264	328.75
355.491	314.75
355.718	323.75
355.945	315.75
356.172	311.75
356.399	327.75
356.626	331.75
356.853	328.75
357.08	329.75
357.307	324.75
357.534	321.75
357.761	316.75
357.988	325.75
358.215	307.75
358.441	333.75
358.668	312.75
358.895	331.75
359.122	342.75
359.349	331.75
359.576	351.75
359.802	340.75
360.029	360.75
360.256	367.75
360.483	356.75
360.709	343.75
360.936	353.75
361.163	334.75
361.39	333.75
361.616	348.75
361.843	334.75
362.07	325.75
362.296	339.75
362.523	332.75
362.749	372.75
362.976	331.75
363.203	324.75
363.429	331.75
363.656	315.75
363.882	316.75
364.109	325.75
364.335	309.75
364.562	317.75
364.788	316.75
365.015	325.75
365.241	335.75
365.468	325.75
365.694	336.75
365.92	330.75
366.147	317.75
366.373	326.75
366.599	307.75
366.826	320.75
367.052	322.75
367.278	324.75
367.505	310.75
367.731	326.75
367.957	321.75
368.184	309.75
368.41	300.75
368.636	335.75
368.862	329.75
369.089	338.75
369.315	324.75
369.541	341.75
369.767	318.75
369.993	309.75
370.219	306.75
370.445	319.75
370.672	323.75
370.898	313.75
371.124	315.75
371.35	336.75
371.576	323.75
371.802	334.75
372.028	303.75
372.254	316.75
372.48	332.75
372.706	324.75
372.932	329.75
373.158	319.75
373.384	327.75
373.61	319.75
373.835	324.75
374.061	343.75
374.287	320.75
374.513	339.75
374.739	316.75
374.965	330.75
375.191	316.75
375.416	330.75
375.642	339.75
375.868	318.75
376.094	346.75
376.319	330.75
376.545	314.75
376.771	313.75
376.997	329.75
377.222	318.75
377.448	308.75
377.674	314.75
377.899	318.75
378.125	324.75
378.35	320.75
378.576	322.75
378.802	317.75
379.027	320.75
379.253	317.75
379.478	305.75
379.704	322.75
379.929	316.75
380.155	313.75
380.38	324.75
380.606	329.75
380.831	321.75
381.057	314.75
381.282	328.75
381.507	321.75
381.733	312.75
381.958	319.75
382.184	314.75
382.409	317.75
382.634	324.75
382.86	315.75
383.085	315.75
383.31	309.75
383.535	329.75
383.761	320.75
383.986	335.75
384.211	327.75
384.436	333.75
384.662	322.75
384.887	308.75
385.112	345.75
385.337	333.75
385.562	329.75
385.787	338.75
386.013	369.75
386.238	342.75
386.463	334.75
386.688	336.75
386.913	340.75
387.138	339.75
387.363	345.75
387.588	347.75
387.813	330.75
388.038	350.75
388.263	331.75
388.488	332.75
388.713	350.75
388.938	329.75
389.163	346.75
389.387	326.75
389.612	335.75
389.837	334.75
390.062	334.75
390.287	334.75
390.512	327.75
390.736	324.75
390.961	346.75
391.186	329.75
391.411	359.75
391.636	349.75
391.86	358.75
392.085	353.75
392.31	365.75
392.534	346.75
392.759	336.75
392.984	345.75
393.208	355.75
393.433	339.75
393.658	351.75
393.882	322.75
394.107	317.75
394.331	329.75
394.556	321.75
394.78	328.75
395.005	351.75
395.229	351.75
395.454	335.75
395.678	348.75
395.903	361.75
396.127	357.75
396.352	391.75
396.576	364.75
396.801	351.75
397.025	344.75
397.249	347.75
397.474	354.75
397.698	349.75
397.922	374.75
398.147	367.75
398.371	367.75
398.595	390.75
398.82	357.75
399.044	377.75
399.268	407.75
399.492	390.75
399.717	404.75
399.941	414.75
400.165	462.75
400.389	452.75
400.613	412.75
400.837	390.75
401.062	389.75
401.286	380.75
401.51	375.75
401.734	381.75
401.958	374.75
402.182	386.75
402.406	372.75
402.63	359.75
402.854	367.75
403.078	374.75
403.302	377.75
403.526	392.75
403.75	372.75
403.974	364.75
404.198	363.75
404.422	390.75
404.645	389.75
404.869	390.75
405.093	403.75
405.317	413.75
405.541	436.75
405.765	423.75
405.988	395.75
406.212	404.75
406.436	401.75
406.66	426.75
406.883	406.75
407.107	418.75
407.331	453.75
407.555	521.75
407.778	502.75
408.002	456.75
408.226	424.75
408.449	428.75
408.673	419.75
408.896	435.75
409.12	447.75
409.344	434.75
409.567	421.75
409.791	399.75
410.014	375.75
410.238	387.75
410.461	375.75
410.685	394.75
410.908	394.75
411.132	417.75
411.355	445.75
411.578	412.75
411.802	380.75
412.025	386.75
412.249	375.75
412.472	387.75
412.695	411.75
412.919	395.75
413.142	380.75
413.365	374.75
413.589	379.75
413.812	369.75
414.035	357.75
414.258	355.75
414.482	360.75
414.705	383.75
414.928	347.75
415.151	371.75
415.374	348.75
415.597	349.75
415.821	346.75
416.044	353.75
416.267	376.75
416.49	349.75
416.713	354.75
416.936	359.75
417.159	337.75
417.382	344.75
417.605	365.75
417.828	371.75
418.051	365.75
418.274	363.75
418.497	366.75
418.72	346.75
418.943	363.75
419.166	374.75
419.389	381.75
419.611	366.75
419.834	369.75
420.057	373.75
420.28	367.75
420.503	362.75
420.726	367.75
420.948	375.75
421.171	408.75
421.394	418.75
421.617	401.75
421.839	370.75
422.062	391.75
422.285	362.75
422.507	428.75
422.73	464.75
422.953	457.75
423.175	397.75
423.398	391.75
423.621	395.75
423.843	400.75
424.066	403.75
424.288	379.75
424.511	429.75
424.733	452.75
424.956	498.75
425.178	485.75
425.401	481.75
425.623	474.75
425.846	419.75
426.068	393.75
426.291	375.75
426.513	395.75
426.735	412.75
426.958	450.75
427.18	476.75
427.402	556.75
427.625	623.75
427.847	543.75
428.069	471.75
428.292	405.75
428.514	406.75
428.736	364.75
428.958	377.75
429.181	379.75
429.403	360.75
429.625	378.75
429.847	399.75
430.069	442.75
430.292	441.75
430.514	365.75
430.736	375.75
430.958	379.75
431.18	346.75
431.402	363.75
431.624	341.75
431.846	333.75
432.068	349.75
432.29	359.75
432.512	347.75
432.734	358.75
432.956	355.75
433.178	350.75
433.4	356.75
433.622	364.75
433.844	362.75
434.066	351.75
434.287	347.75
434.509	349.75
434.731	376.75
434.953	383.75
435.175	351.75
435.397	378.75
435.618	394.75
435.84	417.75
436.062	481.75
436.284	527.75
436.505	454.75
436.727	405.75
436.949	377.75
437.17	358.75
437.392	369.75
437.614	364.75
437.835	391.75
438.057	450.75
438.278	505.75
438.5	513.75
438.721	603.75
438.943	565.75
439.165	453.75
439.386	412.75
439.608	398.75
439.829	403.75
440.05	420.75
440.272	431.75
440.493	426.75
440.715	379.75
440.936	381.75
441.158	370.75
441.379	363.75
441.6	377.75
441.822	394.75
442.043	405.75
442.264	479.75
442.486	472.75
442.707	425.75
442.928	391.75
443.149	420.75
443.371	414.75
443.592	442.75
443.813	491.75
444.034	524.75
444.255	459.75
444.476	423.75
444.698	383.75
444.919	397.75
445.14	540.75
445.361	465.75
445.582	429.75
445.803	437.75
446.024	527.75
446.245	519.75
446.466	478.75
446.687	419.75
446.908	404.75
447.129	371.75
447.35	387.75
447.571	354.75
447.792	366.75
448.013	371.75
448.234	384.75
448.455	391.75
448.675	500.75
448.896	537.75
449.117	474.75
449.338	446.75
449.559	519.75
449.779	577.75
450	485.75
450.221	423.75
450.442	379.75
450.662	369.75
450.883	358.75
451.104	355.75
451.324	339.75
451.545	366.75
451.766	336.75
451.986	342.75
452.207	338.75
452.428	339.75
452.648	324.75
452.869	318.75
453.089	339.75
453.31	356.75
453.53	337.75
453.751	330.75
453.971	339.75
454.192	334.75
454.412	317.75
454.633	322.75
454.853	313.75
455.073	304.75
455.294	332.75
455.514	358.75
455.734	351.75
455.955	338.75
456.175	319.75
456.395	309.75
456.616	301.75
456.836	298.75
457.056	287.75
457.276	301.75
457.497	313.75
457.717	301.75
457.937	313.75
458.157	324.75
458.377	331.75
458.598	326.75
458.818	350.75
459.038	405.75
459.258	417.75
459.478	365.75
459.698	343.75
459.918	356.75
460.138	350.75
460.358	330.75
460.578	357.75
460.798	337.75
461.018	356.75
461.238	352.75
461.458	343.75
461.678	345.75
461.898	345.75
462.118	345.75
462.338	352.75
462.558	366.75
462.777	363.75
462.997	364.75
463.217	360.75
463.437	375.75
463.657	357.75
463.876	353.75
464.096	375.75
464.316	367.75
464.536	376.75
464.755	364.75
464.975	360.75
465.195	398.75
465.414	402.75
465.634	396.75
465.854	357.75
466.073	373.75
466.293	369.75
466.512	344.75
466.732	334.75
466.951	333.75
467.171	333.75
467.391	346.75
467.61	338.75
467.829	333.75
468.049	321.75
468.268	324.75
468.488	331.75
468.707	350.75
468.927	340.75
469.146	342.75
469.365	325.75
469.585	326.75
469.804	355.75
470.023	346.75
470.243	351.75
470.462	346.75
470.681	348.75
470.901	340.75
471.12	321.75
471.339	341.75
471.558	331.75
471.777	356.75
471.997	338.75
472.216	333.75
472.435	335.75
472.654	348.75
472.873	321.75
473.092	342.75
473.311	343.75
473.53	351.75
473.749	348.75
473.968	359.75
474.187	413.75
474.406	423.75
474.625	375.75
474.844	374.75
475.063	330.75
475.282	347.75
475.501	342.75
475.72	343.75
475.939	355.75
476.158	350.75
476.377	365.75
476.596	360.75
476.814	347.75
477.033	359.75
477.252	360.75
477.471	358.75
477.69	362.75
477.908	364.75
478.127	352.75
478.346	371.75
478.564	382.75
478.783	368.75
479.002	397.75
479.22	369.75
479.439	411.75
479.658	390.75
479.876	398.75
480.095	389.75
480.313	409.75
480.532	395.75
480.751	407.75
480.969	424.75
481.188	422.75
481.406	429.75
481.624	434.75
481.843	395.75
482.061	410.75
482.28	385.75
482.498	367.75
482.717	385.75
482.935	397.75
483.153	392.75
483.372	394.75
483.59	401.75
483.808	392.75
484.027	385.75
484.245	383.75
484.463	394.75
484.681	395.75
484.9	380.75
485.118	419.75
485.336	389.75
485.554	372.75
485.772	392.75
485.99	417.75
486.209	396.75
486.427	405.75
486.645	399.75
486.863	426.75
487.081	418.75
487.299	421.75
487.517	420.75
487.735	439.75
487.953	410.75
488.171	419.75
488.389	418.75
488.607	435.75
488.825	431.75
489.043	410.75
489.261	421.75
489.479	423.75
489.696	427.75
489.914	423.75
490.132	440.75
490.35	430.75
490.568	431.75
490.786	451.75
491.003	440.75
491.221	460.75
491.439	470.75
491.657	476.75
491.874	475.75
492.092	465.75
492.31	486.75
492.527	490.75
492.745	495.75
492.963	492.75
493.18	473.75
493.398	488.75
493.615	474.75
493.833	484.75
494.05	467.75
494.268	463.75
494.485	470.75
494.703	463.75
494.92	491.75
495.138	483.75
495.355	471.75
495.573	489.75
495.79	476.75
496.008	493.75
496.225	476.75
496.442	483.75
496.66	487.75
496.877	495.75
497.094	505.75
497.312	482.75
497.529	507.75
497.746	517.75
497.963	527.75
498.181	534.75
498.398	522.75
498.615	557.75
498.832	545.75
499.049	547.75
499.267	567.75
499.484	610.75
499.701	591.75
499.918	617.75
500.135	647.75
500.352	665.75
500.569	649.75
500.786	665.75
501.003	651.75
501.22	645.75
501.437	615.75
501.654	613.75
501.871	604.75
