Data from 1971.PennyLincolnUp.Lamp.En5.5.200Scan.071719.P1.Scan 2. Changed Angle._HRD10591_15-24-48-842.txt Node
Date: Thu Jul 18 15:24:48 EDT 2019
User: cochatt
Spectrometer: HR+D1059
Trigger mode: 1
Integration Time (sec): 1.000000E-1
Scans to average: 1
Electric dark correction enabled: true
Nonlinearity correction enabled: false
Boxcar width: 0
XAxis mode: Wavelengths
Number of Pixels in Spectrum: 2048
>>>>>Begin Spectral Data<<<<<
223.165	-10.75
223.4	-10.75
223.635	-10.75
223.869	-17.75
224.104	-11.75
224.338	-14.75
224.573	-23.75
224.808	-11.75
225.042	-3.75
225.277	-6.75
225.511	-8.75
225.746	0.25
225.98	10.25
226.215	2.25
226.449	9.25
226.683	26.25
226.918	26.25
227.152	35.25
227.387	23.25
227.621	45.25
227.856	43.25
228.09	44.25
228.324	39.25
228.559	54.25
228.793	67.25
229.027	98.25
229.262	126.25
229.496	132.25
229.73	150.25
229.964	180.25
230.199	140.25
230.433	135.25
230.667	117.25
230.901	129.25
231.136	111.25
231.37	134.25
231.604	122.25
231.838	116.25
232.072	120.25
232.306	112.25
232.541	118.25
232.775	113.25
233.009	135.25
233.243	121.25
233.477	109.25
233.711	120.25
233.945	140.25
234.179	137.25
234.413	124.25
234.647	145.25
234.881	134.25
235.115	126.25
235.349	129.25
235.583	121.25
235.817	127.25
236.051	151.25
236.285	140.25
236.519	136.25
236.753	139.25
236.987	179.25
237.221	235.25
237.455	270.25
237.689	216.25
237.922	168.25
238.156	147.25
238.39	127.25
238.624	138.25
238.858	140.25
239.091	135.25
239.325	131.25
239.559	134.25
239.793	157.25
240.027	148.25
240.26	164.25
240.494	180.25
240.728	163.25
240.961	161.25
241.195	165.25
241.429	153.25
241.662	152.25
241.896	150.25
242.13	151.25
242.363	152.25
242.597	153.25
242.83	148.25
243.064	154.25
243.298	156.25
243.531	156.25
243.765	163.25
243.998	150.25
244.232	148.25
244.465	154.25
244.699	164.25
244.932	149.25
245.166	170.25
245.399	142.25
245.633	156.25
245.866	152.25
246.099	156.25
246.333	152.25
246.566	172.25
246.8	152.25
247.033	160.25
247.266	170.25
247.5	175.25
247.733	185.25
247.966	191.25
248.2	187.25
248.433	184.25
248.666	195.25
248.899	214.25
249.133	230.25
249.366	244.25
249.599	217.25
249.832	196.25
250.066	207.25
250.299	198.25
250.532	219.25
250.765	220.25
250.998	238.25
251.231	257.25
251.465	224.25
251.698	221.25
251.931	220.25
252.164	232.25
252.397	204.25
252.63	209.25
252.863	245.25
253.096	255.25
253.329	270.25
253.562	249.25
253.795	242.25
254.028	247.25
254.261	239.25
254.494	260.25
254.727	288.25
254.96	310.25
255.193	314.25
255.426	278.25
255.659	270.25
255.892	261.25
256.124	257.25
256.357	284.25
256.59	259.25
256.823	238.25
257.056	247.25
257.289	235.25
257.521	234.25
257.754	225.25
257.987	215.25
258.22	235.25
258.452	221.25
258.685	237.25
258.918	230.25
259.151	221.25
259.383	233.25
259.616	243.25
259.849	238.25
260.081	260.25
260.314	282.25
260.547	291.25
260.779	277.25
261.012	278.25
261.244	264.25
261.477	243.25
261.71	238.25
261.942	250.25
262.175	260.25
262.407	257.25
262.64	252.25
262.872	237.25
263.105	216.25
263.337	238.25
263.57	245.25
263.802	218.25
264.035	233.25
264.267	232.25
264.499	212.25
264.732	222.25
264.964	226.25
265.197	242.25
265.429	227.25
265.661	229.25
265.894	229.25
266.126	217.25
266.358	235.25
266.591	228.25
266.823	246.25
267.055	242.25
267.287	239.25
267.52	226.25
267.752	247.25
267.984	244.25
268.216	244.25
268.448	248.25
268.681	245.25
268.913	261.25
269.145	284.25
269.377	300.25
269.609	315.25
269.841	291.25
270.073	295.25
270.306	288.25
270.538	332.25
270.77	328.25
271.002	355.25
271.234	319.25
271.466	324.25
271.698	334.25
271.93	362.25
272.162	343.25
272.394	335.25
272.626	334.25
272.858	315.25
273.09	302.25
273.322	297.25
273.553	274.25
273.785	281.25
274.017	272.25
274.249	290.25
274.481	288.25
274.713	291.25
274.945	273.25
275.176	272.25
275.408	274.25
275.64	292.25
275.872	276.25
276.104	286.25
276.335	272.25
276.567	278.25
276.799	312.25
277.031	322.25
277.262	346.25
277.494	326.25
277.726	315.25
277.957	303.25
278.189	295.25
278.421	288.25
278.652	295.25
278.884	292.25
279.115	280.25
279.347	282.25
279.579	271.25
279.81	278.25
280.042	280.25
280.273	251.25
280.505	279.25
280.736	276.25
280.968	272.25
281.199	292.25
281.431	277.25
281.662	271.25
281.894	268.25
282.125	282.25
282.356	299.25
282.588	333.25
282.819	348.25
283.051	285.25
283.282	281.25
283.513	291.25
283.745	296.25
283.976	295.25
284.207	282.25
284.439	290.25
284.67	278.25
284.901	278.25
285.132	291.25
285.364	277.25
285.595	262.25
285.826	275.25
286.057	273.25
286.288	288.25
286.52	280.25
286.751	272.25
286.982	288.25
287.213	287.25
287.444	267.25
287.675	288.25
287.906	310.25
288.138	295.25
288.369	304.25
288.6	303.25
288.831	318.25
289.062	301.25
289.293	298.25
289.524	282.25
289.755	276.25
289.986	287.25
290.217	294.25
290.448	280.25
290.679	283.25
290.91	298.25
291.141	280.25
291.371	299.25
291.602	280.25
291.833	282.25
292.064	283.25
292.295	276.25
292.526	295.25
292.757	283.25
292.987	290.25
293.218	290.25
293.449	291.25
293.68	278.25
293.91	274.25
294.141	274.25
294.372	294.25
294.603	286.25
294.833	293.25
295.064	317.25
295.295	298.25
295.525	294.25
295.756	319.25
295.987	318.25
296.217	345.25
296.448	348.25
296.679	298.25
296.909	296.25
297.14	293.25
297.37	296.25
297.601	306.25
297.831	301.25
298.062	270.25
298.292	308.25
298.523	304.25
298.753	318.25
298.984	284.25
299.214	300.25
299.445	308.25
299.675	326.25
299.905	324.25
300.136	310.25
300.366	307.25
300.597	291.25
300.827	326.25
301.057	322.25
301.288	325.25
301.518	327.25
301.748	326.25
301.979	319.25
302.209	346.25
302.439	350.25
302.669	304.25
302.9	323.25
303.13	330.25
303.36	340.25
303.59	336.25
303.82	332.25
304.051	350.25
304.281	338.25
304.511	328.25
304.741	330.25
304.971	318.25
305.201	306.25
305.431	323.25
305.661	322.25
305.891	307.25
306.121	323.25
306.352	323.25
306.582	347.25
306.812	320.25
307.042	339.25
307.272	340.25
307.502	328.25
307.731	326.25
307.961	323.25
308.191	340.25
308.421	341.25
308.651	324.25
308.881	344.25
309.111	352.25
309.341	354.25
309.571	343.25
309.8	378.25
310.03	388.25
310.26	395.25
310.49	382.25
310.72	399.25
310.949	440.25
311.179	435.25
311.409	412.25
311.639	409.25
311.868	389.25
312.098	380.25
312.328	410.25
312.557	453.25
312.787	452.25
313.017	447.25
313.246	401.25
313.476	381.25
313.706	412.25
313.935	406.25
314.165	428.25
314.394	428.25
314.624	422.25
314.853	421.25
315.083	397.25
315.312	404.25
315.542	401.25
315.771	389.25
316.001	379.25
316.23	369.25
316.46	387.25
316.689	394.25
316.919	410.25
317.148	391.25
317.377	403.25
317.607	394.25
317.836	415.25
318.065	383.25
318.295	399.25
318.524	391.25
318.753	380.25
318.983	394.25
319.212	395.25
319.441	389.25
319.67	413.25
319.9	408.25
320.129	417.25
320.358	398.25
320.587	409.25
320.816	428.25
321.046	422.25
321.275	420.25
321.504	432.25
321.733	412.25
321.962	434.25
322.191	457.25
322.42	460.25
322.649	494.25
322.878	484.25
323.108	502.25
323.337	562.25
323.566	588.25
323.795	615.25
324.024	695.25
324.253	877.25
324.482	1275.25
324.71	1952.25
324.939	2830.25
325.168	2444.25
325.397	1225.25
325.626	836.25
325.855	662.25
326.084	596.25
326.313	575.25
326.542	596.25
326.77	653.25
326.999	778.25
327.228	1095.25
327.457	1722.25
327.686	2087.25
327.914	1398.25
328.143	883.25
328.372	757.25
328.6	709.25
328.829	651.25
329.058	688.25
329.287	703.25
329.515	642.25
329.744	598.25
329.972	598.25
330.201	623.25
330.43	674.25
330.658	707.25
330.887	732.25
331.115	720.25
331.344	612.25
331.572	568.25
331.801	538.25
332.03	548.25
332.258	499.25
332.486	495.25
332.715	485.25
332.943	460.25
333.172	463.25
333.4	482.25
333.629	498.25
333.857	495.25
334.085	536.25
334.314	534.25
334.542	574.25
334.771	607.25
334.999	550.25
335.227	501.25
335.455	483.25
335.684	459.25
335.912	459.25
336.14	461.25
336.369	477.25
336.597	476.25
336.825	466.25
337.053	458.25
337.281	449.25
337.51	451.25
337.738	464.25
337.966	453.25
338.194	474.25
338.422	451.25
338.65	466.25
338.878	448.25
339.106	436.25
339.334	446.25
339.562	448.25
339.79	445.25
340.018	449.25
340.246	462.25
340.474	459.25
340.702	484.25
340.93	447.25
341.158	438.25
341.386	454.25
341.614	457.25
341.842	456.25
342.07	446.25
342.298	432.25
342.526	432.25
342.754	438.25
342.981	435.25
343.209	426.25
343.437	440.25
343.665	413.25
343.893	430.25
344.12	448.25
344.348	427.25
344.576	444.25
344.804	459.25
345.031	479.25
345.259	465.25
345.487	471.25
345.714	458.25
345.942	456.25
346.17	441.25
346.397	431.25
346.625	447.25
346.853	461.25
347.08	418.25
347.308	443.25
347.535	474.25
347.763	453.25
347.99	482.25
348.218	444.25
348.445	463.25
348.673	482.25
348.9	452.25
349.128	459.25
349.355	419.25
349.583	422.25
349.81	437.25
350.037	414.25
350.265	440.25
350.492	427.25
350.72	431.25
350.947	448.25
351.174	452.25
351.402	464.25
351.629	469.25
351.856	450.25
352.083	474.25
352.311	462.25
352.538	469.25
352.765	482.25
352.992	473.25
353.22	458.25
353.447	454.25
353.674	444.25
353.901	437.25
354.128	423.25
354.355	438.25
354.583	434.25
354.81	420.25
355.037	405.25
355.264	383.25
355.491	404.25
355.718	398.25
355.945	389.25
356.172	397.25
356.399	388.25
356.626	412.25
356.853	391.25
357.08	423.25
357.307	399.25
357.534	395.25
357.761	402.25
357.988	402.25
358.215	413.25
358.441	415.25
358.668	435.25
358.895	426.25
359.122	418.25
359.349	431.25
359.576	447.25
359.802	480.25
360.029	507.25
360.256	567.25
360.483	514.25
360.709	474.25
360.936	451.25
361.163	475.25
361.39	467.25
361.616	460.25
361.843	428.25
362.07	450.25
362.296	466.25
362.523	450.25
362.749	452.25
362.976	458.25
363.203	422.25
363.429	434.25
363.656	436.25
363.882	412.25
364.109	436.25
364.335	433.25
364.562	414.25
364.788	439.25
365.015	452.25
365.241	429.25
365.468	439.25
365.694	444.25
365.92	439.25
366.147	434.25
366.373	427.25
366.599	431.25
366.826	428.25
367.052	410.25
367.278	434.25
367.505	439.25
367.731	431.25
367.957	414.25
368.184	423.25
368.41	424.25
368.636	424.25
368.862	452.25
369.089	467.25
369.315	444.25
369.541	429.25
369.767	424.25
369.993	430.25
370.219	429.25
370.445	421.25
370.672	416.25
370.898	396.25
371.124	414.25
371.35	419.25
371.576	414.25
371.802	424.25
372.028	436.25
372.254	417.25
372.48	404.25
372.706	422.25
372.932	413.25
373.158	420.25
373.384	431.25
373.61	436.25
373.835	418.25
374.061	415.25
374.287	421.25
374.513	410.25
374.739	438.25
374.965	438.25
375.191	429.25
375.416	416.25
375.642	431.25
375.868	420.25
376.094	438.25
376.319	412.25
376.545	429.25
376.771	400.25
376.997	418.25
377.222	401.25
377.448	403.25
377.674	425.25
377.899	414.25
378.125	411.25
378.35	407.25
378.576	408.25
378.802	430.25
379.027	411.25
379.253	425.25
379.478	411.25
379.704	431.25
379.929	410.25
380.155	425.25
380.38	413.25
380.606	397.25
380.831	438.25
381.057	435.25
381.282	412.25
381.507	406.25
381.733	424.25
381.958	416.25
382.184	435.25
382.409	412.25
382.634	423.25
382.86	427.25
383.085	442.25
383.31	426.25
383.535	446.25
383.761	427.25
383.986	444.25
384.211	440.25
384.436	437.25
384.662	447.25
384.887	441.25
385.112	425.25
385.337	443.25
385.562	438.25
385.787	448.25
386.013	464.25
386.238	483.25
386.463	458.25
386.688	459.25
386.913	453.25
387.138	444.25
387.363	464.25
387.588	431.25
387.813	452.25
388.038	455.25
388.263	455.25
388.488	463.25
388.713	458.25
388.938	437.25
389.163	471.25
389.387	464.25
389.612	459.25
389.837	459.25
390.062	447.25
390.287	437.25
390.512	457.25
390.736	444.25
390.961	455.25
391.186	482.25
391.411	458.25
391.636	478.25
391.86	476.25
392.085	452.25
392.31	460.25
392.534	457.25
392.759	460.25
392.984	462.25
393.208	467.25
393.433	455.25
393.658	464.25
393.882	456.25
394.107	456.25
394.331	483.25
394.556	458.25
394.78	456.25
395.005	467.25
395.229	479.25
395.454	476.25
395.678	466.25
395.903	484.25
396.127	499.25
396.352	528.25
396.576	483.25
396.801	486.25
397.025	469.25
397.249	468.25
397.474	494.25
397.698	493.25
397.922	506.25
398.147	521.25
398.371	541.25
398.595	488.25
398.82	532.25
399.044	524.25
399.268	524.25
399.492	546.25
399.717	579.25
399.941	598.25
400.165	621.25
400.389	646.25
400.613	609.25
400.837	564.25
401.062	542.25
401.286	555.25
401.51	540.25
401.734	519.25
401.958	540.25
402.182	551.25
402.406	550.25
402.63	542.25
402.854	551.25
403.078	537.25
403.302	558.25
403.526	551.25
403.75	543.25
403.974	538.25
404.198	541.25
404.422	578.25
404.645	580.25
404.869	571.25
405.093	591.25
405.317	639.25
405.541	681.25
405.765	622.25
405.988	617.25
406.212	595.25
406.436	624.25
406.66	642.25
406.883	646.25
407.107	643.25
407.331	696.25
407.555	746.25
407.778	727.25
408.002	668.25
408.226	636.25
408.449	618.25
408.673	632.25
408.896	641.25
409.12	696.25
409.344	656.25
409.567	570.25
409.791	554.25
410.014	570.25
410.238	555.25
410.461	570.25
410.685	583.25
410.908	568.25
411.132	618.25
411.355	635.25
411.578	640.25
411.802	586.25
412.025	570.25
412.249	571.25
412.472	609.25
412.695	630.25
412.919	594.25
413.142	578.25
413.365	542.25
413.589	537.25
413.812	558.25
414.035	529.25
414.258	520.25
414.482	510.25
414.705	532.25
414.928	532.25
415.151	508.25
415.374	526.25
415.597	520.25
415.821	529.25
416.044	512.25
416.267	525.25
416.49	527.25
416.713	511.25
416.936	533.25
417.159	536.25
417.382	546.25
417.605	554.25
417.828	562.25
418.051	557.25
418.274	559.25
418.497	550.25
418.72	544.25
418.943	556.25
419.166	549.25
419.389	560.25
419.611	574.25
419.834	552.25
420.057	572.25
420.28	568.25
420.503	544.25
420.726	553.25
420.948	573.25
421.171	631.25
421.394	663.25
421.617	590.25
421.839	576.25
422.062	588.25
422.285	603.25
422.507	657.25
422.73	739.25
422.953	732.25
423.175	647.25
423.398	609.25
423.621	584.25
423.843	600.25
424.066	599.25
424.288	631.25
424.511	646.25
424.733	702.25
424.956	805.25
425.178	765.25
425.401	770.25
425.623	802.25
425.846	692.25
426.068	634.25
426.291	630.25
426.513	620.25
426.735	644.25
426.958	683.25
427.18	797.25
427.402	947.25
427.625	1005.25
427.847	932.25
428.069	819.25
428.292	725.25
428.514	654.25
428.736	637.25
428.958	613.25
429.181	612.25
429.403	612.25
429.625	596.25
429.847	651.25
430.069	730.25
430.292	697.25
430.514	621.25
430.736	582.25
430.958	583.25
431.18	558.25
431.402	582.25
431.624	538.25
431.846	527.25
432.068	537.25
432.29	543.25
432.512	543.25
432.734	565.25
432.956	537.25
433.178	564.25
433.4	584.25
433.622	545.25
433.844	548.25
434.066	555.25
434.287	542.25
434.509	512.25
434.731	541.25
434.953	577.25
435.175	577.25
435.397	595.25
435.618	634.25
435.84	682.25
436.062	804.25
436.284	871.25
436.505	731.25
436.727	682.25
436.949	620.25
437.17	597.25
437.392	578.25
437.614	629.25
437.835	659.25
438.057	791.25
438.278	888.25
438.5	895.25
438.721	957.25
438.943	913.25
439.165	751.25
439.386	674.25
439.608	659.25
439.829	681.25
440.05	694.25
440.272	732.25
440.493	702.25
440.715	657.25
440.936	617.25
441.158	600.25
441.379	593.25
441.6	616.25
441.822	651.25
442.043	675.25
442.264	778.25
442.486	855.25
442.707	720.25
442.928	668.25
443.149	667.25
443.371	694.25
443.592	729.25
443.813	847.25
444.034	912.25
444.255	756.25
444.476	660.25
444.698	632.25
444.919	650.25
445.14	761.25
445.361	688.25
445.582	714.25
445.803	786.25
446.024	912.25
446.245	895.25
446.466	804.25
446.687	707.25
446.908	658.25
447.129	621.25
447.35	590.25
447.571	632.25
447.792	600.25
448.013	581.25
448.234	637.25
448.455	671.25
448.675	834.25
448.896	927.25
449.117	809.25
449.338	756.25
449.559	906.25
449.779	994.25
450	785.25
450.221	664.25
450.442	598.25
450.662	578.25
450.883	615.25
451.104	621.25
451.324	634.25
451.545	584.25
451.766	540.25
451.986	571.25
452.207	527.25
452.428	518.25
452.648	548.25
452.869	543.25
453.089	534.25
453.31	540.25
453.53	552.25
453.751	529.25
453.971	540.25
454.192	581.25
454.412	576.25
454.633	543.25
454.853	530.25
455.073	518.25
455.294	556.25
455.514	663.25
455.734	633.25
455.955	565.25
456.175	515.25
456.395	498.25
456.616	486.25
456.836	514.25
457.056	478.25
457.276	502.25
457.497	496.25
457.717	507.25
457.937	515.25
458.157	492.25
458.377	492.25
458.598	523.25
458.818	607.25
459.038	728.25
459.258	730.25
459.478	634.25
459.698	577.25
459.918	535.25
460.138	507.25
460.358	514.25
460.578	531.25
460.798	558.25
461.018	532.25
461.238	522.25
461.458	534.25
461.678	543.25
461.898	538.25
462.118	548.25
462.338	532.25
462.558	581.25
462.777	534.25
462.997	568.25
463.217	558.25
463.437	566.25
463.657	548.25
463.876	575.25
464.096	548.25
464.316	556.25
464.536	563.25
464.755	587.25
464.975	581.25
465.195	674.25
465.414	751.25
465.634	667.25
465.854	628.25
466.073	580.25
466.293	528.25
466.512	537.25
466.732	538.25
466.951	537.25
467.171	534.25
467.391	528.25
467.61	573.25
467.829	580.25
468.049	556.25
468.268	574.25
468.488	541.25
468.707	520.25
468.927	511.25
469.146	504.25
469.365	526.25
469.585	510.25
469.804	521.25
470.023	549.25
470.243	560.25
470.462	542.25
470.681	586.25
470.901	586.25
471.12	567.25
471.339	556.25
471.558	557.25
471.777	544.25
471.997	555.25
472.216	554.25
472.435	611.25
472.654	589.25
472.873	568.25
473.092	559.25
473.311	554.25
473.53	552.25
473.749	568.25
473.968	608.25
474.187	744.25
474.406	754.25
474.625	658.25
474.844	586.25
475.063	574.25
475.282	556.25
475.501	573.25
475.72	563.25
475.939	552.25
476.158	554.25
476.377	564.25
476.596	567.25
476.814	557.25
477.033	581.25
477.252	580.25
477.471	574.25
477.69	609.25
477.908	603.25
478.127	586.25
478.346	595.25
478.564	596.25
478.783	612.25
479.002	636.25
479.22	630.25
479.439	656.25
479.658	687.25
479.876	638.25
480.095	694.25
480.313	758.25
480.532	677.25
480.751	662.25
480.969	686.25
481.188	744.25
481.406	843.25
481.624	704.25
481.843	684.25
482.061	679.25
482.28	664.25
482.498	656.25
482.717	650.25
482.935	652.25
483.153	648.25
483.372	667.25
483.59	650.25
483.808	644.25
484.027	669.25
484.245	644.25
484.463	670.25
484.681	682.25
484.9	667.25
485.118	680.25
485.336	681.25
485.554	671.25
485.772	688.25
485.99	647.25
486.209	698.25
486.427	692.25
486.645	715.25
486.863	738.25
487.081	726.25
487.299	724.25
487.517	737.25
487.735	710.25
487.953	714.25
488.171	693.25
488.389	701.25
488.607	703.25
488.825	710.25
489.043	724.25
489.261	694.25
489.479	724.25
489.696	739.25
489.914	712.25
490.132	738.25
490.35	783.25
490.568	790.25
490.786	764.25
491.003	756.25
491.221	803.25
491.439	827.25
491.657	826.25
491.874	840.25
492.092	836.25
492.31	843.25
492.527	855.25
492.745	870.25
492.963	837.25
493.18	844.25
493.398	875.25
493.615	882.25
493.833	861.25
494.05	870.25
494.268	862.25
494.485	852.25
494.703	858.25
494.92	844.25
495.138	876.25
495.355	873.25
495.573	843.25
495.79	874.25
496.008	867.25
496.225	844.25
496.442	854.25
496.66	864.25
496.877	851.25
497.094	853.25
497.312	874.25
497.529	888.25
497.746	862.25
497.963	878.25
498.181	920.25
498.398	920.25
498.615	910.25
498.832	915.25
499.049	946.25
499.267	923.25
499.484	932.25
499.701	971.25
499.918	1007.25
500.135	984.25
500.352	1006.25
500.569	1028.25
500.786	1042.25
501.003	1043.25
501.22	1040.25
501.437	1011.25
