Data from 1971.PennyLincolnUp.Lamp.En5.5.200Scan.071719.P1._HRD10591_15-18-50-841.txt Node
Date: Thu Jul 18 15:18:50 EDT 2019
User: cochatt
Spectrometer: HR+D1059
Trigger mode: 1
Integration Time (sec): 1.000000E-1
Scans to average: 1
Electric dark correction enabled: true
Nonlinearity correction enabled: false
Boxcar width: 0
XAxis mode: Wavelengths
Number of Pixels in Spectrum: 2048
>>>>>Begin Spectral Data<<<<<
223.165	-20.25
223.4	-20.25
223.635	-20.25
223.869	-8.25
224.104	-20.25
224.338	-13.25
224.573	2.75
224.808	-14.25
225.042	-1.25
225.277	8.75
225.511	-3.25
225.746	8.75
225.98	-11.25
226.215	8.75
226.449	12.75
226.683	11.75
226.918	14.75
227.152	23.75
227.387	36.75
227.621	40.75
227.856	45.75
228.09	29.75
228.324	55.75
228.559	55.75
228.793	63.75
229.027	96.75
229.262	97.75
229.496	100.75
229.73	126.75
229.964	142.75
230.199	112.75
230.433	123.75
230.667	109.75
230.901	97.75
231.136	98.75
231.37	110.75
231.604	120.75
231.838	111.75
232.072	112.75
232.306	96.75
232.541	108.75
232.775	115.75
233.009	116.75
233.243	99.75
233.477	106.75
233.711	103.75
233.945	115.75
234.179	103.75
234.413	115.75
234.647	103.75
234.881	110.75
235.115	125.75
235.349	111.75
235.583	126.75
235.817	107.75
236.051	121.75
236.285	127.75
236.519	133.75
236.753	117.75
236.987	139.75
237.221	174.75
237.455	191.75
237.689	166.75
237.922	124.75
238.156	122.75
238.39	118.75
238.624	122.75
238.858	125.75
239.091	121.75
239.325	128.75
239.559	130.75
239.793	107.75
240.027	122.75
240.26	146.75
240.494	138.75
240.728	151.75
240.961	141.75
241.195	148.75
241.429	130.75
241.662	144.75
241.896	132.75
242.13	128.75
242.363	132.75
242.597	141.75
242.83	129.75
243.064	125.75
243.298	141.75
243.531	133.75
243.765	121.75
243.998	130.75
244.232	144.75
244.465	130.75
244.699	138.75
244.932	142.75
245.166	153.75
245.399	136.75
245.633	150.75
245.866	152.75
246.099	138.75
246.333	145.75
246.566	161.75
246.8	146.75
247.033	160.75
247.266	147.75
247.5	151.75
247.733	156.75
247.966	165.75
248.2	156.75
248.433	160.75
248.666	165.75
248.899	174.75
249.133	192.75
249.366	197.75
249.599	195.75
249.832	178.75
250.066	179.75
250.299	180.75
250.532	202.75
250.765	200.75
250.998	206.75
251.231	220.75
251.465	204.75
251.698	194.75
251.931	211.75
252.164	211.75
252.397	196.75
252.63	196.75
252.863	189.75
253.096	205.75
253.329	215.75
253.562	222.75
253.795	216.75
254.028	219.75
254.261	216.75
254.494	218.75
254.727	235.75
254.96	253.75
255.193	278.75
255.426	231.75
255.659	235.75
255.892	231.75
256.124	242.75
256.357	233.75
256.59	210.75
256.823	205.75
257.056	215.75
257.289	201.75
257.521	204.75
257.754	191.75
257.987	200.75
258.22	219.75
258.452	227.75
258.685	196.75
258.918	206.75
259.151	200.75
259.383	212.75
259.616	206.75
259.849	214.75
260.081	226.75
260.314	233.75
260.547	241.75
260.779	247.75
261.012	227.75
261.244	235.75
261.477	219.75
261.71	222.75
261.942	235.75
262.175	238.75
262.407	227.75
262.64	218.75
262.872	223.75
263.105	212.75
263.337	230.75
263.57	211.75
263.802	205.75
264.035	216.75
264.267	204.75
264.499	214.75
264.732	219.75
264.964	216.75
265.197	204.75
265.429	222.75
265.661	212.75
265.894	197.75
266.126	214.75
266.358	198.75
266.591	207.75
266.823	190.75
267.055	206.75
267.287	216.75
267.52	228.75
267.752	220.75
267.984	225.75
268.216	226.75
268.448	234.75
268.681	238.75
268.913	247.75
269.145	272.75
269.377	259.75
269.609	289.75
269.841	263.75
270.073	259.75
270.306	296.75
270.538	296.75
270.77	314.75
271.002	299.75
271.234	302.75
271.466	298.75
271.698	300.75
271.93	303.75
272.162	297.75
272.394	298.75
272.626	292.75
272.858	286.75
273.09	253.75
273.322	270.75
273.553	267.75
273.785	272.75
274.017	266.75
274.249	259.75
274.481	247.75
274.713	244.75
274.945	261.75
275.176	269.75
275.408	277.75
275.64	254.75
275.872	257.75
276.104	259.75
276.335	267.75
276.567	287.75
276.799	275.75
277.031	295.75
277.262	307.75
277.494	312.75
277.726	288.75
277.957	272.75
278.189	253.75
278.421	273.75
278.652	263.75
278.884	299.75
279.115	260.75
279.347	259.75
279.579	245.75
279.81	257.75
280.042	260.75
280.273	254.75
280.505	276.75
280.736	245.75
280.968	277.75
281.199	250.75
281.431	262.75
281.662	271.75
281.894	266.75
282.125	267.75
282.356	279.75
282.588	287.75
282.819	299.75
283.051	262.75
283.282	272.75
283.513	259.75
283.745	270.75
283.976	268.75
284.207	287.75
284.439	262.75
284.67	280.75
284.901	246.75
285.132	262.75
285.364	286.75
285.595	295.75
285.826	270.75
286.057	273.75
286.288	293.75
286.52	278.75
286.751	274.75
286.982	283.75
287.213	274.75
287.444	266.75
287.675	285.75
287.906	280.75
288.138	295.75
288.369	298.75
288.6	280.75
288.831	284.75
289.062	297.75
289.293	294.75
289.524	273.75
289.755	282.75
289.986	284.75
290.217	287.75
290.448	283.75
290.679	276.75
290.91	277.75
291.141	290.75
291.371	282.75
291.602	285.75
291.833	295.75
292.064	306.75
292.295	269.75
292.526	280.75
292.757	297.75
292.987	294.75
293.218	292.75
293.449	307.75
293.68	292.75
293.91	297.75
294.141	294.75
294.372	273.75
294.603	285.75
294.833	291.75
295.064	271.75
295.295	285.75
295.525	282.75
295.756	301.75
295.987	298.75
296.217	328.75
296.448	332.75
296.679	307.75
296.909	287.75
297.14	287.75
297.37	291.75
297.601	298.75
297.831	274.75
298.062	286.75
298.292	295.75
298.523	294.75
298.753	302.75
298.984	306.75
299.214	318.75
299.445	310.75
299.675	295.75
299.905	290.75
300.136	309.75
300.366	314.75
300.597	299.75
300.827	303.75
301.057	330.75
301.288	308.75
301.518	326.75
301.748	309.75
301.979	310.75
302.209	310.75
302.439	308.75
302.669	320.75
302.9	303.75
303.13	327.75
303.36	336.75
303.59	329.75
303.82	341.75
304.051	310.75
304.281	318.75
304.511	316.75
304.741	331.75
304.971	327.75
305.201	322.75
305.431	302.75
305.661	323.75
305.891	322.75
306.121	334.75
306.352	328.75
306.582	317.75
306.812	311.75
307.042	356.75
307.272	316.75
307.502	317.75
307.731	328.75
307.961	323.75
308.191	332.75
308.421	309.75
308.651	337.75
308.881	329.75
309.111	339.75
309.341	327.75
309.571	336.75
309.8	356.75
310.03	357.75
310.26	350.75
310.49	365.75
310.72	363.75
310.949	352.75
311.179	357.75
311.409	382.75
311.639	369.75
311.868	351.75
312.098	365.75
312.328	378.75
312.557	376.75
312.787	405.75
313.017	376.75
313.246	366.75
313.476	361.75
313.706	352.75
313.935	351.75
314.165	376.75
314.394	391.75
314.624	390.75
314.853	370.75
315.083	364.75
315.312	347.75
315.542	369.75
315.771	365.75
316.001	357.75
316.23	367.75
316.46	349.75
316.689	359.75
316.919	357.75
317.148	379.75
317.377	376.75
317.607	376.75
317.836	383.75
318.065	377.75
318.295	356.75
318.524	346.75
318.753	360.75
318.983	345.75
319.212	373.75
319.441	360.75
319.67	372.75
319.9	367.75
320.129	366.75
320.358	375.75
320.587	366.75
320.816	382.75
321.046	386.75
321.275	394.75
321.504	393.75
321.733	389.75
321.962	384.75
322.191	408.75
322.42	405.75
322.649	413.75
322.878	435.75
323.108	429.75
323.337	446.75
323.566	488.75
323.795	470.75
324.024	533.75
324.253	659.75
324.482	898.75
324.71	1311.75
324.939	1771.75
325.168	1494.75
325.397	794.75
325.626	591.75
325.855	505.75
326.084	464.75
326.313	474.75
326.542	493.75
326.77	529.75
326.999	602.75
327.228	814.75
327.457	1168.75
327.686	1309.75
327.914	913.75
328.143	637.75
328.372	571.75
328.6	542.75
328.829	514.75
329.058	525.75
329.287	502.75
329.515	488.75
329.744	459.75
329.972	478.75
330.201	474.75
330.43	517.75
330.658	528.75
330.887	547.75
331.115	535.75
331.344	458.75
331.572	423.75
331.801	457.75
332.03	436.75
332.258	415.75
332.486	414.75
332.715	430.75
332.943	404.75
333.172	417.75
333.4	439.75
333.629	435.75
333.857	443.75
334.085	427.75
334.314	469.75
334.542	479.75
334.771	494.75
334.999	434.75
335.227	426.75
335.455	427.75
335.684	410.75
335.912	438.75
336.14	424.75
336.369	416.75
336.597	428.75
336.825	418.75
337.053	402.75
337.281	420.75
337.51	398.75
337.738	422.75
337.966	426.75
338.194	410.75
338.422	401.75
338.65	435.75
338.878	416.75
339.106	407.75
339.334	396.75
339.562	388.75
339.79	405.75
340.018	395.75
340.246	414.75
340.474	402.75
340.702	392.75
340.93	417.75
341.158	389.75
341.386	394.75
341.614	399.75
341.842	383.75
342.07	390.75
342.298	397.75
342.526	416.75
342.754	377.75
342.981	365.75
343.209	411.75
343.437	380.75
343.665	399.75
343.893	411.75
344.12	419.75
344.348	419.75
344.576	395.75
344.804	406.75
345.031	410.75
345.259	421.75
345.487	398.75
345.714	408.75
345.942	384.75
346.17	373.75
346.397	391.75
346.625	387.75
346.853	401.75
347.08	384.75
347.308	373.75
347.535	394.75
347.763	397.75
347.99	397.75
348.218	408.75
348.445	390.75
348.673	399.75
348.9	408.75
349.128	372.75
349.355	364.75
349.583	365.75
349.81	389.75
350.037	355.75
350.265	378.75
350.492	372.75
350.72	360.75
350.947	386.75
351.174	372.75
351.402	379.75
351.629	389.75
351.856	392.75
352.083	395.75
352.311	382.75
352.538	400.75
352.765	393.75
352.992	390.75
353.22	373.75
353.447	363.75
353.674	360.75
353.901	382.75
354.128	378.75
354.355	352.75
354.583	360.75
354.81	372.75
355.037	355.75
355.264	346.75
355.491	338.75
355.718	358.75
355.945	344.75
356.172	347.75
356.399	341.75
356.626	356.75
356.853	341.75
357.08	350.75
357.307	347.75
357.534	361.75
357.761	363.75
357.988	365.75
358.215	339.75
358.441	348.75
358.668	354.75
358.895	356.75
359.122	366.75
359.349	373.75
359.576	362.75
359.802	374.75
360.029	403.75
360.256	420.75
360.483	394.75
360.709	382.75
360.936	373.75
361.163	358.75
361.39	366.75
361.616	349.75
361.843	356.75
362.07	355.75
362.296	360.75
362.523	355.75
362.749	366.75
362.976	368.75
363.203	357.75
363.429	380.75
363.656	354.75
363.882	350.75
364.109	367.75
364.335	348.75
364.562	346.75
364.788	365.75
365.015	336.75
365.241	345.75
365.468	357.75
365.694	345.75
365.92	344.75
366.147	373.75
366.373	358.75
366.599	370.75
366.826	346.75
367.052	355.75
367.278	353.75
367.505	348.75
367.731	345.75
367.957	339.75
368.184	344.75
368.41	339.75
368.636	354.75
368.862	357.75
369.089	370.75
369.315	353.75
369.541	330.75
369.767	361.75
369.993	351.75
370.219	340.75
370.445	337.75
370.672	347.75
370.898	354.75
371.124	342.75
371.35	344.75
371.576	349.75
371.802	357.75
372.028	343.75
372.254	358.75
372.48	354.75
372.706	339.75
372.932	346.75
373.158	362.75
373.384	386.75
373.61	333.75
373.835	343.75
374.061	355.75
374.287	359.75
374.513	361.75
374.739	365.75
374.965	351.75
375.191	350.75
375.416	356.75
375.642	352.75
375.868	366.75
376.094	339.75
376.319	329.75
376.545	339.75
376.771	328.75
376.997	341.75
377.222	332.75
377.448	362.75
377.674	344.75
377.899	354.75
378.125	347.75
378.35	339.75
378.576	334.75
378.802	342.75
379.027	351.75
379.253	344.75
379.478	317.75
379.704	333.75
379.929	317.75
380.155	333.75
380.38	329.75
380.606	344.75
380.831	346.75
381.057	345.75
381.282	357.75
381.507	333.75
381.733	333.75
381.958	339.75
382.184	368.75
382.409	354.75
382.634	352.75
382.86	349.75
383.085	350.75
383.31	363.75
383.535	335.75
383.761	352.75
383.986	338.75
384.211	358.75
384.436	350.75
384.662	347.75
384.887	386.75
385.112	342.75
385.337	343.75
385.562	364.75
385.787	378.75
386.013	368.75
386.238	348.75
386.463	352.75
386.688	361.75
386.913	363.75
387.138	365.75
387.363	359.75
387.588	356.75
387.813	364.75
388.038	337.75
388.263	351.75
388.488	346.75
388.713	358.75
388.938	356.75
389.163	356.75
389.387	370.75
389.612	350.75
389.837	379.75
390.062	360.75
390.287	375.75
390.512	346.75
390.736	363.75
390.961	354.75
391.186	371.75
391.411	382.75
391.636	354.75
391.86	373.75
392.085	370.75
392.31	369.75
392.534	363.75
392.759	378.75
392.984	356.75
393.208	365.75
393.433	369.75
393.658	352.75
393.882	344.75
394.107	371.75
394.331	370.75
394.556	366.75
394.78	354.75
395.005	377.75
395.229	354.75
395.454	375.75
395.678	371.75
395.903	370.75
396.127	395.75
396.352	395.75
396.576	367.75
396.801	384.75
397.025	391.75
397.249	365.75
397.474	382.75
397.698	364.75
397.922	394.75
398.147	395.75
398.371	399.75
398.595	394.75
398.82	401.75
399.044	408.75
399.268	426.75
399.492	409.75
399.717	429.75
399.941	471.75
400.165	486.75
400.389	500.75
400.613	448.75
400.837	436.75
401.062	397.75
401.286	425.75
401.51	415.75
401.734	413.75
401.958	402.75
402.182	406.75
402.406	405.75
402.63	422.75
402.854	391.75
403.078	397.75
403.302	387.75
403.526	415.75
403.75	434.75
403.974	398.75
404.198	414.75
404.422	400.75
404.645	427.75
404.869	421.75
405.093	422.75
405.317	467.75
405.541	472.75
405.765	468.75
405.988	442.75
406.212	437.75
406.436	470.75
406.66	468.75
406.883	445.75
407.107	465.75
407.331	485.75
407.555	539.75
407.778	518.75
408.002	496.75
408.226	475.75
408.449	453.75
408.673	442.75
408.896	464.75
409.12	491.75
409.344	469.75
409.567	439.75
409.791	438.75
410.014	414.75
410.238	415.75
410.461	409.75
410.685	417.75
410.908	420.75
411.132	460.75
411.355	491.75
411.578	422.75
411.802	414.75
412.025	403.75
412.249	384.75
412.472	426.75
412.695	459.75
412.919	450.75
413.142	426.75
413.365	398.75
413.589	396.75
413.812	406.75
414.035	388.75
414.258	393.75
414.482	386.75
414.705	398.75
414.928	384.75
415.151	386.75
415.374	397.75
415.597	370.75
415.821	404.75
416.044	389.75
416.267	390.75
416.49	410.75
416.713	381.75
416.936	390.75
417.159	376.75
417.382	377.75
417.605	384.75
417.828	396.75
418.051	408.75
418.274	396.75
418.497	400.75
418.72	396.75
418.943	378.75
419.166	378.75
419.389	415.75
419.611	413.75
419.834	398.75
420.057	401.75
420.28	405.75
420.503	391.75
420.726	405.75
420.948	420.75
421.171	438.75
421.394	485.75
421.617	416.75
421.839	380.75
422.062	404.75
422.285	411.75
422.507	455.75
422.73	515.75
422.953	502.75
423.175	416.75
423.398	413.75
423.621	410.75
423.843	431.75
424.066	429.75
424.288	428.75
424.511	455.75
424.733	491.75
424.956	548.75
425.178	542.75
425.401	528.75
425.623	562.75
425.846	486.75
426.068	463.75
426.291	426.75
426.513	440.75
426.735	446.75
426.958	471.75
427.18	544.75
427.402	625.75
427.625	696.75
427.847	610.75
428.069	520.75
428.292	462.75
428.514	438.75
428.736	399.75
428.958	413.75
429.181	406.75
429.403	408.75
429.625	400.75
429.847	432.75
430.069	473.75
430.292	457.75
430.514	418.75
430.736	411.75
430.958	392.75
431.18	383.75
431.402	381.75
431.624	378.75
431.846	385.75
432.068	375.75
432.29	370.75
432.512	385.75
432.734	379.75
432.956	378.75
433.178	389.75
433.4	406.75
433.622	403.75
433.844	379.75
434.066	371.75
434.287	365.75
434.509	372.75
434.731	379.75
434.953	406.75
435.175	430.75
435.397	428.75
435.618	439.75
435.84	441.75
436.062	518.75
436.284	585.75
436.505	500.75
436.727	455.75
436.949	402.75
437.17	412.75
437.392	395.75
437.614	394.75
437.835	446.75
438.057	510.75
438.278	572.75
438.5	556.75
438.721	617.75
438.943	598.75
439.165	489.75
439.386	459.75
439.608	417.75
439.829	439.75
440.05	479.75
440.272	489.75
440.493	465.75
440.715	431.75
440.936	405.75
441.158	412.75
441.379	380.75
441.6	422.75
441.822	447.75
442.043	452.75
442.264	541.75
442.486	546.75
442.707	475.75
442.928	443.75
443.149	448.75
443.371	457.75
443.592	499.75
443.813	553.75
444.034	599.75
444.255	500.75
444.476	450.75
444.698	446.75
444.919	437.75
445.14	556.75
445.361	487.75
445.582	458.75
445.803	522.75
446.024	578.75
446.245	604.75
446.466	557.75
446.687	484.75
446.908	444.75
447.129	418.75
447.35	398.75
447.571	399.75
447.792	423.75
448.013	407.75
448.234	410.75
448.455	453.75
448.675	558.75
448.896	624.75
449.117	531.75
449.338	515.75
449.559	573.75
449.779	663.75
450	538.75
450.221	448.75
450.442	402.75
450.662	400.75
450.883	398.75
451.104	414.75
451.324	398.75
451.545	396.75
451.766	367.75
451.986	364.75
452.207	357.75
452.428	373.75
452.648	336.75
452.869	356.75
453.089	360.75
453.31	380.75
453.53	367.75
453.751	363.75
453.971	377.75
454.192	372.75
454.412	358.75
454.633	362.75
454.853	342.75
455.073	366.75
455.294	381.75
455.514	423.75
455.734	400.75
455.955	366.75
456.175	348.75
456.395	340.75
456.616	341.75
456.836	330.75
457.056	318.75
457.276	310.75
457.497	336.75
457.717	331.75
457.937	341.75
458.157	339.75
458.377	364.75
458.598	346.75
458.818	406.75
459.038	434.75
459.258	472.75
459.478	419.75
459.698	379.75
459.918	354.75
460.138	360.75
460.358	372.75
460.578	383.75
460.798	422.75
461.018	380.75
461.238	370.75
461.458	347.75
461.678	356.75
461.898	362.75
462.118	361.75
462.338	391.75
462.558	379.75
462.777	384.75
462.997	410.75
463.217	401.75
463.437	399.75
463.657	372.75
463.876	403.75
464.096	395.75
464.316	392.75
464.536	404.75
464.755	396.75
464.975	389.75
465.195	425.75
465.414	455.75
465.634	422.75
465.854	407.75
466.073	375.75
466.293	370.75
466.512	369.75
466.732	372.75
466.951	375.75
467.171	349.75
467.391	365.75
467.61	375.75
467.829	373.75
468.049	372.75
468.268	374.75
468.488	346.75
468.707	356.75
468.927	350.75
469.146	365.75
469.365	352.75
469.585	370.75
469.804	358.75
470.023	375.75
470.243	381.75
470.462	364.75
470.681	391.75
470.901	406.75
471.12	388.75
471.339	374.75
471.558	389.75
471.777	378.75
471.997	367.75
472.216	356.75
472.435	380.75
472.654	373.75
472.873	356.75
473.092	352.75
473.311	363.75
473.53	376.75
473.749	378.75
473.968	406.75
474.187	495.75
474.406	491.75
474.625	420.75
474.844	383.75
475.063	376.75
475.282	368.75
475.501	386.75
475.72	365.75
475.939	366.75
476.158	368.75
476.377	384.75
476.596	374.75
476.814	409.75
477.033	393.75
477.252	389.75
477.471	402.75
477.69	377.75
477.908	395.75
478.127	412.75
478.346	398.75
478.564	400.75
478.783	408.75
479.002	421.75
479.22	406.75
479.439	440.75
479.658	435.75
479.876	442.75
480.095	447.75
480.313	449.75
480.532	446.75
480.751	436.75
480.969	459.75
481.188	469.75
481.406	496.75
481.624	454.75
481.843	449.75
482.061	446.75
482.28	424.75
482.498	408.75
482.717	425.75
482.935	428.75
483.153	419.75
483.372	427.75
483.59	427.75
483.808	434.75
484.027	428.75
484.245	442.75
484.463	412.75
484.681	443.75
484.9	432.75
485.118	446.75
485.336	419.75
485.554	448.75
485.772	427.75
485.99	442.75
486.209	446.75
486.427	448.75
486.645	448.75
486.863	466.75
487.081	458.75
487.299	476.75
487.517	431.75
487.735	466.75
487.953	472.75
488.171	472.75
488.389	446.75
488.607	462.75
488.825	440.75
489.043	446.75
489.261	472.75
489.479	487.75
489.696	465.75
489.914	485.75
490.132	472.75
490.35	475.75
490.568	479.75
490.786	497.75
491.003	502.75
491.221	492.75
491.439	521.75
491.657	520.75
491.874	510.75
492.092	547.75
492.31	544.75
492.527	534.75
492.745	526.75
492.963	528.75
493.18	528.75
493.398	551.75
493.615	523.75
493.833	531.75
494.05	540.75
494.268	539.75
494.485	539.75
494.703	531.75
494.92	562.75
495.138	523.75
495.355	552.75
495.573	540.75
495.79	525.75
496.008	548.75
496.225	530.75
496.442	543.75
496.66	557.75
496.877	536.75
497.094	535.75
497.312	537.75
497.529	549.75
497.746	569.75
497.963	562.75
498.181	595.75
498.398	577.75
498.615	580.75
498.832	587.75
499.049	620.75
499.267	602.75
499.484	634.75
499.701	650.75
499.918	669.75
500.135	687.75
500.352	701.75
500.569	692.75
500.786	714.75
501.003	709.75
501.22	701.75
501.437	664.75
501.654	655.75
501.871	664.75
502.088	634.75
