Data from 1971.PennyLincolnUp.Lamp.En5.5.200Scan.071719.P1._HRD10591_15-18-04-841.txt Node
Date: Thu Jul 18 15:18:04 EDT 2019
User: cochatt
Spectrometer: HR+D1059
Trigger mode: 1
Integration Time (sec): 1.000000E-1
Scans to average: 1
Electric dark correction enabled: true
Nonlinearity correction enabled: false
Boxcar width: 0
XAxis mode: Wavelengths
Number of Pixels in Spectrum: 2048
>>>>>Begin Spectral Data<<<<<
223.165	-19.25
223.4	-19.25
223.635	-19.25
223.869	-22.25
224.104	-10.25
224.338	-12.25
224.573	-20.25
224.808	-18.25
225.042	-6.25
225.277	-4.25
225.511	-4.25
225.746	-4.25
225.98	13.75
226.215	15.75
226.449	15.75
226.683	18.75
226.918	23.75
227.152	33.75
227.387	38.75
227.621	37.75
227.856	46.75
228.09	53.75
228.324	44.75
228.559	57.75
228.793	74.75
229.027	82.75
229.262	99.75
229.496	91.75
229.73	110.75
229.964	121.75
230.199	97.75
230.433	95.75
230.667	107.75
230.901	94.75
231.136	98.75
231.37	94.75
231.604	107.75
231.838	102.75
232.072	95.75
232.306	97.75
232.541	99.75
232.775	108.75
233.009	103.75
233.243	104.75
233.477	116.75
233.711	110.75
233.945	104.75
234.179	108.75
234.413	107.75
234.647	103.75
234.881	92.75
235.115	115.75
235.349	121.75
235.583	109.75
235.817	113.75
236.051	101.75
236.285	117.75
236.519	105.75
236.753	117.75
236.987	113.75
237.221	141.75
237.455	177.75
237.689	156.75
237.922	120.75
238.156	119.75
238.39	111.75
238.624	122.75
238.858	119.75
239.091	119.75
239.325	113.75
239.559	127.75
239.793	125.75
240.027	126.75
240.26	138.75
240.494	129.75
240.728	124.75
240.961	130.75
241.195	142.75
241.429	131.75
241.662	144.75
241.896	122.75
242.13	127.75
242.363	139.75
242.597	118.75
242.83	124.75
243.064	129.75
243.298	129.75
243.531	123.75
243.765	141.75
243.998	124.75
244.232	133.75
244.465	126.75
244.699	135.75
244.932	131.75
245.166	135.75
245.399	136.75
245.633	126.75
245.866	145.75
246.099	126.75
246.333	143.75
246.566	136.75
246.8	126.75
247.033	142.75
247.266	148.75
247.5	169.75
247.733	138.75
247.966	151.75
248.2	159.75
248.433	153.75
248.666	159.75
248.899	153.75
249.133	181.75
249.366	194.75
249.599	179.75
249.832	182.75
250.066	181.75
250.299	156.75
250.532	177.75
250.765	181.75
250.998	198.75
251.231	200.75
251.465	201.75
251.698	179.75
251.931	190.75
252.164	183.75
252.397	177.75
252.63	193.75
252.863	196.75
253.096	186.75
253.329	195.75
253.562	203.75
253.795	187.75
254.028	201.75
254.261	206.75
254.494	218.75
254.727	225.75
254.96	237.75
255.193	229.75
255.426	233.75
255.659	236.75
255.892	206.75
256.124	210.75
256.357	198.75
256.59	202.75
256.823	203.75
257.056	194.75
257.289	194.75
257.521	193.75
257.754	192.75
257.987	194.75
258.22	191.75
258.452	193.75
258.685	183.75
258.918	186.75
259.151	198.75
259.383	198.75
259.616	212.75
259.849	208.75
260.081	211.75
260.314	226.75
260.547	234.75
260.779	212.75
261.012	214.75
261.244	223.75
261.477	210.75
261.71	214.75
261.942	211.75
262.175	211.75
262.407	207.75
262.64	203.75
262.872	206.75
263.105	178.75
263.337	192.75
263.57	185.75
263.802	187.75
264.035	202.75
264.267	203.75
264.499	182.75
264.732	192.75
264.964	202.75
265.197	207.75
265.429	194.75
265.661	197.75
265.894	200.75
266.126	206.75
266.358	205.75
266.591	192.75
266.823	201.75
267.055	205.75
267.287	203.75
267.52	216.75
267.752	205.75
267.984	208.75
268.216	214.75
268.448	222.75
268.681	212.75
268.913	227.75
269.145	224.75
269.377	226.75
269.609	238.75
269.841	242.75
270.073	247.75
270.306	250.75
270.538	271.75
270.77	282.75
271.002	262.75
271.234	253.75
271.466	270.75
271.698	260.75
271.93	287.75
272.162	289.75
272.394	279.75
272.626	263.75
272.858	253.75
273.09	267.75
273.322	265.75
273.553	232.75
273.785	241.75
274.017	236.75
274.249	239.75
274.481	232.75
274.713	228.75
274.945	222.75
275.176	236.75
275.408	253.75
275.64	230.75
275.872	226.75
276.104	233.75
276.335	245.75
276.567	269.75
276.799	241.75
277.031	270.75
277.262	277.75
277.494	283.75
277.726	257.75
277.957	284.75
278.189	264.75
278.421	244.75
278.652	229.75
278.884	220.75
279.115	233.75
279.347	264.75
279.579	246.75
279.81	238.75
280.042	234.75
280.273	255.75
280.505	254.75
280.736	248.75
280.968	237.75
281.199	243.75
281.431	246.75
281.662	248.75
281.894	245.75
282.125	245.75
282.356	258.75
282.588	257.75
282.819	253.75
283.051	259.75
283.282	242.75
283.513	258.75
283.745	264.75
283.976	255.75
284.207	277.75
284.439	277.75
284.67	264.75
284.901	261.75
285.132	258.75
285.364	262.75
285.595	244.75
285.826	245.75
286.057	269.75
286.288	254.75
286.52	255.75
286.751	250.75
286.982	251.75
287.213	269.75
287.444	259.75
287.675	255.75
287.906	275.75
288.138	261.75
288.369	268.75
288.6	263.75
288.831	278.75
289.062	268.75
289.293	264.75
289.524	248.75
289.755	271.75
289.986	258.75
290.217	268.75
290.448	251.75
290.679	271.75
290.91	259.75
291.141	267.75
291.371	283.75
291.602	278.75
291.833	276.75
292.064	263.75
292.295	265.75
292.526	257.75
292.757	264.75
292.987	271.75
293.218	254.75
293.449	258.75
293.68	251.75
293.91	261.75
294.141	272.75
294.372	267.75
294.603	276.75
294.833	275.75
295.064	274.75
295.295	251.75
295.525	280.75
295.756	274.75
295.987	269.75
296.217	284.75
296.448	300.75
296.679	287.75
296.909	260.75
297.14	284.75
297.37	269.75
297.601	289.75
297.831	273.75
298.062	279.75
298.292	285.75
298.523	280.75
298.753	284.75
298.984	288.75
299.214	279.75
299.445	272.75
299.675	286.75
299.905	278.75
300.136	279.75
300.366	278.75
300.597	286.75
300.827	314.75
301.057	287.75
301.288	277.75
301.518	289.75
301.748	276.75
301.979	289.75
302.209	293.75
302.439	304.75
302.669	298.75
302.9	314.75
303.13	292.75
303.36	280.75
303.59	300.75
303.82	303.75
304.051	309.75
304.281	294.75
304.511	291.75
304.741	299.75
304.971	286.75
305.201	302.75
305.431	316.75
305.661	310.75
305.891	295.75
306.121	296.75
306.352	311.75
306.582	278.75
306.812	317.75
307.042	325.75
307.272	309.75
307.502	300.75
307.731	307.75
307.961	303.75
308.191	292.75
308.421	309.75
308.651	308.75
308.881	307.75
309.111	300.75
309.341	302.75
309.571	307.75
309.8	316.75
310.03	311.75
310.26	310.75
310.49	321.75
310.72	349.75
310.949	343.75
311.179	357.75
311.409	338.75
311.639	330.75
311.868	333.75
312.098	321.75
312.328	321.75
312.557	329.75
312.787	341.75
313.017	333.75
313.246	329.75
313.476	331.75
313.706	317.75
313.935	333.75
314.165	347.75
314.394	339.75
314.624	353.75
314.853	345.75
315.083	341.75
315.312	343.75
315.542	350.75
315.771	334.75
316.001	338.75
316.23	335.75
316.46	350.75
316.689	330.75
316.919	352.75
317.148	337.75
317.377	355.75
317.607	324.75
317.836	338.75
318.065	331.75
318.295	332.75
318.524	338.75
318.753	351.75
318.983	334.75
319.212	321.75
319.441	359.75
319.67	339.75
319.9	324.75
320.129	338.75
320.358	344.75
320.587	333.75
320.816	347.75
321.046	351.75
321.275	362.75
321.504	335.75
321.733	350.75
321.962	354.75
322.191	361.75
322.42	373.75
322.649	371.75
322.878	380.75
323.108	397.75
323.337	390.75
323.566	390.75
323.795	433.75
324.024	478.75
324.253	563.75
324.482	733.75
324.71	1066.75
324.939	1448.75
325.168	1249.75
325.397	687.75
325.626	510.75
325.855	437.75
326.084	414.75
326.313	398.75
326.542	407.75
326.77	445.75
326.999	526.75
327.228	681.75
327.457	953.75
327.686	1102.75
327.914	781.75
328.143	557.75
328.372	468.75
328.6	464.75
328.829	444.75
329.058	440.75
329.287	453.75
329.515	433.75
329.744	424.75
329.972	427.75
330.201	425.75
330.43	441.75
330.658	461.75
330.887	464.75
331.115	446.75
331.344	413.75
331.572	406.75
331.801	414.75
332.03	386.75
332.258	404.75
332.486	377.75
332.715	385.75
332.943	391.75
333.172	390.75
333.4	389.75
333.629	396.75
333.857	399.75
334.085	407.75
334.314	399.75
334.542	430.75
334.771	423.75
334.999	399.75
335.227	392.75
335.455	371.75
335.684	370.75
335.912	396.75
336.14	394.75
336.369	388.75
336.597	396.75
336.825	393.75
337.053	372.75
337.281	377.75
337.51	388.75
337.738	387.75
337.966	378.75
338.194	383.75
338.422	382.75
338.65	379.75
338.878	359.75
339.106	379.75
339.334	359.75
339.562	387.75
339.79	371.75
340.018	352.75
340.246	353.75
340.474	374.75
340.702	371.75
340.93	361.75
341.158	355.75
341.386	381.75
341.614	369.75
341.842	361.75
342.07	371.75
342.298	346.75
342.526	354.75
342.754	366.75
342.981	336.75
343.209	333.75
343.437	353.75
343.665	358.75
343.893	380.75
344.12	384.75
344.348	380.75
344.576	391.75
344.804	357.75
345.031	369.75
345.259	367.75
345.487	385.75
345.714	372.75
345.942	357.75
346.17	351.75
346.397	349.75
346.625	354.75
346.853	351.75
347.08	338.75
347.308	337.75
347.535	349.75
347.763	364.75
347.99	357.75
348.218	358.75
348.445	351.75
348.673	345.75
348.9	350.75
349.128	333.75
349.355	347.75
349.583	348.75
349.81	347.75
350.037	338.75
350.265	349.75
350.492	347.75
350.72	342.75
350.947	341.75
351.174	340.75
351.402	329.75
351.629	354.75
351.856	356.75
352.083	332.75
352.311	351.75
352.538	351.75
352.765	338.75
352.992	360.75
353.22	335.75
353.447	347.75
353.674	334.75
353.901	334.75
354.128	318.75
354.355	331.75
354.583	345.75
354.81	332.75
355.037	304.75
355.264	325.75
355.491	319.75
355.718	331.75
355.945	335.75
356.172	330.75
356.399	334.75
356.626	346.75
356.853	314.75
357.08	331.75
357.307	332.75
357.534	332.75
357.761	323.75
357.988	327.75
358.215	331.75
358.441	327.75
358.668	335.75
358.895	337.75
359.122	317.75
359.349	335.75
359.576	341.75
359.802	342.75
360.029	369.75
360.256	353.75
360.483	353.75
360.709	363.75
360.936	346.75
361.163	341.75
361.39	352.75
361.616	369.75
361.843	341.75
362.07	338.75
362.296	327.75
362.523	325.75
362.749	340.75
362.976	339.75
363.203	344.75
363.429	327.75
363.656	339.75
363.882	338.75
364.109	331.75
364.335	313.75
364.562	314.75
364.788	305.75
365.015	339.75
365.241	339.75
365.468	327.75
365.694	331.75
365.92	351.75
366.147	347.75
366.373	325.75
366.599	323.75
366.826	309.75
367.052	318.75
367.278	321.75
367.505	317.75
367.731	307.75
367.957	321.75
368.184	321.75
368.41	339.75
368.636	325.75
368.862	330.75
369.089	347.75
369.315	321.75
369.541	324.75
369.767	318.75
369.993	331.75
370.219	332.75
370.445	335.75
370.672	316.75
370.898	339.75
371.124	343.75
371.35	316.75
371.576	331.75
371.802	323.75
372.028	309.75
372.254	333.75
372.48	317.75
372.706	335.75
372.932	327.75
373.158	331.75
373.384	342.75
373.61	318.75
373.835	323.75
374.061	329.75
374.287	338.75
374.513	337.75
374.739	325.75
374.965	322.75
375.191	336.75
375.416	346.75
375.642	339.75
375.868	328.75
376.094	334.75
376.319	311.75
376.545	317.75
376.771	329.75
376.997	334.75
377.222	310.75
377.448	320.75
377.674	336.75
377.899	306.75
378.125	312.75
378.35	329.75
378.576	326.75
378.802	322.75
379.027	317.75
379.253	310.75
379.478	311.75
379.704	308.75
379.929	314.75
380.155	316.75
380.38	319.75
380.606	323.75
380.831	326.75
381.057	306.75
381.282	325.75
381.507	324.75
381.733	314.75
381.958	334.75
382.184	335.75
382.409	331.75
382.634	325.75
382.86	301.75
383.085	310.75
383.31	313.75
383.535	329.75
383.761	323.75
383.986	345.75
384.211	337.75
384.436	340.75
384.662	306.75
384.887	342.75
385.112	333.75
385.337	337.75
385.562	330.75
385.787	333.75
386.013	339.75
386.238	348.75
386.463	344.75
386.688	335.75
386.913	335.75
387.138	333.75
387.363	323.75
387.588	342.75
387.813	346.75
388.038	350.75
388.263	321.75
388.488	350.75
388.713	334.75
388.938	326.75
389.163	337.75
389.387	339.75
389.612	327.75
389.837	327.75
390.062	341.75
390.287	346.75
390.512	355.75
390.736	338.75
390.961	344.75
391.186	351.75
391.411	357.75
391.636	357.75
391.86	342.75
392.085	363.75
392.31	354.75
392.534	325.75
392.759	341.75
392.984	335.75
393.208	337.75
393.433	348.75
393.658	353.75
393.882	346.75
394.107	365.75
394.331	318.75
394.556	326.75
394.78	345.75
395.005	328.75
395.229	351.75
395.454	373.75
395.678	346.75
395.903	352.75
396.127	376.75
396.352	386.75
396.576	356.75
396.801	340.75
397.025	368.75
397.249	353.75
397.474	358.75
397.698	350.75
397.922	374.75
398.147	376.75
398.371	370.75
398.595	362.75
398.82	379.75
399.044	391.75
399.268	394.75
399.492	415.75
399.717	410.75
399.941	443.75
400.165	445.75
400.389	477.75
400.613	413.75
400.837	389.75
401.062	375.75
401.286	376.75
401.51	396.75
401.734	375.75
401.958	375.75
402.182	374.75
402.406	396.75
402.63	383.75
402.854	364.75
403.078	379.75
403.302	386.75
403.526	403.75
403.75	381.75
403.974	381.75
404.198	375.75
404.422	393.75
404.645	391.75
404.869	398.75
405.093	414.75
405.317	410.75
405.541	431.75
405.765	426.75
405.988	414.75
406.212	395.75
406.436	425.75
406.66	412.75
406.883	423.75
407.107	428.75
407.331	461.75
407.555	502.75
407.778	498.75
408.002	461.75
408.226	432.75
408.449	433.75
408.673	415.75
408.896	430.75
409.12	486.75
409.344	442.75
409.567	403.75
409.791	382.75
410.014	394.75
410.238	400.75
410.461	381.75
410.685	375.75
410.908	420.75
411.132	429.75
411.355	436.75
411.578	428.75
411.802	386.75
412.025	390.75
412.249	382.75
412.472	385.75
412.695	439.75
412.919	419.75
413.142	374.75
413.365	378.75
413.589	380.75
413.812	375.75
414.035	382.75
414.258	347.75
414.482	370.75
414.705	362.75
414.928	369.75
415.151	366.75
415.374	343.75
415.597	364.75
415.821	358.75
416.044	366.75
416.267	355.75
416.49	360.75
416.713	348.75
416.936	357.75
417.159	349.75
417.382	359.75
417.605	369.75
417.828	382.75
418.051	372.75
418.274	350.75
418.497	358.75
418.72	377.75
418.943	369.75
419.166	379.75
419.389	394.75
419.611	373.75
419.834	377.75
420.057	394.75
420.28	390.75
420.503	375.75
420.726	388.75
420.948	401.75
421.171	406.75
421.394	425.75
421.617	397.75
421.839	375.75
422.062	381.75
422.285	395.75
422.507	447.75
422.73	478.75
422.953	441.75
423.175	405.75
423.398	401.75
423.621	393.75
423.843	423.75
424.066	406.75
424.288	388.75
424.511	429.75
424.733	442.75
424.956	499.75
425.178	490.75
425.401	485.75
425.623	489.75
425.846	440.75
426.068	407.75
426.291	401.75
426.513	387.75
426.735	399.75
426.958	430.75
427.18	500.75
427.402	579.75
427.625	627.75
427.847	536.75
428.069	471.75
428.292	443.75
428.514	385.75
428.736	393.75
428.958	373.75
429.181	379.75
429.403	351.75
429.625	360.75
429.847	409.75
430.069	442.75
430.292	449.75
430.514	401.75
430.736	374.75
430.958	378.75
431.18	379.75
431.402	355.75
431.624	353.75
431.846	330.75
432.068	348.75
432.29	350.75
432.512	350.75
432.734	380.75
432.956	359.75
433.178	365.75
433.4	350.75
433.622	350.75
433.844	358.75
434.066	349.75
434.287	358.75
434.509	371.75
434.731	349.75
434.953	365.75
435.175	399.75
435.397	395.75
435.618	399.75
435.84	437.75
436.062	502.75
436.284	536.75
436.505	426.75
436.727	424.75
436.949	411.75
437.17	376.75
437.392	371.75
437.614	377.75
437.835	422.75
438.057	474.75
438.278	550.75
438.5	549.75
438.721	592.75
438.943	550.75
439.165	450.75
439.386	420.75
439.608	396.75
439.829	402.75
440.05	423.75
440.272	437.75
440.493	425.75
440.715	401.75
440.936	383.75
441.158	376.75
441.379	364.75
441.6	399.75
441.822	383.75
442.043	440.75
442.264	466.75
442.486	484.75
442.707	438.75
442.928	425.75
443.149	417.75
443.371	429.75
443.592	448.75
443.813	516.75
444.034	536.75
444.255	474.75
444.476	411.75
444.698	390.75
444.919	391.75
445.14	509.75
445.361	446.75
445.582	436.75
445.803	485.75
446.024	540.75
446.245	522.75
446.466	483.75
446.687	435.75
446.908	408.75
447.129	395.75
447.35	379.75
447.571	381.75
447.792	355.75
448.013	376.75
448.234	389.75
448.455	401.75
448.675	510.75
448.896	582.75
449.117	473.75
449.338	471.75
449.559	537.75
449.779	614.75
450	487.75
450.221	403.75
450.442	361.75
450.662	373.75
450.883	349.75
451.104	362.75
451.324	362.75
451.545	362.75
451.766	356.75
451.986	341.75
452.207	330.75
452.428	326.75
452.648	330.75
452.869	343.75
453.089	334.75
453.31	323.75
453.53	315.75
453.751	297.75
453.971	331.75
454.192	356.75
454.412	313.75
454.633	327.75
454.853	332.75
455.073	330.75
455.294	345.75
455.514	381.75
455.734	383.75
455.955	334.75
456.175	303.75
456.395	311.75
456.616	308.75
456.836	326.75
457.056	300.75
457.276	302.75
457.497	322.75
457.717	313.75
457.937	308.75
458.157	316.75
458.377	325.75
458.598	336.75
458.818	367.75
459.038	433.75
459.258	441.75
459.478	373.75
459.698	352.75
459.918	335.75
460.138	339.75
460.358	358.75
460.578	355.75
460.798	350.75
461.018	341.75
461.238	356.75
461.458	347.75
461.678	359.75
461.898	349.75
462.118	336.75
462.338	355.75
462.558	363.75
462.777	376.75
462.997	384.75
463.217	377.75
463.437	378.75
463.657	375.75
463.876	381.75
464.096	389.75
464.316	383.75
464.536	379.75
464.755	380.75
464.975	379.75
465.195	387.75
465.414	419.75
465.634	409.75
465.854	357.75
466.073	341.75
466.293	351.75
466.512	324.75
466.732	336.75
466.951	332.75
467.171	334.75
467.391	350.75
467.61	360.75
467.829	353.75
468.049	347.75
468.268	339.75
468.488	343.75
468.707	339.75
468.927	347.75
469.146	335.75
469.365	343.75
469.585	328.75
469.804	344.75
470.023	350.75
470.243	345.75
470.462	342.75
470.681	351.75
470.901	357.75
471.12	340.75
471.339	334.75
471.558	340.75
471.777	341.75
471.997	345.75
472.216	340.75
472.435	340.75
472.654	358.75
472.873	342.75
473.092	331.75
473.311	337.75
473.53	329.75
473.749	338.75
473.968	376.75
474.187	437.75
474.406	466.75
474.625	395.75
474.844	385.75
475.063	361.75
475.282	336.75
475.501	345.75
475.72	354.75
475.939	343.75
476.158	339.75
476.377	355.75
476.596	343.75
476.814	363.75
477.033	362.75
477.252	353.75
477.471	342.75
477.69	367.75
477.908	382.75
478.127	388.75
478.346	381.75
478.564	376.75
478.783	381.75
479.002	384.75
479.22	364.75
479.439	397.75
479.658	402.75
479.876	389.75
480.095	421.75
480.313	442.75
480.532	415.75
480.751	407.75
480.969	410.75
481.188	450.75
481.406	444.75
481.624	412.75
481.843	414.75
482.061	402.75
482.28	377.75
482.498	397.75
482.717	390.75
482.935	421.75
483.153	403.75
483.372	389.75
483.59	415.75
483.808	383.75
484.027	376.75
484.245	401.75
484.463	401.75
484.681	402.75
484.9	404.75
485.118	409.75
485.336	409.75
485.554	392.75
485.772	405.75
485.99	409.75
486.209	411.75
486.427	415.75
486.645	410.75
486.863	436.75
487.081	433.75
487.299	407.75
487.517	425.75
487.735	431.75
487.953	427.75
488.171	426.75
488.389	418.75
488.607	427.75
488.825	445.75
489.043	429.75
489.261	420.75
489.479	424.75
489.696	471.75
489.914	415.75
490.132	444.75
490.35	419.75
490.568	450.75
490.786	462.75
491.003	444.75
491.221	465.75
491.439	464.75
491.657	452.75
491.874	475.75
492.092	504.75
492.31	477.75
492.527	474.75
492.745	471.75
492.963	495.75
493.18	477.75
493.398	507.75
493.615	484.75
493.833	501.75
494.05	484.75
494.268	494.75
494.485	516.75
494.703	514.75
494.92	499.75
495.138	510.75
495.355	485.75
495.573	506.75
495.79	509.75
496.008	493.75
496.225	479.75
496.442	510.75
496.66	494.75
496.877	539.75
497.094	508.75
497.312	499.75
497.529	523.75
497.746	528.75
497.963	545.75
498.181	540.75
498.398	545.75
498.615	539.75
498.832	533.75
499.049	554.75
499.267	569.75
499.484	590.75
499.701	602.75
499.918	626.75
500.135	667.75
500.352	663.75
500.569	697.75
500.786	669.75
501.003	674.75
501.22	647.75
501.437	640.75
501.654	634.75
501.871	628.75
502.088	599.75
