Data from 1971.PennyLincolnUp.Lamp.En5.5.200Scan.071719.P1.Scan 2. Changed Angle._HRD10591_15-23-30-841.txt Node
Date: Thu Jul 18 15:23:30 EDT 2019
User: cochatt
Spectrometer: HR+D1059
Trigger mode: 1
Integration Time (sec): 1.000000E-1
Scans to average: 1
Electric dark correction enabled: true
Nonlinearity correction enabled: false
Boxcar width: 0
XAxis mode: Wavelengths
Number of Pixels in Spectrum: 2048
>>>>>Begin Spectral Data<<<<<
223.165	-21.88
223.4	-21.88
223.635	-21.88
223.869	-18.88
224.104	-21.88
224.338	-13.88
224.573	-12.88
224.808	-4.88
225.042	-9.88
225.277	6.12
225.511	-2.88
225.746	4.12
225.98	-0.88
226.215	2.12
226.449	29.12
226.683	6.12
226.918	26.12
227.152	34.12
227.387	24.12
227.621	45.12
227.856	47.12
228.09	39.12
228.324	30.12
228.559	55.12
228.793	78.12
229.027	114.12
229.262	108.12
229.496	112.12
229.73	141.12
229.964	187.12
230.199	153.12
230.433	123.12
230.667	116.12
230.901	100.12
231.136	117.12
231.37	107.12
231.604	113.12
231.838	105.12
232.072	95.12
232.306	109.12
232.541	103.12
232.775	119.12
233.009	129.12
233.243	121.12
233.477	119.12
233.711	125.12
233.945	124.12
234.179	105.12
234.413	137.12
234.647	123.12
234.881	137.12
235.115	117.12
235.349	130.12
235.583	134.12
235.817	127.12
236.051	128.12
236.285	139.12
236.519	126.12
236.753	140.12
236.987	158.12
237.221	207.12
237.455	267.12
237.689	199.12
237.922	155.12
238.156	161.12
238.39	135.12
238.624	136.12
238.858	114.12
239.091	110.12
239.325	120.12
239.559	127.12
239.793	125.12
240.027	149.12
240.26	144.12
240.494	171.12
240.728	159.12
240.961	164.12
241.195	154.12
241.429	138.12
241.662	135.12
241.896	133.12
242.13	129.12
242.363	134.12
242.597	143.12
242.83	129.12
243.064	135.12
243.298	136.12
243.531	144.12
243.765	135.12
243.998	149.12
244.232	135.12
244.465	159.12
244.699	139.12
244.932	146.12
245.166	147.12
245.399	136.12
245.633	153.12
245.866	153.12
246.099	135.12
246.333	162.12
246.566	163.12
246.8	171.12
247.033	148.12
247.266	162.12
247.5	170.12
247.733	167.12
247.966	180.12
248.2	169.12
248.433	163.12
248.666	179.12
248.899	204.12
249.133	208.12
249.366	221.12
249.599	216.12
249.832	196.12
250.066	188.12
250.299	198.12
250.532	200.12
250.765	216.12
250.998	240.12
251.231	257.12
251.465	232.12
251.698	215.12
251.931	224.12
252.164	205.12
252.397	210.12
252.63	219.12
252.863	229.12
253.096	218.12
253.329	243.12
253.562	263.12
253.795	220.12
254.028	229.12
254.261	241.12
254.494	255.12
254.727	297.12
254.96	301.12
255.193	310.12
255.426	274.12
255.659	255.12
255.892	235.12
256.124	257.12
256.357	255.12
256.59	236.12
256.823	219.12
257.056	228.12
257.289	224.12
257.521	216.12
257.754	219.12
257.987	218.12
258.22	232.12
258.452	217.12
258.685	224.12
258.918	217.12
259.151	207.12
259.383	242.12
259.616	241.12
259.849	237.12
260.081	245.12
260.314	263.12
260.547	277.12
260.779	245.12
261.012	247.12
261.244	243.12
261.477	225.12
261.71	219.12
261.942	233.12
262.175	255.12
262.407	248.12
262.64	240.12
262.872	228.12
263.105	216.12
263.337	209.12
263.57	216.12
263.802	204.12
264.035	212.12
264.267	212.12
264.499	201.12
264.732	235.12
264.964	222.12
265.197	212.12
265.429	199.12
265.661	199.12
265.894	215.12
266.126	225.12
266.358	200.12
266.591	215.12
266.823	200.12
267.055	212.12
267.287	243.12
267.52	231.12
267.752	224.12
267.984	225.12
268.216	223.12
268.448	222.12
268.681	235.12
268.913	255.12
269.145	273.12
269.377	279.12
269.609	256.12
269.841	270.12
270.073	270.12
270.306	297.12
270.538	329.12
270.77	332.12
271.002	305.12
271.234	293.12
271.466	303.12
271.698	334.12
271.93	327.12
272.162	332.12
272.394	342.12
272.626	331.12
272.858	291.12
273.09	280.12
273.322	282.12
273.553	264.12
273.785	255.12
274.017	273.12
274.249	271.12
274.481	260.12
274.713	257.12
274.945	263.12
275.176	266.12
275.408	280.12
275.64	262.12
275.872	268.12
276.104	262.12
276.335	263.12
276.567	260.12
276.799	309.12
277.031	309.12
277.262	327.12
277.494	318.12
277.726	297.12
277.957	272.12
278.189	291.12
278.421	275.12
278.652	271.12
278.884	280.12
279.115	283.12
279.347	251.12
279.579	267.12
279.81	267.12
280.042	253.12
280.273	262.12
280.505	263.12
280.736	279.12
280.968	263.12
281.199	251.12
281.431	257.12
281.662	263.12
281.894	264.12
282.125	293.12
282.356	263.12
282.588	297.12
282.819	320.12
283.051	283.12
283.282	263.12
283.513	260.12
283.745	255.12
283.976	275.12
284.207	264.12
284.439	266.12
284.67	265.12
284.901	267.12
285.132	266.12
285.364	265.12
285.595	273.12
285.826	265.12
286.057	265.12
286.288	269.12
286.52	280.12
286.751	271.12
286.982	265.12
287.213	263.12
287.444	269.12
287.675	285.12
287.906	294.12
288.138	283.12
288.369	276.12
288.6	291.12
288.831	282.12
289.062	276.12
289.293	284.12
289.524	271.12
289.755	273.12
289.986	293.12
290.217	273.12
290.448	272.12
290.679	288.12
290.91	296.12
291.141	278.12
291.371	279.12
291.602	261.12
291.833	261.12
292.064	255.12
292.295	263.12
292.526	275.12
292.757	263.12
292.987	269.12
293.218	276.12
293.449	279.12
293.68	281.12
293.91	264.12
294.141	270.12
294.372	269.12
294.603	274.12
294.833	284.12
295.064	283.12
295.295	283.12
295.525	277.12
295.756	288.12
295.987	300.12
296.217	317.12
296.448	327.12
296.679	286.12
296.909	270.12
297.14	264.12
297.37	295.12
297.601	288.12
297.831	288.12
298.062	273.12
298.292	287.12
298.523	312.12
298.753	283.12
298.984	299.12
299.214	292.12
299.445	291.12
299.675	290.12
299.905	293.12
300.136	291.12
300.366	293.12
300.597	299.12
300.827	310.12
301.057	303.12
301.288	326.12
301.518	306.12
301.748	296.12
301.979	314.12
302.209	305.12
302.439	309.12
302.669	303.12
302.9	301.12
303.13	313.12
303.36	307.12
303.59	308.12
303.82	332.12
304.051	321.12
304.281	314.12
304.511	296.12
304.741	319.12
304.971	325.12
305.201	308.12
305.431	292.12
305.661	307.12
305.891	304.12
306.121	298.12
306.352	308.12
306.582	317.12
306.812	318.12
307.042	319.12
307.272	329.12
307.502	295.12
307.731	307.12
307.961	312.12
308.191	313.12
308.421	315.12
308.651	330.12
308.881	314.12
309.111	325.12
309.341	351.12
309.571	332.12
309.8	342.12
310.03	351.12
310.26	377.12
310.49	376.12
310.72	391.12
310.949	401.12
311.179	404.12
311.409	380.12
311.639	372.12
311.868	361.12
312.098	371.12
312.328	384.12
312.557	412.12
312.787	412.12
313.017	381.12
313.246	405.12
313.476	387.12
313.706	357.12
313.935	375.12
314.165	375.12
314.394	395.12
314.624	406.12
314.853	384.12
315.083	381.12
315.312	381.12
315.542	362.12
315.771	363.12
316.001	377.12
316.23	362.12
316.46	340.12
316.689	364.12
316.919	373.12
317.148	385.12
317.377	376.12
317.607	385.12
317.836	387.12
318.065	381.12
318.295	367.12
318.524	354.12
318.753	373.12
318.983	377.12
319.212	358.12
319.441	387.12
319.67	379.12
319.9	376.12
320.129	371.12
320.358	360.12
320.587	383.12
320.816	397.12
321.046	401.12
321.275	390.12
321.504	384.12
321.733	416.12
321.962	419.12
322.191	438.12
322.42	444.12
322.649	465.12
322.878	457.12
323.108	495.12
323.337	503.12
323.566	567.12
323.795	600.12
324.024	654.12
324.253	805.12
324.482	1128.12
324.71	1821.12
324.939	2644.12
325.168	2271.12
325.397	1139.12
325.626	732.12
325.855	616.12
326.084	566.12
326.313	564.12
326.542	535.12
326.77	612.12
326.999	745.12
327.228	1017.12
327.457	1619.12
327.686	1957.12
327.914	1276.12
328.143	845.12
328.372	711.12
328.6	651.12
328.829	626.12
329.058	641.12
329.287	666.12
329.515	599.12
329.744	552.12
329.972	550.12
330.201	594.12
330.43	608.12
330.658	658.12
330.887	693.12
331.115	669.12
331.344	571.12
331.572	516.12
331.801	518.12
332.03	502.12
332.258	469.12
332.486	447.12
332.715	470.12
332.943	439.12
333.172	447.12
333.4	449.12
333.629	472.12
333.857	470.12
334.085	471.12
334.314	503.12
334.542	531.12
334.771	545.12
334.999	508.12
335.227	452.12
335.455	458.12
335.684	445.12
335.912	439.12
336.14	427.12
336.369	422.12
336.597	442.12
336.825	441.12
337.053	428.12
337.281	403.12
337.51	392.12
337.738	439.12
337.966	445.12
338.194	444.12
338.422	437.12
338.65	411.12
338.878	428.12
339.106	402.12
339.334	397.12
339.562	405.12
339.79	421.12
340.018	425.12
340.246	439.12
340.474	432.12
340.702	429.12
340.93	441.12
341.158	419.12
341.386	440.12
341.614	440.12
341.842	442.12
342.07	433.12
342.298	405.12
342.526	394.12
342.754	386.12
342.981	384.12
343.209	401.12
343.437	406.12
343.665	397.12
343.893	413.12
344.12	420.12
344.348	416.12
344.576	426.12
344.804	438.12
345.031	447.12
345.259	472.12
345.487	469.12
345.714	431.12
345.942	418.12
346.17	416.12
346.397	433.12
346.625	412.12
346.853	404.12
347.08	423.12
347.308	426.12
347.535	433.12
347.763	433.12
347.99	435.12
348.218	419.12
348.445	477.12
348.673	451.12
348.9	417.12
349.128	418.12
349.355	384.12
349.583	398.12
349.81	414.12
350.037	396.12
350.265	416.12
350.492	402.12
350.72	403.12
350.947	431.12
351.174	415.12
351.402	448.12
351.629	441.12
351.856	435.12
352.083	457.12
352.311	449.12
352.538	463.12
352.765	457.12
352.992	440.12
353.22	423.12
353.447	425.12
353.674	405.12
353.901	404.12
354.128	393.12
354.355	397.12
354.583	419.12
354.81	395.12
355.037	377.12
355.264	371.12
355.491	383.12
355.718	378.12
355.945	382.12
356.172	379.12
356.399	380.12
356.626	380.12
356.853	380.12
357.08	388.12
357.307	390.12
357.534	385.12
357.761	393.12
357.988	388.12
358.215	383.12
358.441	397.12
358.668	418.12
358.895	403.12
359.122	401.12
359.349	419.12
359.576	442.12
359.802	440.12
360.029	496.12
360.256	496.12
360.483	476.12
360.709	440.12
360.936	432.12
361.163	436.12
361.39	439.12
361.616	427.12
361.843	405.12
362.07	428.12
362.296	440.12
362.523	423.12
362.749	418.12
362.976	422.12
363.203	401.12
363.429	415.12
363.656	419.12
363.882	426.12
364.109	420.12
364.335	414.12
364.562	385.12
364.788	406.12
365.015	407.12
365.241	411.12
365.468	417.12
365.694	396.12
365.92	407.12
366.147	411.12
366.373	404.12
366.599	416.12
366.826	380.12
367.052	391.12
367.278	403.12
367.505	402.12
367.731	421.12
367.957	416.12
368.184	420.12
368.41	409.12
368.636	415.12
368.862	415.12
369.089	408.12
369.315	404.12
369.541	402.12
369.767	392.12
369.993	424.12
370.219	390.12
370.445	407.12
370.672	393.12
370.898	410.12
371.124	390.12
371.35	426.12
371.576	393.12
371.802	389.12
372.028	391.12
372.254	384.12
372.48	375.12
372.706	409.12
372.932	408.12
373.158	390.12
373.384	396.12
373.61	415.12
373.835	415.12
374.061	407.12
374.287	413.12
374.513	389.12
374.739	421.12
374.965	415.12
375.191	407.12
375.416	406.12
375.642	398.12
375.868	412.12
376.094	381.12
376.319	402.12
376.545	385.12
376.771	396.12
376.997	407.12
377.222	381.12
377.448	389.12
377.674	384.12
377.899	397.12
378.125	382.12
378.35	374.12
378.576	380.12
378.802	401.12
379.027	389.12
379.253	412.12
379.478	410.12
379.704	407.12
379.929	390.12
380.155	417.12
380.38	380.12
380.606	414.12
380.831	391.12
381.057	397.12
381.282	395.12
381.507	410.12
381.733	406.12
381.958	409.12
382.184	395.12
382.409	411.12
382.634	406.12
382.86	407.12
383.085	415.12
383.31	405.12
383.535	426.12
383.761	400.12
383.986	395.12
384.211	409.12
384.436	418.12
384.662	417.12
384.887	418.12
385.112	414.12
385.337	439.12
385.562	415.12
385.787	424.12
386.013	435.12
386.238	455.12
386.463	435.12
386.688	442.12
386.913	431.12
387.138	401.12
387.363	444.12
387.588	435.12
387.813	409.12
388.038	437.12
388.263	426.12
388.488	449.12
388.713	449.12
388.938	440.12
389.163	439.12
389.387	436.12
389.612	416.12
389.837	438.12
390.062	443.12
390.287	436.12
390.512	428.12
390.736	431.12
390.961	426.12
391.186	427.12
391.411	442.12
391.636	451.12
391.86	449.12
392.085	441.12
392.31	415.12
392.534	457.12
392.759	451.12
392.984	457.12
393.208	444.12
393.433	443.12
393.658	450.12
393.882	439.12
394.107	459.12
394.331	451.12
394.556	434.12
394.78	443.12
395.005	444.12
395.229	449.12
395.454	449.12
395.678	434.12
395.903	468.12
396.127	480.12
396.352	477.12
396.576	467.12
396.801	441.12
397.025	457.12
397.249	464.12
397.474	454.12
397.698	468.12
397.922	479.12
398.147	492.12
398.371	509.12
398.595	503.12
398.82	500.12
399.044	510.12
399.268	496.12
399.492	544.12
399.717	549.12
399.941	562.12
400.165	608.12
400.389	596.12
400.613	572.12
400.837	529.12
401.062	533.12
401.286	526.12
401.51	501.12
401.734	495.12
401.958	483.12
402.182	488.12
402.406	517.12
402.63	526.12
402.854	521.12
403.078	523.12
403.302	491.12
403.526	524.12
403.75	532.12
403.974	518.12
404.198	514.12
404.422	523.12
404.645	525.12
404.869	523.12
405.093	569.12
405.317	606.12
405.541	637.12
405.765	588.12
405.988	553.12
406.212	572.12
406.436	615.12
406.66	627.12
406.883	593.12
407.107	583.12
407.331	633.12
407.555	703.12
407.778	719.12
408.002	641.12
408.226	624.12
408.449	611.12
408.673	593.12
408.896	608.12
409.12	661.12
409.344	624.12
409.567	561.12
409.791	529.12
410.014	525.12
410.238	518.12
410.461	521.12
410.685	530.12
410.908	522.12
411.132	585.12
411.355	624.12
411.578	582.12
411.802	553.12
412.025	532.12
412.249	525.12
412.472	590.12
412.695	629.12
412.919	595.12
413.142	561.12
413.365	529.12
413.589	539.12
413.812	501.12
414.035	521.12
414.258	491.12
414.482	503.12
414.705	492.12
414.928	465.12
415.151	482.12
415.374	489.12
415.597	496.12
415.821	505.12
416.044	511.12
416.267	479.12
416.49	497.12
416.713	506.12
416.936	501.12
417.159	502.12
417.382	509.12
417.605	511.12
417.828	522.12
418.051	522.12
418.274	530.12
418.497	521.12
418.72	512.12
418.943	513.12
419.166	516.12
419.389	553.12
419.611	521.12
419.834	539.12
420.057	539.12
420.28	520.12
420.503	543.12
420.726	540.12
420.948	550.12
421.171	611.12
421.394	635.12
421.617	573.12
421.839	550.12
422.062	559.12
422.285	573.12
422.507	628.12
422.73	700.12
422.953	683.12
423.175	599.12
423.398	567.12
423.621	567.12
423.843	603.12
424.066	608.12
424.288	587.12
424.511	602.12
424.733	681.12
424.956	749.12
425.178	763.12
425.401	741.12
425.623	767.12
425.846	663.12
426.068	609.12
426.291	584.12
426.513	607.12
426.735	581.12
426.958	654.12
427.18	746.12
427.402	877.12
427.625	972.12
427.847	892.12
428.069	771.12
428.292	655.12
428.514	625.12
428.736	600.12
428.958	564.12
429.181	566.12
429.403	563.12
429.625	589.12
429.847	610.12
430.069	685.12
430.292	684.12
430.514	594.12
430.736	551.12
430.958	564.12
431.18	537.12
431.402	514.12
431.624	523.12
431.846	528.12
432.068	511.12
432.29	485.12
432.512	511.12
432.734	535.12
432.956	540.12
433.178	547.12
433.4	548.12
433.622	526.12
433.844	544.12
434.066	521.12
434.287	523.12
434.509	504.12
434.731	526.12
434.953	535.12
435.175	541.12
435.397	572.12
435.618	606.12
435.84	655.12
436.062	753.12
436.284	837.12
436.505	681.12
436.727	639.12
436.949	577.12
437.17	571.12
437.392	556.12
437.614	597.12
437.835	625.12
438.057	755.12
438.278	830.12
438.5	825.12
438.721	912.12
438.943	866.12
439.165	687.12
439.386	629.12
439.608	646.12
439.829	627.12
440.05	656.12
440.272	704.12
440.493	688.12
440.715	614.12
440.936	587.12
441.158	593.12
441.379	571.12
441.6	585.12
441.822	597.12
442.043	650.12
442.264	729.12
442.486	778.12
442.707	711.12
442.928	644.12
443.149	626.12
443.371	665.12
443.592	712.12
443.813	791.12
444.034	845.12
444.255	713.12
444.476	635.12
444.698	614.12
444.919	595.12
445.14	688.12
445.361	664.12
445.582	659.12
445.803	735.12
446.024	840.12
446.245	861.12
446.466	805.12
446.687	668.12
446.908	634.12
447.129	602.12
447.35	571.12
447.571	580.12
447.792	566.12
448.013	581.12
448.234	604.12
448.455	641.12
448.675	788.12
448.896	876.12
449.117	738.12
449.338	717.12
449.559	845.12
449.779	930.12
450	749.12
450.221	632.12
450.442	588.12
450.662	560.12
450.883	585.12
451.104	587.12
451.324	598.12
451.545	567.12
451.766	520.12
451.986	515.12
452.207	505.12
452.428	521.12
452.648	502.12
452.869	525.12
453.089	521.12
453.31	549.12
453.53	525.12
453.751	506.12
453.971	517.12
454.192	552.12
454.412	500.12
454.633	517.12
454.853	476.12
455.073	492.12
455.294	556.12
455.514	620.12
455.734	607.12
455.955	519.12
456.175	488.12
456.395	466.12
456.616	465.12
456.836	455.12
457.056	456.12
457.276	440.12
457.497	454.12
457.717	469.12
457.937	474.12
458.157	475.12
458.377	501.12
458.598	528.12
458.818	581.12
459.038	707.12
459.258	699.12
459.478	608.12
459.698	539.12
459.918	515.12
460.138	509.12
460.358	509.12
460.578	511.12
460.798	529.12
461.018	535.12
461.238	509.12
461.458	524.12
461.678	518.12
461.898	528.12
462.118	487.12
462.338	497.12
462.558	525.12
462.777	533.12
462.997	533.12
463.217	518.12
463.437	541.12
463.657	549.12
463.876	520.12
464.096	524.12
464.316	548.12
464.536	532.12
464.755	556.12
464.975	566.12
465.195	611.12
465.414	759.12
465.634	644.12
465.854	583.12
466.073	540.12
466.293	526.12
466.512	522.12
466.732	528.12
466.951	502.12
467.171	509.12
467.391	502.12
467.61	511.12
467.829	538.12
468.049	538.12
468.268	529.12
468.488	499.12
468.707	511.12
468.927	490.12
469.146	492.12
469.365	494.12
469.585	505.12
469.804	530.12
470.023	547.12
470.243	533.12
470.462	535.12
470.681	569.12
470.901	562.12
471.12	507.12
471.339	525.12
471.558	536.12
471.777	513.12
471.997	520.12
472.216	517.12
472.435	555.12
472.654	559.12
472.873	518.12
473.092	509.12
473.311	504.12
473.53	517.12
473.749	535.12
473.968	591.12
474.187	712.12
474.406	727.12
474.625	599.12
474.844	544.12
475.063	541.12
475.282	543.12
475.501	521.12
475.72	551.12
475.939	539.12
476.158	533.12
476.377	561.12
476.596	527.12
476.814	569.12
477.033	567.12
477.252	557.12
477.471	547.12
477.69	543.12
477.908	571.12
478.127	559.12
478.346	563.12
478.564	574.12
478.783	597.12
479.002	582.12
479.22	579.12
479.439	599.12
479.658	614.12
479.876	605.12
480.095	648.12
480.313	671.12
480.532	651.12
480.751	636.12
480.969	655.12
481.188	692.12
481.406	788.12
481.624	691.12
481.843	658.12
482.061	627.12
482.28	650.12
482.498	621.12
482.717	630.12
482.935	614.12
483.153	626.12
483.372	625.12
483.59	617.12
483.808	603.12
484.027	630.12
484.245	623.12
484.463	619.12
484.681	645.12
484.9	626.12
485.118	629.12
485.336	633.12
485.554	597.12
485.772	659.12
485.99	618.12
486.209	616.12
486.427	634.12
486.645	665.12
486.863	696.12
487.081	667.12
487.299	671.12
487.517	695.12
487.735	689.12
487.953	671.12
488.171	687.12
488.389	663.12
488.607	674.12
488.825	671.12
489.043	698.12
489.261	668.12
489.479	692.12
489.696	707.12
489.914	699.12
490.132	692.12
490.35	707.12
490.568	706.12
490.786	724.12
491.003	745.12
491.221	749.12
491.439	769.12
491.657	759.12
491.874	772.12
492.092	807.12
492.31	803.12
492.527	820.12
492.745	815.12
492.963	804.12
493.18	800.12
493.398	813.12
493.615	827.12
493.833	807.12
494.05	809.12
494.268	831.12
494.485	804.12
494.703	794.12
494.92	836.12
495.138	823.12
495.355	813.12
495.573	809.12
495.79	827.12
496.008	822.12
496.225	827.12
496.442	800.12
496.66	828.12
496.877	791.12
497.094	794.12
497.312	827.12
497.529	850.12
497.746	808.12
497.963	854.12
498.181	837.12
498.398	854.12
498.615	852.12
498.832	884.12
499.049	850.12
499.267	873.12
499.484	899.12
499.701	897.12
499.918	932.12
500.135	957.12
500.352	997.12
500.569	1028.12
500.786	1004.12
501.003	994.12
501.22	976.12
501.437	991.12
501.654	974.12
