Data from 1971.PennyLincolnUp.Lamp.En5.5.200Scan.071719.P1._HRD10591_15-21-32-842.txt Node
Date: Thu Jul 18 15:21:32 EDT 2019
User: cochatt
Spectrometer: HR+D1059
Trigger mode: 1
Integration Time (sec): 1.000000E-1
Scans to average: 1
Electric dark correction enabled: true
Nonlinearity correction enabled: false
Boxcar width: 0
XAxis mode: Wavelengths
Number of Pixels in Spectrum: 2048
>>>>>Begin Spectral Data<<<<<
223.165	-19.44
223.4	-19.44
223.635	-19.44
223.869	-5.44
224.104	-23.44
224.338	-16.44
224.573	-11.44
224.808	-18.44
225.042	-3.44
225.277	14.56
225.511	-13.44
225.746	10.56
225.98	7.56
226.215	16.56
226.449	12.56
226.683	4.56
226.918	24.56
227.152	20.56
227.387	30.56
227.621	39.56
227.856	46.56
228.09	47.56
228.324	44.56
228.559	62.56
228.793	71.56
229.027	90.56
229.262	92.56
229.496	101.56
229.73	114.56
229.964	128.56
230.199	111.56
230.433	100.56
230.667	99.56
230.901	100.56
231.136	112.56
231.37	98.56
231.604	98.56
231.838	115.56
232.072	94.56
232.306	102.56
232.541	108.56
232.775	99.56
233.009	123.56
233.243	116.56
233.477	113.56
233.711	110.56
233.945	110.56
234.179	102.56
234.413	109.56
234.647	115.56
234.881	107.56
235.115	102.56
235.349	124.56
235.583	109.56
235.817	120.56
236.051	111.56
236.285	109.56
236.519	110.56
236.753	119.56
236.987	150.56
237.221	164.56
237.455	211.56
237.689	158.56
237.922	146.56
238.156	130.56
238.39	120.56
238.624	121.56
238.858	94.56
239.091	104.56
239.325	107.56
239.559	114.56
239.793	128.56
240.027	131.56
240.26	125.56
240.494	134.56
240.728	134.56
240.961	124.56
241.195	136.56
241.429	135.56
241.662	137.56
241.896	141.56
242.13	126.56
242.363	126.56
242.597	135.56
242.83	123.56
243.064	132.56
243.298	126.56
243.531	131.56
243.765	131.56
243.998	137.56
244.232	132.56
244.465	125.56
244.699	127.56
244.932	140.56
245.166	129.56
245.399	128.56
245.633	139.56
245.866	130.56
246.099	123.56
246.333	135.56
246.566	140.56
246.8	142.56
247.033	137.56
247.266	141.56
247.5	155.56
247.733	167.56
247.966	152.56
248.2	154.56
248.433	171.56
248.666	185.56
248.899	183.56
249.133	178.56
249.366	175.56
249.599	184.56
249.832	155.56
250.066	168.56
250.299	167.56
250.532	176.56
250.765	193.56
250.998	204.56
251.231	212.56
251.465	209.56
251.698	201.56
251.931	205.56
252.164	189.56
252.397	190.56
252.63	185.56
252.863	186.56
253.096	199.56
253.329	209.56
253.562	212.56
253.795	207.56
254.028	215.56
254.261	211.56
254.494	219.56
254.727	256.56
254.96	265.56
255.193	265.56
255.426	232.56
255.659	206.56
255.892	206.56
256.124	218.56
256.357	211.56
256.59	212.56
256.823	183.56
257.056	192.56
257.289	203.56
257.521	194.56
257.754	192.56
257.987	208.56
258.22	203.56
258.452	214.56
258.685	199.56
258.918	204.56
259.151	210.56
259.383	202.56
259.616	237.56
259.849	222.56
260.081	246.56
260.314	258.56
260.547	242.56
260.779	220.56
261.012	231.56
261.244	231.56
261.477	214.56
261.71	200.56
261.942	211.56
262.175	214.56
262.407	202.56
262.64	200.56
262.872	189.56
263.105	208.56
263.337	190.56
263.57	199.56
263.802	216.56
264.035	212.56
264.267	205.56
264.499	202.56
264.732	217.56
264.964	212.56
265.197	212.56
265.429	194.56
265.661	188.56
265.894	208.56
266.126	210.56
266.358	217.56
266.591	224.56
266.823	213.56
267.055	204.56
267.287	216.56
267.52	224.56
267.752	229.56
267.984	233.56
268.216	215.56
268.448	228.56
268.681	207.56
268.913	243.56
269.145	254.56
269.377	267.56
269.609	263.56
269.841	273.56
270.073	254.56
270.306	289.56
270.538	313.56
270.77	282.56
271.002	272.56
271.234	278.56
271.466	291.56
271.698	296.56
271.93	291.56
272.162	299.56
272.394	308.56
272.626	291.56
272.858	289.56
273.09	274.56
273.322	270.56
273.553	264.56
273.785	237.56
274.017	245.56
274.249	241.56
274.481	232.56
274.713	258.56
274.945	246.56
275.176	247.56
275.408	265.56
275.64	262.56
275.872	250.56
276.104	248.56
276.335	244.56
276.567	261.56
276.799	292.56
277.031	292.56
277.262	303.56
277.494	306.56
277.726	285.56
277.957	278.56
278.189	278.56
278.421	262.56
278.652	261.56
278.884	242.56
279.115	242.56
279.347	247.56
279.579	256.56
279.81	256.56
280.042	259.56
280.273	236.56
280.505	278.56
280.736	262.56
280.968	267.56
281.199	253.56
281.431	226.56
281.662	238.56
281.894	254.56
282.125	264.56
282.356	284.56
282.588	294.56
282.819	284.56
283.051	262.56
283.282	261.56
283.513	252.56
283.745	268.56
283.976	268.56
284.207	269.56
284.439	261.56
284.67	274.56
284.901	268.56
285.132	254.56
285.364	274.56
285.595	258.56
285.826	265.56
286.057	268.56
286.288	257.56
286.52	252.56
286.751	258.56
286.982	272.56
287.213	264.56
287.444	256.56
287.675	280.56
287.906	289.56
288.138	278.56
288.369	265.56
288.6	287.56
288.831	282.56
289.062	309.56
289.293	287.56
289.524	267.56
289.755	271.56
289.986	277.56
290.217	269.56
290.448	284.56
290.679	282.56
290.91	266.56
291.141	287.56
291.371	262.56
291.602	285.56
291.833	264.56
292.064	278.56
292.295	275.56
292.526	278.56
292.757	285.56
292.987	281.56
293.218	283.56
293.449	289.56
293.68	275.56
293.91	281.56
294.141	262.56
294.372	265.56
294.603	296.56
294.833	278.56
295.064	282.56
295.295	280.56
295.525	296.56
295.756	295.56
295.987	279.56
296.217	301.56
296.448	305.56
296.679	282.56
296.909	293.56
297.14	290.56
297.37	268.56
297.601	268.56
297.831	278.56
298.062	300.56
298.292	303.56
298.523	301.56
298.753	297.56
298.984	285.56
299.214	281.56
299.445	279.56
299.675	293.56
299.905	298.56
300.136	288.56
300.366	284.56
300.597	311.56
300.827	292.56
301.057	290.56
301.288	294.56
301.518	310.56
301.748	318.56
301.979	290.56
302.209	306.56
302.439	298.56
302.669	310.56
302.9	314.56
303.13	314.56
303.36	307.56
303.59	320.56
303.82	299.56
304.051	310.56
304.281	318.56
304.511	285.56
304.741	308.56
304.971	308.56
305.201	301.56
305.431	298.56
305.661	316.56
305.891	304.56
306.121	313.56
306.352	320.56
306.582	310.56
306.812	307.56
307.042	301.56
307.272	294.56
307.502	321.56
307.731	300.56
307.961	321.56
308.191	308.56
308.421	319.56
308.651	316.56
308.881	317.56
309.111	306.56
309.341	320.56
309.571	324.56
309.8	338.56
310.03	341.56
310.26	353.56
310.49	350.56
310.72	360.56
310.949	355.56
311.179	376.56
311.409	348.56
311.639	338.56
311.868	350.56
312.098	339.56
312.328	356.56
312.557	378.56
312.787	376.56
313.017	367.56
313.246	362.56
313.476	355.56
313.706	363.56
313.935	366.56
314.165	367.56
314.394	351.56
314.624	354.56
314.853	372.56
315.083	378.56
315.312	352.56
315.542	342.56
315.771	334.56
316.001	346.56
316.23	341.56
316.46	355.56
316.689	340.56
316.919	351.56
317.148	352.56
317.377	340.56
317.607	357.56
317.836	363.56
318.065	358.56
318.295	360.56
318.524	345.56
318.753	338.56
318.983	348.56
319.212	352.56
319.441	357.56
319.67	376.56
319.9	354.56
320.129	392.56
320.358	370.56
320.587	354.56
320.816	366.56
321.046	375.56
321.275	362.56
321.504	373.56
321.733	365.56
321.962	388.56
322.191	392.56
322.42	400.56
322.649	409.56
322.878	427.56
323.108	434.56
323.337	435.56
323.566	464.56
323.795	504.56
324.024	522.56
324.253	663.56
324.482	970.56
324.71	1391.56
324.939	1915.56
325.168	1556.56
325.397	836.56
325.626	597.56
325.855	488.56
326.084	468.56
326.313	469.56
326.542	464.56
326.77	512.56
326.999	616.56
327.228	848.56
327.457	1203.56
327.686	1380.56
327.914	916.56
328.143	627.56
328.372	548.56
328.6	534.56
328.829	519.56
329.058	515.56
329.287	497.56
329.515	491.56
329.744	471.56
329.972	479.56
330.201	505.56
330.43	507.56
330.658	510.56
330.887	549.56
331.115	505.56
331.344	466.56
331.572	434.56
331.801	431.56
332.03	450.56
332.258	419.56
332.486	422.56
332.715	419.56
332.943	403.56
333.172	408.56
333.4	413.56
333.629	420.56
333.857	447.56
334.085	460.56
334.314	452.56
334.542	463.56
334.771	480.56
334.999	450.56
335.227	426.56
335.455	439.56
335.684	425.56
335.912	400.56
336.14	410.56
336.369	406.56
336.597	399.56
336.825	410.56
337.053	390.56
337.281	418.56
337.51	389.56
337.738	386.56
337.966	416.56
338.194	396.56
338.422	395.56
338.65	401.56
338.878	405.56
339.106	386.56
339.334	392.56
339.562	385.56
339.79	393.56
340.018	389.56
340.246	396.56
340.474	394.56
340.702	386.56
340.93	382.56
341.158	382.56
341.386	377.56
341.614	389.56
341.842	383.56
342.07	384.56
342.298	392.56
342.526	392.56
342.754	380.56
342.981	370.56
343.209	392.56
343.437	385.56
343.665	380.56
343.893	380.56
344.12	380.56
344.348	394.56
344.576	390.56
344.804	394.56
345.031	383.56
345.259	410.56
345.487	404.56
345.714	384.56
345.942	366.56
346.17	377.56
346.397	378.56
346.625	366.56
346.853	368.56
347.08	387.56
347.308	386.56
347.535	383.56
347.763	386.56
347.99	382.56
348.218	371.56
348.445	382.56
348.673	385.56
348.9	380.56
349.128	364.56
349.355	370.56
349.583	348.56
349.81	370.56
350.037	365.56
350.265	349.56
350.492	360.56
350.72	357.56
350.947	369.56
351.174	371.56
351.402	378.56
351.629	390.56
351.856	383.56
352.083	378.56
352.311	380.56
352.538	378.56
352.765	367.56
352.992	376.56
353.22	367.56
353.447	366.56
353.674	351.56
353.901	372.56
354.128	334.56
354.355	346.56
354.583	350.56
354.81	334.56
355.037	330.56
355.264	351.56
355.491	347.56
355.718	342.56
355.945	336.56
356.172	357.56
356.399	340.56
356.626	336.56
356.853	332.56
357.08	312.56
357.307	340.56
357.534	352.56
357.761	333.56
357.988	335.56
358.215	326.56
358.441	347.56
358.668	348.56
358.895	340.56
359.122	344.56
359.349	351.56
359.576	365.56
359.802	379.56
360.029	376.56
360.256	426.56
360.483	363.56
360.709	358.56
360.936	349.56
361.163	342.56
361.39	386.56
361.616	378.56
361.843	336.56
362.07	344.56
362.296	358.56
362.523	358.56
362.749	348.56
362.976	348.56
363.203	318.56
363.429	335.56
363.656	344.56
363.882	355.56
364.109	339.56
364.335	352.56
364.562	331.56
364.788	361.56
365.015	348.56
365.241	328.56
365.468	361.56
365.694	344.56
365.92	351.56
366.147	321.56
366.373	321.56
366.599	338.56
366.826	328.56
367.052	349.56
367.278	335.56
367.505	338.56
367.731	328.56
367.957	361.56
368.184	336.56
368.41	349.56
368.636	348.56
368.862	348.56
369.089	355.56
369.315	353.56
369.541	350.56
369.767	331.56
369.993	335.56
370.219	341.56
370.445	320.56
370.672	341.56
370.898	321.56
371.124	329.56
371.35	338.56
371.576	336.56
371.802	314.56
372.028	330.56
372.254	356.56
372.48	340.56
372.706	332.56
372.932	337.56
373.158	324.56
373.384	341.56
373.61	338.56
373.835	334.56
374.061	348.56
374.287	335.56
374.513	359.56
374.739	335.56
374.965	322.56
375.191	338.56
375.416	335.56
375.642	348.56
375.868	338.56
376.094	335.56
376.319	345.56
376.545	342.56
376.771	331.56
376.997	339.56
377.222	355.56
377.448	343.56
377.674	335.56
377.899	332.56
378.125	312.56
378.35	314.56
378.576	318.56
378.802	339.56
379.027	342.56
379.253	322.56
379.478	322.56
379.704	332.56
379.929	317.56
380.155	324.56
380.38	335.56
380.606	325.56
380.831	344.56
381.057	344.56
381.282	336.56
381.507	336.56
381.733	323.56
381.958	330.56
382.184	339.56
382.409	318.56
382.634	324.56
382.86	329.56
383.085	344.56
383.31	325.56
383.535	331.56
383.761	328.56
383.986	335.56
384.211	341.56
384.436	327.56
384.662	330.56
384.887	330.56
385.112	327.56
385.337	373.56
385.562	357.56
385.787	350.56
386.013	360.56
386.238	344.56
386.463	326.56
386.688	352.56
386.913	346.56
387.138	341.56
387.363	355.56
387.588	335.56
387.813	354.56
388.038	340.56
388.263	354.56
388.488	353.56
388.713	358.56
388.938	345.56
389.163	344.56
389.387	350.56
389.612	336.56
389.837	351.56
390.062	332.56
390.287	336.56
390.512	337.56
390.736	330.56
390.961	344.56
391.186	344.56
391.411	357.56
391.636	343.56
391.86	351.56
392.085	360.56
392.31	346.56
392.534	374.56
392.759	372.56
392.984	343.56
393.208	351.56
393.433	360.56
393.658	327.56
393.882	349.56
394.107	326.56
394.331	356.56
394.556	357.56
394.78	337.56
395.005	352.56
395.229	352.56
395.454	353.56
395.678	349.56
395.903	351.56
396.127	376.56
396.352	367.56
396.576	356.56
396.801	342.56
397.025	357.56
397.249	357.56
397.474	359.56
397.698	359.56
397.922	362.56
398.147	380.56
398.371	384.56
398.595	373.56
398.82	364.56
399.044	400.56
399.268	404.56
399.492	381.56
399.717	420.56
399.941	446.56
400.165	446.56
400.389	479.56
400.613	457.56
400.837	414.56
401.062	396.56
401.286	395.56
401.51	405.56
401.734	372.56
401.958	381.56
402.182	384.56
402.406	396.56
402.63	378.56
402.854	394.56
403.078	377.56
403.302	401.56
403.526	384.56
403.75	424.56
403.974	389.56
404.198	398.56
404.422	388.56
404.645	394.56
404.869	404.56
405.093	423.56
405.317	460.56
405.541	480.56
405.765	444.56
405.988	420.56
406.212	422.56
406.436	422.56
406.66	445.56
406.883	433.56
407.107	459.56
407.331	483.56
407.555	495.56
407.778	513.56
408.002	475.56
408.226	430.56
408.449	428.56
408.673	429.56
408.896	439.56
409.12	472.56
409.344	439.56
409.567	399.56
409.791	425.56
410.014	422.56
410.238	381.56
410.461	386.56
410.685	397.56
410.908	412.56
411.132	448.56
411.355	446.56
411.578	447.56
411.802	418.56
412.025	390.56
412.249	392.56
412.472	427.56
412.695	431.56
412.919	447.56
413.142	403.56
413.365	398.56
413.589	397.56
413.812	390.56
414.035	386.56
414.258	376.56
414.482	368.56
414.705	380.56
414.928	363.56
415.151	364.56
415.374	355.56
415.597	360.56
415.821	388.56
416.044	374.56
416.267	386.56
416.49	361.56
416.713	371.56
416.936	357.56
417.159	360.56
417.382	362.56
417.605	363.56
417.828	389.56
418.051	375.56
418.274	396.56
418.497	372.56
418.72	373.56
418.943	380.56
419.166	366.56
419.389	399.56
419.611	392.56
419.834	390.56
420.057	399.56
420.28	399.56
420.503	387.56
420.726	386.56
420.948	381.56
421.171	420.56
421.394	452.56
421.617	412.56
421.839	413.56
422.062	394.56
422.285	406.56
422.507	435.56
422.73	491.56
422.953	492.56
423.175	426.56
423.398	406.56
423.621	410.56
423.843	414.56
424.066	432.56
424.288	425.56
424.511	442.56
424.733	477.56
424.956	536.56
425.178	502.56
425.401	525.56
425.623	517.56
425.846	456.56
426.068	419.56
426.291	404.56
426.513	420.56
426.735	431.56
426.958	471.56
427.18	538.56
427.402	611.56
427.625	692.56
427.847	599.56
428.069	504.56
428.292	451.56
428.514	435.56
428.736	420.56
428.958	411.56
429.181	385.56
429.403	413.56
429.625	392.56
429.847	432.56
430.069	478.56
430.292	453.56
430.514	418.56
430.736	380.56
430.958	375.56
431.18	371.56
431.402	348.56
431.624	382.56
431.846	359.56
432.068	340.56
432.29	367.56
432.512	343.56
432.734	393.56
432.956	388.56
433.178	374.56
433.4	386.56
433.622	354.56
433.844	382.56
434.066	364.56
434.287	368.56
434.509	374.56
434.731	383.56
434.953	389.56
435.175	392.56
435.397	416.56
435.618	425.56
435.84	455.56
436.062	514.56
436.284	572.56
436.505	476.56
436.727	425.56
436.949	420.56
437.17	408.56
437.392	390.56
437.614	398.56
437.835	427.56
438.057	493.56
438.278	569.56
438.5	574.56
438.721	607.56
438.943	589.56
439.165	470.56
439.386	449.56
439.608	442.56
439.829	416.56
440.05	452.56
440.272	477.56
440.493	454.56
440.715	430.56
440.936	403.56
441.158	394.56
441.379	398.56
441.6	401.56
441.822	414.56
442.043	444.56
442.264	530.56
442.486	536.56
442.707	477.56
442.928	437.56
443.149	425.56
443.371	454.56
443.592	491.56
443.813	553.56
444.034	594.56
444.255	496.56
444.476	459.56
444.698	423.56
444.919	423.56
445.14	507.56
445.361	478.56
445.582	468.56
445.803	518.56
446.024	598.56
446.245	606.56
446.466	534.56
446.687	476.56
446.908	429.56
447.129	413.56
447.35	398.56
447.571	393.56
447.792	391.56
448.013	371.56
448.234	407.56
448.455	428.56
448.675	545.56
448.896	628.56
449.117	538.56
449.338	494.56
449.559	569.56
449.779	638.56
450	516.56
450.221	438.56
450.442	387.56
450.662	378.56
450.883	375.56
451.104	392.56
451.324	385.56
451.545	380.56
451.766	366.56
451.986	346.56
452.207	334.56
452.428	347.56
452.648	344.56
452.869	344.56
453.089	346.56
453.31	374.56
453.53	346.56
453.751	358.56
453.971	357.56
454.192	363.56
454.412	350.56
454.633	328.56
454.853	351.56
455.073	355.56
455.294	351.56
455.514	407.56
455.734	391.56
455.955	343.56
456.175	335.56
456.395	334.56
456.616	336.56
456.836	333.56
457.056	317.56
457.276	302.56
457.497	330.56
457.717	313.56
457.937	334.56
458.157	318.56
458.377	334.56
458.598	342.56
458.818	400.56
459.038	438.56
459.258	469.56
459.478	406.56
459.698	370.56
459.918	340.56
460.138	372.56
460.358	367.56
460.578	352.56
460.798	372.56
461.018	370.56
461.238	357.56
461.458	359.56
461.678	378.56
461.898	374.56
462.118	383.56
462.338	375.56
462.558	375.56
462.777	379.56
462.997	375.56
463.217	374.56
463.437	398.56
463.657	388.56
463.876	364.56
464.096	382.56
464.316	364.56
464.536	394.56
464.755	383.56
464.975	378.56
465.195	397.56
465.414	446.56
465.634	420.56
465.854	380.56
466.073	382.56
466.293	389.56
466.512	358.56
466.732	355.56
466.951	360.56
467.171	350.56
467.391	360.56
467.61	379.56
467.829	352.56
468.049	352.56
468.268	361.56
468.488	342.56
468.707	332.56
468.927	340.56
469.146	331.56
469.365	335.56
469.585	356.56
469.804	358.56
470.023	338.56
470.243	348.56
470.462	351.56
470.681	371.56
470.901	381.56
471.12	348.56
471.339	357.56
471.558	350.56
471.777	349.56
471.997	351.56
472.216	376.56
472.435	374.56
472.654	372.56
472.873	367.56
473.092	358.56
473.311	345.56
473.53	356.56
473.749	356.56
473.968	394.56
474.187	490.56
474.406	460.56
474.625	412.56
474.844	371.56
475.063	375.56
475.282	378.56
475.501	355.56
475.72	383.56
475.939	344.56
476.158	354.56
476.377	375.56
476.596	378.56
476.814	374.56
477.033	374.56
477.252	387.56
477.471	373.56
477.69	368.56
477.908	396.56
478.127	376.56
478.346	382.56
478.564	412.56
478.783	409.56
479.002	402.56
479.22	397.56
479.439	375.56
479.658	430.56
479.876	430.56
480.095	410.56
480.313	441.56
480.532	442.56
480.751	444.56
480.969	443.56
481.188	446.56
481.406	489.56
481.624	438.56
481.843	422.56
482.061	400.56
482.28	424.56
482.498	395.56
482.717	395.56
482.935	406.56
483.153	410.56
483.372	418.56
483.59	405.56
483.808	422.56
484.027	428.56
484.245	418.56
484.463	396.56
484.681	439.56
484.9	419.56
485.118	441.56
485.336	430.56
485.554	419.56
485.772	419.56
485.99	423.56
486.209	448.56
486.427	436.56
486.645	435.56
486.863	442.56
487.081	448.56
487.299	446.56
487.517	448.56
487.735	453.56
487.953	452.56
488.171	467.56
488.389	468.56
488.607	446.56
488.825	440.56
489.043	441.56
489.261	450.56
489.479	452.56
489.696	464.56
489.914	449.56
490.132	463.56
490.35	474.56
490.568	454.56
490.786	462.56
491.003	493.56
491.221	500.56
491.439	502.56
491.657	502.56
491.874	493.56
492.092	530.56
492.31	528.56
492.527	512.56
492.745	534.56
492.963	532.56
493.18	511.56
493.398	521.56
493.615	522.56
493.833	533.56
494.05	506.56
494.268	521.56
494.485	509.56
494.703	521.56
494.92	522.56
495.138	518.56
495.355	538.56
495.573	514.56
495.79	518.56
496.008	542.56
496.225	530.56
496.442	537.56
496.66	537.56
496.877	514.56
497.094	525.56
497.312	547.56
497.529	557.56
497.746	529.56
497.963	544.56
498.181	550.56
498.398	553.56
498.615	554.56
498.832	571.56
499.049	582.56
499.267	604.56
499.484	592.56
499.701	603.56
499.918	648.56
500.135	645.56
500.352	668.56
500.569	682.56
500.786	669.56
501.003	663.56
501.22	655.56
501.437	660.56
501.654	633.56
501.871	629.56
502.088	636.56
