Data from 1971.PennyLincolnUp.Lamp.En5.5.200Scan.071719.P1._HRD10591_15-20-34-842.txt Node
Date: Thu Jul 18 15:20:34 EDT 2019
User: cochatt
Spectrometer: HR+D1059
Trigger mode: 1
Integration Time (sec): 1.000000E-1
Scans to average: 1
Electric dark correction enabled: true
Nonlinearity correction enabled: false
Boxcar width: 0
XAxis mode: Wavelengths
Number of Pixels in Spectrum: 2048
>>>>>Begin Spectral Data<<<<<
223.165	-4.31
223.4	-4.31
223.635	-4.31
223.869	-11.31
224.104	-9.31
224.338	-23.31
224.573	-19.31
224.808	-20.31
225.042	2.69
225.277	-2.31
225.511	1.69
225.746	6.69
225.98	5.69
226.215	4.69
226.449	-3.31
226.683	24.69
226.918	22.69
227.152	24.69
227.387	29.69
227.621	41.69
227.856	52.69
228.09	43.69
228.324	44.69
228.559	68.69
228.793	81.69
229.027	85.69
229.262	82.69
229.496	119.69
229.73	123.69
229.964	140.69
230.199	125.69
230.433	112.69
230.667	128.69
230.901	106.69
231.136	103.69
231.37	115.69
231.604	87.69
231.838	100.69
232.072	117.69
232.306	101.69
232.541	107.69
232.775	104.69
233.009	116.69
233.243	102.69
233.477	100.69
233.711	112.69
233.945	108.69
234.179	106.69
234.413	120.69
234.647	115.69
234.881	118.69
235.115	127.69
235.349	129.69
235.583	127.69
235.817	112.69
236.051	123.69
236.285	118.69
236.519	117.69
236.753	123.69
236.987	149.69
237.221	185.69
237.455	222.69
237.689	165.69
237.922	125.69
238.156	125.69
238.39	112.69
238.624	129.69
238.858	126.69
239.091	113.69
239.325	121.69
239.559	141.69
239.793	128.69
240.027	117.69
240.26	121.69
240.494	141.69
240.728	144.69
240.961	133.69
241.195	149.69
241.429	127.69
241.662	129.69
241.896	128.69
242.13	137.69
242.363	135.69
242.597	125.69
242.83	140.69
243.064	141.69
243.298	126.69
243.531	122.69
243.765	129.69
243.998	139.69
244.232	138.69
244.465	132.69
244.699	141.69
244.932	150.69
245.166	151.69
245.399	140.69
245.633	137.69
245.866	125.69
246.099	131.69
246.333	139.69
246.566	151.69
246.8	161.69
247.033	155.69
247.266	153.69
247.5	153.69
247.733	163.69
247.966	181.69
248.2	159.69
248.433	161.69
248.666	177.69
248.899	192.69
249.133	190.69
249.366	211.69
249.599	210.69
249.832	189.69
250.066	193.69
250.299	189.69
250.532	187.69
250.765	212.69
250.998	201.69
251.231	228.69
251.465	205.69
251.698	215.69
251.931	190.69
252.164	191.69
252.397	186.69
252.63	204.69
252.863	197.69
253.096	208.69
253.329	224.69
253.562	235.69
253.795	220.69
254.028	239.69
254.261	224.69
254.494	217.69
254.727	250.69
254.96	279.69
255.193	277.69
255.426	250.69
255.659	236.69
255.892	240.69
256.124	235.69
256.357	241.69
256.59	216.69
256.823	237.69
257.056	202.69
257.289	220.69
257.521	222.69
257.754	223.69
257.987	207.69
258.22	218.69
258.452	205.69
258.685	205.69
258.918	189.69
259.151	222.69
259.383	206.69
259.616	223.69
259.849	212.69
260.081	228.69
260.314	269.69
260.547	279.69
260.779	246.69
261.012	234.69
261.244	225.69
261.477	230.69
261.71	227.69
261.942	232.69
262.175	229.69
262.407	213.69
262.64	214.69
262.872	205.69
263.105	219.69
263.337	232.69
263.57	204.69
263.802	197.69
264.035	213.69
264.267	217.69
264.499	205.69
264.732	245.69
264.964	198.69
265.197	228.69
265.429	218.69
265.661	218.69
265.894	210.69
266.126	240.69
266.358	213.69
266.591	223.69
266.823	229.69
267.055	228.69
267.287	223.69
267.52	232.69
267.752	217.69
267.984	217.69
268.216	245.69
268.448	239.69
268.681	232.69
268.913	246.69
269.145	272.69
269.377	297.69
269.609	292.69
269.841	279.69
270.073	275.69
270.306	304.69
270.538	321.69
270.77	329.69
271.002	319.69
271.234	283.69
271.466	313.69
271.698	306.69
271.93	327.69
272.162	312.69
272.394	314.69
272.626	303.69
272.858	299.69
273.09	283.69
273.322	273.69
273.553	277.69
273.785	282.69
274.017	289.69
274.249	277.69
274.481	249.69
274.713	283.69
274.945	278.69
275.176	281.69
275.408	262.69
275.64	272.69
275.872	281.69
276.104	264.69
276.335	275.69
276.567	284.69
276.799	300.69
277.031	324.69
277.262	313.69
277.494	322.69
277.726	306.69
277.957	290.69
278.189	288.69
278.421	282.69
278.652	289.69
278.884	291.69
279.115	275.69
279.347	259.69
279.579	254.69
279.81	258.69
280.042	260.69
280.273	266.69
280.505	271.69
280.736	285.69
280.968	268.69
281.199	262.69
281.431	278.69
281.662	259.69
281.894	272.69
282.125	271.69
282.356	268.69
282.588	315.69
282.819	307.69
283.051	280.69
283.282	257.69
283.513	281.69
283.745	287.69
283.976	286.69
284.207	275.69
284.439	281.69
284.67	274.69
284.901	282.69
285.132	277.69
285.364	286.69
285.595	288.69
285.826	272.69
286.057	277.69
286.288	280.69
286.52	308.69
286.751	295.69
286.982	287.69
287.213	252.69
287.444	280.69
287.675	284.69
287.906	299.69
288.138	304.69
288.369	313.69
288.6	300.69
288.831	307.69
289.062	317.69
289.293	293.69
289.524	297.69
289.755	303.69
289.986	297.69
290.217	296.69
290.448	267.69
290.679	286.69
290.91	288.69
291.141	300.69
291.371	318.69
291.602	293.69
291.833	287.69
292.064	284.69
292.295	271.69
292.526	288.69
292.757	304.69
292.987	291.69
293.218	284.69
293.449	282.69
293.68	285.69
293.91	290.69
294.141	287.69
294.372	299.69
294.603	305.69
294.833	284.69
295.064	282.69
295.295	297.69
295.525	282.69
295.756	296.69
295.987	282.69
296.217	313.69
296.448	337.69
296.679	306.69
296.909	289.69
297.14	312.69
297.37	310.69
297.601	323.69
297.831	308.69
298.062	291.69
298.292	292.69
298.523	296.69
298.753	305.69
298.984	291.69
299.214	314.69
299.445	303.69
299.675	317.69
299.905	330.69
300.136	309.69
300.366	305.69
300.597	306.69
300.827	315.69
301.057	326.69
301.288	331.69
301.518	315.69
301.748	316.69
301.979	334.69
302.209	336.69
302.439	347.69
302.669	349.69
302.9	325.69
303.13	317.69
303.36	337.69
303.59	330.69
303.82	331.69
304.051	341.69
304.281	329.69
304.511	330.69
304.741	335.69
304.971	319.69
305.201	323.69
305.431	311.69
305.661	331.69
305.891	310.69
306.121	330.69
306.352	349.69
306.582	360.69
306.812	336.69
307.042	350.69
307.272	343.69
307.502	337.69
307.731	345.69
307.961	340.69
308.191	318.69
308.421	325.69
308.651	337.69
308.881	333.69
309.111	350.69
309.341	341.69
309.571	357.69
309.8	364.69
310.03	356.69
310.26	355.69
310.49	377.69
310.72	387.69
310.949	389.69
311.179	382.69
311.409	367.69
311.639	384.69
311.868	391.69
312.098	382.69
312.328	373.69
312.557	402.69
312.787	405.69
313.017	386.69
313.246	393.69
313.476	375.69
313.706	365.69
313.935	383.69
314.165	380.69
314.394	399.69
314.624	383.69
314.853	385.69
315.083	378.69
315.312	403.69
315.542	372.69
315.771	359.69
316.001	367.69
316.23	360.69
316.46	390.69
316.689	377.69
316.919	356.69
317.148	391.69
317.377	401.69
317.607	389.69
317.836	384.69
318.065	397.69
318.295	390.69
318.524	370.69
318.753	363.69
318.983	365.69
319.212	379.69
319.441	397.69
319.67	374.69
319.9	361.69
320.129	383.69
320.358	389.69
320.587	405.69
320.816	387.69
321.046	392.69
321.275	395.69
321.504	386.69
321.733	409.69
321.962	397.69
322.191	417.69
322.42	428.69
322.649	448.69
322.878	453.69
323.108	442.69
323.337	451.69
323.566	507.69
323.795	533.69
324.024	582.69
324.253	693.69
324.482	978.69
324.71	1444.69
324.939	1988.69
325.168	1687.69
325.397	874.69
325.626	630.69
325.855	533.69
326.084	511.69
326.313	497.69
326.542	496.69
326.77	524.69
326.999	659.69
327.228	857.69
327.457	1283.69
327.686	1452.69
327.914	987.69
328.143	678.69
328.372	594.69
328.6	579.69
328.829	556.69
329.058	549.69
329.287	543.69
329.515	513.69
329.744	506.69
329.972	489.69
330.201	528.69
330.43	515.69
330.658	545.69
330.887	581.69
331.115	550.69
331.344	492.69
331.572	490.69
331.801	482.69
332.03	479.69
332.258	445.69
332.486	428.69
332.715	431.69
332.943	451.69
333.172	453.69
333.4	448.69
333.629	434.69
333.857	450.69
334.085	472.69
334.314	470.69
334.542	510.69
334.771	499.69
334.999	465.69
335.227	442.69
335.455	425.69
335.684	443.69
335.912	440.69
336.14	436.69
336.369	415.69
336.597	422.69
336.825	437.69
337.053	431.69
337.281	437.69
337.51	431.69
337.738	409.69
337.966	418.69
338.194	411.69
338.422	427.69
338.65	402.69
338.878	402.69
339.106	424.69
339.334	399.69
339.562	416.69
339.79	422.69
340.018	423.69
340.246	442.69
340.474	405.69
340.702	430.69
340.93	415.69
341.158	421.69
341.386	435.69
341.614	400.69
341.842	407.69
342.07	417.69
342.298	421.69
342.526	375.69
342.754	395.69
342.981	390.69
343.209	394.69
343.437	413.69
343.665	396.69
343.893	426.69
344.12	416.69
344.348	398.69
344.576	425.69
344.804	421.69
345.031	415.69
345.259	432.69
345.487	408.69
345.714	395.69
345.942	398.69
346.17	404.69
346.397	413.69
346.625	398.69
346.853	391.69
347.08	381.69
347.308	388.69
347.535	403.69
347.763	391.69
347.99	385.69
348.218	387.69
348.445	395.69
348.673	400.69
348.9	414.69
349.128	396.69
349.355	375.69
349.583	373.69
349.81	375.69
350.037	370.69
350.265	376.69
350.492	394.69
350.72	369.69
350.947	393.69
351.174	384.69
351.402	411.69
351.629	409.69
351.856	388.69
352.083	376.69
352.311	402.69
352.538	398.69
352.765	398.69
352.992	408.69
353.22	376.69
353.447	386.69
353.674	384.69
353.901	384.69
354.128	365.69
354.355	349.69
354.583	355.69
354.81	352.69
355.037	384.69
355.264	364.69
355.491	366.69
355.718	355.69
355.945	353.69
356.172	356.69
356.399	346.69
356.626	339.69
356.853	349.69
357.08	345.69
357.307	351.69
357.534	363.69
357.761	367.69
357.988	359.69
358.215	379.69
358.441	364.69
358.668	341.69
358.895	377.69
359.122	371.69
359.349	375.69
359.576	387.69
359.802	407.69
360.029	408.69
360.256	450.69
360.483	401.69
360.709	378.69
360.936	387.69
361.163	389.69
361.39	357.69
361.616	373.69
361.843	364.69
362.07	377.69
362.296	391.69
362.523	383.69
362.749	364.69
362.976	382.69
363.203	352.69
363.429	374.69
363.656	349.69
363.882	359.69
364.109	368.69
364.335	356.69
364.562	364.69
364.788	357.69
365.015	364.69
365.241	354.69
365.468	359.69
365.694	341.69
365.92	362.69
366.147	353.69
366.373	360.69
366.599	356.69
366.826	373.69
367.052	350.69
367.278	353.69
367.505	348.69
367.731	346.69
367.957	357.69
368.184	363.69
368.41	343.69
368.636	369.69
368.862	375.69
369.089	355.69
369.315	352.69
369.541	367.69
369.767	348.69
369.993	360.69
370.219	340.69
370.445	357.69
370.672	372.69
370.898	361.69
371.124	339.69
371.35	347.69
371.576	339.69
371.802	355.69
372.028	381.69
372.254	351.69
372.48	364.69
372.706	355.69
372.932	358.69
373.158	337.69
373.384	352.69
373.61	347.69
373.835	377.69
374.061	351.69
374.287	351.69
374.513	360.69
374.739	360.69
374.965	363.69
375.191	372.69
375.416	358.69
375.642	364.69
375.868	356.69
376.094	344.69
376.319	367.69
376.545	347.69
376.771	347.69
376.997	360.69
377.222	350.69
377.448	332.69
377.674	344.69
377.899	345.69
378.125	347.69
378.35	369.69
378.576	356.69
378.802	350.69
379.027	351.69
379.253	345.69
379.478	339.69
379.704	360.69
379.929	355.69
380.155	324.69
380.38	348.69
380.606	343.69
380.831	346.69
381.057	351.69
381.282	347.69
381.507	355.69
381.733	344.69
381.958	357.69
382.184	367.69
382.409	342.69
382.634	341.69
382.86	344.69
383.085	353.69
383.31	352.69
383.535	354.69
383.761	347.69
383.986	341.69
384.211	337.69
384.436	347.69
384.662	363.69
384.887	354.69
385.112	346.69
385.337	377.69
385.562	361.69
385.787	365.69
386.013	375.69
386.238	379.69
386.463	360.69
386.688	367.69
386.913	346.69
387.138	359.69
387.363	365.69
387.588	354.69
387.813	363.69
388.038	371.69
388.263	362.69
388.488	357.69
388.713	386.69
388.938	360.69
389.163	362.69
389.387	376.69
389.612	339.69
389.837	348.69
390.062	372.69
390.287	344.69
390.512	349.69
390.736	363.69
390.961	360.69
391.186	379.69
391.411	365.69
391.636	381.69
391.86	366.69
392.085	368.69
392.31	353.69
392.534	372.69
392.759	349.69
392.984	349.69
393.208	372.69
393.433	355.69
393.658	368.69
393.882	371.69
394.107	355.69
394.331	353.69
394.556	355.69
394.78	355.69
395.005	371.69
395.229	375.69
395.454	369.69
395.678	387.69
395.903	389.69
396.127	388.69
396.352	391.69
396.576	384.69
396.801	358.69
397.025	376.69
397.249	385.69
397.474	378.69
397.698	385.69
397.922	375.69
398.147	398.69
398.371	391.69
398.595	410.69
398.82	418.69
399.044	397.69
399.268	418.69
399.492	428.69
399.717	473.69
399.941	446.69
400.165	478.69
400.389	508.69
400.613	447.69
400.837	425.69
401.062	411.69
401.286	401.69
401.51	419.69
401.734	397.69
401.958	404.69
402.182	407.69
402.406	437.69
402.63	410.69
402.854	414.69
403.078	388.69
403.302	426.69
403.526	433.69
403.75	414.69
403.974	412.69
404.198	429.69
404.422	400.69
404.645	406.69
404.869	427.69
405.093	436.69
405.317	488.69
405.541	503.69
405.765	453.69
405.988	433.69
406.212	449.69
406.436	452.69
406.66	469.69
406.883	465.69
407.107	464.69
407.331	503.69
407.555	532.69
407.778	544.69
408.002	511.69
408.226	451.69
408.449	449.69
408.673	458.69
408.896	460.69
409.12	501.69
409.344	477.69
409.567	444.69
409.791	439.69
410.014	426.69
410.238	420.69
410.461	419.69
410.685	410.69
410.908	431.69
411.132	469.69
411.355	513.69
411.578	457.69
411.802	409.69
412.025	423.69
412.249	409.69
412.472	441.69
412.695	473.69
412.919	442.69
413.142	428.69
413.365	420.69
413.589	412.69
413.812	399.69
414.035	391.69
414.258	398.69
414.482	399.69
414.705	405.69
414.928	401.69
415.151	387.69
415.374	399.69
415.597	376.69
415.821	375.69
416.044	406.69
416.267	393.69
416.49	385.69
416.713	383.69
416.936	390.69
417.159	401.69
417.382	395.69
417.605	397.69
417.828	403.69
418.051	405.69
418.274	420.69
418.497	389.69
418.72	389.69
418.943	394.69
419.166	389.69
419.389	424.69
419.611	424.69
419.834	398.69
420.057	415.69
420.28	405.69
420.503	411.69
420.726	405.69
420.948	427.69
421.171	440.69
421.394	479.69
421.617	441.69
421.839	417.69
422.062	408.69
422.285	419.69
422.507	478.69
422.73	512.69
422.953	496.69
423.175	469.69
423.398	410.69
423.621	433.69
423.843	450.69
424.066	442.69
424.288	441.69
424.511	473.69
424.733	493.69
424.956	565.69
425.178	537.69
425.401	539.69
425.623	550.69
425.846	487.69
426.068	462.69
426.291	425.69
426.513	435.69
426.735	455.69
426.958	472.69
427.18	552.69
427.402	639.69
427.625	684.69
427.847	622.69
428.069	533.69
428.292	474.69
428.514	429.69
428.736	432.69
428.958	416.69
429.181	402.69
429.403	396.69
429.625	400.69
429.847	455.69
430.069	488.69
430.292	492.69
430.514	424.69
430.736	420.69
430.958	408.69
431.18	395.69
431.402	395.69
431.624	398.69
431.846	387.69
432.068	375.69
432.29	385.69
432.512	395.69
432.734	388.69
432.956	394.69
433.178	400.69
433.4	406.69
433.622	409.69
433.844	385.69
434.066	379.69
434.287	373.69
434.509	383.69
434.731	380.69
434.953	387.69
435.175	417.69
435.397	424.69
435.618	447.69
435.84	455.69
436.062	548.69
436.284	596.69
436.505	506.69
436.727	449.69
436.949	426.69
437.17	409.69
437.392	420.69
437.614	410.69
437.835	450.69
438.057	531.69
438.278	601.69
438.5	617.69
438.721	647.69
438.943	611.69
439.165	504.69
439.386	462.69
439.608	464.69
439.829	459.69
440.05	474.69
440.272	495.69
440.493	467.69
440.715	454.69
440.936	435.69
441.158	423.69
441.379	400.69
441.6	423.69
441.822	436.69
442.043	484.69
442.264	561.69
442.486	569.69
442.707	502.69
442.928	461.69
443.149	443.69
443.371	467.69
443.592	512.69
443.813	592.69
444.034	611.69
444.255	503.69
444.476	466.69
444.698	449.69
444.919	443.69
445.14	536.69
445.361	501.69
445.582	481.69
445.803	543.69
446.024	602.69
446.245	619.69
446.466	573.69
446.687	499.69
446.908	435.69
447.129	434.69
447.35	420.69
447.571	395.69
447.792	411.69
448.013	417.69
448.234	431.69
448.455	457.69
448.675	575.69
448.896	655.69
449.117	548.69
449.338	535.69
449.559	596.69
449.779	657.69
450	521.69
450.221	458.69
450.442	431.69
450.662	417.69
450.883	403.69
451.104	419.69
451.324	411.69
451.545	386.69
451.766	377.69
451.986	382.69
452.207	371.69
452.428	359.69
452.648	371.69
452.869	371.69
453.089	374.69
453.31	375.69
453.53	367.69
453.751	354.69
453.971	368.69
454.192	381.69
454.412	374.69
454.633	361.69
454.853	369.69
455.073	353.69
455.294	377.69
455.514	452.69
455.734	440.69
455.955	389.69
456.175	345.69
456.395	355.69
456.616	348.69
456.836	340.69
457.056	346.69
457.276	340.69
457.497	349.69
457.717	345.69
457.937	371.69
458.157	343.69
458.377	362.69
458.598	379.69
458.818	419.69
459.038	477.69
459.258	486.69
459.478	407.69
459.698	381.69
459.918	380.69
460.138	388.69
460.358	388.69
460.578	373.69
460.798	379.69
461.018	389.69
461.238	389.69
461.458	420.69
461.678	351.69
461.898	385.69
462.118	390.69
462.338	386.69
462.558	394.69
462.777	397.69
462.997	389.69
463.217	395.69
463.437	409.69
463.657	397.69
463.876	405.69
464.096	391.69
464.316	377.69
464.536	393.69
464.755	419.69
464.975	403.69
465.195	446.69
465.414	479.69
465.634	409.69
465.854	417.69
466.073	383.69
466.293	370.69
466.512	381.69
466.732	365.69
466.951	373.69
467.171	375.69
467.391	374.69
467.61	379.69
467.829	392.69
468.049	354.69
468.268	357.69
468.488	359.69
468.707	338.69
468.927	367.69
469.146	354.69
469.365	347.69
469.585	365.69
469.804	359.69
470.023	379.69
470.243	375.69
470.462	389.69
470.681	393.69
470.901	405.69
471.12	393.69
471.339	381.69
471.558	379.69
471.777	387.69
471.997	375.69
472.216	373.69
472.435	401.69
472.654	403.69
472.873	350.69
473.092	370.69
473.311	363.69
473.53	366.69
473.749	384.69
473.968	429.69
474.187	514.69
474.406	515.69
474.625	449.69
474.844	408.69
475.063	394.69
475.282	376.69
475.501	378.69
475.72	390.69
475.939	383.69
476.158	392.69
476.377	355.69
476.596	377.69
476.814	387.69
477.033	374.69
477.252	400.69
477.471	406.69
477.69	397.69
477.908	397.69
478.127	423.69
478.346	397.69
478.564	419.69
478.783	410.69
479.002	407.69
479.22	408.69
479.439	445.69
479.658	421.69
479.876	457.69
480.095	449.69
480.313	464.69
480.532	470.69
480.751	458.69
480.969	447.69
481.188	482.69
481.406	509.69
481.624	461.69
481.843	452.69
482.061	433.69
482.28	460.69
482.498	425.69
482.717	426.69
482.935	423.69
483.153	422.69
483.372	443.69
483.59	445.69
483.808	408.69
484.027	428.69
484.245	424.69
484.463	427.69
484.681	439.69
484.9	420.69
485.118	453.69
485.336	437.69
485.554	455.69
485.772	439.69
485.99	455.69
486.209	447.69
486.427	444.69
486.645	462.69
486.863	467.69
487.081	460.69
487.299	445.69
487.517	451.69
487.735	468.69
487.953	465.69
488.171	473.69
488.389	469.69
488.607	468.69
488.825	453.69
489.043	461.69
489.261	462.69
489.479	462.69
489.696	457.69
489.914	487.69
490.132	503.69
490.35	489.69
490.568	496.69
490.786	492.69
491.003	548.69
491.221	522.69
491.439	509.69
491.657	534.69
491.874	529.69
492.092	561.69
492.31	554.69
492.527	566.69
492.745	537.69
492.963	566.69
493.18	555.69
493.398	546.69
493.615	565.69
493.833	532.69
494.05	555.69
494.268	578.69
494.485	543.69
494.703	561.69
494.92	557.69
495.138	535.69
495.355	564.69
495.573	555.69
495.79	566.69
496.008	553.69
496.225	555.69
496.442	537.69
496.66	568.69
496.877	562.69
497.094	534.69
497.312	574.69
497.529	585.69
497.746	561.69
497.963	576.69
498.181	573.69
498.398	581.69
498.615	618.69
498.832	589.69
499.049	607.69
499.267	620.69
499.484	646.69
499.701	670.69
499.918	682.69
500.135	683.69
500.352	716.69
500.569	715.69
500.786	735.69
501.003	724.69
501.22	685.69
501.437	693.69
501.654	659.69
501.871	680.69
502.088	646.69
