Data from 1971.PennyLincolnUp.Lamp.En5.5.200Scan.071719.P1._HRD10591_15-18-31-840.txt Node
Date: Thu Jul 18 15:18:31 EDT 2019
User: cochatt
Spectrometer: HR+D1059
Trigger mode: 1
Integration Time (sec): 1.000000E-1
Scans to average: 1
Electric dark correction enabled: true
Nonlinearity correction enabled: false
Boxcar width: 0
XAxis mode: Wavelengths
Number of Pixels in Spectrum: 2048
>>>>>Begin Spectral Data<<<<<
223.165	-13.88
223.4	-13.88
223.635	-13.88
223.869	-28.88
224.104	-6.88
224.338	-22.88
224.573	-14.88
224.808	-19.88
225.042	-15.88
225.277	10.12
225.511	-4.88
225.746	-5.88
225.98	16.12
226.215	5.12
226.449	11.12
226.683	28.12
226.918	32.12
227.152	31.12
227.387	39.12
227.621	35.12
227.856	43.12
228.09	48.12
228.324	50.12
228.559	54.12
228.793	64.12
229.027	74.12
229.262	101.12
229.496	104.12
229.73	116.12
229.964	128.12
230.199	98.12
230.433	97.12
230.667	89.12
230.901	96.12
231.136	104.12
231.37	116.12
231.604	99.12
231.838	101.12
232.072	91.12
232.306	88.12
232.541	109.12
232.775	107.12
233.009	113.12
233.243	101.12
233.477	104.12
233.711	105.12
233.945	118.12
234.179	110.12
234.413	107.12
234.647	107.12
234.881	108.12
235.115	116.12
235.349	112.12
235.583	128.12
235.817	96.12
236.051	114.12
236.285	116.12
236.519	110.12
236.753	104.12
236.987	140.12
237.221	160.12
237.455	193.12
237.689	167.12
237.922	142.12
238.156	141.12
238.39	119.12
238.624	124.12
238.858	113.12
239.091	120.12
239.325	125.12
239.559	116.12
239.793	121.12
240.027	126.12
240.26	132.12
240.494	145.12
240.728	141.12
240.961	137.12
241.195	116.12
241.429	121.12
241.662	142.12
241.896	130.12
242.13	129.12
242.363	129.12
242.597	127.12
242.83	122.12
243.064	126.12
243.298	115.12
243.531	136.12
243.765	132.12
243.998	144.12
244.232	136.12
244.465	136.12
244.699	140.12
244.932	146.12
245.166	140.12
245.399	133.12
245.633	138.12
245.866	141.12
246.099	147.12
246.333	152.12
246.566	144.12
246.8	151.12
247.033	171.12
247.266	176.12
247.5	153.12
247.733	160.12
247.966	156.12
248.2	157.12
248.433	149.12
248.666	165.12
248.899	184.12
249.133	188.12
249.366	196.12
249.599	186.12
249.832	173.12
250.066	186.12
250.299	169.12
250.532	168.12
250.765	200.12
250.998	217.12
251.231	221.12
251.465	193.12
251.698	197.12
251.931	191.12
252.164	206.12
252.397	188.12
252.63	199.12
252.863	198.12
253.096	196.12
253.329	231.12
253.562	217.12
253.795	213.12
254.028	205.12
254.261	215.12
254.494	225.12
254.727	245.12
254.96	268.12
255.193	254.12
255.426	242.12
255.659	233.12
255.892	213.12
256.124	216.12
256.357	224.12
256.59	221.12
256.823	221.12
257.056	196.12
257.289	205.12
257.521	204.12
257.754	194.12
257.987	211.12
258.22	222.12
258.452	213.12
258.685	200.12
258.918	208.12
259.151	211.12
259.383	220.12
259.616	208.12
259.849	214.12
260.081	224.12
260.314	237.12
260.547	252.12
260.779	242.12
261.012	227.12
261.244	210.12
261.477	235.12
261.71	213.12
261.942	229.12
262.175	211.12
262.407	230.12
262.64	205.12
262.872	208.12
263.105	199.12
263.337	202.12
263.57	206.12
263.802	212.12
264.035	208.12
264.267	206.12
264.499	229.12
264.732	218.12
264.964	219.12
265.197	204.12
265.429	204.12
265.661	210.12
265.894	213.12
266.126	209.12
266.358	218.12
266.591	211.12
266.823	220.12
267.055	211.12
267.287	227.12
267.52	214.12
267.752	211.12
267.984	206.12
268.216	214.12
268.448	232.12
268.681	233.12
268.913	246.12
269.145	260.12
269.377	280.12
269.609	268.12
269.841	256.12
270.073	271.12
270.306	269.12
270.538	304.12
270.77	316.12
271.002	291.12
271.234	279.12
271.466	266.12
271.698	304.12
271.93	299.12
272.162	310.12
272.394	305.12
272.626	294.12
272.858	292.12
273.09	282.12
273.322	267.12
273.553	272.12
273.785	263.12
274.017	264.12
274.249	262.12
274.481	264.12
274.713	257.12
274.945	259.12
275.176	264.12
275.408	254.12
275.64	262.12
275.872	244.12
276.104	268.12
276.335	245.12
276.567	269.12
276.799	270.12
277.031	285.12
277.262	297.12
277.494	313.12
277.726	296.12
277.957	298.12
278.189	284.12
278.421	270.12
278.652	266.12
278.884	254.12
279.115	260.12
279.347	269.12
279.579	259.12
279.81	259.12
280.042	255.12
280.273	256.12
280.505	257.12
280.736	264.12
280.968	264.12
281.199	257.12
281.431	273.12
281.662	270.12
281.894	282.12
282.125	273.12
282.356	271.12
282.588	286.12
282.819	304.12
283.051	265.12
283.282	271.12
283.513	277.12
283.745	274.12
283.976	284.12
284.207	266.12
284.439	286.12
284.67	297.12
284.901	262.12
285.132	273.12
285.364	276.12
285.595	257.12
285.826	255.12
286.057	270.12
286.288	276.12
286.52	277.12
286.751	278.12
286.982	270.12
287.213	282.12
287.444	277.12
287.675	265.12
287.906	288.12
288.138	298.12
288.369	308.12
288.6	293.12
288.831	296.12
289.062	285.12
289.293	292.12
289.524	278.12
289.755	271.12
289.986	283.12
290.217	283.12
290.448	268.12
290.679	283.12
290.91	271.12
291.141	292.12
291.371	283.12
291.602	283.12
291.833	257.12
292.064	285.12
292.295	289.12
292.526	282.12
292.757	301.12
292.987	295.12
293.218	280.12
293.449	288.12
293.68	294.12
293.91	282.12
294.141	294.12
294.372	260.12
294.603	262.12
294.833	292.12
295.064	272.12
295.295	293.12
295.525	282.12
295.756	270.12
295.987	295.12
296.217	299.12
296.448	300.12
296.679	289.12
296.909	294.12
297.14	281.12
297.37	296.12
297.601	295.12
297.831	294.12
298.062	298.12
298.292	281.12
298.523	284.12
298.753	305.12
298.984	312.12
299.214	285.12
299.445	301.12
299.675	308.12
299.905	301.12
300.136	288.12
300.366	306.12
300.597	293.12
300.827	288.12
301.057	308.12
301.288	324.12
301.518	322.12
301.748	302.12
301.979	322.12
302.209	324.12
302.439	328.12
302.669	318.12
302.9	324.12
303.13	319.12
303.36	296.12
303.59	313.12
303.82	317.12
304.051	327.12
304.281	312.12
304.511	297.12
304.741	317.12
304.971	312.12
305.201	309.12
305.431	316.12
305.661	313.12
305.891	296.12
306.121	317.12
306.352	325.12
306.582	334.12
306.812	311.12
307.042	318.12
307.272	316.12
307.502	342.12
307.731	300.12
307.961	316.12
308.191	304.12
308.421	324.12
308.651	322.12
308.881	322.12
309.111	339.12
309.341	316.12
309.571	324.12
309.8	330.12
310.03	365.12
310.26	354.12
310.49	362.12
310.72	362.12
310.949	368.12
311.179	374.12
311.409	342.12
311.639	334.12
311.868	360.12
312.098	360.12
312.328	360.12
312.557	373.12
312.787	372.12
313.017	382.12
313.246	361.12
313.476	345.12
313.706	341.12
313.935	365.12
314.165	364.12
314.394	372.12
314.624	363.12
314.853	376.12
315.083	354.12
315.312	347.12
315.542	345.12
315.771	362.12
316.001	344.12
316.23	344.12
316.46	351.12
316.689	346.12
316.919	376.12
317.148	341.12
317.377	352.12
317.607	361.12
317.836	358.12
318.065	355.12
318.295	358.12
318.524	368.12
318.753	349.12
318.983	358.12
319.212	364.12
319.441	362.12
319.67	361.12
319.9	353.12
320.129	369.12
320.358	364.12
320.587	368.12
320.816	379.12
321.046	369.12
321.275	359.12
321.504	376.12
321.733	386.12
321.962	406.12
322.191	384.12
322.42	408.12
322.649	395.12
322.878	408.12
323.108	424.12
323.337	460.12
323.566	459.12
323.795	480.12
324.024	521.12
324.253	629.12
324.482	860.12
324.71	1266.12
324.939	1686.12
325.168	1424.12
325.397	801.12
325.626	554.12
325.855	482.12
326.084	456.12
326.313	460.12
326.542	466.12
326.77	496.12
326.999	596.12
327.228	780.12
327.457	1102.12
327.686	1289.12
327.914	901.12
328.143	620.12
328.372	536.12
328.6	522.12
328.829	502.12
329.058	522.12
329.287	507.12
329.515	468.12
329.744	466.12
329.972	465.12
330.201	462.12
330.43	470.12
330.658	498.12
330.887	527.12
331.115	502.12
331.344	483.12
331.572	454.12
331.801	449.12
332.03	436.12
332.258	429.12
332.486	426.12
332.715	409.12
332.943	426.12
333.172	426.12
333.4	414.12
333.629	429.12
333.857	451.12
334.085	432.12
334.314	436.12
334.542	449.12
334.771	468.12
334.999	465.12
335.227	435.12
335.455	428.12
335.684	432.12
335.912	406.12
336.14	424.12
336.369	406.12
336.597	432.12
336.825	418.12
337.053	396.12
337.281	385.12
337.51	400.12
337.738	430.12
337.966	391.12
338.194	415.12
338.422	407.12
338.65	402.12
338.878	416.12
339.106	401.12
339.334	412.12
339.562	389.12
339.79	394.12
340.018	404.12
340.246	400.12
340.474	370.12
340.702	377.12
340.93	380.12
341.158	382.12
341.386	405.12
341.614	374.12
341.842	395.12
342.07	380.12
342.298	378.12
342.526	381.12
342.754	392.12
342.981	388.12
343.209	388.12
343.437	382.12
343.665	388.12
343.893	402.12
344.12	397.12
344.348	390.12
344.576	390.12
344.804	421.12
345.031	424.12
345.259	409.12
345.487	394.12
345.714	390.12
345.942	380.12
346.17	387.12
346.397	396.12
346.625	365.12
346.853	382.12
347.08	380.12
347.308	386.12
347.535	376.12
347.763	392.12
347.99	396.12
348.218	383.12
348.445	380.12
348.673	404.12
348.9	376.12
349.128	382.12
349.355	369.12
349.583	371.12
349.81	358.12
350.037	378.12
350.265	382.12
350.492	364.12
350.72	365.12
350.947	375.12
351.174	375.12
351.402	397.12
351.629	390.12
351.856	381.12
352.083	381.12
352.311	372.12
352.538	382.12
352.765	385.12
352.992	379.12
353.22	376.12
353.447	372.12
353.674	370.12
353.901	365.12
354.128	352.12
354.355	342.12
354.583	350.12
354.81	342.12
355.037	368.12
355.264	346.12
355.491	347.12
355.718	341.12
355.945	347.12
356.172	344.12
356.399	362.12
356.626	334.12
356.853	359.12
357.08	355.12
357.307	359.12
357.534	348.12
357.761	351.12
357.988	350.12
358.215	354.12
358.441	361.12
358.668	362.12
358.895	347.12
359.122	357.12
359.349	356.12
359.576	373.12
359.802	378.12
360.029	394.12
360.256	412.12
360.483	394.12
360.709	346.12
360.936	366.12
361.163	371.12
361.39	360.12
361.616	371.12
361.843	354.12
362.07	357.12
362.296	385.12
362.523	373.12
362.749	369.12
362.976	348.12
363.203	350.12
363.429	370.12
363.656	350.12
363.882	344.12
364.109	341.12
364.335	348.12
364.562	347.12
364.788	359.12
365.015	354.12
365.241	359.12
365.468	345.12
365.694	344.12
365.92	344.12
366.147	356.12
366.373	353.12
366.599	357.12
366.826	344.12
367.052	344.12
367.278	348.12
367.505	334.12
367.731	356.12
367.957	338.12
368.184	333.12
368.41	353.12
368.636	343.12
368.862	358.12
369.089	354.12
369.315	361.12
369.541	347.12
369.767	347.12
369.993	348.12
370.219	340.12
370.445	347.12
370.672	355.12
370.898	342.12
371.124	346.12
371.35	345.12
371.576	334.12
371.802	329.12
372.028	362.12
372.254	356.12
372.48	354.12
372.706	349.12
372.932	353.12
373.158	352.12
373.384	346.12
373.61	338.12
373.835	363.12
374.061	351.12
374.287	337.12
374.513	336.12
374.739	350.12
374.965	345.12
375.191	327.12
375.416	358.12
375.642	344.12
375.868	344.12
376.094	347.12
376.319	332.12
376.545	359.12
376.771	332.12
376.997	357.12
377.222	324.12
377.448	328.12
377.674	336.12
377.899	336.12
378.125	335.12
378.35	323.12
378.576	350.12
378.802	340.12
379.027	337.12
379.253	339.12
379.478	333.12
379.704	332.12
379.929	333.12
380.155	333.12
380.38	326.12
380.606	341.12
380.831	332.12
381.057	333.12
381.282	337.12
381.507	344.12
381.733	342.12
381.958	335.12
382.184	344.12
382.409	350.12
382.634	353.12
382.86	342.12
383.085	349.12
383.31	351.12
383.535	344.12
383.761	344.12
383.986	372.12
384.211	334.12
384.436	369.12
384.662	354.12
384.887	361.12
385.112	339.12
385.337	366.12
385.562	357.12
385.787	364.12
386.013	354.12
386.238	360.12
386.463	366.12
386.688	362.12
386.913	362.12
387.138	371.12
387.363	349.12
387.588	349.12
387.813	375.12
388.038	353.12
388.263	359.12
388.488	352.12
388.713	370.12
388.938	365.12
389.163	361.12
389.387	359.12
389.612	353.12
389.837	345.12
390.062	357.12
390.287	365.12
390.512	339.12
390.736	357.12
390.961	368.12
391.186	330.12
391.411	349.12
391.636	382.12
391.86	362.12
392.085	370.12
392.31	360.12
392.534	362.12
392.759	364.12
392.984	360.12
393.208	368.12
393.433	379.12
393.658	350.12
393.882	342.12
394.107	337.12
394.331	355.12
394.556	391.12
394.78	384.12
395.005	361.12
395.229	373.12
395.454	360.12
395.678	371.12
395.903	372.12
396.127	374.12
396.352	378.12
396.576	369.12
396.801	382.12
397.025	377.12
397.249	380.12
397.474	387.12
397.698	365.12
397.922	372.12
398.147	394.12
398.371	406.12
398.595	379.12
398.82	392.12
399.044	405.12
399.268	419.12
399.492	425.12
399.717	451.12
399.941	462.12
400.165	474.12
400.389	502.12
400.613	448.12
400.837	427.12
401.062	406.12
401.286	397.12
401.51	420.12
401.734	402.12
401.958	392.12
402.182	399.12
402.406	392.12
402.63	421.12
402.854	382.12
403.078	393.12
403.302	412.12
403.526	397.12
403.75	396.12
403.974	387.12
404.198	398.12
404.422	396.12
404.645	414.12
404.869	404.12
405.093	443.12
405.317	473.12
405.541	509.12
405.765	437.12
405.988	443.12
406.212	447.12
406.436	449.12
406.66	437.12
406.883	434.12
407.107	466.12
407.331	490.12
407.555	543.12
407.778	545.12
408.002	486.12
408.226	460.12
408.449	450.12
408.673	445.12
408.896	449.12
409.12	485.12
409.344	469.12
409.567	436.12
409.791	414.12
410.014	441.12
410.238	408.12
410.461	429.12
410.685	425.12
410.908	418.12
411.132	445.12
411.355	471.12
411.578	445.12
411.802	412.12
412.025	409.12
412.249	419.12
412.472	424.12
412.695	442.12
412.919	434.12
413.142	404.12
413.365	380.12
413.589	381.12
413.812	377.12
414.035	373.12
414.258	388.12
414.482	385.12
414.705	378.12
414.928	373.12
415.151	377.12
415.374	369.12
415.597	385.12
415.821	384.12
416.044	361.12
416.267	364.12
416.49	375.12
416.713	362.12
416.936	366.12
417.159	401.12
417.382	407.12
417.605	375.12
417.828	375.12
418.051	401.12
418.274	385.12
418.497	399.12
418.72	394.12
418.943	389.12
419.166	394.12
419.389	422.12
419.611	415.12
419.834	394.12
420.057	408.12
420.28	410.12
420.503	412.12
420.726	417.12
420.948	392.12
421.171	452.12
421.394	462.12
421.617	425.12
421.839	399.12
422.062	398.12
422.285	411.12
422.507	458.12
422.73	491.12
422.953	480.12
423.175	424.12
423.398	421.12
423.621	426.12
423.843	431.12
424.066	426.12
424.288	419.12
424.511	439.12
424.733	499.12
424.956	518.12
425.178	520.12
425.401	515.12
425.623	512.12
425.846	449.12
426.068	427.12
426.291	422.12
426.513	421.12
426.735	445.12
426.958	472.12
427.18	532.12
427.402	607.12
427.625	672.12
427.847	586.12
428.069	509.12
428.292	450.12
428.514	407.12
428.736	397.12
428.958	391.12
429.181	391.12
429.403	403.12
429.625	396.12
429.847	418.12
430.069	486.12
430.292	471.12
430.514	416.12
430.736	364.12
430.958	388.12
431.18	388.12
431.402	380.12
431.624	374.12
431.846	377.12
432.068	364.12
432.29	381.12
432.512	373.12
432.734	372.12
432.956	366.12
433.178	389.12
433.4	373.12
433.622	369.12
433.844	389.12
434.066	358.12
434.287	365.12
434.509	361.12
434.731	376.12
434.953	387.12
435.175	403.12
435.397	409.12
435.618	425.12
435.84	473.12
436.062	529.12
436.284	586.12
436.505	468.12
436.727	434.12
436.949	412.12
437.17	400.12
437.392	376.12
437.614	389.12
437.835	428.12
438.057	491.12
438.278	555.12
438.5	576.12
438.721	630.12
438.943	615.12
439.165	474.12
439.386	433.12
439.608	457.12
439.829	444.12
440.05	436.12
440.272	468.12
440.493	448.12
440.715	418.12
440.936	419.12
441.158	392.12
441.379	391.12
441.6	405.12
441.822	426.12
442.043	453.12
442.264	496.12
442.486	545.12
442.707	450.12
442.928	429.12
443.149	442.12
443.371	442.12
443.592	501.12
443.813	584.12
444.034	598.12
444.255	481.12
444.476	455.12
444.698	430.12
444.919	420.12
445.14	548.12
445.361	493.12
445.582	493.12
445.803	491.12
446.024	578.12
446.245	572.12
446.466	506.12
446.687	441.12
446.908	441.12
447.129	425.12
447.35	414.12
447.571	405.12
447.792	387.12
448.013	406.12
448.234	424.12
448.455	463.12
448.675	549.12
448.896	597.12
449.117	515.12
449.338	493.12
449.559	575.12
449.779	640.12
450	550.12
450.221	434.12
450.442	410.12
450.662	380.12
450.883	408.12
451.104	402.12
451.324	394.12
451.545	371.12
451.766	369.12
451.986	329.12
452.207	358.12
452.428	352.12
452.648	338.12
452.869	353.12
453.089	348.12
453.31	368.12
453.53	374.12
453.751	360.12
453.971	365.12
454.192	382.12
454.412	348.12
454.633	342.12
454.853	327.12
455.073	338.12
455.294	379.12
455.514	413.12
455.734	396.12
455.955	351.12
456.175	326.12
456.395	338.12
456.616	321.12
456.836	324.12
457.056	342.12
457.276	328.12
457.497	338.12
457.717	337.12
457.937	344.12
458.157	342.12
458.377	357.12
458.598	358.12
458.818	402.12
459.038	436.12
459.258	469.12
459.478	392.12
459.698	372.12
459.918	340.12
460.138	353.12
460.358	360.12
460.578	362.12
460.798	364.12
461.018	371.12
461.238	349.12
461.458	364.12
461.678	368.12
461.898	357.12
462.118	386.12
462.338	398.12
462.558	372.12
462.777	360.12
462.997	390.12
463.217	392.12
463.437	395.12
463.657	401.12
463.876	392.12
464.096	410.12
464.316	404.12
464.536	402.12
464.755	391.12
464.975	386.12
465.195	418.12
465.414	469.12
465.634	421.12
465.854	401.12
466.073	364.12
466.293	378.12
466.512	378.12
466.732	364.12
466.951	370.12
467.171	357.12
467.391	366.12
467.61	360.12
467.829	373.12
468.049	361.12
468.268	355.12
468.488	353.12
468.707	341.12
468.927	354.12
469.146	342.12
469.365	352.12
469.585	342.12
469.804	366.12
470.023	358.12
470.243	360.12
470.462	377.12
470.681	370.12
470.901	379.12
471.12	372.12
471.339	366.12
471.558	370.12
471.777	371.12
471.997	355.12
472.216	374.12
472.435	370.12
472.654	365.12
472.873	352.12
473.092	353.12
473.311	348.12
473.53	349.12
473.749	372.12
473.968	382.12
474.187	473.12
474.406	476.12
474.625	396.12
474.844	366.12
475.063	383.12
475.282	368.12
475.501	369.12
475.72	375.12
475.939	363.12
476.158	365.12
476.377	373.12
476.596	365.12
476.814	395.12
477.033	367.12
477.252	372.12
477.471	382.12
477.69	390.12
477.908	382.12
478.127	393.12
478.346	410.12
478.564	397.12
478.783	424.12
479.002	398.12
479.22	420.12
479.439	395.12
479.658	426.12
479.876	397.12
480.095	432.12
480.313	467.12
480.532	438.12
480.751	442.12
480.969	446.12
481.188	464.12
481.406	481.12
481.624	459.12
481.843	445.12
482.061	435.12
482.28	399.12
482.498	432.12
482.717	422.12
482.935	422.12
483.153	429.12
483.372	422.12
483.59	443.12
483.808	413.12
484.027	399.12
484.245	412.12
484.463	397.12
484.681	436.12
484.9	422.12
485.118	444.12
485.336	406.12
485.554	424.12
485.772	421.12
485.99	452.12
486.209	430.12
486.427	422.12
486.645	441.12
486.863	470.12
487.081	436.12
487.299	458.12
487.517	448.12
487.735	448.12
487.953	446.12
488.171	438.12
488.389	447.12
488.607	468.12
488.825	456.12
489.043	449.12
489.261	448.12
489.479	453.12
489.696	469.12
489.914	465.12
490.132	459.12
490.35	459.12
490.568	465.12
490.786	489.12
491.003	474.12
491.221	502.12
491.439	491.12
491.657	520.12
491.874	518.12
492.092	505.12
492.31	502.12
492.527	518.12
492.745	538.12
492.963	534.12
493.18	534.12
493.398	536.12
493.615	525.12
493.833	545.12
494.05	540.12
494.268	534.12
494.485	519.12
494.703	523.12
494.92	515.12
495.138	533.12
495.355	533.12
495.573	527.12
495.79	532.12
496.008	516.12
496.225	539.12
496.442	548.12
496.66	536.12
496.877	533.12
497.094	524.12
497.312	555.12
497.529	558.12
497.746	572.12
497.963	562.12
498.181	583.12
498.398	569.12
498.615	566.12
498.832	582.12
499.049	594.12
499.267	610.12
499.484	644.12
499.701	620.12
499.918	653.12
500.135	698.12
500.352	701.12
500.569	705.12
500.786	709.12
501.003	700.12
501.22	673.12
501.437	666.12
501.654	653.12
501.871	679.12
502.088	636.12
