Data from 1971.PennyLincolnUp.Lamp.En5.5.200Scan.071719.P1._HRD10591_15-18-07-842.txt Node
Date: Thu Jul 18 15:18:07 EDT 2019
User: cochatt
Spectrometer: HR+D1059
Trigger mode: 1
Integration Time (sec): 1.000000E-1
Scans to average: 1
Electric dark correction enabled: true
Nonlinearity correction enabled: false
Boxcar width: 0
XAxis mode: Wavelengths
Number of Pixels in Spectrum: 2048
>>>>>Begin Spectral Data<<<<<
223.165	-24.38
223.4	-24.38
223.635	-24.38
223.869	-20.38
224.104	-26.38
224.338	-7.38
224.573	-14.38
224.808	-7.38
225.042	-8.38
225.277	-2.38
225.511	-13.38
225.746	6.62
225.98	11.62
226.215	19.62
226.449	1.62
226.683	15.62
226.918	39.62
227.152	29.62
227.387	26.62
227.621	39.62
227.856	34.62
228.09	40.62
228.324	49.62
228.559	65.62
228.793	65.62
229.027	86.62
229.262	100.62
229.496	103.62
229.73	119.62
229.964	118.62
230.199	118.62
230.433	100.62
230.667	104.62
230.901	94.62
231.136	104.62
231.37	101.62
231.604	102.62
231.838	96.62
232.072	103.62
232.306	95.62
232.541	110.62
232.775	100.62
233.009	93.62
233.243	113.62
233.477	103.62
233.711	108.62
233.945	100.62
234.179	113.62
234.413	103.62
234.647	110.62
234.881	115.62
235.115	113.62
235.349	117.62
235.583	117.62
235.817	115.62
236.051	118.62
236.285	118.62
236.519	122.62
236.753	118.62
236.987	138.62
237.221	153.62
237.455	187.62
237.689	156.62
237.922	129.62
238.156	111.62
238.39	125.62
238.624	102.62
238.858	117.62
239.091	125.62
239.325	121.62
239.559	122.62
239.793	117.62
240.027	123.62
240.26	135.62
240.494	148.62
240.728	131.62
240.961	125.62
241.195	133.62
241.429	123.62
241.662	127.62
241.896	110.62
242.13	121.62
242.363	129.62
242.597	112.62
242.83	122.62
243.064	138.62
243.298	131.62
243.531	146.62
243.765	139.62
243.998	137.62
244.232	140.62
244.465	138.62
244.699	142.62
244.932	132.62
245.166	145.62
245.399	149.62
245.633	143.62
245.866	135.62
246.099	149.62
246.333	126.62
246.566	138.62
246.8	138.62
247.033	152.62
247.266	157.62
247.5	159.62
247.733	171.62
247.966	157.62
248.2	163.62
248.433	166.62
248.666	161.62
248.899	159.62
249.133	172.62
249.366	178.62
249.599	167.62
249.832	165.62
250.066	168.62
250.299	156.62
250.532	177.62
250.765	169.62
250.998	199.62
251.231	185.62
251.465	189.62
251.698	183.62
251.931	187.62
252.164	184.62
252.397	196.62
252.63	179.62
252.863	204.62
253.096	197.62
253.329	206.62
253.562	206.62
253.795	217.62
254.028	205.62
254.261	212.62
254.494	220.62
254.727	227.62
254.96	247.62
255.193	243.62
255.426	232.62
255.659	234.62
255.892	207.62
256.124	211.62
256.357	219.62
256.59	212.62
256.823	190.62
257.056	189.62
257.289	191.62
257.521	202.62
257.754	183.62
257.987	185.62
258.22	190.62
258.452	186.62
258.685	183.62
258.918	186.62
259.151	201.62
259.383	205.62
259.616	187.62
259.849	212.62
260.081	204.62
260.314	233.62
260.547	231.62
260.779	226.62
261.012	233.62
261.244	218.62
261.477	185.62
261.71	193.62
261.942	216.62
262.175	218.62
262.407	217.62
262.64	206.62
262.872	194.62
263.105	210.62
263.337	210.62
263.57	209.62
263.802	205.62
264.035	195.62
264.267	202.62
264.499	207.62
264.732	216.62
264.964	194.62
265.197	202.62
265.429	219.62
265.661	187.62
265.894	206.62
266.126	201.62
266.358	207.62
266.591	205.62
266.823	208.62
267.055	198.62
267.287	218.62
267.52	236.62
267.752	220.62
267.984	203.62
268.216	210.62
268.448	223.62
268.681	242.62
268.913	217.62
269.145	238.62
269.377	259.62
269.609	268.62
269.841	246.62
270.073	241.62
270.306	271.62
270.538	283.62
270.77	271.62
271.002	285.62
271.234	268.62
271.466	267.62
271.698	278.62
271.93	284.62
272.162	289.62
272.394	309.62
272.626	273.62
272.858	273.62
273.09	250.62
273.322	257.62
273.553	245.62
273.785	242.62
274.017	239.62
274.249	241.62
274.481	248.62
274.713	241.62
274.945	252.62
275.176	247.62
275.408	255.62
275.64	257.62
275.872	255.62
276.104	234.62
276.335	236.62
276.567	238.62
276.799	255.62
277.031	278.62
277.262	277.62
277.494	281.62
277.726	286.62
277.957	266.62
278.189	267.62
278.421	258.62
278.652	256.62
278.884	262.62
279.115	251.62
279.347	244.62
279.579	240.62
279.81	247.62
280.042	242.62
280.273	258.62
280.505	245.62
280.736	265.62
280.968	244.62
281.199	246.62
281.431	261.62
281.662	240.62
281.894	253.62
282.125	242.62
282.356	269.62
282.588	277.62
282.819	264.62
283.051	266.62
283.282	245.62
283.513	251.62
283.745	252.62
283.976	263.62
284.207	265.62
284.439	286.62
284.67	266.62
284.901	263.62
285.132	275.62
285.364	247.62
285.595	281.62
285.826	257.62
286.057	259.62
286.288	252.62
286.52	269.62
286.751	260.62
286.982	269.62
287.213	273.62
287.444	261.62
287.675	270.62
287.906	266.62
288.138	275.62
288.369	266.62
288.6	267.62
288.831	278.62
289.062	283.62
289.293	289.62
289.524	270.62
289.755	261.62
289.986	249.62
290.217	261.62
290.448	268.62
290.679	279.62
290.91	279.62
291.141	275.62
291.371	276.62
291.602	273.62
291.833	267.62
292.064	262.62
292.295	285.62
292.526	256.62
292.757	263.62
292.987	279.62
293.218	265.62
293.449	273.62
293.68	281.62
293.91	280.62
294.141	277.62
294.372	279.62
294.603	268.62
294.833	278.62
295.064	282.62
295.295	286.62
295.525	279.62
295.756	278.62
295.987	267.62
296.217	305.62
296.448	299.62
296.679	292.62
296.909	278.62
297.14	271.62
297.37	281.62
297.601	295.62
297.831	289.62
298.062	285.62
298.292	282.62
298.523	276.62
298.753	270.62
298.984	248.62
299.214	293.62
299.445	285.62
299.675	279.62
299.905	282.62
300.136	268.62
300.366	298.62
300.597	307.62
300.827	307.62
301.057	293.62
301.288	306.62
301.518	294.62
301.748	297.62
301.979	307.62
302.209	296.62
302.439	322.62
302.669	309.62
302.9	300.62
303.13	296.62
303.36	304.62
303.59	303.62
303.82	307.62
304.051	316.62
304.281	308.62
304.511	307.62
304.741	291.62
304.971	296.62
305.201	305.62
305.431	299.62
305.661	297.62
305.891	291.62
306.121	299.62
306.352	305.62
306.582	310.62
306.812	298.62
307.042	302.62
307.272	305.62
307.502	315.62
307.731	301.62
307.961	313.62
308.191	315.62
308.421	322.62
308.651	325.62
308.881	322.62
309.111	310.62
309.341	314.62
309.571	332.62
309.8	323.62
310.03	340.62
310.26	337.62
310.49	333.62
310.72	348.62
310.949	353.62
311.179	346.62
311.409	328.62
311.639	333.62
311.868	326.62
312.098	340.62
312.328	338.62
312.557	366.62
312.787	354.62
313.017	371.62
313.246	346.62
313.476	336.62
313.706	344.62
313.935	333.62
314.165	363.62
314.394	341.62
314.624	351.62
314.853	328.62
315.083	338.62
315.312	341.62
315.542	341.62
315.771	326.62
316.001	346.62
316.23	347.62
316.46	355.62
316.689	333.62
316.919	339.62
317.148	361.62
317.377	345.62
317.607	338.62
317.836	358.62
318.065	359.62
318.295	337.62
318.524	342.62
318.753	344.62
318.983	353.62
319.212	341.62
319.441	340.62
319.67	363.62
319.9	313.62
320.129	330.62
320.358	353.62
320.587	336.62
320.816	353.62
321.046	357.62
321.275	355.62
321.504	376.62
321.733	371.62
321.962	378.62
322.191	362.62
322.42	377.62
322.649	381.62
322.878	397.62
323.108	384.62
323.337	417.62
323.566	413.62
323.795	448.62
324.024	481.62
324.253	538.62
324.482	777.62
324.71	1163.62
324.939	1559.62
325.168	1319.62
325.397	711.62
325.626	530.62
325.855	429.62
326.084	412.62
326.313	419.62
326.542	429.62
326.77	477.62
326.999	541.62
327.228	698.62
327.457	1011.62
327.686	1157.62
327.914	779.62
328.143	563.62
328.372	506.62
328.6	473.62
328.829	453.62
329.058	453.62
329.287	459.62
329.515	450.62
329.744	433.62
329.972	434.62
330.201	414.62
330.43	465.62
330.658	486.62
330.887	493.62
331.115	464.62
331.344	439.62
331.572	412.62
331.801	408.62
332.03	418.62
332.258	392.62
332.486	400.62
332.715	399.62
332.943	389.62
333.172	391.62
333.4	379.62
333.629	412.62
333.857	427.62
334.085	418.62
334.314	404.62
334.542	415.62
334.771	433.62
334.999	409.62
335.227	413.62
335.455	403.62
335.684	393.62
335.912	396.62
336.14	381.62
336.369	384.62
336.597	399.62
336.825	385.62
337.053	381.62
337.281	378.62
337.51	370.62
337.738	381.62
337.966	392.62
338.194	377.62
338.422	382.62
338.65	393.62
338.878	389.62
339.106	378.62
339.334	395.62
339.562	371.62
339.79	388.62
340.018	381.62
340.246	389.62
340.474	384.62
340.702	374.62
340.93	359.62
341.158	380.62
341.386	375.62
341.614	364.62
341.842	381.62
342.07	353.62
342.298	364.62
342.526	362.62
342.754	367.62
342.981	380.62
343.209	367.62
343.437	385.62
343.665	369.62
343.893	391.62
344.12	381.62
344.348	386.62
344.576	378.62
344.804	398.62
345.031	378.62
345.259	391.62
345.487	407.62
345.714	376.62
345.942	366.62
346.17	369.62
346.397	360.62
346.625	349.62
346.853	365.62
347.08	362.62
347.308	366.62
347.535	380.62
347.763	369.62
347.99	344.62
348.218	385.62
348.445	361.62
348.673	356.62
348.9	358.62
349.128	341.62
349.355	355.62
349.583	361.62
349.81	379.62
350.037	348.62
350.265	350.62
350.492	350.62
350.72	345.62
350.947	353.62
351.174	346.62
351.402	353.62
351.629	370.62
351.856	349.62
352.083	365.62
352.311	363.62
352.538	350.62
352.765	366.62
352.992	365.62
353.22	365.62
353.447	343.62
353.674	343.62
353.901	347.62
354.128	357.62
354.355	343.62
354.583	343.62
354.81	358.62
355.037	337.62
355.264	350.62
355.491	340.62
355.718	328.62
355.945	324.62
356.172	343.62
356.399	333.62
356.626	328.62
356.853	345.62
357.08	335.62
357.307	332.62
357.534	330.62
357.761	330.62
357.988	323.62
358.215	342.62
358.441	343.62
358.668	342.62
358.895	343.62
359.122	324.62
359.349	334.62
359.576	347.62
359.802	328.62
360.029	363.62
360.256	395.62
360.483	360.62
360.709	350.62
360.936	360.62
361.163	360.62
361.39	357.62
361.616	341.62
361.843	340.62
362.07	348.62
362.296	350.62
362.523	339.62
362.749	371.62
362.976	347.62
363.203	344.62
363.429	343.62
363.656	333.62
363.882	323.62
364.109	345.62
364.335	307.62
364.562	339.62
364.788	348.62
365.015	351.62
365.241	335.62
365.468	329.62
365.694	322.62
365.92	330.62
366.147	326.62
366.373	333.62
366.599	321.62
366.826	322.62
367.052	319.62
367.278	307.62
367.505	334.62
367.731	317.62
367.957	316.62
368.184	313.62
368.41	339.62
368.636	344.62
368.862	337.62
369.089	329.62
369.315	355.62
369.541	328.62
369.767	341.62
369.993	316.62
370.219	341.62
370.445	328.62
370.672	325.62
370.898	324.62
371.124	341.62
371.35	343.62
371.576	320.62
371.802	328.62
372.028	330.62
372.254	329.62
372.48	343.62
372.706	314.62
372.932	326.62
373.158	349.62
373.384	325.62
373.61	335.62
373.835	339.62
374.061	343.62
374.287	324.62
374.513	345.62
374.739	339.62
374.965	341.62
375.191	324.62
375.416	331.62
375.642	330.62
375.868	338.62
376.094	349.62
376.319	345.62
376.545	337.62
376.771	339.62
376.997	326.62
377.222	332.62
377.448	328.62
377.674	326.62
377.899	339.62
378.125	332.62
378.35	329.62
378.576	343.62
378.802	323.62
379.027	319.62
379.253	317.62
379.478	328.62
379.704	341.62
379.929	321.62
380.155	316.62
380.38	322.62
380.606	330.62
380.831	326.62
381.057	346.62
381.282	341.62
381.507	326.62
381.733	333.62
381.958	330.62
382.184	336.62
382.409	345.62
382.634	333.62
382.86	316.62
383.085	312.62
383.31	320.62
383.535	340.62
383.761	340.62
383.986	349.62
384.211	326.62
384.436	354.62
384.662	357.62
384.887	352.62
385.112	346.62
385.337	360.62
385.562	341.62
385.787	341.62
386.013	346.62
386.238	338.62
386.463	354.62
386.688	326.62
386.913	361.62
387.138	356.62
387.363	354.62
387.588	350.62
387.813	357.62
388.038	354.62
388.263	353.62
388.488	367.62
388.713	354.62
388.938	339.62
389.163	355.62
389.387	343.62
389.612	339.62
389.837	353.62
390.062	342.62
390.287	340.62
390.512	346.62
390.736	343.62
390.961	340.62
391.186	329.62
391.411	360.62
391.636	341.62
391.86	339.62
392.085	375.62
392.31	350.62
392.534	354.62
392.759	345.62
392.984	377.62
393.208	355.62
393.433	346.62
393.658	342.62
393.882	335.62
394.107	347.62
394.331	352.62
394.556	334.62
394.78	340.62
395.005	339.62
395.229	347.62
395.454	345.62
395.678	358.62
395.903	383.62
396.127	342.62
396.352	367.62
396.576	348.62
396.801	376.62
397.025	374.62
397.249	343.62
397.474	366.62
397.698	383.62
397.922	374.62
398.147	356.62
398.371	370.62
398.595	381.62
398.82	383.62
399.044	385.62
399.268	393.62
399.492	421.62
399.717	437.62
399.941	452.62
400.165	489.62
400.389	444.62
400.613	450.62
400.837	414.62
401.062	398.62
401.286	405.62
401.51	398.62
401.734	371.62
401.958	385.62
402.182	404.62
402.406	373.62
402.63	393.62
402.854	384.62
403.078	380.62
403.302	399.62
403.526	375.62
403.75	383.62
403.974	394.62
404.198	379.62
404.422	387.62
404.645	399.62
404.869	399.62
405.093	417.62
405.317	438.62
405.541	453.62
405.765	442.62
405.988	417.62
406.212	418.62
406.436	411.62
406.66	439.62
406.883	420.62
407.107	427.62
407.331	460.62
407.555	508.62
407.778	497.62
408.002	453.62
408.226	430.62
408.449	431.62
408.673	400.62
408.896	425.62
409.12	465.62
409.344	461.62
409.567	389.62
409.791	405.62
410.014	392.62
410.238	386.62
410.461	395.62
410.685	388.62
410.908	396.62
411.132	420.62
411.355	460.62
411.578	451.62
411.802	393.62
412.025	387.62
412.249	386.62
412.472	406.62
412.695	431.62
412.919	436.62
413.142	391.62
413.365	373.62
413.589	380.62
413.812	363.62
414.035	362.62
414.258	363.62
414.482	376.62
414.705	372.62
414.928	379.62
415.151	382.62
415.374	363.62
415.597	366.62
415.821	349.62
416.044	346.62
416.267	369.62
416.49	353.62
416.713	371.62
416.936	369.62
417.159	382.62
417.382	350.62
417.605	366.62
417.828	371.62
418.051	378.62
418.274	400.62
418.497	379.62
418.72	386.62
418.943	373.62
419.166	367.62
419.389	379.62
419.611	392.62
419.834	381.62
420.057	382.62
420.28	364.62
420.503	377.62
420.726	373.62
420.948	403.62
421.171	416.62
421.394	442.62
421.617	395.62
421.839	369.62
422.062	364.62
422.285	397.62
422.507	464.62
422.73	480.62
422.953	474.62
423.175	403.62
423.398	386.62
423.621	397.62
423.843	406.62
424.066	415.62
424.288	408.62
424.511	421.62
424.733	443.62
424.956	516.62
425.178	493.62
425.401	499.62
425.623	509.62
425.846	451.62
426.068	413.62
426.291	398.62
426.513	402.62
426.735	399.62
426.958	457.62
427.18	472.62
427.402	594.62
427.625	617.62
427.847	541.62
428.069	474.62
428.292	430.62
428.514	408.62
428.736	380.62
428.958	367.62
429.181	371.62
429.403	379.62
429.625	388.62
429.847	418.62
430.069	440.62
430.292	452.62
430.514	387.62
430.736	379.62
430.958	375.62
431.18	375.62
431.402	367.62
431.624	359.62
431.846	343.62
432.068	334.62
432.29	362.62
432.512	343.62
432.734	346.62
432.956	350.62
433.178	355.62
433.4	359.62
433.622	358.62
433.844	372.62
434.066	364.62
434.287	330.62
434.509	366.62
434.731	358.62
434.953	363.62
435.175	392.62
435.397	392.62
435.618	405.62
435.84	435.62
436.062	519.62
436.284	548.62
436.505	451.62
436.727	413.62
436.949	389.62
437.17	378.62
437.392	389.62
437.614	388.62
437.835	421.62
438.057	490.62
438.278	511.62
438.5	532.62
438.721	612.62
438.943	581.62
439.165	441.62
439.386	431.62
439.608	411.62
439.829	411.62
440.05	420.62
440.272	427.62
440.493	440.62
440.715	392.62
440.936	412.62
441.158	385.62
441.379	385.62
441.6	388.62
441.822	399.62
442.043	436.62
442.264	492.62
442.486	525.62
442.707	443.62
442.928	389.62
443.149	411.62
443.371	437.62
443.592	464.62
443.813	532.62
444.034	555.62
444.255	484.62
444.476	422.62
444.698	441.62
444.919	420.62
445.14	541.62
445.361	475.62
445.582	432.62
445.803	486.62
446.024	554.62
446.245	571.62
446.466	503.62
446.687	442.62
446.908	412.62
447.129	386.62
447.35	382.62
447.571	385.62
447.792	391.62
448.013	381.62
448.234	406.62
448.455	450.62
448.675	507.62
448.896	592.62
449.117	482.62
449.338	500.62
449.559	554.62
449.779	603.62
450	493.62
450.221	419.62
450.442	381.62
450.662	367.62
450.883	380.62
451.104	393.62
451.324	357.62
451.545	356.62
451.766	350.62
451.986	327.62
452.207	345.62
452.428	335.62
452.648	331.62
452.869	322.62
453.089	315.62
453.31	347.62
453.53	336.62
453.751	341.62
453.971	341.62
454.192	324.62
454.412	334.62
454.633	347.62
454.853	329.62
455.073	323.62
455.294	338.62
455.514	384.62
455.734	399.62
455.955	337.62
456.175	308.62
456.395	315.62
456.616	311.62
456.836	318.62
457.056	310.62
457.276	315.62
457.497	322.62
457.717	333.62
457.937	317.62
458.157	322.62
458.377	337.62
458.598	337.62
458.818	367.62
459.038	397.62
459.258	421.62
459.478	379.62
459.698	366.62
459.918	341.62
460.138	357.62
460.358	359.62
460.578	366.62
460.798	362.62
461.018	354.62
461.238	365.62
461.458	337.62
461.678	371.62
461.898	373.62
462.118	366.62
462.338	389.62
462.558	381.62
462.777	372.62
462.997	382.62
463.217	388.62
463.437	379.62
463.657	364.62
463.876	369.62
464.096	355.62
464.316	364.62
464.536	358.62
464.755	395.62
464.975	385.62
465.195	398.62
465.414	443.62
465.634	386.62
465.854	376.62
466.073	357.62
466.293	337.62
466.512	330.62
466.732	352.62
466.951	349.62
467.171	356.62
467.391	341.62
467.61	356.62
467.829	343.62
468.049	346.62
468.268	345.62
468.488	340.62
468.707	329.62
468.927	338.62
469.146	337.62
469.365	329.62
469.585	333.62
469.804	345.62
470.023	346.62
470.243	344.62
470.462	355.62
470.681	357.62
470.901	358.62
471.12	348.62
471.339	345.62
471.558	356.62
471.777	373.62
471.997	367.62
472.216	335.62
472.435	376.62
472.654	355.62
472.873	365.62
473.092	348.62
473.311	362.62
473.53	337.62
473.749	356.62
473.968	390.62
474.187	449.62
474.406	463.62
474.625	403.62
474.844	377.62
475.063	349.62
475.282	356.62
475.501	353.62
475.72	369.62
475.939	366.62
476.158	343.62
476.377	352.62
476.596	352.62
476.814	356.62
477.033	349.62
477.252	363.62
477.471	350.62
477.69	376.62
477.908	367.62
478.127	377.62
478.346	385.62
478.564	380.62
478.783	385.62
479.002	397.62
479.22	379.62
479.439	400.62
479.658	406.62
479.876	397.62
480.095	401.62
480.313	414.62
480.532	425.62
480.751	418.62
480.969	397.62
481.188	450.62
481.406	454.62
481.624	434.62
481.843	383.62
482.061	406.62
482.28	412.62
482.498	397.62
482.717	399.62
482.935	408.62
483.153	412.62
483.372	395.62
483.59	411.62
483.808	400.62
484.027	422.62
484.245	403.62
484.463	405.62
484.681	433.62
484.9	419.62
485.118	418.62
485.336	400.62
485.554	407.62
485.772	411.62
485.99	391.62
486.209	407.62
486.427	410.62
486.645	433.62
486.863	418.62
487.081	438.62
487.299	425.62
487.517	443.62
487.735	433.62
487.953	447.62
488.171	446.62
488.389	411.62
488.607	428.62
488.825	424.62
489.043	409.62
489.261	419.62
489.479	418.62
489.696	417.62
489.914	421.62
490.132	414.62
490.35	435.62
490.568	448.62
490.786	455.62
491.003	470.62
491.221	471.62
491.439	470.62
491.657	461.62
491.874	492.62
492.092	492.62
492.31	517.62
492.527	490.62
492.745	493.62
492.963	498.62
493.18	515.62
493.398	501.62
493.615	504.62
493.833	525.62
494.05	493.62
494.268	496.62
494.485	497.62
494.703	497.62
494.92	510.62
495.138	502.62
495.355	495.62
495.573	481.62
495.79	493.62
496.008	521.62
496.225	516.62
496.442	520.62
496.66	501.62
496.877	515.62
497.094	513.62
497.312	501.62
497.529	532.62
497.746	536.62
497.963	549.62
498.181	528.62
498.398	541.62
498.615	551.62
498.832	565.62
499.049	578.62
499.267	577.62
499.484	580.62
499.701	622.62
499.918	647.62
500.135	654.62
500.352	685.62
500.569	669.62
500.786	712.62
501.003	668.62
501.22	683.62
501.437	645.62
501.654	631.62
501.871	604.62
502.088	609.62
