Data from 1971.PennyLincolnUp.Lamp.En5.5.200Scan.071719.P1._HRD10591_15-17-55-842.txt Node
Date: Thu Jul 18 15:17:55 EDT 2019
User: cochatt
Spectrometer: HR+D1059
Trigger mode: 1
Integration Time (sec): 1.000000E-1
Scans to average: 1
Electric dark correction enabled: true
Nonlinearity correction enabled: false
Boxcar width: 0
XAxis mode: Wavelengths
Number of Pixels in Spectrum: 2048
>>>>>Begin Spectral Data<<<<<
223.165	-17.69
223.4	-17.69
223.635	-17.69
223.869	-3.69
224.104	-14.69
224.338	-19.69
224.573	-10.69
224.808	-9.69
225.042	-9.69
225.277	-4.69
225.511	-11.69
225.746	12.31
225.98	-6.69
226.215	10.31
226.449	12.31
226.683	27.31
226.918	24.31
227.152	22.31
227.387	30.31
227.621	33.31
227.856	57.31
228.09	44.31
228.324	43.31
228.559	77.31
228.793	52.31
229.027	81.31
229.262	91.31
229.496	88.31
229.73	99.31
229.964	120.31
230.199	105.31
230.433	114.31
230.667	100.31
230.901	102.31
231.136	108.31
231.37	104.31
231.604	114.31
231.838	103.31
232.072	101.31
232.306	94.31
232.541	118.31
232.775	99.31
233.009	98.31
233.243	103.31
233.477	95.31
233.711	106.31
233.945	101.31
234.179	89.31
234.413	103.31
234.647	104.31
234.881	102.31
235.115	97.31
235.349	101.31
235.583	102.31
235.817	110.31
236.051	96.31
236.285	120.31
236.519	108.31
236.753	108.31
236.987	126.31
237.221	160.31
237.455	176.31
237.689	143.31
237.922	116.31
238.156	121.31
238.39	118.31
238.624	96.31
238.858	116.31
239.091	120.31
239.325	120.31
239.559	109.31
239.793	104.31
240.027	124.31
240.26	125.31
240.494	135.31
240.728	136.31
240.961	137.31
241.195	140.31
241.429	110.31
241.662	134.31
241.896	128.31
242.13	124.31
242.363	121.31
242.597	120.31
242.83	125.31
243.064	122.31
243.298	128.31
243.531	136.31
243.765	132.31
243.998	141.31
244.232	129.31
244.465	150.31
244.699	122.31
244.932	128.31
245.166	142.31
245.399	131.31
245.633	138.31
245.866	131.31
246.099	126.31
246.333	125.31
246.566	121.31
246.8	143.31
247.033	138.31
247.266	140.31
247.5	152.31
247.733	131.31
247.966	143.31
248.2	157.31
248.433	144.31
248.666	148.31
248.899	174.31
249.133	169.31
249.366	186.31
249.599	157.31
249.832	162.31
250.066	152.31
250.299	162.31
250.532	167.31
250.765	190.31
250.998	185.31
251.231	196.31
251.465	182.31
251.698	162.31
251.931	180.31
252.164	174.31
252.397	172.31
252.63	179.31
252.863	182.31
253.096	204.31
253.329	192.31
253.562	192.31
253.795	197.31
254.028	191.31
254.261	196.31
254.494	197.31
254.727	207.31
254.96	212.31
255.193	205.31
255.426	209.31
255.659	194.31
255.892	201.31
256.124	210.31
256.357	190.31
256.59	189.31
256.823	193.31
257.056	197.31
257.289	194.31
257.521	183.31
257.754	180.31
257.987	195.31
258.22	205.31
258.452	166.31
258.685	188.31
258.918	186.31
259.151	196.31
259.383	210.31
259.616	205.31
259.849	208.31
260.081	207.31
260.314	214.31
260.547	215.31
260.779	197.31
261.012	197.31
261.244	214.31
261.477	205.31
261.71	210.31
261.942	188.31
262.175	197.31
262.407	205.31
262.64	197.31
262.872	191.31
263.105	189.31
263.337	181.31
263.57	190.31
263.802	187.31
264.035	201.31
264.267	185.31
264.499	198.31
264.732	199.31
264.964	194.31
265.197	204.31
265.429	180.31
265.661	191.31
265.894	212.31
266.126	203.31
266.358	196.31
266.591	206.31
266.823	201.31
267.055	201.31
267.287	189.31
267.52	187.31
267.752	196.31
267.984	201.31
268.216	202.31
268.448	202.31
268.681	214.31
268.913	189.31
269.145	235.31
269.377	240.31
269.609	241.31
269.841	231.31
270.073	244.31
270.306	254.31
270.538	281.31
270.77	259.31
271.002	241.31
271.234	232.31
271.466	244.31
271.698	268.31
271.93	251.31
272.162	275.31
272.394	258.31
272.626	260.31
272.858	240.31
273.09	240.31
273.322	245.31
273.553	254.31
273.785	219.31
274.017	224.31
274.249	244.31
274.481	235.31
274.713	219.31
274.945	246.31
275.176	246.31
275.408	223.31
275.64	230.31
275.872	220.31
276.104	251.31
276.335	220.31
276.567	242.31
276.799	244.31
277.031	260.31
277.262	271.31
277.494	266.31
277.726	243.31
277.957	246.31
278.189	241.31
278.421	240.31
278.652	246.31
278.884	236.31
279.115	233.31
279.347	232.31
279.579	225.31
279.81	241.31
280.042	249.31
280.273	228.31
280.505	227.31
280.736	246.31
280.968	233.31
281.199	234.31
281.431	244.31
281.662	242.31
281.894	249.31
282.125	235.31
282.356	264.31
282.588	265.31
282.819	251.31
283.051	233.31
283.282	238.31
283.513	245.31
283.745	255.31
283.976	244.31
284.207	249.31
284.439	226.31
284.67	258.31
284.901	254.31
285.132	244.31
285.364	247.31
285.595	238.31
285.826	238.31
286.057	231.31
286.288	257.31
286.52	236.31
286.751	243.31
286.982	262.31
287.213	242.31
287.444	248.31
287.675	263.31
287.906	265.31
288.138	280.31
288.369	263.31
288.6	261.31
288.831	253.31
289.062	263.31
289.293	264.31
289.524	251.31
289.755	257.31
289.986	270.31
290.217	258.31
290.448	252.31
290.679	262.31
290.91	267.31
291.141	262.31
291.371	263.31
291.602	258.31
291.833	262.31
292.064	247.31
292.295	261.31
292.526	248.31
292.757	280.31
292.987	264.31
293.218	247.31
293.449	277.31
293.68	260.31
293.91	257.31
294.141	248.31
294.372	249.31
294.603	249.31
294.833	269.31
295.064	262.31
295.295	270.31
295.525	261.31
295.756	265.31
295.987	258.31
296.217	268.31
296.448	269.31
296.679	270.31
296.909	274.31
297.14	264.31
297.37	278.31
297.601	259.31
297.831	267.31
298.062	268.31
298.292	272.31
298.523	263.31
298.753	268.31
298.984	274.31
299.214	273.31
299.445	264.31
299.675	270.31
299.905	278.31
300.136	281.31
300.366	274.31
300.597	279.31
300.827	300.31
301.057	290.31
301.288	294.31
301.518	274.31
301.748	265.31
301.979	294.31
302.209	298.31
302.439	282.31
302.669	311.31
302.9	272.31
303.13	292.31
303.36	307.31
303.59	290.31
303.82	286.31
304.051	304.31
304.281	287.31
304.511	295.31
304.741	305.31
304.971	291.31
305.201	277.31
305.431	282.31
305.661	287.31
305.891	301.31
306.121	294.31
306.352	289.31
306.582	297.31
306.812	301.31
307.042	295.31
307.272	291.31
307.502	294.31
307.731	287.31
307.961	281.31
308.191	298.31
308.421	308.31
308.651	297.31
308.881	301.31
309.111	312.31
309.341	299.31
309.571	304.31
309.8	306.31
310.03	293.31
310.26	316.31
310.49	298.31
310.72	312.31
310.949	332.31
311.179	330.31
311.409	330.31
311.639	316.31
311.868	314.31
312.098	309.31
312.328	306.31
312.557	326.31
312.787	316.31
313.017	333.31
313.246	330.31
313.476	316.31
313.706	323.31
313.935	318.31
314.165	336.31
314.394	333.31
314.624	364.31
314.853	326.31
315.083	319.31
315.312	323.31
315.542	338.31
315.771	316.31
316.001	308.31
316.23	322.31
316.46	321.31
316.689	326.31
316.919	325.31
317.148	324.31
317.377	342.31
317.607	331.31
317.836	334.31
318.065	324.31
318.295	318.31
318.524	342.31
318.753	332.31
318.983	342.31
319.212	338.31
319.441	319.31
319.67	322.31
319.9	338.31
320.129	348.31
320.358	325.31
320.587	330.31
320.816	335.31
321.046	336.31
321.275	324.31
321.504	345.31
321.733	326.31
321.962	347.31
322.191	344.31
322.42	357.31
322.649	370.31
322.878	380.31
323.108	366.31
323.337	388.31
323.566	400.31
323.795	404.31
324.024	428.31
324.253	493.31
324.482	686.31
324.71	1007.31
324.939	1369.31
325.168	1186.31
325.397	614.31
325.626	459.31
325.855	421.31
326.084	388.31
326.313	388.31
326.542	381.31
326.77	413.31
326.999	480.31
327.228	632.31
327.457	888.31
327.686	1026.31
327.914	691.31
328.143	480.31
328.372	453.31
328.6	426.31
328.829	420.31
329.058	412.31
329.287	413.31
329.515	414.31
329.744	394.31
329.972	380.31
330.201	409.31
330.43	416.31
330.658	432.31
330.887	439.31
331.115	451.31
331.344	408.31
331.572	400.31
331.801	388.31
332.03	387.31
332.258	382.31
332.486	356.31
332.715	370.31
332.943	362.31
333.172	365.31
333.4	368.31
333.629	409.31
333.857	387.31
334.085	394.31
334.314	414.31
334.542	399.31
334.771	406.31
334.999	394.31
335.227	410.31
335.455	393.31
335.684	378.31
335.912	385.31
336.14	380.31
336.369	372.31
336.597	378.31
336.825	365.31
337.053	368.31
337.281	352.31
337.51	355.31
337.738	376.31
337.966	370.31
338.194	374.31
338.422	372.31
338.65	376.31
338.878	371.31
339.106	374.31
339.334	379.31
339.562	362.31
339.79	338.31
340.018	346.31
340.246	371.31
340.474	360.31
340.702	338.31
340.93	352.31
341.158	351.31
341.386	361.31
341.614	333.31
341.842	355.31
342.07	356.31
342.298	355.31
342.526	344.31
342.754	352.31
342.981	352.31
343.209	351.31
343.437	373.31
343.665	380.31
343.893	350.31
344.12	355.31
344.348	353.31
344.576	359.31
344.804	358.31
345.031	356.31
345.259	347.31
345.487	373.31
345.714	355.31
345.942	352.31
346.17	355.31
346.397	343.31
346.625	338.31
346.853	337.31
347.08	331.31
347.308	354.31
347.535	328.31
347.763	337.31
347.99	338.31
348.218	340.31
348.445	348.31
348.673	352.31
348.9	316.31
349.128	318.31
349.355	335.31
349.583	334.31
349.81	326.31
350.037	333.31
350.265	345.31
350.492	316.31
350.72	316.31
350.947	318.31
351.174	333.31
351.402	330.31
351.629	337.31
351.856	343.31
352.083	352.31
352.311	336.31
352.538	341.31
352.765	351.31
352.992	345.31
353.22	343.31
353.447	330.31
353.674	344.31
353.901	309.31
354.128	318.31
354.355	321.31
354.583	319.31
354.81	320.31
355.037	316.31
355.264	331.31
355.491	312.31
355.718	317.31
355.945	316.31
356.172	318.31
356.399	298.31
356.626	314.31
356.853	307.31
357.08	312.31
357.307	324.31
357.534	299.31
357.761	335.31
357.988	318.31
358.215	332.31
358.441	304.31
358.668	337.31
358.895	337.31
359.122	310.31
359.349	331.31
359.576	334.31
359.802	339.31
360.029	369.31
360.256	346.31
360.483	349.31
360.709	341.31
360.936	349.31
361.163	334.31
361.39	325.31
361.616	330.31
361.843	334.31
362.07	345.31
362.296	347.31
362.523	347.31
362.749	324.31
362.976	317.31
363.203	309.31
363.429	311.31
363.656	322.31
363.882	329.31
364.109	337.31
364.335	316.31
364.562	319.31
364.788	317.31
365.015	310.31
365.241	317.31
365.468	307.31
365.694	309.31
365.92	317.31
366.147	304.31
366.373	321.31
366.599	315.31
366.826	311.31
367.052	315.31
367.278	323.31
367.505	317.31
367.731	313.31
367.957	313.31
368.184	327.31
368.41	319.31
368.636	323.31
368.862	330.31
369.089	312.31
369.315	321.31
369.541	316.31
369.767	299.31
369.993	332.31
370.219	325.31
370.445	326.31
370.672	320.31
370.898	312.31
371.124	315.31
371.35	317.31
371.576	323.31
371.802	320.31
372.028	326.31
372.254	325.31
372.48	309.31
372.706	324.31
372.932	328.31
373.158	323.31
373.384	325.31
373.61	318.31
373.835	330.31
374.061	314.31
374.287	308.31
374.513	317.31
374.739	314.31
374.965	322.31
375.191	328.31
375.416	337.31
375.642	309.31
375.868	329.31
376.094	324.31
376.319	327.31
376.545	326.31
376.771	338.31
376.997	314.31
377.222	318.31
377.448	321.31
377.674	312.31
377.899	308.31
378.125	308.31
378.35	321.31
378.576	308.31
378.802	312.31
379.027	313.31
379.253	324.31
379.478	312.31
379.704	325.31
379.929	314.31
380.155	312.31
380.38	306.31
380.606	315.31
380.831	302.31
381.057	301.31
381.282	297.31
381.507	319.31
381.733	314.31
381.958	301.31
382.184	315.31
382.409	316.31
382.634	314.31
382.86	323.31
383.085	325.31
383.31	312.31
383.535	316.31
383.761	328.31
383.986	325.31
384.211	329.31
384.436	327.31
384.662	340.31
384.887	326.31
385.112	322.31
385.337	333.31
385.562	325.31
385.787	329.31
386.013	346.31
386.238	329.31
386.463	336.31
386.688	342.31
386.913	330.31
387.138	327.31
387.363	338.31
387.588	326.31
387.813	328.31
388.038	344.31
388.263	338.31
388.488	338.31
388.713	344.31
388.938	336.31
389.163	331.31
389.387	345.31
389.612	322.31
389.837	340.31
390.062	338.31
390.287	335.31
390.512	329.31
390.736	347.31
390.961	334.31
391.186	337.31
391.411	344.31
391.636	353.31
391.86	339.31
392.085	362.31
392.31	342.31
392.534	340.31
392.759	323.31
392.984	348.31
393.208	338.31
393.433	356.31
393.658	355.31
393.882	342.31
394.107	337.31
394.331	347.31
394.556	336.31
394.78	330.31
395.005	327.31
395.229	329.31
395.454	342.31
395.678	337.31
395.903	364.31
396.127	388.31
396.352	369.31
396.576	371.31
396.801	326.31
397.025	359.31
397.249	344.31
397.474	338.31
397.698	368.31
397.922	372.31
398.147	357.31
398.371	362.31
398.595	348.31
398.82	370.31
399.044	372.31
399.268	381.31
399.492	406.31
399.717	427.31
399.941	425.31
400.165	463.31
400.389	462.31
400.613	415.31
400.837	401.31
401.062	370.31
401.286	360.31
401.51	369.31
401.734	368.31
401.958	365.31
402.182	386.31
402.406	380.31
402.63	368.31
402.854	377.31
403.078	378.31
403.302	356.31
403.526	380.31
403.75	374.31
403.974	380.31
404.198	377.31
404.422	376.31
404.645	385.31
404.869	377.31
405.093	381.31
405.317	407.31
405.541	424.31
405.765	404.31
405.988	389.31
406.212	397.31
406.436	388.31
406.66	432.31
406.883	406.31
407.107	425.31
407.331	418.31
407.555	475.31
407.778	489.31
408.002	473.31
408.226	435.31
408.449	410.31
408.673	403.31
408.896	427.31
409.12	472.31
409.344	424.31
409.567	400.31
409.791	370.31
410.014	390.31
410.238	374.31
410.461	390.31
410.685	390.31
410.908	388.31
411.132	418.31
411.355	439.31
411.578	412.31
411.802	377.31
412.025	362.31
412.249	370.31
412.472	418.31
412.695	398.31
412.919	405.31
413.142	363.31
413.365	382.31
413.589	374.31
413.812	361.31
414.035	346.31
414.258	358.31
414.482	361.31
414.705	341.31
414.928	351.31
415.151	349.31
415.374	350.31
415.597	368.31
415.821	362.31
416.044	359.31
416.267	357.31
416.49	358.31
416.713	345.31
416.936	337.31
417.159	352.31
417.382	353.31
417.605	364.31
417.828	359.31
418.051	383.31
418.274	350.31
418.497	351.31
418.72	365.31
418.943	363.31
419.166	373.31
419.389	382.31
419.611	389.31
419.834	365.31
420.057	376.31
420.28	390.31
420.503	369.31
420.726	373.31
420.948	378.31
421.171	397.31
421.394	414.31
421.617	376.31
421.839	373.31
422.062	386.31
422.285	393.31
422.507	417.31
422.73	458.31
422.953	440.31
423.175	393.31
423.398	386.31
423.621	379.31
423.843	373.31
424.066	407.31
424.288	399.31
424.511	406.31
424.733	430.31
424.956	484.31
425.178	476.31
425.401	482.31
425.623	476.31
425.846	441.31
426.068	394.31
426.291	392.31
426.513	379.31
426.735	391.31
426.958	419.31
427.18	483.31
427.402	588.31
427.625	602.31
427.847	506.31
428.069	436.31
428.292	401.31
428.514	378.31
428.736	364.31
428.958	369.31
429.181	354.31
429.403	340.31
429.625	358.31
429.847	374.31
430.069	434.31
430.292	422.31
430.514	376.31
430.736	374.31
430.958	357.31
431.18	351.31
431.402	344.31
431.624	341.31
431.846	331.31
432.068	353.31
432.29	339.31
432.512	348.31
432.734	337.31
432.956	342.31
433.178	342.31
433.4	356.31
433.622	359.31
433.844	352.31
434.066	340.31
434.287	357.31
434.509	339.31
434.731	364.31
434.953	354.31
435.175	358.31
435.397	379.31
435.618	392.31
435.84	406.31
436.062	454.31
436.284	499.31
436.505	425.31
436.727	380.31
436.949	375.31
437.17	360.31
437.392	384.31
437.614	341.31
437.835	392.31
438.057	424.31
438.278	502.31
438.5	512.31
438.721	568.31
438.943	536.31
439.165	421.31
439.386	376.31
439.608	396.31
439.829	400.31
440.05	426.31
440.272	435.31
440.493	416.31
440.715	379.31
440.936	370.31
441.158	349.31
441.379	354.31
441.6	384.31
441.822	393.31
442.043	424.31
442.264	459.31
442.486	487.31
442.707	416.31
442.928	404.31
443.149	417.31
443.371	422.31
443.592	435.31
443.813	497.31
444.034	549.31
444.255	462.31
444.476	404.31
444.698	373.31
444.919	391.31
445.14	516.31
445.361	456.31
445.582	425.31
445.803	436.31
446.024	525.31
446.245	525.31
446.466	476.31
446.687	402.31
446.908	367.31
447.129	362.31
447.35	362.31
447.571	370.31
447.792	370.31
448.013	368.31
448.234	383.31
448.455	392.31
448.675	509.31
448.896	547.31
449.117	490.31
449.338	443.31
449.559	527.31
449.779	605.31
450	460.31
450.221	380.31
450.442	349.31
450.662	340.31
450.883	329.31
451.104	362.31
451.324	349.31
451.545	332.31
451.766	314.31
451.986	343.31
452.207	314.31
452.428	330.31
452.648	347.31
452.869	332.31
453.089	327.31
453.31	338.31
453.53	340.31
453.751	313.31
453.971	319.31
454.192	321.31
454.412	317.31
454.633	327.31
454.853	313.31
455.073	317.31
455.294	348.31
455.514	387.31
455.734	368.31
455.955	327.31
456.175	319.31
456.395	291.31
456.616	296.31
456.836	294.31
457.056	319.31
457.276	302.31
457.497	293.31
457.717	328.31
457.937	304.31
458.157	318.31
458.377	322.31
458.598	326.31
458.818	343.31
459.038	400.31
459.258	421.31
459.478	364.31
459.698	327.31
459.918	338.31
460.138	341.31
460.358	328.31
460.578	336.31
460.798	353.31
461.018	346.31
461.238	349.31
461.458	364.31
461.678	328.31
461.898	342.31
462.118	337.31
462.338	356.31
462.558	344.31
462.777	356.31
462.997	353.31
463.217	363.31
463.437	378.31
463.657	376.31
463.876	356.31
464.096	360.31
464.316	360.31
464.536	361.31
464.755	363.31
464.975	341.31
465.195	386.31
465.414	388.31
465.634	377.31
465.854	324.31
466.073	342.31
466.293	340.31
466.512	337.31
466.732	317.31
466.951	322.31
467.171	345.31
467.391	318.31
467.61	332.31
467.829	337.31
468.049	325.31
468.268	321.31
468.488	326.31
468.707	318.31
468.927	327.31
469.146	313.31
469.365	320.31
469.585	318.31
469.804	333.31
470.023	306.31
470.243	327.31
470.462	321.31
470.681	354.31
470.901	344.31
471.12	325.31
471.339	326.31
471.558	339.31
471.777	328.31
471.997	340.31
472.216	329.31
472.435	332.31
472.654	331.31
472.873	343.31
473.092	321.31
473.311	322.31
473.53	327.31
473.749	357.31
473.968	355.31
474.187	425.31
474.406	425.31
474.625	361.31
474.844	330.31
475.063	324.31
475.282	350.31
475.501	340.31
475.72	347.31
475.939	344.31
476.158	340.31
476.377	339.31
476.596	344.31
476.814	344.31
477.033	333.31
477.252	346.31
477.471	344.31
477.69	379.31
477.908	364.31
478.127	352.31
478.346	358.31
478.564	354.31
478.783	370.31
479.002	370.31
479.22	393.31
479.439	372.31
479.658	378.31
479.876	382.31
480.095	394.31
480.313	407.31
480.532	406.31
480.751	385.31
480.969	414.31
481.188	408.31
481.406	407.31
481.624	404.31
481.843	392.31
482.061	387.31
482.28	372.31
482.498	377.31
482.717	375.31
482.935	404.31
483.153	411.31
483.372	403.31
483.59	386.31
483.808	369.31
484.027	397.31
484.245	385.31
484.463	394.31
484.681	375.31
484.9	406.31
485.118	381.31
485.336	376.31
485.554	380.31
485.772	402.31
485.99	393.31
486.209	382.31
486.427	366.31
486.645	392.31
486.863	420.31
487.081	401.31
487.299	419.31
487.517	398.31
487.735	396.31
487.953	395.31
488.171	420.31
488.389	382.31
488.607	408.31
488.825	425.31
489.043	403.31
489.261	408.31
489.479	414.31
489.696	401.31
489.914	413.31
490.132	429.31
490.35	420.31
490.568	461.31
490.786	437.31
491.003	424.31
491.221	437.31
491.439	462.31
491.657	465.31
491.874	482.31
492.092	461.31
492.31	476.31
492.527	458.31
492.745	479.31
492.963	460.31
493.18	479.31
493.398	482.31
493.615	493.31
493.833	480.31
494.05	488.31
494.268	462.31
494.485	473.31
494.703	478.31
494.92	481.31
495.138	482.31
495.355	489.31
495.573	475.31
495.79	482.31
496.008	475.31
496.225	450.31
496.442	472.31
496.66	499.31
496.877	479.31
497.094	471.31
497.312	513.31
497.529	499.31
497.746	505.31
497.963	485.31
498.181	517.31
498.398	526.31
498.615	529.31
498.832	540.31
499.049	535.31
499.267	562.31
499.484	576.31
499.701	588.31
499.918	589.31
500.135	622.31
500.352	645.31
500.569	663.31
500.786	676.31
501.003	662.31
501.22	648.31
501.437	621.31
501.654	623.31
501.871	591.31
502.088	588.31
