Data from 1971.PennyLincolnUp.Lamp.En5.5.200Scan.071719.P1._HRD10591_15-20-17-841.txt Node
Date: Thu Jul 18 15:20:17 EDT 2019
User: cochatt
Spectrometer: HR+D1059
Trigger mode: 1
Integration Time (sec): 1.000000E-1
Scans to average: 1
Electric dark correction enabled: true
Nonlinearity correction enabled: false
Boxcar width: 0
XAxis mode: Wavelengths
Number of Pixels in Spectrum: 2048
>>>>>Begin Spectral Data<<<<<
223.165	-17.62
223.4	-17.62
223.635	-17.62
223.869	-8.62
224.104	-20.62
224.338	-6.62
224.573	-19.62
224.808	-19.62
225.042	-3.62
225.277	-11.62
225.511	-3.62
225.746	-5.62
225.98	4.38
226.215	9.38
226.449	17.38
226.683	19.38
226.918	30.38
227.152	36.38
227.387	30.38
227.621	37.38
227.856	34.38
228.09	39.38
228.324	43.38
228.559	42.38
228.793	54.38
229.027	80.38
229.262	100.38
229.496	99.38
229.73	120.38
229.964	142.38
230.199	116.38
230.433	104.38
230.667	106.38
230.901	131.38
231.136	116.38
231.37	102.38
231.604	97.38
231.838	89.38
232.072	109.38
232.306	118.38
232.541	109.38
232.775	122.38
233.009	104.38
233.243	119.38
233.477	106.38
233.711	104.38
233.945	122.38
234.179	105.38
234.413	108.38
234.647	109.38
234.881	107.38
235.115	100.38
235.349	115.38
235.583	127.38
235.817	110.38
236.051	123.38
236.285	116.38
236.519	117.38
236.753	132.38
236.987	121.38
237.221	165.38
237.455	214.38
237.689	173.38
237.922	134.38
238.156	137.38
238.39	134.38
238.624	120.38
238.858	105.38
239.091	112.38
239.325	113.38
239.559	126.38
239.793	130.38
240.027	131.38
240.26	133.38
240.494	160.38
240.728	144.38
240.961	132.38
241.195	140.38
241.429	129.38
241.662	127.38
241.896	145.38
242.13	136.38
242.363	140.38
242.597	137.38
242.83	122.38
243.064	129.38
243.298	138.38
243.531	135.38
243.765	139.38
243.998	133.38
244.232	131.38
244.465	155.38
244.699	138.38
244.932	152.38
245.166	150.38
245.399	146.38
245.633	146.38
245.866	155.38
246.099	138.38
246.333	145.38
246.566	134.38
246.8	140.38
247.033	148.38
247.266	145.38
247.5	167.38
247.733	160.38
247.966	181.38
248.2	182.38
248.433	170.38
248.666	168.38
248.899	198.38
249.133	194.38
249.366	208.38
249.599	195.38
249.832	196.38
250.066	184.38
250.299	175.38
250.532	197.38
250.765	225.38
250.998	220.38
251.231	222.38
251.465	214.38
251.698	211.38
251.931	205.38
252.164	197.38
252.397	199.38
252.63	212.38
252.863	219.38
253.096	209.38
253.329	233.38
253.562	225.38
253.795	219.38
254.028	224.38
254.261	221.38
254.494	244.38
254.727	271.38
254.96	290.38
255.193	285.38
255.426	270.38
255.659	236.38
255.892	224.38
256.124	241.38
256.357	248.38
256.59	217.38
256.823	211.38
257.056	214.38
257.289	207.38
257.521	222.38
257.754	229.38
257.987	218.38
258.22	216.38
258.452	220.38
258.685	212.38
258.918	206.38
259.151	232.38
259.383	218.38
259.616	217.38
259.849	236.38
260.081	246.38
260.314	260.38
260.547	257.38
260.779	258.38
261.012	240.38
261.244	225.38
261.477	250.38
261.71	242.38
261.942	224.38
262.175	229.38
262.407	237.38
262.64	214.38
262.872	207.38
263.105	227.38
263.337	220.38
263.57	237.38
263.802	215.38
264.035	232.38
264.267	223.38
264.499	213.38
264.732	226.38
264.964	221.38
265.197	209.38
265.429	224.38
265.661	221.38
265.894	213.38
266.126	217.38
266.358	229.38
266.591	255.38
266.823	226.38
267.055	247.38
267.287	231.38
267.52	227.38
267.752	223.38
267.984	231.38
268.216	238.38
268.448	247.38
268.681	246.38
268.913	243.38
269.145	276.38
269.377	276.38
269.609	286.38
269.841	278.38
270.073	279.38
270.306	314.38
270.538	318.38
270.77	337.38
271.002	317.38
271.234	302.38
271.466	302.38
271.698	310.38
271.93	325.38
272.162	328.38
272.394	323.38
272.626	315.38
272.858	301.38
273.09	293.38
273.322	307.38
273.553	279.38
273.785	273.38
274.017	260.38
274.249	276.38
274.481	270.38
274.713	267.38
274.945	270.38
275.176	271.38
275.408	281.38
275.64	254.38
275.872	272.38
276.104	269.38
276.335	276.38
276.567	292.38
276.799	281.38
277.031	301.38
277.262	329.38
277.494	337.38
277.726	303.38
277.957	305.38
278.189	275.38
278.421	264.38
278.652	268.38
278.884	297.38
279.115	284.38
279.347	289.38
279.579	260.38
279.81	268.38
280.042	280.38
280.273	270.38
280.505	280.38
280.736	262.38
280.968	252.38
281.199	271.38
281.431	269.38
281.662	275.38
281.894	278.38
282.125	278.38
282.356	313.38
282.588	306.38
282.819	286.38
283.051	292.38
283.282	274.38
283.513	282.38
283.745	290.38
283.976	297.38
284.207	287.38
284.439	314.38
284.67	300.38
284.901	278.38
285.132	288.38
285.364	292.38
285.595	276.38
285.826	293.38
286.057	295.38
286.288	290.38
286.52	305.38
286.751	298.38
286.982	285.38
287.213	280.38
287.444	295.38
287.675	293.38
287.906	292.38
288.138	293.38
288.369	323.38
288.6	313.38
288.831	289.38
289.062	304.38
289.293	298.38
289.524	296.38
289.755	276.38
289.986	280.38
290.217	285.38
290.448	295.38
290.679	302.38
290.91	296.38
291.141	302.38
291.371	302.38
291.602	285.38
291.833	309.38
292.064	289.38
292.295	281.38
292.526	295.38
292.757	299.38
292.987	288.38
293.218	293.38
293.449	293.38
293.68	288.38
293.91	320.38
294.141	318.38
294.372	291.38
294.603	295.38
294.833	296.38
295.064	317.38
295.295	302.38
295.525	300.38
295.756	307.38
295.987	314.38
296.217	344.38
296.448	313.38
296.679	311.38
296.909	284.38
297.14	307.38
297.37	305.38
297.601	298.38
297.831	292.38
298.062	312.38
298.292	298.38
298.523	308.38
298.753	322.38
298.984	314.38
299.214	284.38
299.445	311.38
299.675	311.38
299.905	322.38
300.136	325.38
300.366	324.38
300.597	323.38
300.827	319.38
301.057	325.38
301.288	352.38
301.518	329.38
301.748	332.38
301.979	333.38
302.209	327.38
302.439	328.38
302.669	316.38
302.9	320.38
303.13	336.38
303.36	320.38
303.59	333.38
303.82	344.38
304.051	338.38
304.281	330.38
304.511	337.38
304.741	313.38
304.971	329.38
305.201	329.38
305.431	325.38
305.661	330.38
305.891	323.38
306.121	348.38
306.352	327.38
306.582	340.38
306.812	349.38
307.042	337.38
307.272	314.38
307.502	333.38
307.731	347.38
307.961	336.38
308.191	330.38
308.421	343.38
308.651	326.38
308.881	338.38
309.111	350.38
309.341	358.38
309.571	369.38
309.8	361.38
310.03	396.38
310.26	389.38
310.49	386.38
310.72	371.38
310.949	401.38
311.179	387.38
311.409	383.38
311.639	394.38
311.868	403.38
312.098	390.38
312.328	382.38
312.557	411.38
312.787	404.38
313.017	402.38
313.246	402.38
313.476	384.38
313.706	379.38
313.935	380.38
314.165	391.38
314.394	408.38
314.624	411.38
314.853	383.38
315.083	370.38
315.312	384.38
315.542	369.38
315.771	362.38
316.001	357.38
316.23	364.38
316.46	379.38
316.689	378.38
316.919	398.38
317.148	384.38
317.377	385.38
317.607	405.38
317.836	389.38
318.065	385.38
318.295	379.38
318.524	380.38
318.753	385.38
318.983	378.38
319.212	383.38
319.441	378.38
319.67	382.38
319.9	370.38
320.129	396.38
320.358	386.38
320.587	390.38
320.816	398.38
321.046	410.38
321.275	393.38
321.504	397.38
321.733	408.38
321.962	410.38
322.191	413.38
322.42	451.38
322.649	446.38
322.878	455.38
323.108	482.38
323.337	449.38
323.566	495.38
323.795	525.38
324.024	586.38
324.253	710.38
324.482	1001.38
324.71	1504.38
324.939	2062.38
325.168	1705.38
325.397	910.38
325.626	655.38
325.855	545.38
326.084	506.38
326.313	486.38
326.542	490.38
326.77	573.38
326.999	651.38
327.228	902.38
327.457	1289.38
327.686	1479.38
327.914	1000.38
328.143	708.38
328.372	612.38
328.6	561.38
328.829	548.38
329.058	525.38
329.287	577.38
329.515	533.38
329.744	504.38
329.972	524.38
330.201	513.38
330.43	533.38
330.658	573.38
330.887	584.38
331.115	571.38
331.344	507.38
331.572	462.38
331.801	487.38
332.03	466.38
332.258	471.38
332.486	443.38
332.715	434.38
332.943	442.38
333.172	448.38
333.4	460.38
333.629	458.38
333.857	472.38
334.085	464.38
334.314	490.38
334.542	525.38
334.771	512.38
334.999	485.38
335.227	456.38
335.455	442.38
335.684	425.38
335.912	447.38
336.14	420.38
336.369	449.38
336.597	456.38
336.825	434.38
337.053	438.38
337.281	432.38
337.51	445.38
337.738	440.38
337.966	423.38
338.194	441.38
338.422	417.38
338.65	433.38
338.878	416.38
339.106	414.38
339.334	418.38
339.562	425.38
339.79	401.38
340.018	391.38
340.246	409.38
340.474	426.38
340.702	418.38
340.93	422.38
341.158	420.38
341.386	416.38
341.614	417.38
341.842	409.38
342.07	406.38
342.298	406.38
342.526	428.38
342.754	413.38
342.981	390.38
343.209	422.38
343.437	397.38
343.665	402.38
343.893	440.38
344.12	422.38
344.348	426.38
344.576	429.38
344.804	441.38
345.031	433.38
345.259	434.38
345.487	419.38
345.714	406.38
345.942	405.38
346.17	402.38
346.397	392.38
346.625	391.38
346.853	378.38
347.08	402.38
347.308	384.38
347.535	387.38
347.763	406.38
347.99	387.38
348.218	397.38
348.445	402.38
348.673	389.38
348.9	402.38
349.128	384.38
349.355	393.38
349.583	362.38
349.81	376.38
350.037	396.38
350.265	404.38
350.492	389.38
350.72	399.38
350.947	379.38
351.174	393.38
351.402	387.38
351.629	412.38
351.856	402.38
352.083	385.38
352.311	411.38
352.538	416.38
352.765	408.38
352.992	409.38
353.22	404.38
353.447	380.38
353.674	389.38
353.901	375.38
354.128	380.38
354.355	372.38
354.583	348.38
354.81	352.38
355.037	368.38
355.264	369.38
355.491	371.38
355.718	358.38
355.945	351.38
356.172	384.38
356.399	359.38
356.626	359.38
356.853	377.38
357.08	384.38
357.307	361.38
357.534	382.38
357.761	362.38
357.988	371.38
358.215	354.38
358.441	358.38
358.668	363.38
358.895	370.38
359.122	380.38
359.349	388.38
359.576	402.38
359.802	394.38
360.029	420.38
360.256	454.38
360.483	406.38
360.709	388.38
360.936	382.38
361.163	390.38
361.39	392.38
361.616	370.38
361.843	380.38
362.07	388.38
362.296	382.38
362.523	368.38
362.749	396.38
362.976	389.38
363.203	384.38
363.429	382.38
363.656	358.38
363.882	368.38
364.109	373.38
364.335	374.38
364.562	363.38
364.788	380.38
365.015	382.38
365.241	363.38
365.468	365.38
365.694	380.38
365.92	372.38
366.147	370.38
366.373	372.38
366.599	346.38
366.826	344.38
367.052	339.38
367.278	364.38
367.505	365.38
367.731	366.38
367.957	365.38
368.184	373.38
368.41	356.38
368.636	372.38
368.862	381.38
369.089	363.38
369.315	357.38
369.541	362.38
369.767	367.38
369.993	374.38
370.219	341.38
370.445	380.38
370.672	366.38
370.898	354.38
371.124	371.38
371.35	370.38
371.576	345.38
371.802	368.38
372.028	350.38
372.254	357.38
372.48	368.38
372.706	368.38
372.932	367.38
373.158	372.38
373.384	353.38
373.61	374.38
373.835	368.38
374.061	368.38
374.287	354.38
374.513	365.38
374.739	356.38
374.965	361.38
375.191	370.38
375.416	374.38
375.642	347.38
375.868	364.38
376.094	348.38
376.319	344.38
376.545	348.38
376.771	365.38
376.997	350.38
377.222	346.38
377.448	341.38
377.674	366.38
377.899	334.38
378.125	343.38
378.35	355.38
378.576	365.38
378.802	355.38
379.027	343.38
379.253	360.38
379.478	347.38
379.704	346.38
379.929	344.38
380.155	342.38
380.38	353.38
380.606	356.38
380.831	348.38
381.057	361.38
381.282	343.38
381.507	353.38
381.733	351.38
381.958	363.38
382.184	355.38
382.409	343.38
382.634	354.38
382.86	351.38
383.085	377.38
383.31	349.38
383.535	361.38
383.761	363.38
383.986	378.38
384.211	376.38
384.436	361.38
384.662	361.38
384.887	391.38
385.112	361.38
385.337	356.38
385.562	391.38
385.787	362.38
386.013	376.38
386.238	386.38
386.463	382.38
386.688	375.38
386.913	382.38
387.138	379.38
387.363	357.38
387.588	358.38
387.813	361.38
388.038	376.38
388.263	374.38
388.488	362.38
388.713	360.38
388.938	385.38
389.163	370.38
389.387	365.38
389.612	348.38
389.837	350.38
390.062	361.38
390.287	369.38
390.512	374.38
390.736	370.38
390.961	370.38
391.186	371.38
391.411	374.38
391.636	357.38
391.86	384.38
392.085	370.38
392.31	372.38
392.534	385.38
392.759	385.38
392.984	384.38
393.208	377.38
393.433	391.38
393.658	370.38
393.882	334.38
394.107	358.38
394.331	356.38
394.556	384.38
394.78	374.38
395.005	376.38
395.229	370.38
395.454	368.38
395.678	375.38
395.903	382.38
396.127	398.38
396.352	382.38
396.576	381.38
396.801	385.38
397.025	378.38
397.249	389.38
397.474	389.38
397.698	379.38
397.922	393.38
398.147	410.38
398.371	421.38
398.595	374.38
398.82	395.38
399.044	428.38
399.268	427.38
399.492	455.38
399.717	498.38
399.941	489.38
400.165	528.38
400.389	514.38
400.613	470.38
400.837	426.38
401.062	431.38
401.286	412.38
401.51	404.38
401.734	436.38
401.958	408.38
402.182	421.38
402.406	434.38
402.63	408.38
402.854	417.38
403.078	425.38
403.302	436.38
403.526	422.38
403.75	420.38
403.974	434.38
404.198	413.38
404.422	416.38
404.645	424.38
404.869	439.38
405.093	449.38
405.317	500.38
405.541	511.38
405.765	463.38
405.988	438.38
406.212	466.38
406.436	464.38
406.66	461.38
406.883	458.38
407.107	485.38
407.331	498.38
407.555	582.38
407.778	558.38
408.002	518.38
408.226	482.38
408.449	477.38
408.673	448.38
408.896	491.38
409.12	508.38
409.344	498.38
409.567	440.38
409.791	420.38
410.014	412.38
410.238	400.38
410.461	404.38
410.685	430.38
410.908	455.38
411.132	462.38
411.355	491.38
411.578	470.38
411.802	441.38
412.025	420.38
412.249	426.38
412.472	438.38
412.695	485.38
412.919	468.38
413.142	427.38
413.365	412.38
413.589	424.38
413.812	419.38
414.035	402.38
414.258	391.38
414.482	379.38
414.705	406.38
414.928	372.38
415.151	374.38
415.374	381.38
415.597	396.38
415.821	406.38
416.044	386.38
416.267	409.38
416.49	412.38
416.713	384.38
416.936	430.38
417.159	400.38
417.382	417.38
417.605	402.38
417.828	415.38
418.051	409.38
418.274	420.38
418.497	382.38
418.72	395.38
418.943	418.38
419.166	413.38
419.389	430.38
419.611	427.38
419.834	414.38
420.057	423.38
420.28	439.38
420.503	400.38
420.726	425.38
420.948	443.38
421.171	456.38
421.394	486.38
421.617	428.38
421.839	415.38
422.062	426.38
422.285	432.38
422.507	462.38
422.73	539.38
422.953	528.38
423.175	473.38
423.398	428.38
423.621	444.38
423.843	453.38
424.066	473.38
424.288	439.38
424.511	475.38
424.733	515.38
424.956	583.38
425.178	534.38
425.401	538.38
425.623	561.38
425.846	489.38
426.068	448.38
426.291	457.38
426.513	468.38
426.735	467.38
426.958	477.38
427.18	564.38
427.402	658.38
427.625	706.38
427.847	619.38
428.069	549.38
428.292	485.38
428.514	417.38
428.736	425.38
428.958	434.38
429.181	427.38
429.403	417.38
429.625	449.38
429.847	459.38
430.069	520.38
430.292	492.38
430.514	449.38
430.736	412.38
430.958	416.38
431.18	381.38
431.402	386.38
431.624	398.38
431.846	360.38
432.068	392.38
432.29	398.38
432.512	396.38
432.734	415.38
432.956	421.38
433.178	425.38
433.4	418.38
433.622	393.38
433.844	402.38
434.066	394.38
434.287	382.38
434.509	405.38
434.731	405.38
434.953	394.38
435.175	422.38
435.397	444.38
435.618	471.38
435.84	494.38
436.062	554.38
436.284	591.38
436.505	521.38
436.727	458.38
436.949	436.38
437.17	402.38
437.392	420.38
437.614	427.38
437.835	444.38
438.057	536.38
438.278	612.38
438.5	617.38
438.721	679.38
438.943	662.38
439.165	510.38
439.386	466.38
439.608	460.38
439.829	428.38
440.05	499.38
440.272	537.38
440.493	493.38
440.715	443.38
440.936	444.38
441.158	442.38
441.379	434.38
441.6	433.38
441.822	473.38
442.043	504.38
442.264	555.38
442.486	587.38
442.707	502.38
442.928	471.38
443.149	461.38
443.371	473.38
443.592	529.38
443.813	624.38
444.034	650.38
444.255	526.38
444.476	486.38
444.698	434.38
444.919	434.38
445.14	545.38
445.361	506.38
445.582	492.38
445.803	550.38
446.024	624.38
446.245	625.38
446.466	580.38
446.687	484.38
446.908	464.38
447.129	434.38
447.35	427.38
447.571	435.38
447.792	428.38
448.013	419.38
448.234	437.38
448.455	476.38
448.675	576.38
448.896	667.38
449.117	566.38
449.338	563.38
449.559	605.38
449.779	688.38
450	536.38
450.221	440.38
450.442	437.38
450.662	417.38
450.883	412.38
451.104	415.38
451.324	418.38
451.545	390.38
451.766	389.38
451.986	372.38
452.207	380.38
452.428	378.38
452.648	362.38
452.869	381.38
453.089	372.38
453.31	380.38
453.53	390.38
453.751	377.38
453.971	371.38
454.192	390.38
454.412	384.38
454.633	372.38
454.853	344.38
455.073	364.38
455.294	395.38
455.514	446.38
455.734	422.38
455.955	393.38
456.175	342.38
456.395	346.38
456.616	354.38
456.836	338.38
457.056	352.38
457.276	346.38
457.497	349.38
457.717	370.38
457.937	360.38
458.157	356.38
458.377	355.38
458.598	378.38
458.818	417.38
459.038	485.38
459.258	490.38
459.478	410.38
459.698	405.38
459.918	385.38
460.138	393.38
460.358	377.38
460.578	378.38
460.798	396.38
461.018	391.38
461.238	382.38
461.458	376.38
461.678	355.38
461.898	384.38
462.118	364.38
462.338	366.38
462.558	397.38
462.777	408.38
462.997	404.38
463.217	405.38
463.437	415.38
463.657	407.38
463.876	407.38
464.096	394.38
464.316	410.38
464.536	410.38
464.755	391.38
464.975	408.38
465.195	448.38
465.414	478.38
465.634	441.38
465.854	424.38
466.073	396.38
466.293	394.38
466.512	397.38
466.732	388.38
466.951	381.38
467.171	378.38
467.391	372.38
467.61	388.38
467.829	372.38
468.049	384.38
468.268	358.38
468.488	377.38
468.707	336.38
468.927	352.38
469.146	348.38
469.365	361.38
469.585	366.38
469.804	364.38
470.023	374.38
470.243	376.38
470.462	380.38
470.681	411.38
470.901	409.38
471.12	371.38
471.339	395.38
471.558	357.38
471.777	384.38
471.997	399.38
472.216	387.38
472.435	406.38
472.654	394.38
472.873	380.38
473.092	365.38
473.311	376.38
473.53	371.38
473.749	391.38
473.968	413.38
474.187	493.38
474.406	540.38
474.625	433.38
474.844	394.38
475.063	380.38
475.282	362.38
475.501	396.38
475.72	406.38
475.939	398.38
476.158	395.38
476.377	388.38
476.596	383.38
476.814	386.38
477.033	404.38
477.252	388.38
477.471	388.38
477.69	390.38
477.908	404.38
478.127	414.38
478.346	416.38
478.564	415.38
478.783	418.38
479.002	424.38
479.22	421.38
479.439	438.38
479.658	445.38
479.876	448.38
480.095	444.38
480.313	479.38
480.532	459.38
480.751	462.38
480.969	454.38
481.188	510.38
481.406	525.38
481.624	498.38
481.843	461.38
482.061	454.38
482.28	450.38
482.498	449.38
482.717	430.38
482.935	437.38
483.153	428.38
483.372	409.38
483.59	424.38
483.808	432.38
484.027	458.38
484.245	441.38
484.463	450.38
484.681	446.38
484.9	457.38
485.118	456.38
485.336	443.38
485.554	463.38
485.772	462.38
485.99	444.38
486.209	460.38
486.427	460.38
486.645	476.38
486.863	488.38
487.081	473.38
487.299	491.38
487.517	469.38
487.735	451.38
487.953	460.38
488.171	459.38
488.389	485.38
488.607	479.38
488.825	463.38
489.043	463.38
489.261	483.38
489.479	484.38
489.696	488.38
489.914	485.38
490.132	487.38
490.35	507.38
490.568	492.38
490.786	513.38
491.003	516.38
491.221	536.38
491.439	535.38
491.657	530.38
491.874	545.38
492.092	552.38
492.31	559.38
492.527	556.38
492.745	556.38
492.963	575.38
493.18	541.38
493.398	569.38
493.615	556.38
493.833	555.38
494.05	567.38
494.268	563.38
494.485	552.38
494.703	557.38
494.92	551.38
495.138	551.38
495.355	563.38
495.573	578.38
495.79	567.38
496.008	567.38
496.225	570.38
496.442	559.38
496.66	552.38
496.877	531.38
497.094	567.38
497.312	566.38
497.529	594.38
497.746	585.38
497.963	600.38
498.181	576.38
498.398	585.38
498.615	604.38
498.832	628.38
499.049	616.38
499.267	638.38
499.484	644.38
499.701	650.38
499.918	666.38
500.135	715.38
500.352	705.38
500.569	710.38
500.786	737.38
501.003	741.38
501.22	685.38
501.437	700.38
501.654	692.38
501.871	693.38
