Data from 1971.PennyLincolnUp.Lamp.En5.5.200Scan.071719.P1.Scan 2. Changed Angle._HRD10591_15-24-23-842.txt Node
Date: Thu Jul 18 15:24:23 EDT 2019
User: cochatt
Spectrometer: HR+D1059
Trigger mode: 1
Integration Time (sec): 1.000000E-1
Scans to average: 1
Electric dark correction enabled: true
Nonlinearity correction enabled: false
Boxcar width: 0
XAxis mode: Wavelengths
Number of Pixels in Spectrum: 2048
>>>>>Begin Spectral Data<<<<<
223.165	-11.94
223.4	-11.94
223.635	-11.94
223.869	-20.94
224.104	-24.94
224.338	-11.94
224.573	-1.94
224.808	-11.94
225.042	-3.94
225.277	-4.94
225.511	-0.94
225.746	-10.94
225.98	-1.94
226.215	15.06
226.449	11.06
226.683	18.06
226.918	28.06
227.152	34.06
227.387	22.06
227.621	41.06
227.856	32.06
228.09	48.06
228.324	56.06
228.559	69.06
228.793	69.06
229.027	99.06
229.262	128.06
229.496	133.06
229.73	152.06
229.964	189.06
230.199	145.06
230.433	125.06
230.667	112.06
230.901	124.06
231.136	122.06
231.37	113.06
231.604	121.06
231.838	119.06
232.072	119.06
232.306	142.06
232.541	124.06
232.775	120.06
233.009	113.06
233.243	110.06
233.477	118.06
233.711	125.06
233.945	131.06
234.179	126.06
234.413	139.06
234.647	120.06
234.881	114.06
235.115	129.06
235.349	118.06
235.583	125.06
235.817	125.06
236.051	139.06
236.285	137.06
236.519	130.06
236.753	139.06
236.987	160.06
237.221	222.06
237.455	278.06
237.689	210.06
237.922	152.06
238.156	138.06
238.39	139.06
238.624	117.06
238.858	129.06
239.091	148.06
239.325	143.06
239.559	120.06
239.793	141.06
240.027	156.06
240.26	163.06
240.494	168.06
240.728	161.06
240.961	172.06
241.195	172.06
241.429	157.06
241.662	141.06
241.896	144.06
242.13	137.06
242.363	150.06
242.597	145.06
242.83	150.06
243.064	150.06
243.298	145.06
243.531	127.06
243.765	152.06
243.998	157.06
244.232	146.06
244.465	154.06
244.699	153.06
244.932	165.06
245.166	157.06
245.399	157.06
245.633	166.06
245.866	174.06
246.099	158.06
246.333	160.06
246.566	160.06
246.8	157.06
247.033	160.06
247.266	163.06
247.5	179.06
247.733	184.06
247.966	203.06
248.2	186.06
248.433	183.06
248.666	194.06
248.899	184.06
249.133	213.06
249.366	231.06
249.599	235.06
249.832	214.06
250.066	196.06
250.299	191.06
250.532	230.06
250.765	236.06
250.998	233.06
251.231	246.06
251.465	233.06
251.698	215.06
251.931	233.06
252.164	232.06
252.397	227.06
252.63	216.06
252.863	222.06
253.096	251.06
253.329	243.06
253.562	262.06
253.795	243.06
254.028	250.06
254.261	249.06
254.494	291.06
254.727	295.06
254.96	337.06
255.193	335.06
255.426	294.06
255.659	289.06
255.892	263.06
256.124	254.06
256.357	266.06
256.59	252.06
256.823	232.06
257.056	230.06
257.289	248.06
257.521	245.06
257.754	230.06
257.987	231.06
258.22	216.06
258.452	215.06
258.685	226.06
258.918	240.06
259.151	241.06
259.383	230.06
259.616	240.06
259.849	253.06
260.081	264.06
260.314	270.06
260.547	276.06
260.779	265.06
261.012	279.06
261.244	233.06
261.477	256.06
261.71	266.06
261.942	271.06
262.175	260.06
262.407	283.06
262.64	254.06
262.872	239.06
263.105	239.06
263.337	236.06
263.57	225.06
263.802	231.06
264.035	229.06
264.267	238.06
264.499	216.06
264.732	224.06
264.964	221.06
265.197	236.06
265.429	221.06
265.661	239.06
265.894	237.06
266.126	220.06
266.358	223.06
266.591	218.06
266.823	234.06
267.055	247.06
267.287	256.06
267.52	218.06
267.752	237.06
267.984	230.06
268.216	257.06
268.448	238.06
268.681	268.06
268.913	269.06
269.145	292.06
269.377	315.06
269.609	287.06
269.841	284.06
270.073	284.06
270.306	314.06
270.538	357.06
270.77	356.06
271.002	343.06
271.234	316.06
271.466	333.06
271.698	333.06
271.93	351.06
272.162	354.06
272.394	364.06
272.626	341.06
272.858	303.06
273.09	308.06
273.322	303.06
273.553	292.06
273.785	294.06
274.017	297.06
274.249	279.06
274.481	285.06
274.713	281.06
274.945	303.06
275.176	295.06
275.408	297.06
275.64	274.06
275.872	286.06
276.104	280.06
276.335	267.06
276.567	297.06
276.799	301.06
277.031	320.06
277.262	349.06
277.494	320.06
277.726	320.06
277.957	325.06
278.189	286.06
278.421	276.06
278.652	271.06
278.884	264.06
279.115	275.06
279.347	282.06
279.579	282.06
279.81	277.06
280.042	276.06
280.273	280.06
280.505	276.06
280.736	274.06
280.968	268.06
281.199	267.06
281.431	264.06
281.662	252.06
281.894	297.06
282.125	272.06
282.356	299.06
282.588	332.06
282.819	318.06
283.051	297.06
283.282	281.06
283.513	277.06
283.745	298.06
283.976	273.06
284.207	282.06
284.439	288.06
284.67	286.06
284.901	273.06
285.132	271.06
285.364	269.06
285.595	270.06
285.826	277.06
286.057	279.06
286.288	279.06
286.52	290.06
286.751	273.06
286.982	288.06
287.213	296.06
287.444	300.06
287.675	298.06
287.906	298.06
288.138	305.06
288.369	320.06
288.6	322.06
288.831	321.06
289.062	300.06
289.293	293.06
289.524	294.06
289.755	293.06
289.986	287.06
290.217	296.06
290.448	280.06
290.679	280.06
290.91	297.06
291.141	284.06
291.371	316.06
291.602	300.06
291.833	298.06
292.064	298.06
292.295	291.06
292.526	294.06
292.757	284.06
292.987	296.06
293.218	301.06
293.449	312.06
293.68	269.06
293.91	286.06
294.141	282.06
294.372	293.06
294.603	302.06
294.833	288.06
295.064	311.06
295.295	301.06
295.525	304.06
295.756	305.06
295.987	310.06
296.217	344.06
296.448	333.06
296.679	320.06
296.909	290.06
297.14	306.06
297.37	305.06
297.601	313.06
297.831	302.06
298.062	308.06
298.292	296.06
298.523	320.06
298.753	306.06
298.984	308.06
299.214	303.06
299.445	311.06
299.675	318.06
299.905	305.06
300.136	300.06
300.366	318.06
300.597	313.06
300.827	329.06
301.057	326.06
301.288	342.06
301.518	321.06
301.748	319.06
301.979	326.06
302.209	329.06
302.439	324.06
302.669	327.06
302.9	326.06
303.13	342.06
303.36	349.06
303.59	338.06
303.82	356.06
304.051	355.06
304.281	327.06
304.511	332.06
304.741	305.06
304.971	321.06
305.201	318.06
305.431	318.06
305.661	305.06
305.891	312.06
306.121	327.06
306.352	332.06
306.582	340.06
306.812	343.06
307.042	335.06
307.272	315.06
307.502	330.06
307.731	344.06
307.961	312.06
308.191	331.06
308.421	335.06
308.651	334.06
308.881	345.06
309.111	347.06
309.341	350.06
309.571	377.06
309.8	364.06
310.03	382.06
310.26	396.06
310.49	384.06
310.72	408.06
310.949	441.06
311.179	439.06
311.409	358.06
311.639	390.06
311.868	390.06
312.098	391.06
312.328	420.06
312.557	424.06
312.787	447.06
313.017	440.06
313.246	420.06
313.476	408.06
313.706	409.06
313.935	408.06
314.165	406.06
314.394	437.06
314.624	417.06
314.853	420.06
315.083	406.06
315.312	402.06
315.542	374.06
315.771	393.06
316.001	367.06
316.23	388.06
316.46	380.06
316.689	396.06
316.919	399.06
317.148	418.06
317.377	398.06
317.607	385.06
317.836	413.06
318.065	384.06
318.295	400.06
318.524	385.06
318.753	412.06
318.983	384.06
319.212	375.06
319.441	399.06
319.67	410.06
319.9	425.06
320.129	391.06
320.358	395.06
320.587	394.06
320.816	407.06
321.046	426.06
321.275	437.06
321.504	429.06
321.733	432.06
321.962	420.06
322.191	469.06
322.42	444.06
322.649	491.06
322.878	514.06
323.108	516.06
323.337	554.06
323.566	573.06
323.795	632.06
324.024	676.06
324.253	842.06
324.482	1245.06
324.71	1934.06
324.939	2795.06
325.168	2389.06
325.397	1252.06
325.626	836.06
325.855	657.06
326.084	597.06
326.313	584.06
326.542	588.06
326.77	660.06
326.999	792.06
327.228	1113.06
327.457	1722.06
327.686	2102.06
327.914	1359.06
328.143	902.06
328.372	785.06
328.6	716.06
328.829	658.06
329.058	670.06
329.287	717.06
329.515	627.06
329.744	595.06
329.972	576.06
330.201	610.06
330.43	666.06
330.658	704.06
330.887	724.06
331.115	717.06
331.344	617.06
331.572	551.06
331.801	535.06
332.03	552.06
332.258	524.06
332.486	495.06
332.715	468.06
332.943	465.06
333.172	471.06
333.4	480.06
333.629	489.06
333.857	489.06
334.085	496.06
334.314	529.06
334.542	604.06
334.771	608.06
334.999	531.06
335.227	491.06
335.455	472.06
335.684	468.06
335.912	468.06
336.14	455.06
336.369	463.06
336.597	484.06
336.825	487.06
337.053	454.06
337.281	450.06
337.51	461.06
337.738	455.06
337.966	470.06
338.194	493.06
338.422	492.06
338.65	463.06
338.878	460.06
339.106	454.06
339.334	445.06
339.562	444.06
339.79	444.06
340.018	452.06
340.246	430.06
340.474	452.06
340.702	453.06
340.93	446.06
341.158	428.06
341.386	450.06
341.614	473.06
341.842	459.06
342.07	438.06
342.298	428.06
342.526	436.06
342.754	427.06
342.981	424.06
343.209	437.06
343.437	447.06
343.665	450.06
343.893	439.06
344.12	446.06
344.348	461.06
344.576	441.06
344.804	452.06
345.031	467.06
345.259	484.06
345.487	480.06
345.714	461.06
345.942	449.06
346.17	439.06
346.397	451.06
346.625	440.06
346.853	459.06
347.08	448.06
347.308	443.06
347.535	451.06
347.763	459.06
347.99	470.06
348.218	471.06
348.445	477.06
348.673	482.06
348.9	457.06
349.128	448.06
349.355	433.06
349.583	443.06
349.81	440.06
350.037	429.06
350.265	428.06
350.492	458.06
350.72	438.06
350.947	453.06
351.174	449.06
351.402	469.06
351.629	442.06
351.856	441.06
352.083	471.06
352.311	460.06
352.538	496.06
352.765	494.06
352.992	467.06
353.22	463.06
353.447	448.06
353.674	450.06
353.901	442.06
354.128	424.06
354.355	401.06
354.583	423.06
354.81	426.06
355.037	404.06
355.264	415.06
355.491	388.06
355.718	414.06
355.945	406.06
356.172	396.06
356.399	381.06
356.626	396.06
356.853	395.06
357.08	395.06
357.307	395.06
357.534	410.06
357.761	408.06
357.988	415.06
358.215	413.06
358.441	433.06
358.668	426.06
358.895	422.06
359.122	398.06
359.349	437.06
359.576	461.06
359.802	485.06
360.029	535.06
360.256	547.06
360.483	514.06
360.709	480.06
360.936	463.06
361.163	464.06
361.39	472.06
361.616	458.06
361.843	444.06
362.07	457.06
362.296	452.06
362.523	460.06
362.749	462.06
362.976	440.06
363.203	440.06
363.429	466.06
363.656	438.06
363.882	431.06
364.109	422.06
364.335	428.06
364.562	431.06
364.788	430.06
365.015	425.06
365.241	428.06
365.468	418.06
365.694	448.06
365.92	428.06
366.147	438.06
366.373	452.06
366.599	445.06
366.826	407.06
367.052	430.06
367.278	425.06
367.505	425.06
367.731	406.06
367.957	407.06
368.184	437.06
368.41	444.06
368.636	463.06
368.862	440.06
369.089	424.06
369.315	407.06
369.541	413.06
369.767	410.06
369.993	415.06
370.219	412.06
370.445	426.06
370.672	440.06
370.898	434.06
371.124	419.06
371.35	419.06
371.576	425.06
371.802	433.06
372.028	379.06
372.254	410.06
372.48	422.06
372.706	413.06
372.932	424.06
373.158	411.06
373.384	431.06
373.61	406.06
373.835	410.06
374.061	411.06
374.287	420.06
374.513	432.06
374.739	436.06
374.965	439.06
375.191	431.06
375.416	424.06
375.642	408.06
375.868	429.06
376.094	429.06
376.319	450.06
376.545	423.06
376.771	394.06
376.997	426.06
377.222	431.06
377.448	428.06
377.674	436.06
377.899	405.06
378.125	432.06
378.35	429.06
378.576	410.06
378.802	402.06
379.027	428.06
379.253	422.06
379.478	430.06
379.704	423.06
379.929	440.06
380.155	438.06
380.38	449.06
380.606	430.06
380.831	414.06
381.057	431.06
381.282	432.06
381.507	425.06
381.733	437.06
381.958	416.06
382.184	440.06
382.409	423.06
382.634	437.06
382.86	429.06
383.085	412.06
383.31	436.06
383.535	433.06
383.761	430.06
383.986	443.06
384.211	430.06
384.436	436.06
384.662	449.06
384.887	450.06
385.112	442.06
385.337	439.06
385.562	464.06
385.787	474.06
386.013	469.06
386.238	469.06
386.463	446.06
386.688	467.06
386.913	429.06
387.138	461.06
387.363	454.06
387.588	476.06
387.813	454.06
388.038	438.06
388.263	449.06
388.488	467.06
388.713	456.06
388.938	448.06
389.163	465.06
389.387	459.06
389.612	458.06
389.837	462.06
390.062	460.06
390.287	442.06
390.512	411.06
390.736	432.06
390.961	442.06
391.186	446.06
391.411	444.06
391.636	470.06
391.86	452.06
392.085	459.06
392.31	471.06
392.534	472.06
392.759	471.06
392.984	471.06
393.208	454.06
393.433	460.06
393.658	457.06
393.882	481.06
394.107	452.06
394.331	482.06
394.556	469.06
394.78	486.06
395.005	465.06
395.229	471.06
395.454	458.06
395.678	460.06
395.903	480.06
396.127	481.06
396.352	502.06
396.576	481.06
396.801	486.06
397.025	472.06
397.249	489.06
397.474	477.06
397.698	490.06
397.922	495.06
398.147	524.06
398.371	503.06
398.595	502.06
398.82	501.06
399.044	522.06
399.268	522.06
399.492	538.06
399.717	557.06
399.941	595.06
400.165	640.06
400.389	648.06
400.613	586.06
400.837	554.06
401.062	547.06
401.286	552.06
401.51	513.06
401.734	545.06
401.958	543.06
402.182	542.06
402.406	561.06
402.63	544.06
402.854	535.06
403.078	530.06
403.302	539.06
403.526	572.06
403.75	552.06
403.974	540.06
404.198	556.06
404.422	548.06
404.645	542.06
404.869	565.06
405.093	619.06
405.317	634.06
405.541	684.06
405.765	612.06
405.988	603.06
406.212	590.06
406.436	626.06
406.66	650.06
406.883	625.06
407.107	638.06
407.331	668.06
407.555	735.06
407.778	752.06
408.002	662.06
408.226	624.06
408.449	628.06
408.673	613.06
408.896	652.06
409.12	702.06
409.344	650.06
409.567	607.06
409.791	595.06
410.014	558.06
410.238	566.06
410.461	551.06
410.685	570.06
410.908	599.06
411.132	616.06
411.355	668.06
411.578	630.06
411.802	570.06
412.025	547.06
412.249	556.06
412.472	591.06
412.695	652.06
412.919	617.06
413.142	568.06
413.365	549.06
413.589	540.06
413.812	550.06
414.035	545.06
414.258	521.06
414.482	526.06
414.705	526.06
414.928	527.06
415.151	505.06
415.374	510.06
415.597	504.06
415.821	507.06
416.044	527.06
416.267	533.06
416.49	518.06
416.713	534.06
416.936	546.06
417.159	523.06
417.382	530.06
417.605	541.06
417.828	542.06
418.051	571.06
418.274	567.06
418.497	548.06
418.72	542.06
418.943	540.06
419.166	551.06
419.389	558.06
419.611	575.06
419.834	553.06
420.057	576.06
420.28	580.06
420.503	558.06
420.726	562.06
420.948	600.06
421.171	654.06
421.394	664.06
421.617	601.06
421.839	560.06
422.062	567.06
422.285	611.06
422.507	652.06
422.73	739.06
422.953	712.06
423.175	625.06
423.398	592.06
423.621	624.06
423.843	640.06
424.066	624.06
424.288	620.06
424.511	642.06
424.733	694.06
424.956	805.06
425.178	794.06
425.401	759.06
425.623	786.06
425.846	696.06
426.068	628.06
426.291	634.06
426.513	619.06
426.735	604.06
426.958	692.06
427.18	780.06
427.402	934.06
427.625	1024.06
427.847	944.06
428.069	805.06
428.292	726.06
428.514	662.06
428.736	599.06
428.958	601.06
429.181	584.06
429.403	588.06
429.625	637.06
429.847	670.06
430.069	719.06
430.292	731.06
430.514	624.06
430.736	600.06
430.958	576.06
431.18	573.06
431.402	536.06
431.624	543.06
431.846	538.06
432.068	535.06
432.29	533.06
432.512	546.06
432.734	569.06
432.956	557.06
433.178	570.06
433.4	580.06
433.622	550.06
433.844	572.06
434.066	520.06
434.287	539.06
434.509	531.06
434.731	558.06
434.953	548.06
435.175	580.06
435.397	639.06
435.618	629.06
435.84	677.06
436.062	807.06
436.284	833.06
436.505	720.06
436.727	656.06
436.949	625.06
437.17	588.06
437.392	586.06
437.614	630.06
437.835	676.06
438.057	786.06
438.278	898.06
438.5	877.06
438.721	934.06
438.943	904.06
439.165	747.06
439.386	673.06
439.608	668.06
439.829	663.06
440.05	683.06
440.272	783.06
440.493	706.06
440.715	649.06
440.936	623.06
441.158	597.06
441.379	608.06
441.6	607.06
441.822	632.06
442.043	711.06
442.264	792.06
442.486	845.06
442.707	709.06
442.928	665.06
443.149	669.06
443.371	702.06
443.592	734.06
443.813	839.06
444.034	896.06
444.255	768.06
444.476	668.06
444.698	641.06
444.919	623.06
445.14	744.06
445.361	696.06
445.582	686.06
445.803	782.06
446.024	913.06
446.245	904.06
446.466	828.06
446.687	710.06
446.908	661.06
447.129	620.06
447.35	588.06
447.571	573.06
447.792	596.06
448.013	612.06
448.234	665.06
448.455	666.06
448.675	817.06
448.896	916.06
449.117	808.06
449.338	768.06
449.559	862.06
449.779	950.06
450	762.06
450.221	673.06
450.442	605.06
450.662	584.06
450.883	616.06
451.104	640.06
451.324	619.06
451.545	570.06
451.766	566.06
451.986	526.06
452.207	531.06
452.428	550.06
452.648	534.06
452.869	533.06
453.089	546.06
453.31	562.06
453.53	544.06
453.751	542.06
453.971	501.06
454.192	582.06
454.412	577.06
454.633	520.06
454.853	538.06
455.073	541.06
455.294	573.06
455.514	638.06
455.734	637.06
455.955	553.06
456.175	513.06
456.395	488.06
456.616	478.06
456.836	477.06
457.056	475.06
457.276	468.06
457.497	497.06
457.717	493.06
457.937	490.06
458.157	500.06
458.377	502.06
458.598	556.06
458.818	640.06
459.038	733.06
459.258	733.06
459.478	633.06
459.698	569.06
459.918	549.06
460.138	538.06
460.358	527.06
460.578	530.06
460.798	534.06
461.018	549.06
461.238	536.06
461.458	528.06
461.678	534.06
461.898	544.06
462.118	542.06
462.338	534.06
462.558	547.06
462.777	547.06
462.997	570.06
463.217	574.06
463.437	549.06
463.657	570.06
463.876	573.06
464.096	552.06
464.316	577.06
464.536	554.06
464.755	585.06
464.975	569.06
465.195	639.06
465.414	762.06
465.634	692.06
465.854	648.06
466.073	581.06
466.293	557.06
466.512	530.06
466.732	531.06
466.951	524.06
467.171	533.06
467.391	531.06
467.61	546.06
467.829	560.06
468.049	555.06
468.268	570.06
468.488	544.06
468.707	533.06
468.927	534.06
469.146	512.06
469.365	500.06
469.585	527.06
469.804	541.06
470.023	531.06
470.243	540.06
470.462	558.06
470.681	592.06
470.901	581.06
471.12	570.06
471.339	549.06
471.558	542.06
471.777	545.06
471.997	545.06
472.216	545.06
472.435	601.06
472.654	576.06
472.873	566.06
473.092	542.06
473.311	533.06
473.53	540.06
473.749	566.06
473.968	613.06
474.187	723.06
474.406	783.06
474.625	615.06
474.844	573.06
475.063	561.06
475.282	553.06
475.501	570.06
475.72	573.06
475.939	568.06
476.158	562.06
476.377	584.06
476.596	564.06
476.814	577.06
477.033	588.06
477.252	612.06
477.471	571.06
477.69	588.06
477.908	589.06
478.127	631.06
478.346	591.06
478.564	590.06
478.783	594.06
479.002	608.06
479.22	634.06
479.439	626.06
479.658	642.06
479.876	660.06
480.095	679.06
480.313	708.06
480.532	659.06
480.751	672.06
480.969	672.06
481.188	767.06
481.406	806.06
481.624	738.06
481.843	679.06
482.061	668.06
482.28	646.06
482.498	641.06
482.717	657.06
482.935	632.06
483.153	640.06
483.372	638.06
483.59	642.06
483.808	656.06
484.027	645.06
484.245	646.06
484.463	639.06
484.681	674.06
484.9	670.06
485.118	677.06
485.336	650.06
485.554	649.06
485.772	673.06
485.99	650.06
486.209	687.06
486.427	684.06
486.645	706.06
486.863	747.06
487.081	727.06
487.299	708.06
487.517	680.06
487.735	705.06
487.953	730.06
488.171	734.06
488.389	699.06
488.607	710.06
488.825	704.06
489.043	703.06
489.261	711.06
489.479	728.06
489.696	707.06
489.914	719.06
490.132	730.06
490.35	718.06
490.568	776.06
490.786	772.06
491.003	745.06
491.221	776.06
491.439	805.06
491.657	778.06
491.874	811.06
492.092	830.06
492.31	824.06
492.527	856.06
492.745	840.06
492.963	834.06
493.18	858.06
493.398	843.06
493.615	866.06
493.833	872.06
494.05	871.06
494.268	862.06
494.485	865.06
494.703	872.06
494.92	863.06
495.138	891.06
495.355	841.06
495.573	868.06
495.79	871.06
496.008	859.06
496.225	873.06
496.442	858.06
496.66	864.06
496.877	850.06
497.094	869.06
497.312	868.06
497.529	853.06
497.746	885.06
497.963	900.06
498.181	907.06
498.398	917.06
498.615	895.06
498.832	900.06
499.049	921.06
499.267	935.06
499.484	918.06
499.701	977.06
499.918	984.06
500.135	1027.06
500.352	1026.06
500.569	1040.06
500.786	1049.06
501.003	1055.06
501.22	1039.06
501.437	1032.06
