Data from 1971.PennyLincolnUp.Lamp.En5.5.200Scan.071719.P1.Scan 2. Changed Angle._HRD10591_15-24-22-843.txt Node
Date: Thu Jul 18 15:24:22 EDT 2019
User: cochatt
Spectrometer: HR+D1059
Trigger mode: 1
Integration Time (sec): 1.000000E-1
Scans to average: 1
Electric dark correction enabled: true
Nonlinearity correction enabled: false
Boxcar width: 0
XAxis mode: Wavelengths
Number of Pixels in Spectrum: 2048
>>>>>Begin Spectral Data<<<<<
223.165	-27.12
223.4	-27.12
223.635	-27.12
223.869	-24.12
224.104	-1.12
224.338	-7.12
224.573	-19.12
224.808	-11.12
225.042	-17.12
225.277	-6.12
225.511	-1.12
225.746	2.88
225.98	17.88
226.215	5.88
226.449	18.88
226.683	14.88
226.918	24.88
227.152	28.88
227.387	30.88
227.621	56.88
227.856	50.88
228.09	56.88
228.324	62.88
228.559	49.88
228.793	90.88
229.027	93.88
229.262	118.88
229.496	136.88
229.73	155.88
229.964	182.88
230.199	158.88
230.433	130.88
230.667	128.88
230.901	126.88
231.136	131.88
231.37	124.88
231.604	116.88
231.838	134.88
232.072	125.88
232.306	125.88
232.541	120.88
232.775	114.88
233.009	126.88
233.243	123.88
233.477	115.88
233.711	132.88
233.945	126.88
234.179	147.88
234.413	125.88
234.647	136.88
234.881	116.88
235.115	115.88
235.349	128.88
235.583	135.88
235.817	129.88
236.051	127.88
236.285	142.88
236.519	128.88
236.753	139.88
236.987	167.88
237.221	208.88
237.455	299.88
237.689	217.88
237.922	176.88
238.156	158.88
238.39	152.88
238.624	141.88
238.858	144.88
239.091	141.88
239.325	130.88
239.559	136.88
239.793	150.88
240.027	150.88
240.26	160.88
240.494	192.88
240.728	179.88
240.961	168.88
241.195	150.88
241.429	153.88
241.662	137.88
241.896	162.88
242.13	139.88
242.363	132.88
242.597	142.88
242.83	152.88
243.064	152.88
243.298	151.88
243.531	158.88
243.765	141.88
243.998	145.88
244.232	152.88
244.465	167.88
244.699	163.88
244.932	152.88
245.166	154.88
245.399	149.88
245.633	154.88
245.866	160.88
246.099	164.88
246.333	159.88
246.566	136.88
246.8	167.88
247.033	169.88
247.266	171.88
247.5	179.88
247.733	187.88
247.966	183.88
248.2	198.88
248.433	194.88
248.666	197.88
248.899	224.88
249.133	228.88
249.366	254.88
249.599	217.88
249.832	193.88
250.066	208.88
250.299	201.88
250.532	203.88
250.765	218.88
250.998	254.88
251.231	267.88
251.465	247.88
251.698	234.88
251.931	218.88
252.164	219.88
252.397	209.88
252.63	217.88
252.863	235.88
253.096	243.88
253.329	260.88
253.562	244.88
253.795	242.88
254.028	254.88
254.261	263.88
254.494	235.88
254.727	295.88
254.96	330.88
255.193	300.88
255.426	275.88
255.659	248.88
255.892	280.88
256.124	271.88
256.357	267.88
256.59	260.88
256.823	238.88
257.056	236.88
257.289	246.88
257.521	227.88
257.754	247.88
257.987	230.88
258.22	237.88
258.452	220.88
258.685	208.88
258.918	247.88
259.151	199.88
259.383	256.88
259.616	265.88
259.849	251.88
260.081	262.88
260.314	291.88
260.547	288.88
260.779	288.88
261.012	264.88
261.244	240.88
261.477	256.88
261.71	248.88
261.942	239.88
262.175	256.88
262.407	248.88
262.64	246.88
262.872	234.88
263.105	217.88
263.337	239.88
263.57	230.88
263.802	224.88
264.035	230.88
264.267	226.88
264.499	226.88
264.732	231.88
264.964	232.88
265.197	227.88
265.429	223.88
265.661	210.88
265.894	233.88
266.126	253.88
266.358	239.88
266.591	229.88
266.823	243.88
267.055	240.88
267.287	247.88
267.52	248.88
267.752	232.88
267.984	253.88
268.216	236.88
268.448	255.88
268.681	250.88
268.913	261.88
269.145	291.88
269.377	300.88
269.609	293.88
269.841	273.88
270.073	300.88
270.306	334.88
270.538	349.88
270.77	359.88
271.002	329.88
271.234	326.88
271.466	345.88
271.698	331.88
271.93	346.88
272.162	342.88
272.394	361.88
272.626	337.88
272.858	311.88
273.09	318.88
273.322	315.88
273.553	271.88
273.785	285.88
274.017	272.88
274.249	287.88
274.481	288.88
274.713	301.88
274.945	279.88
275.176	288.88
275.408	289.88
275.64	292.88
275.872	295.88
276.104	286.88
276.335	287.88
276.567	296.88
276.799	307.88
277.031	342.88
277.262	365.88
277.494	344.88
277.726	330.88
277.957	324.88
278.189	304.88
278.421	269.88
278.652	275.88
278.884	277.88
279.115	280.88
279.347	284.88
279.579	267.88
279.81	275.88
280.042	275.88
280.273	303.88
280.505	265.88
280.736	279.88
280.968	283.88
281.199	271.88
281.431	263.88
281.662	271.88
281.894	253.88
282.125	288.88
282.356	282.88
282.588	326.88
282.819	302.88
283.051	272.88
283.282	272.88
283.513	279.88
283.745	285.88
283.976	288.88
284.207	298.88
284.439	285.88
284.67	277.88
284.901	297.88
285.132	294.88
285.364	280.88
285.595	284.88
285.826	266.88
286.057	284.88
286.288	287.88
286.52	276.88
286.751	287.88
286.982	290.88
287.213	296.88
287.444	303.88
287.675	291.88
287.906	290.88
288.138	308.88
288.369	323.88
288.6	286.88
288.831	299.88
289.062	290.88
289.293	293.88
289.524	283.88
289.755	270.88
289.986	309.88
290.217	296.88
290.448	302.88
290.679	303.88
290.91	268.88
291.141	298.88
291.371	283.88
291.602	274.88
291.833	296.88
292.064	301.88
292.295	287.88
292.526	315.88
292.757	299.88
292.987	290.88
293.218	288.88
293.449	296.88
293.68	309.88
293.91	268.88
294.141	270.88
294.372	302.88
294.603	289.88
294.833	287.88
295.064	283.88
295.295	295.88
295.525	300.88
295.756	298.88
295.987	320.88
296.217	338.88
296.448	344.88
296.679	318.88
296.909	287.88
297.14	301.88
297.37	292.88
297.601	310.88
297.831	298.88
298.062	298.88
298.292	298.88
298.523	299.88
298.753	314.88
298.984	295.88
299.214	299.88
299.445	298.88
299.675	286.88
299.905	312.88
300.136	326.88
300.366	324.88
300.597	311.88
300.827	309.88
301.057	321.88
301.288	326.88
301.518	330.88
301.748	327.88
301.979	334.88
302.209	324.88
302.439	333.88
302.669	338.88
302.9	323.88
303.13	326.88
303.36	324.88
303.59	355.88
303.82	344.88
304.051	364.88
304.281	330.88
304.511	330.88
304.741	333.88
304.971	308.88
305.201	313.88
305.431	322.88
305.661	339.88
305.891	334.88
306.121	346.88
306.352	335.88
306.582	345.88
306.812	325.88
307.042	330.88
307.272	333.88
307.502	349.88
307.731	339.88
307.961	338.88
308.191	331.88
308.421	342.88
308.651	351.88
308.881	354.88
309.111	348.88
309.341	359.88
309.571	372.88
309.8	357.88
310.03	376.88
310.26	412.88
310.49	387.88
310.72	396.88
310.949	433.88
311.179	438.88
311.409	396.88
311.639	379.88
311.868	400.88
312.098	411.88
312.328	415.88
312.557	433.88
312.787	444.88
313.017	435.88
313.246	411.88
313.476	395.88
313.706	397.88
313.935	416.88
314.165	414.88
314.394	445.88
314.624	408.88
314.853	390.88
315.083	397.88
315.312	400.88
315.542	410.88
315.771	391.88
316.001	382.88
316.23	390.88
316.46	393.88
316.689	385.88
316.919	395.88
317.148	416.88
317.377	415.88
317.607	423.88
317.836	400.88
318.065	379.88
318.295	388.88
318.524	392.88
318.753	383.88
318.983	383.88
319.212	378.88
319.441	379.88
319.67	404.88
319.9	395.88
320.129	393.88
320.358	409.88
320.587	393.88
320.816	399.88
321.046	416.88
321.275	424.88
321.504	419.88
321.733	435.88
321.962	439.88
322.191	463.88
322.42	483.88
322.649	510.88
322.878	508.88
323.108	501.88
323.337	538.88
323.566	580.88
323.795	616.88
324.024	696.88
324.253	848.88
324.482	1228.88
324.71	1931.88
324.939	2743.88
325.168	2358.88
325.397	1224.88
325.626	788.88
325.855	644.88
326.084	623.88
326.313	583.88
326.542	582.88
326.77	644.88
326.999	802.88
327.228	1068.88
327.457	1683.88
327.686	2092.88
327.914	1381.88
328.143	872.88
328.372	764.88
328.6	713.88
328.829	678.88
329.058	691.88
329.287	686.88
329.515	626.88
329.744	592.88
329.972	564.88
330.201	617.88
330.43	662.88
330.658	681.88
330.887	753.88
331.115	707.88
331.344	590.88
331.572	536.88
331.801	550.88
332.03	539.88
332.258	518.88
332.486	480.88
332.715	468.88
332.943	493.88
333.172	484.88
333.4	478.88
333.629	500.88
333.857	479.88
334.085	516.88
334.314	509.88
334.542	566.88
334.771	589.88
334.999	546.88
335.227	499.88
335.455	466.88
335.684	447.88
335.912	471.88
336.14	453.88
336.369	460.88
336.597	483.88
336.825	480.88
337.053	499.88
337.281	474.88
337.51	454.88
337.738	466.88
337.966	440.88
338.194	476.88
338.422	469.88
338.65	459.88
338.878	452.88
339.106	464.88
339.334	448.88
339.562	450.88
339.79	447.88
340.018	432.88
340.246	456.88
340.474	461.88
340.702	475.88
340.93	460.88
341.158	439.88
341.386	469.88
341.614	451.88
341.842	469.88
342.07	451.88
342.298	446.88
342.526	438.88
342.754	435.88
342.981	418.88
343.209	396.88
343.437	445.88
343.665	431.88
343.893	451.88
344.12	446.88
344.348	445.88
344.576	448.88
344.804	457.88
345.031	479.88
345.259	478.88
345.487	488.88
345.714	446.88
345.942	459.88
346.17	453.88
346.397	441.88
346.625	452.88
346.853	438.88
347.08	436.88
347.308	469.88
347.535	460.88
347.763	484.88
347.99	454.88
348.218	459.88
348.445	471.88
348.673	472.88
348.9	448.88
349.128	460.88
349.355	430.88
349.583	429.88
349.81	435.88
350.037	416.88
350.265	444.88
350.492	441.88
350.72	427.88
350.947	455.88
351.174	460.88
351.402	459.88
351.629	452.88
351.856	456.88
352.083	468.88
352.311	496.88
352.538	473.88
352.765	483.88
352.992	458.88
353.22	452.88
353.447	467.88
353.674	450.88
353.901	419.88
354.128	419.88
354.355	439.88
354.583	418.88
354.81	419.88
355.037	430.88
355.264	382.88
355.491	390.88
355.718	414.88
355.945	423.88
356.172	391.88
356.399	407.88
356.626	416.88
356.853	391.88
357.08	413.88
357.307	407.88
357.534	388.88
357.761	431.88
357.988	415.88
358.215	411.88
358.441	425.88
358.668	408.88
358.895	412.88
359.122	422.88
359.349	439.88
359.576	439.88
359.802	476.88
360.029	528.88
360.256	544.88
360.483	506.88
360.709	487.88
360.936	473.88
361.163	473.88
361.39	484.88
361.616	473.88
361.843	467.88
362.07	462.88
362.296	460.88
362.523	467.88
362.749	453.88
362.976	452.88
363.203	442.88
363.429	432.88
363.656	448.88
363.882	418.88
364.109	431.88
364.335	415.88
364.562	426.88
364.788	442.88
365.015	431.88
365.241	427.88
365.468	437.88
365.694	444.88
365.92	448.88
366.147	454.88
366.373	428.88
366.599	422.88
366.826	434.88
367.052	428.88
367.278	430.88
367.505	434.88
367.731	434.88
367.957	439.88
368.184	409.88
368.41	423.88
368.636	443.88
368.862	443.88
369.089	440.88
369.315	426.88
369.541	442.88
369.767	419.88
369.993	450.88
370.219	445.88
370.445	447.88
370.672	413.88
370.898	436.88
371.124	414.88
371.35	418.88
371.576	427.88
371.802	431.88
372.028	399.88
372.254	415.88
372.48	407.88
372.706	429.88
372.932	430.88
373.158	405.88
373.384	431.88
373.61	429.88
373.835	430.88
374.061	415.88
374.287	430.88
374.513	446.88
374.739	431.88
374.965	431.88
375.191	458.88
375.416	430.88
375.642	426.88
375.868	430.88
376.094	437.88
376.319	425.88
376.545	428.88
376.771	424.88
376.997	412.88
377.222	431.88
377.448	434.88
377.674	414.88
377.899	424.88
378.125	424.88
378.35	435.88
378.576	421.88
378.802	418.88
379.027	418.88
379.253	416.88
379.478	412.88
379.704	428.88
379.929	447.88
380.155	412.88
380.38	421.88
380.606	436.88
380.831	426.88
381.057	426.88
381.282	434.88
381.507	421.88
381.733	439.88
381.958	433.88
382.184	427.88
382.409	450.88
382.634	443.88
382.86	444.88
383.085	434.88
383.31	432.88
383.535	456.88
383.761	434.88
383.986	423.88
384.211	442.88
384.436	446.88
384.662	450.88
384.887	452.88
385.112	447.88
385.337	451.88
385.562	452.88
385.787	448.88
386.013	474.88
386.238	472.88
386.463	471.88
386.688	467.88
386.913	472.88
387.138	463.88
387.363	470.88
387.588	451.88
387.813	474.88
388.038	469.88
388.263	460.88
388.488	440.88
388.713	451.88
388.938	461.88
389.163	477.88
389.387	463.88
389.612	467.88
389.837	477.88
390.062	452.88
390.287	446.88
390.512	452.88
390.736	456.88
390.961	481.88
391.186	479.88
391.411	463.88
391.636	466.88
391.86	471.88
392.085	462.88
392.31	468.88
392.534	453.88
392.759	456.88
392.984	462.88
393.208	461.88
393.433	458.88
393.658	475.88
393.882	465.88
394.107	450.88
394.331	469.88
394.556	473.88
394.78	462.88
395.005	479.88
395.229	466.88
395.454	472.88
395.678	457.88
395.903	493.88
396.127	490.88
396.352	550.88
396.576	504.88
396.801	471.88
397.025	491.88
397.249	491.88
397.474	460.88
397.698	494.88
397.922	496.88
398.147	530.88
398.371	513.88
398.595	512.88
398.82	526.88
399.044	538.88
399.268	538.88
399.492	546.88
399.717	579.88
399.941	584.88
400.165	621.88
400.389	671.88
400.613	605.88
400.837	555.88
401.062	520.88
401.286	517.88
401.51	531.88
401.734	526.88
401.958	526.88
402.182	531.88
402.406	550.88
402.63	540.88
402.854	548.88
403.078	543.88
403.302	549.88
403.526	556.88
403.75	553.88
403.974	549.88
404.198	548.88
404.422	554.88
404.645	568.88
404.869	562.88
405.093	557.88
405.317	666.88
405.541	713.88
405.765	644.88
405.988	601.88
406.212	622.88
406.436	647.88
406.66	657.88
406.883	619.88
407.107	622.88
407.331	666.88
407.555	761.88
407.778	751.88
408.002	682.88
408.226	632.88
408.449	620.88
408.673	621.88
408.896	672.88
409.12	700.88
409.344	648.88
409.567	596.88
409.791	598.88
410.014	562.88
410.238	571.88
410.461	570.88
410.685	590.88
410.908	597.88
411.132	631.88
411.355	663.88
411.578	637.88
411.802	568.88
412.025	582.88
412.249	576.88
412.472	594.88
412.695	619.88
412.919	635.88
413.142	577.88
413.365	566.88
413.589	551.88
413.812	551.88
414.035	538.88
414.258	542.88
414.482	542.88
414.705	533.88
414.928	519.88
415.151	521.88
415.374	529.88
415.597	527.88
415.821	518.88
416.044	543.88
416.267	550.88
416.49	528.88
416.713	543.88
416.936	546.88
417.159	528.88
417.382	514.88
417.605	536.88
417.828	551.88
418.051	560.88
418.274	550.88
418.497	558.88
418.72	562.88
418.943	540.88
419.166	541.88
419.389	573.88
419.611	575.88
419.834	562.88
420.057	569.88
420.28	592.88
420.503	565.88
420.726	557.88
420.948	596.88
421.171	642.88
421.394	682.88
421.617	621.88
421.839	592.88
422.062	595.88
422.285	597.88
422.507	676.88
422.73	750.88
422.953	735.88
423.175	640.88
423.398	582.88
423.621	595.88
423.843	653.88
424.066	638.88
424.288	652.88
424.511	644.88
424.733	716.88
424.956	790.88
425.178	798.88
425.401	779.88
425.623	822.88
425.846	688.88
426.068	637.88
426.291	619.88
426.513	626.88
426.735	640.88
426.958	705.88
427.18	799.88
427.402	923.88
427.625	1000.88
427.847	951.88
428.069	823.88
428.292	721.88
428.514	648.88
428.736	603.88
428.958	620.88
429.181	611.88
429.403	568.88
429.625	585.88
429.847	643.88
430.069	718.88
430.292	726.88
430.514	627.88
430.736	590.88
430.958	581.88
431.18	562.88
431.402	559.88
431.624	557.88
431.846	534.88
432.068	535.88
432.29	532.88
432.512	550.88
432.734	558.88
432.956	566.88
433.178	564.88
433.4	558.88
433.622	569.88
433.844	551.88
434.066	550.88
434.287	546.88
434.509	562.88
434.731	554.88
434.953	570.88
435.175	584.88
435.397	627.88
435.618	646.88
435.84	683.88
436.062	786.88
436.284	922.88
436.505	737.88
436.727	667.88
436.949	622.88
437.17	605.88
437.392	603.88
437.614	597.88
437.835	654.88
438.057	796.88
438.278	911.88
438.5	879.88
438.721	966.88
438.943	926.88
439.165	738.88
439.386	680.88
439.608	671.88
439.829	666.88
440.05	703.88
440.272	761.88
440.493	718.88
440.715	635.88
440.936	644.88
441.158	598.88
441.379	584.88
441.6	603.88
441.822	645.88
442.043	691.88
442.264	774.88
442.486	854.88
442.707	714.88
442.928	649.88
443.149	661.88
443.371	699.88
443.592	735.88
443.813	838.88
444.034	894.88
444.255	764.88
444.476	662.88
444.698	639.88
444.919	644.88
445.14	740.88
445.361	683.88
445.582	707.88
445.803	769.88
446.024	873.88
446.245	922.88
446.466	825.88
446.687	706.88
446.908	660.88
447.129	611.88
447.35	595.88
447.571	614.88
447.792	582.88
448.013	615.88
448.234	635.88
448.455	701.88
448.675	798.88
448.896	946.88
449.117	823.88
449.338	778.88
449.559	877.88
449.779	998.88
450	794.88
450.221	678.88
450.442	636.88
450.662	599.88
450.883	626.88
451.104	635.88
451.324	586.88
451.545	596.88
451.766	564.88
451.986	568.88
452.207	512.88
452.428	538.88
452.648	556.88
452.869	535.88
453.089	565.88
453.31	562.88
453.53	543.88
453.751	539.88
453.971	534.88
454.192	570.88
454.412	560.88
454.633	538.88
454.853	544.88
455.073	551.88
455.294	598.88
455.514	651.88
455.734	637.88
455.955	529.88
456.175	505.88
456.395	506.88
456.616	491.88
456.836	489.88
457.056	491.88
457.276	483.88
457.497	504.88
457.717	503.88
457.937	500.88
458.157	538.88
458.377	538.88
458.598	536.88
458.818	610.88
459.038	760.88
459.258	741.88
459.478	613.88
459.698	558.88
459.918	542.88
460.138	551.88
460.358	557.88
460.578	539.88
460.798	541.88
461.018	538.88
461.238	526.88
461.458	540.88
461.678	547.88
461.898	541.88
462.118	528.88
462.338	536.88
462.558	566.88
462.777	557.88
462.997	579.88
463.217	575.88
463.437	578.88
463.657	567.88
463.876	579.88
464.096	576.88
464.316	566.88
464.536	583.88
464.755	568.88
464.975	582.88
465.195	642.88
465.414	782.88
465.634	705.88
465.854	607.88
466.073	590.88
466.293	542.88
466.512	539.88
466.732	556.88
466.951	546.88
467.171	519.88
467.391	533.88
467.61	558.88
467.829	555.88
468.049	566.88
468.268	549.88
468.488	533.88
468.707	543.88
468.927	504.88
469.146	537.88
469.365	538.88
469.585	533.88
469.804	549.88
470.023	559.88
470.243	547.88
470.462	548.88
470.681	599.88
470.901	581.88
471.12	580.88
471.339	551.88
471.558	548.88
471.777	542.88
471.997	534.88
472.216	568.88
472.435	591.88
472.654	573.88
472.873	548.88
473.092	554.88
473.311	529.88
473.53	547.88
473.749	575.88
473.968	614.88
474.187	776.88
474.406	777.88
474.625	649.88
474.844	589.88
475.063	566.88
475.282	556.88
475.501	562.88
475.72	563.88
475.939	564.88
476.158	567.88
476.377	589.88
476.596	584.88
476.814	586.88
477.033	580.88
477.252	584.88
477.471	584.88
477.69	591.88
477.908	612.88
478.127	592.88
478.346	594.88
478.564	621.88
478.783	615.88
479.002	610.88
479.22	626.88
479.439	634.88
479.658	660.88
479.876	657.88
480.095	651.88
480.313	715.88
480.532	676.88
480.751	670.88
480.969	679.88
481.188	728.88
481.406	809.88
481.624	707.88
481.843	707.88
482.061	671.88
482.28	683.88
482.498	650.88
482.717	645.88
482.935	642.88
483.153	636.88
483.372	667.88
483.59	660.88
483.808	645.88
484.027	655.88
484.245	650.88
484.463	671.88
484.681	671.88
484.9	681.88
485.118	678.88
485.336	680.88
485.554	673.88
485.772	699.88
485.99	686.88
486.209	674.88
486.427	695.88
486.645	700.88
486.863	735.88
487.081	755.88
487.299	723.88
487.517	701.88
487.735	724.88
487.953	712.88
488.171	723.88
488.389	710.88
488.607	727.88
488.825	707.88
489.043	747.88
489.261	732.88
489.479	726.88
489.696	744.88
489.914	738.88
490.132	789.88
490.35	782.88
490.568	758.88
490.786	772.88
491.003	791.88
491.221	781.88
491.439	811.88
491.657	833.88
491.874	852.88
492.092	816.88
492.31	848.88
492.527	862.88
492.745	840.88
492.963	853.88
493.18	862.88
493.398	872.88
493.615	858.88
493.833	883.88
494.05	876.88
494.268	895.88
494.485	861.88
494.703	865.88
494.92	880.88
495.138	878.88
495.355	854.88
495.573	855.88
495.79	875.88
496.008	889.88
496.225	876.88
496.442	877.88
496.66	871.88
496.877	865.88
497.094	875.88
497.312	869.88
497.529	893.88
497.746	877.88
497.963	900.88
498.181	912.88
498.398	910.88
498.615	922.88
498.832	942.88
499.049	940.88
499.267	955.88
499.484	971.88
499.701	1006.88
499.918	966.88
500.135	1029.88
500.352	1046.88
500.569	1028.88
500.786	1060.88
501.003	1050.88
501.22	1052.88
501.437	1027.88
