Data from 1971.PennyLincolnUp.Lamp.En5.5.200Scan.071719.P1._HRD10591_15-20-47-841.txt Node
Date: Thu Jul 18 15:20:47 EDT 2019
User: cochatt
Spectrometer: HR+D1059
Trigger mode: 1
Integration Time (sec): 1.000000E-1
Scans to average: 1
Electric dark correction enabled: true
Nonlinearity correction enabled: false
Boxcar width: 0
XAxis mode: Wavelengths
Number of Pixels in Spectrum: 2048
>>>>>Begin Spectral Data<<<<<
223.165	-11.56
223.4	-11.56
223.635	-11.56
223.869	-11.56
224.104	-9.56
224.338	-17.56
224.573	-20.56
224.808	-11.56
225.042	-8.56
225.277	3.44
225.511	-0.56
225.746	1.44
225.98	-1.56
226.215	11.44
226.449	20.44
226.683	20.44
226.918	21.44
227.152	14.44
227.387	40.44
227.621	50.44
227.856	41.44
228.09	50.44
228.324	46.44
228.559	54.44
228.793	68.44
229.027	90.44
229.262	100.44
229.496	123.44
229.73	132.44
229.964	147.44
230.199	136.44
230.433	108.44
230.667	110.44
230.901	111.44
231.136	118.44
231.37	111.44
231.604	100.44
231.838	114.44
232.072	103.44
232.306	123.44
232.541	112.44
232.775	114.44
233.009	120.44
233.243	114.44
233.477	120.44
233.711	122.44
233.945	101.44
234.179	106.44
234.413	109.44
234.647	100.44
234.881	115.44
235.115	132.44
235.349	123.44
235.583	110.44
235.817	132.44
236.051	138.44
236.285	134.44
236.519	123.44
236.753	151.44
236.987	150.44
237.221	165.44
237.455	221.44
237.689	186.44
237.922	143.44
238.156	131.44
238.39	128.44
238.624	101.44
238.858	124.44
239.091	142.44
239.325	138.44
239.559	130.44
239.793	117.44
240.027	147.44
240.26	150.44
240.494	164.44
240.728	157.44
240.961	156.44
241.195	142.44
241.429	137.44
241.662	142.44
241.896	155.44
242.13	132.44
242.363	138.44
242.597	135.44
242.83	141.44
243.064	136.44
243.298	123.44
243.531	136.44
243.765	146.44
243.998	131.44
244.232	141.44
244.465	153.44
244.699	144.44
244.932	146.44
245.166	138.44
245.399	138.44
245.633	155.44
245.866	160.44
246.099	153.44
246.333	161.44
246.566	154.44
246.8	172.44
247.033	158.44
247.266	155.44
247.5	159.44
247.733	156.44
247.966	164.44
248.2	174.44
248.433	164.44
248.666	192.44
248.899	212.44
249.133	194.44
249.366	204.44
249.599	198.44
249.832	172.44
250.066	192.44
250.299	189.44
250.532	191.44
250.765	211.44
250.998	211.44
251.231	236.44
251.465	238.44
251.698	211.44
251.931	204.44
252.164	202.44
252.397	202.44
252.63	210.44
252.863	196.44
253.096	235.44
253.329	252.44
253.562	243.44
253.795	218.44
254.028	217.44
254.261	205.44
254.494	232.44
254.727	275.44
254.96	276.44
255.193	267.44
255.426	248.44
255.659	246.44
255.892	259.44
256.124	251.44
256.357	250.44
256.59	235.44
256.823	218.44
257.056	206.44
257.289	214.44
257.521	216.44
257.754	212.44
257.987	224.44
258.22	229.44
258.452	213.44
258.685	213.44
258.918	212.44
259.151	224.44
259.383	231.44
259.616	215.44
259.849	230.44
260.081	239.44
260.314	271.44
260.547	258.44
260.779	267.44
261.012	234.44
261.244	235.44
261.477	242.44
261.71	235.44
261.942	220.44
262.175	260.44
262.407	240.44
262.64	232.44
262.872	229.44
263.105	226.44
263.337	227.44
263.57	228.44
263.802	219.44
264.035	196.44
264.267	215.44
264.499	233.44
264.732	237.44
264.964	221.44
265.197	223.44
265.429	226.44
265.661	221.44
265.894	225.44
266.126	211.44
266.358	225.44
266.591	230.44
266.823	230.44
267.055	248.44
267.287	246.44
267.52	254.44
267.752	243.44
267.984	237.44
268.216	230.44
268.448	223.44
268.681	254.44
268.913	266.44
269.145	278.44
269.377	284.44
269.609	278.44
269.841	285.44
270.073	303.44
270.306	310.44
270.538	341.44
270.77	342.44
271.002	322.44
271.234	308.44
271.466	324.44
271.698	310.44
271.93	326.44
272.162	324.44
272.394	332.44
272.626	324.44
272.858	315.44
273.09	283.44
273.322	288.44
273.553	304.44
273.785	281.44
274.017	273.44
274.249	290.44
274.481	283.44
274.713	285.44
274.945	289.44
275.176	282.44
275.408	285.44
275.64	292.44
275.872	292.44
276.104	305.44
276.335	284.44
276.567	294.44
276.799	293.44
277.031	333.44
277.262	328.44
277.494	328.44
277.726	299.44
277.957	310.44
278.189	284.44
278.421	287.44
278.652	275.44
278.884	272.44
279.115	272.44
279.347	277.44
279.579	284.44
279.81	272.44
280.042	259.44
280.273	289.44
280.505	272.44
280.736	286.44
280.968	286.44
281.199	285.44
281.431	291.44
281.662	264.44
281.894	284.44
282.125	270.44
282.356	310.44
282.588	306.44
282.819	318.44
283.051	298.44
283.282	284.44
283.513	299.44
283.745	300.44
283.976	298.44
284.207	310.44
284.439	283.44
284.67	305.44
284.901	292.44
285.132	293.44
285.364	282.44
285.595	294.44
285.826	295.44
286.057	295.44
286.288	284.44
286.52	287.44
286.751	312.44
286.982	306.44
287.213	295.44
287.444	297.44
287.675	313.44
287.906	303.44
288.138	310.44
288.369	326.44
288.6	319.44
288.831	311.44
289.062	322.44
289.293	278.44
289.524	300.44
289.755	301.44
289.986	315.44
290.217	301.44
290.448	284.44
290.679	290.44
290.91	315.44
291.141	300.44
291.371	303.44
291.602	293.44
291.833	317.44
292.064	304.44
292.295	320.44
292.526	315.44
292.757	310.44
292.987	316.44
293.218	310.44
293.449	308.44
293.68	313.44
293.91	291.44
294.141	287.44
294.372	311.44
294.603	303.44
294.833	291.44
295.064	285.44
295.295	298.44
295.525	304.44
295.756	314.44
295.987	302.44
296.217	348.44
296.448	341.44
296.679	310.44
296.909	311.44
297.14	309.44
297.37	330.44
297.601	317.44
297.831	316.44
298.062	317.44
298.292	300.44
298.523	298.44
298.753	317.44
298.984	317.44
299.214	309.44
299.445	325.44
299.675	319.44
299.905	320.44
300.136	333.44
300.366	316.44
300.597	314.44
300.827	326.44
301.057	316.44
301.288	336.44
301.518	330.44
301.748	347.44
301.979	345.44
302.209	333.44
302.439	326.44
302.669	327.44
302.9	345.44
303.13	352.44
303.36	335.44
303.59	339.44
303.82	371.44
304.051	361.44
304.281	367.44
304.511	339.44
304.741	326.44
304.971	329.44
305.201	345.44
305.431	338.44
305.661	336.44
305.891	340.44
306.121	332.44
306.352	356.44
306.582	358.44
306.812	348.44
307.042	350.44
307.272	343.44
307.502	349.44
307.731	347.44
307.961	340.44
308.191	338.44
308.421	343.44
308.651	370.44
308.881	330.44
309.111	352.44
309.341	365.44
309.571	365.44
309.8	376.44
310.03	374.44
310.26	368.44
310.49	388.44
310.72	398.44
310.949	393.44
311.179	415.44
311.409	391.44
311.639	390.44
311.868	409.44
312.098	403.44
312.328	391.44
312.557	400.44
312.787	415.44
313.017	403.44
313.246	413.44
313.476	395.44
313.706	375.44
313.935	385.44
314.165	394.44
314.394	404.44
314.624	418.44
314.853	394.44
315.083	399.44
315.312	389.44
315.542	376.44
315.771	383.44
316.001	384.44
316.23	388.44
316.46	398.44
316.689	397.44
316.919	389.44
317.148	382.44
317.377	424.44
317.607	400.44
317.836	399.44
318.065	402.44
318.295	392.44
318.524	395.44
318.753	397.44
318.983	388.44
319.212	400.44
319.441	399.44
319.67	387.44
319.9	384.44
320.129	378.44
320.358	394.44
320.587	407.44
320.816	416.44
321.046	412.44
321.275	399.44
321.504	412.44
321.733	412.44
321.962	416.44
322.191	429.44
322.42	447.44
322.649	455.44
322.878	472.44
323.108	470.44
323.337	493.44
323.566	532.44
323.795	554.44
324.024	600.44
324.253	743.44
324.482	1026.44
324.71	1508.44
324.939	2071.44
325.168	1747.44
325.397	923.44
325.626	650.44
325.855	548.44
326.084	544.44
326.313	501.44
326.542	523.44
326.77	583.44
326.999	679.44
327.228	914.44
327.457	1348.44
327.686	1492.44
327.914	1027.44
328.143	662.44
328.372	618.44
328.6	583.44
328.829	548.44
329.058	578.44
329.287	584.44
329.515	541.44
329.744	508.44
329.972	501.44
330.201	508.44
330.43	553.44
330.658	579.44
330.887	628.44
331.115	551.44
331.344	537.44
331.572	505.44
331.801	495.44
332.03	481.44
332.258	447.44
332.486	478.44
332.715	443.44
332.943	453.44
333.172	460.44
333.4	453.44
333.629	481.44
333.857	485.44
334.085	488.44
334.314	499.44
334.542	543.44
334.771	523.44
334.999	486.44
335.227	480.44
335.455	477.44
335.684	480.44
335.912	445.44
336.14	463.44
336.369	456.44
336.597	464.44
336.825	447.44
337.053	411.44
337.281	439.44
337.51	438.44
337.738	448.44
337.966	435.44
338.194	445.44
338.422	438.44
338.65	440.44
338.878	445.44
339.106	437.44
339.334	443.44
339.562	439.44
339.79	406.44
340.018	424.44
340.246	443.44
340.474	436.44
340.702	439.44
340.93	420.44
341.158	420.44
341.386	418.44
341.614	438.44
341.842	426.44
342.07	414.44
342.298	418.44
342.526	431.44
342.754	418.44
342.981	424.44
343.209	411.44
343.437	440.44
343.665	423.44
343.893	411.44
344.12	425.44
344.348	418.44
344.576	413.44
344.804	437.44
345.031	444.44
345.259	444.44
345.487	456.44
345.714	418.44
345.942	416.44
346.17	401.44
346.397	403.44
346.625	419.44
346.853	412.44
347.08	429.44
347.308	410.44
347.535	406.44
347.763	423.44
347.99	397.44
348.218	418.44
348.445	417.44
348.673	418.44
348.9	415.44
349.128	410.44
349.355	399.44
349.583	412.44
349.81	396.44
350.037	395.44
350.265	378.44
350.492	402.44
350.72	397.44
350.947	396.44
351.174	427.44
351.402	420.44
351.629	401.44
351.856	425.44
352.083	404.44
352.311	415.44
352.538	421.44
352.765	401.44
352.992	394.44
353.22	391.44
353.447	408.44
353.674	391.44
353.901	374.44
354.128	391.44
354.355	388.44
354.583	372.44
354.81	367.44
355.037	380.44
355.264	380.44
355.491	359.44
355.718	370.44
355.945	371.44
356.172	367.44
356.399	373.44
356.626	386.44
356.853	375.44
357.08	365.44
357.307	372.44
357.534	382.44
357.761	358.44
357.988	376.44
358.215	380.44
358.441	393.44
358.668	374.44
358.895	363.44
359.122	394.44
359.349	395.44
359.576	403.44
359.802	425.44
360.029	424.44
360.256	428.44
360.483	416.44
360.709	393.44
360.936	378.44
361.163	382.44
361.39	410.44
361.616	383.44
361.843	394.44
362.07	386.44
362.296	411.44
362.523	390.44
362.749	388.44
362.976	382.44
363.203	380.44
363.429	378.44
363.656	377.44
363.882	377.44
364.109	373.44
364.335	372.44
364.562	388.44
364.788	366.44
365.015	372.44
365.241	366.44
365.468	375.44
365.694	365.44
365.92	374.44
366.147	373.44
366.373	376.44
366.599	355.44
366.826	359.44
367.052	392.44
367.278	375.44
367.505	374.44
367.731	355.44
367.957	359.44
368.184	368.44
368.41	376.44
368.636	372.44
368.862	367.44
369.089	386.44
369.315	390.44
369.541	380.44
369.767	383.44
369.993	362.44
370.219	355.44
370.445	350.44
370.672	371.44
370.898	374.44
371.124	383.44
371.35	352.44
371.576	360.44
371.802	346.44
372.028	356.44
372.254	365.44
372.48	363.44
372.706	350.44
372.932	362.44
373.158	368.44
373.384	371.44
373.61	370.44
373.835	365.44
374.061	357.44
374.287	382.44
374.513	348.44
374.739	364.44
374.965	383.44
375.191	359.44
375.416	359.44
375.642	367.44
375.868	377.44
376.094	375.44
376.319	350.44
376.545	368.44
376.771	348.44
376.997	353.44
377.222	350.44
377.448	334.44
377.674	373.44
377.899	368.44
378.125	354.44
378.35	331.44
378.576	349.44
378.802	346.44
379.027	365.44
379.253	373.44
379.478	351.44
379.704	342.44
379.929	352.44
380.155	366.44
380.38	348.44
380.606	358.44
380.831	363.44
381.057	345.44
381.282	379.44
381.507	334.44
381.733	360.44
381.958	353.44
382.184	363.44
382.409	375.44
382.634	367.44
382.86	350.44
383.085	357.44
383.31	356.44
383.535	368.44
383.761	351.44
383.986	370.44
384.211	366.44
384.436	344.44
384.662	378.44
384.887	364.44
385.112	379.44
385.337	370.44
385.562	375.44
385.787	382.44
386.013	377.44
386.238	382.44
386.463	391.44
386.688	361.44
386.913	392.44
387.138	383.44
387.363	366.44
387.588	377.44
387.813	384.44
388.038	366.44
388.263	364.44
388.488	372.44
388.713	401.44
388.938	382.44
389.163	383.44
389.387	381.44
389.612	367.44
389.837	366.44
390.062	353.44
390.287	373.44
390.512	377.44
390.736	350.44
390.961	380.44
391.186	382.44
391.411	384.44
391.636	378.44
391.86	388.44
392.085	385.44
392.31	382.44
392.534	367.44
392.759	364.44
392.984	361.44
393.208	370.44
393.433	378.44
393.658	381.44
393.882	366.44
394.107	376.44
394.331	362.44
394.556	379.44
394.78	373.44
395.005	350.44
395.229	364.44
395.454	384.44
395.678	382.44
395.903	407.44
396.127	403.44
396.352	411.44
396.576	363.44
396.801	386.44
397.025	384.44
397.249	407.44
397.474	375.44
397.698	394.44
397.922	404.44
398.147	395.44
398.371	430.44
398.595	413.44
398.82	426.44
399.044	421.44
399.268	417.44
399.492	450.44
399.717	483.44
399.941	507.44
400.165	512.44
400.389	528.44
400.613	480.44
400.837	447.44
401.062	426.44
401.286	420.44
401.51	403.44
401.734	421.44
401.958	428.44
402.182	420.44
402.406	442.44
402.63	426.44
402.854	425.44
403.078	431.44
403.302	409.44
403.526	422.44
403.75	423.44
403.974	434.44
404.198	406.44
404.422	424.44
404.645	430.44
404.869	440.44
405.093	459.44
405.317	512.44
405.541	517.44
405.765	446.44
405.988	453.44
406.212	466.44
406.436	466.44
406.66	475.44
406.883	490.44
407.107	502.44
407.331	501.44
407.555	551.44
407.778	538.44
408.002	531.44
408.226	490.44
408.449	462.44
408.673	467.44
408.896	491.44
409.12	536.44
409.344	493.44
409.567	468.44
409.791	451.44
410.014	425.44
410.238	431.44
410.461	427.44
410.685	440.44
410.908	458.44
411.132	488.44
411.355	513.44
411.578	471.44
411.802	432.44
412.025	428.44
412.249	435.44
412.472	451.44
412.695	493.44
412.919	479.44
413.142	419.44
413.365	414.44
413.589	418.44
413.812	406.44
414.035	417.44
414.258	408.44
414.482	398.44
414.705	419.44
414.928	413.44
415.151	410.44
415.374	411.44
415.597	385.44
415.821	402.44
416.044	410.44
416.267	401.44
416.49	421.44
416.713	395.44
416.936	391.44
417.159	412.44
417.382	407.44
417.605	406.44
417.828	429.44
418.051	419.44
418.274	437.44
418.497	399.44
418.72	434.44
418.943	406.44
419.166	413.44
419.389	439.44
419.611	392.44
419.834	429.44
420.057	414.44
420.28	423.44
420.503	419.44
420.726	421.44
420.948	448.44
421.171	452.44
421.394	489.44
421.617	448.44
421.839	434.44
422.062	426.44
422.285	461.44
422.507	502.44
422.73	570.44
422.953	533.44
423.175	447.44
423.398	459.44
423.621	447.44
423.843	458.44
424.066	448.44
424.288	445.44
424.511	484.44
424.733	522.44
424.956	602.44
425.178	565.44
425.401	549.44
425.623	574.44
425.846	504.44
426.068	478.44
426.291	459.44
426.513	461.44
426.735	498.44
426.958	478.44
427.18	563.44
427.402	690.44
427.625	745.44
427.847	655.44
428.069	561.44
428.292	500.44
428.514	453.44
428.736	438.44
428.958	429.44
429.181	416.44
429.403	437.44
429.625	443.44
429.847	442.44
430.069	518.44
430.292	530.44
430.514	452.44
430.736	416.44
430.958	427.44
431.18	384.44
431.402	413.44
431.624	404.44
431.846	380.44
432.068	391.44
432.29	406.44
432.512	390.44
432.734	408.44
432.956	418.44
433.178	416.44
433.4	397.44
433.622	429.44
433.844	397.44
434.066	395.44
434.287	404.44
434.509	407.44
434.731	406.44
434.953	419.44
435.175	422.44
435.397	435.44
435.618	459.44
435.84	484.44
436.062	562.44
436.284	615.44
436.505	540.44
436.727	452.44
436.949	435.44
437.17	427.44
437.392	420.44
437.614	431.44
437.835	477.44
438.057	532.44
438.278	620.44
438.5	649.44
438.721	684.44
438.943	629.44
439.165	532.44
439.386	476.44
439.608	459.44
439.829	460.44
440.05	479.44
440.272	542.44
440.493	487.44
440.715	469.44
440.936	446.44
441.158	434.44
441.379	440.44
441.6	427.44
441.822	448.44
442.043	485.44
442.264	564.44
442.486	599.44
442.707	520.44
442.928	483.44
443.149	470.44
443.371	495.44
443.592	554.44
443.813	626.44
444.034	642.44
444.255	532.44
444.476	493.44
444.698	444.44
444.919	444.44
445.14	548.44
445.361	487.44
445.582	495.44
445.803	555.44
446.024	647.44
446.245	634.44
446.466	588.44
446.687	490.44
446.908	459.44
447.129	416.44
447.35	432.44
447.571	409.44
447.792	425.44
448.013	425.44
448.234	433.44
448.455	499.44
448.675	581.44
448.896	668.44
449.117	581.44
449.338	555.44
449.559	629.44
449.779	694.44
450	573.44
450.221	482.44
450.442	431.44
450.662	408.44
450.883	422.44
451.104	440.44
451.324	410.44
451.545	397.44
451.766	398.44
451.986	393.44
452.207	378.44
452.428	360.44
452.648	358.44
452.869	377.44
453.089	384.44
453.31	383.44
453.53	370.44
453.751	376.44
453.971	367.44
454.192	378.44
454.412	388.44
454.633	384.44
454.853	358.44
455.073	388.44
455.294	421.44
455.514	483.44
455.734	463.44
455.955	367.44
456.175	356.44
456.395	346.44
456.616	355.44
456.836	363.44
457.056	351.44
457.276	343.44
457.497	352.44
457.717	366.44
457.937	372.44
458.157	360.44
458.377	362.44
458.598	393.44
458.818	442.44
459.038	503.44
459.258	490.44
459.478	422.44
459.698	396.44
459.918	391.44
460.138	394.44
460.358	378.44
460.578	380.44
460.798	381.44
461.018	392.44
461.238	401.44
461.458	378.44
461.678	389.44
461.898	386.44
462.118	384.44
462.338	399.44
462.558	399.44
462.777	410.44
462.997	427.44
463.217	441.44
463.437	430.44
463.657	418.44
463.876	414.44
464.096	397.44
464.316	408.44
464.536	418.44
464.755	404.44
464.975	429.44
465.195	450.44
465.414	503.44
465.634	466.44
465.854	414.44
466.073	403.44
466.293	412.44
466.512	387.44
466.732	373.44
466.951	380.44
467.171	379.44
467.391	376.44
467.61	374.44
467.829	383.44
468.049	386.44
468.268	382.44
468.488	407.44
468.707	366.44
468.927	365.44
469.146	360.44
469.365	370.44
469.585	368.44
469.804	386.44
470.023	382.44
470.243	397.44
470.462	380.44
470.681	380.44
470.901	401.44
471.12	385.44
471.339	398.44
471.558	378.44
471.777	383.44
471.997	389.44
472.216	397.44
472.435	396.44
472.654	391.44
472.873	374.44
473.092	360.44
473.311	376.44
473.53	391.44
473.749	382.44
473.968	435.44
474.187	537.44
474.406	533.44
474.625	436.44
474.844	414.44
475.063	390.44
475.282	399.44
475.501	395.44
475.72	392.44
475.939	400.44
476.158	375.44
476.377	373.44
476.596	393.44
476.814	398.44
477.033	387.44
477.252	404.44
477.471	419.44
477.69	410.44
477.908	403.44
478.127	408.44
478.346	423.44
478.564	436.44
478.783	434.44
479.002	423.44
479.22	437.44
479.439	462.44
479.658	441.44
479.876	464.44
480.095	461.44
480.313	494.44
480.532	455.44
480.751	450.44
480.969	473.44
481.188	516.44
481.406	542.44
481.624	488.44
481.843	447.44
482.061	442.44
482.28	462.44
482.498	452.44
482.717	425.44
482.935	436.44
483.153	453.44
483.372	430.44
483.59	439.44
483.808	444.44
484.027	455.44
484.245	432.44
484.463	457.44
484.681	470.44
484.9	456.44
485.118	464.44
485.336	443.44
485.554	434.44
485.772	454.44
485.99	461.44
486.209	449.44
486.427	460.44
486.645	478.44
486.863	469.44
487.081	493.44
487.299	488.44
487.517	480.44
487.735	487.44
487.953	493.44
488.171	523.44
488.389	488.44
488.607	475.44
488.825	487.44
489.043	475.44
489.261	503.44
489.479	478.44
489.696	480.44
489.914	492.44
490.132	510.44
490.35	512.44
490.568	482.44
490.786	504.44
491.003	517.44
491.221	539.44
491.439	542.44
491.657	545.44
491.874	551.44
492.092	555.44
492.31	564.44
492.527	552.44
492.745	561.44
492.963	534.44
493.18	581.44
493.398	561.44
493.615	577.44
493.833	562.44
494.05	555.44
494.268	554.44
494.485	565.44
494.703	559.44
494.92	592.44
495.138	568.44
495.355	562.44
495.573	581.44
495.79	589.44
496.008	577.44
496.225	575.44
496.442	574.44
496.66	575.44
496.877	559.44
497.094	579.44
497.312	596.44
497.529	583.44
497.746	596.44
497.963	581.44
498.181	615.44
498.398	610.44
498.615	611.44
498.832	620.44
499.049	644.44
499.267	643.44
499.484	675.44
499.701	693.44
499.918	684.44
500.135	710.44
500.352	712.44
500.569	757.44
500.786	754.44
501.003	747.44
501.22	718.44
501.437	713.44
501.654	694.44
501.871	689.44
