Data from 1971.PennyLincolnUp.Lamp.En5.5.200Scan.071719.P1.Scan 2. Changed Angle._HRD10591_15-22-56-841.txt Node
Date: Thu Jul 18 15:22:56 EDT 2019
User: cochatt
Spectrometer: HR+D1059
Trigger mode: 1
Integration Time (sec): 1.000000E-1
Scans to average: 1
Electric dark correction enabled: true
Nonlinearity correction enabled: false
Boxcar width: 0
XAxis mode: Wavelengths
Number of Pixels in Spectrum: 2048
>>>>>Begin Spectral Data<<<<<
223.165	-7.56
223.4	-7.56
223.635	-7.56
223.869	-15.56
224.104	-5.56
224.338	-18.56
224.573	-23.56
224.808	-8.56
225.042	3.44
225.277	-6.56
225.511	4.44
225.746	5.44
225.98	5.44
226.215	23.44
226.449	-9.56
226.683	12.44
226.918	20.44
227.152	20.44
227.387	25.44
227.621	44.44
227.856	35.44
228.09	44.44
228.324	41.44
228.559	53.44
228.793	77.44
229.027	105.44
229.262	119.44
229.496	126.44
229.73	131.44
229.964	156.44
230.199	143.44
230.433	105.44
230.667	114.44
230.901	97.44
231.136	99.44
231.37	103.44
231.604	119.44
231.838	119.44
232.072	107.44
232.306	110.44
232.541	112.44
232.775	110.44
233.009	101.44
233.243	106.44
233.477	119.44
233.711	128.44
233.945	114.44
234.179	124.44
234.413	107.44
234.647	117.44
234.881	100.44
235.115	113.44
235.349	122.44
235.583	121.44
235.817	109.44
236.051	103.44
236.285	122.44
236.519	126.44
236.753	142.44
236.987	145.44
237.221	181.44
237.455	235.44
237.689	189.44
237.922	162.44
238.156	136.44
238.39	143.44
238.624	132.44
238.858	134.44
239.091	101.44
239.325	120.44
239.559	101.44
239.793	118.44
240.027	132.44
240.26	145.44
240.494	145.44
240.728	148.44
240.961	153.44
241.195	136.44
241.429	133.44
241.662	131.44
241.896	132.44
242.13	141.44
242.363	129.44
242.597	126.44
242.83	140.44
243.064	139.44
243.298	150.44
243.531	139.44
243.765	148.44
243.998	130.44
244.232	130.44
244.465	147.44
244.699	132.44
244.932	146.44
245.166	143.44
245.399	151.44
245.633	151.44
245.866	149.44
246.099	139.44
246.333	136.44
246.566	145.44
246.8	162.44
247.033	162.44
247.266	159.44
247.5	164.44
247.733	154.44
247.966	168.44
248.2	170.44
248.433	183.44
248.666	165.44
248.899	196.44
249.133	204.44
249.366	214.44
249.599	211.44
249.832	170.44
250.066	168.44
250.299	189.44
250.532	194.44
250.765	192.44
250.998	219.44
251.231	219.44
251.465	214.44
251.698	210.44
251.931	211.44
252.164	191.44
252.397	190.44
252.63	198.44
252.863	212.44
253.096	216.44
253.329	223.44
253.562	213.44
253.795	234.44
254.028	232.44
254.261	223.44
254.494	240.44
254.727	274.44
254.96	280.44
255.193	241.44
255.426	244.44
255.659	237.44
255.892	243.44
256.124	221.44
256.357	238.44
256.59	228.44
256.823	195.44
257.056	193.44
257.289	206.44
257.521	203.44
257.754	198.44
257.987	214.44
258.22	199.44
258.452	189.44
258.685	198.44
258.918	213.44
259.151	209.44
259.383	207.44
259.616	207.44
259.849	246.44
260.081	228.44
260.314	232.44
260.547	256.44
260.779	229.44
261.012	214.44
261.244	219.44
261.477	229.44
261.71	209.44
261.942	208.44
262.175	220.44
262.407	216.44
262.64	210.44
262.872	204.44
263.105	199.44
263.337	194.44
263.57	193.44
263.802	209.44
264.035	201.44
264.267	202.44
264.499	195.44
264.732	195.44
264.964	210.44
265.197	194.44
265.429	215.44
265.661	190.44
265.894	206.44
266.126	214.44
266.358	184.44
266.591	213.44
266.823	226.44
267.055	225.44
267.287	222.44
267.52	212.44
267.752	226.44
267.984	204.44
268.216	222.44
268.448	217.44
268.681	214.44
268.913	224.44
269.145	242.44
269.377	263.44
269.609	250.44
269.841	254.44
270.073	249.44
270.306	275.44
270.538	284.44
270.77	287.44
271.002	274.44
271.234	272.44
271.466	270.44
271.698	307.44
271.93	304.44
272.162	290.44
272.394	296.44
272.626	292.44
272.858	273.44
273.09	264.44
273.322	255.44
273.553	258.44
273.785	274.44
274.017	236.44
274.249	235.44
274.481	249.44
274.713	237.44
274.945	264.44
275.176	242.44
275.408	240.44
275.64	252.44
275.872	233.44
276.104	237.44
276.335	252.44
276.567	266.44
276.799	268.44
277.031	264.44
277.262	293.44
277.494	306.44
277.726	280.44
277.957	267.44
278.189	255.44
278.421	232.44
278.652	236.44
278.884	240.44
279.115	233.44
279.347	244.44
279.579	255.44
279.81	249.44
280.042	233.44
280.273	249.44
280.505	233.44
280.736	218.44
280.968	224.44
281.199	235.44
281.431	250.44
281.662	249.44
281.894	231.44
282.125	248.44
282.356	259.44
282.588	269.44
282.819	269.44
283.051	246.44
283.282	229.44
283.513	244.44
283.745	257.44
283.976	245.44
284.207	266.44
284.439	258.44
284.67	250.44
284.901	236.44
285.132	237.44
285.364	256.44
285.595	243.44
285.826	240.44
286.057	249.44
286.288	244.44
286.52	253.44
286.751	266.44
286.982	262.44
287.213	249.44
287.444	246.44
287.675	265.44
287.906	249.44
288.138	270.44
288.369	277.44
288.6	269.44
288.831	272.44
289.062	256.44
289.293	262.44
289.524	250.44
289.755	257.44
289.986	242.44
290.217	243.44
290.448	262.44
290.679	250.44
290.91	252.44
291.141	248.44
291.371	252.44
291.602	258.44
291.833	258.44
292.064	253.44
292.295	253.44
292.526	260.44
292.757	252.44
292.987	272.44
293.218	250.44
293.449	258.44
293.68	261.44
293.91	251.44
294.141	253.44
294.372	245.44
294.603	236.44
294.833	249.44
295.064	268.44
295.295	261.44
295.525	257.44
295.756	265.44
295.987	263.44
296.217	273.44
296.448	314.44
296.679	278.44
296.909	289.44
297.14	257.44
297.37	277.44
297.601	269.44
297.831	256.44
298.062	269.44
298.292	278.44
298.523	290.44
298.753	268.44
298.984	254.44
299.214	258.44
299.445	272.44
299.675	281.44
299.905	274.44
300.136	266.44
300.366	270.44
300.597	268.44
300.827	276.44
301.057	295.44
301.288	293.44
301.518	278.44
301.748	276.44
301.979	283.44
302.209	284.44
302.439	290.44
302.669	293.44
302.9	288.44
303.13	285.44
303.36	281.44
303.59	288.44
303.82	279.44
304.051	297.44
304.281	269.44
304.511	277.44
304.741	277.44
304.971	284.44
305.201	284.44
305.431	285.44
305.661	289.44
305.891	288.44
306.121	293.44
306.352	279.44
306.582	286.44
306.812	309.44
307.042	300.44
307.272	296.44
307.502	289.44
307.731	309.44
307.961	309.44
308.191	306.44
308.421	280.44
308.651	275.44
308.881	305.44
309.111	304.44
309.341	308.44
309.571	314.44
309.8	322.44
310.03	336.44
310.26	335.44
310.49	326.44
310.72	355.44
310.949	344.44
311.179	354.44
311.409	346.44
311.639	340.44
311.868	340.44
312.098	339.44
312.328	355.44
312.557	370.44
312.787	358.44
313.017	379.44
313.246	353.44
313.476	332.44
313.706	347.44
313.935	339.44
314.165	353.44
314.394	358.44
314.624	364.44
314.853	361.44
315.083	338.44
315.312	342.44
315.542	321.44
315.771	339.44
316.001	338.44
316.23	331.44
316.46	316.44
316.689	322.44
316.919	334.44
317.148	339.44
317.377	357.44
317.607	339.44
317.836	361.44
318.065	346.44
318.295	327.44
318.524	334.44
318.753	321.44
318.983	349.44
319.212	350.44
319.441	334.44
319.67	350.44
319.9	352.44
320.129	349.44
320.358	360.44
320.587	363.44
320.816	341.44
321.046	370.44
321.275	375.44
321.504	344.44
321.733	361.44
321.962	381.44
322.191	386.44
322.42	393.44
322.649	409.44
322.878	405.44
323.108	434.44
323.337	472.44
323.566	482.44
323.795	499.44
324.024	586.44
324.253	674.44
324.482	965.44
324.71	1491.44
324.939	2155.44
325.168	1909.44
325.397	988.44
325.626	618.44
325.855	509.44
326.084	485.44
326.313	483.44
326.542	467.44
326.77	542.44
326.999	613.44
327.228	856.44
327.457	1327.44
327.686	1594.44
327.914	1066.44
328.143	719.44
328.372	613.44
328.6	572.44
328.829	548.44
329.058	573.44
329.287	579.44
329.515	560.44
329.744	466.44
329.972	482.44
330.201	493.44
330.43	533.44
330.658	546.44
330.887	598.44
331.115	574.44
331.344	489.44
331.572	438.44
331.801	475.44
332.03	461.44
332.258	449.44
332.486	436.44
332.715	411.44
332.943	414.44
333.172	426.44
333.4	415.44
333.629	418.44
333.857	436.44
334.085	447.44
334.314	436.44
334.542	460.44
334.771	482.44
334.999	440.44
335.227	439.44
335.455	407.44
335.684	410.44
335.912	410.44
336.14	395.44
336.369	410.44
336.597	414.44
336.825	415.44
337.053	393.44
337.281	404.44
337.51	370.44
337.738	384.44
337.966	378.44
338.194	384.44
338.422	394.44
338.65	398.44
338.878	390.44
339.106	389.44
339.334	373.44
339.562	380.44
339.79	381.44
340.018	378.44
340.246	395.44
340.474	394.44
340.702	406.44
340.93	370.44
341.158	390.44
341.386	374.44
341.614	382.44
341.842	383.44
342.07	386.44
342.298	396.44
342.526	370.44
342.754	363.44
342.981	378.44
343.209	378.44
343.437	376.44
343.665	399.44
343.893	395.44
344.12	400.44
344.348	400.44
344.576	405.44
344.804	406.44
345.031	396.44
345.259	415.44
345.487	424.44
345.714	379.44
345.942	378.44
346.17	394.44
346.397	392.44
346.625	377.44
346.853	373.44
347.08	392.44
347.308	362.44
347.535	382.44
347.763	408.44
347.99	370.44
348.218	410.44
348.445	412.44
348.673	409.44
348.9	396.44
349.128	374.44
349.355	370.44
349.583	379.44
349.81	346.44
350.037	386.44
350.265	378.44
350.492	377.44
350.72	385.44
350.947	370.44
351.174	377.44
351.402	406.44
351.629	383.44
351.856	377.44
352.083	390.44
352.311	415.44
352.538	420.44
352.765	407.44
352.992	404.44
353.22	411.44
353.447	404.44
353.674	384.44
353.901	373.44
354.128	372.44
354.355	379.44
354.583	370.44
354.81	369.44
355.037	371.44
355.264	388.44
355.491	377.44
355.718	356.44
355.945	376.44
356.172	352.44
356.399	368.44
356.626	352.44
356.853	331.44
357.08	370.44
357.307	352.44
357.534	349.44
357.761	362.44
357.988	362.44
358.215	375.44
358.441	376.44
358.668	398.44
358.895	366.44
359.122	357.44
359.349	374.44
359.576	392.44
359.802	423.44
360.029	448.44
360.256	452.44
360.483	435.44
360.709	404.44
360.936	389.44
361.163	392.44
361.39	416.44
361.616	413.44
361.843	397.44
362.07	398.44
362.296	392.44
362.523	396.44
362.749	412.44
362.976	394.44
363.203	389.44
363.429	388.44
363.656	382.44
363.882	376.44
364.109	379.44
364.335	374.44
364.562	376.44
364.788	373.44
365.015	361.44
365.241	376.44
365.468	384.44
365.694	406.44
365.92	380.44
366.147	381.44
366.373	368.44
366.599	381.44
366.826	368.44
367.052	392.44
367.278	386.44
367.505	370.44
367.731	384.44
367.957	378.44
368.184	382.44
368.41	389.44
368.636	383.44
368.862	383.44
369.089	395.44
369.315	350.44
369.541	392.44
369.767	392.44
369.993	388.44
370.219	361.44
370.445	404.44
370.672	366.44
370.898	374.44
371.124	369.44
371.35	364.44
371.576	368.44
371.802	360.44
372.028	390.44
372.254	384.44
372.48	387.44
372.706	358.44
372.932	360.44
373.158	378.44
373.384	373.44
373.61	371.44
373.835	378.44
374.061	378.44
374.287	389.44
374.513	384.44
374.739	383.44
374.965	392.44
375.191	376.44
375.416	377.44
375.642	398.44
375.868	373.44
376.094	372.44
376.319	372.44
376.545	373.44
376.771	378.44
376.997	378.44
377.222	378.44
377.448	368.44
377.674	378.44
377.899	370.44
378.125	376.44
378.35	359.44
378.576	365.44
378.802	382.44
379.027	378.44
379.253	389.44
379.478	376.44
379.704	398.44
379.929	378.44
380.155	377.44
380.38	370.44
380.606	372.44
380.831	376.44
381.057	393.44
381.282	381.44
381.507	378.44
381.733	376.44
381.958	390.44
382.184	379.44
382.409	392.44
382.634	410.44
382.86	402.44
383.085	397.44
383.31	397.44
383.535	379.44
383.761	404.44
383.986	382.44
384.211	389.44
384.436	390.44
384.662	413.44
384.887	379.44
385.112	401.44
385.337	393.44
385.562	421.44
385.787	406.44
386.013	436.44
386.238	417.44
386.463	420.44
386.688	398.44
386.913	399.44
387.138	418.44
387.363	399.44
387.588	414.44
387.813	418.44
388.038	421.44
388.263	403.44
388.488	410.44
388.713	405.44
388.938	418.44
389.163	408.44
389.387	423.44
389.612	398.44
389.837	413.44
390.062	414.44
390.287	408.44
390.512	406.44
390.736	434.44
390.961	405.44
391.186	428.44
391.411	414.44
391.636	417.44
391.86	413.44
392.085	412.44
392.31	427.44
392.534	441.44
392.759	423.44
392.984	434.44
393.208	426.44
393.433	430.44
393.658	413.44
393.882	420.44
394.107	417.44
394.331	435.44
394.556	394.44
394.78	431.44
395.005	416.44
395.229	408.44
395.454	417.44
395.678	427.44
395.903	439.44
396.127	465.44
396.352	459.44
396.576	455.44
396.801	439.44
397.025	459.44
397.249	446.44
397.474	440.44
397.698	449.44
397.922	454.44
398.147	473.44
398.371	469.44
398.595	451.44
398.82	460.44
399.044	469.44
399.268	496.44
399.492	515.44
399.717	526.44
399.941	513.44
400.165	564.44
400.389	587.44
400.613	541.44
400.837	505.44
401.062	503.44
401.286	494.44
401.51	460.44
401.734	458.44
401.958	485.44
402.182	475.44
402.406	501.44
402.63	492.44
402.854	490.44
403.078	494.44
403.302	490.44
403.526	509.44
403.75	507.44
403.974	483.44
404.198	499.44
404.422	487.44
404.645	512.44
404.869	493.44
405.093	520.44
405.317	562.44
405.541	596.44
405.765	556.44
405.988	555.44
406.212	535.44
406.436	580.44
406.66	574.44
406.883	560.44
407.107	562.44
407.331	603.44
407.555	655.44
407.778	665.44
408.002	616.44
408.226	566.44
408.449	556.44
408.673	566.44
408.896	580.44
409.12	616.44
409.344	583.44
409.567	525.44
409.791	531.44
410.014	514.44
410.238	498.44
410.461	491.44
410.685	518.44
410.908	517.44
411.132	559.44
411.355	582.44
411.578	571.44
411.802	512.44
412.025	508.44
412.249	516.44
412.472	533.44
412.695	555.44
412.919	556.44
413.142	501.44
413.365	499.44
413.589	499.44
413.812	496.44
414.035	469.44
414.258	477.44
414.482	468.44
414.705	469.44
414.928	467.44
415.151	477.44
415.374	472.44
415.597	465.44
415.821	458.44
416.044	484.44
416.267	468.44
416.49	478.44
416.713	496.44
416.936	482.44
417.159	474.44
417.382	475.44
417.605	476.44
417.828	485.44
418.051	502.44
418.274	493.44
418.497	485.44
418.72	485.44
418.943	473.44
419.166	499.44
419.389	522.44
419.611	484.44
419.834	501.44
420.057	487.44
420.28	516.44
420.503	506.44
420.726	516.44
420.948	521.44
421.171	570.44
421.394	579.44
421.617	534.44
421.839	522.44
422.062	523.44
422.285	511.44
422.507	589.44
422.73	659.44
422.953	650.44
423.175	575.44
423.398	552.44
423.621	567.44
423.843	562.44
424.066	556.44
424.288	564.44
424.511	574.44
424.733	631.44
424.956	675.44
425.178	681.44
425.401	670.44
425.623	689.44
425.846	597.44
426.068	570.44
426.291	553.44
426.513	553.44
426.735	563.44
426.958	613.44
427.18	685.44
427.402	820.44
427.625	908.44
427.847	810.44
428.069	690.44
428.292	604.44
428.514	576.44
428.736	540.44
428.958	546.44
429.181	524.44
429.403	512.44
429.625	532.44
429.847	552.44
430.069	618.44
430.292	637.44
430.514	560.44
430.736	532.44
430.958	536.44
431.18	498.44
431.402	495.44
431.624	457.44
431.846	470.44
432.068	499.44
432.29	488.44
432.512	504.44
432.734	490.44
432.956	491.44
433.178	487.44
433.4	526.44
433.622	492.44
433.844	491.44
434.066	510.44
434.287	477.44
434.509	481.44
434.731	484.44
434.953	498.44
435.175	519.44
435.397	547.44
435.618	560.44
435.84	605.44
436.062	700.44
436.284	770.44
436.505	636.44
436.727	589.44
436.949	564.44
437.17	529.44
437.392	532.44
437.614	573.44
437.835	594.44
438.057	671.44
438.278	761.44
438.5	793.44
438.721	834.44
438.943	812.44
439.165	651.44
439.386	586.44
439.608	576.44
439.829	579.44
440.05	604.44
440.272	641.44
440.493	634.44
440.715	541.44
440.936	534.44
441.158	530.44
441.379	533.44
441.6	565.44
441.822	566.44
442.043	606.44
442.264	682.44
442.486	706.44
442.707	647.44
442.928	577.44
443.149	594.44
443.371	621.44
443.592	635.44
443.813	731.44
444.034	791.44
444.255	666.44
444.476	593.44
444.698	588.44
444.919	557.44
445.14	682.44
445.361	644.44
445.582	617.44
445.803	668.44
446.024	804.44
446.245	819.44
446.466	725.44
446.687	622.44
446.908	573.44
447.129	536.44
447.35	537.44
447.571	541.44
447.792	491.44
448.013	534.44
448.234	548.44
448.455	618.44
448.675	730.44
448.896	803.44
449.117	720.44
449.338	670.44
449.559	770.44
449.779	873.44
450	706.44
450.221	585.44
450.442	560.44
450.662	535.44
450.883	532.44
451.104	554.44
451.324	539.44
451.545	514.44
451.766	480.44
451.986	454.44
452.207	472.44
452.428	465.44
452.648	473.44
452.869	455.44
453.089	463.44
453.31	467.44
453.53	489.44
453.751	472.44
453.971	479.44
454.192	485.44
454.412	498.44
454.633	470.44
454.853	464.44
455.073	473.44
455.294	500.44
455.514	566.44
455.734	554.44
455.955	472.44
456.175	465.44
456.395	437.44
456.616	433.44
456.836	446.44
457.056	435.44
457.276	415.44
457.497	458.44
457.717	432.44
457.937	449.44
458.157	449.44
458.377	447.44
458.598	465.44
458.818	536.44
459.038	617.44
459.258	614.44
459.478	546.44
459.698	489.44
459.918	485.44
460.138	466.44
460.358	494.44
460.578	484.44
460.798	484.44
461.018	484.44
461.238	473.44
461.458	488.44
461.678	482.44
461.898	488.44
462.118	476.44
462.338	498.44
462.558	499.44
462.777	496.44
462.997	514.44
463.217	500.44
463.437	526.44
463.657	514.44
463.876	515.44
464.096	526.44
464.316	533.44
464.536	498.44
464.755	520.44
464.975	533.44
465.195	564.44
465.414	681.44
465.634	606.44
465.854	553.44
466.073	516.44
466.293	485.44
466.512	490.44
466.732	492.44
466.951	477.44
467.171	485.44
467.391	478.44
467.61	485.44
467.829	485.44
468.049	488.44
468.268	497.44
468.488	480.44
468.707	455.44
468.927	463.44
469.146	452.44
469.365	464.44
469.585	500.44
469.804	485.44
470.023	469.44
470.243	478.44
470.462	489.44
470.681	512.44
470.901	507.44
471.12	518.44
471.339	508.44
471.558	492.44
471.777	494.44
471.997	481.44
472.216	487.44
472.435	519.44
472.654	508.44
472.873	472.44
473.092	482.44
473.311	484.44
473.53	462.44
473.749	494.44
473.968	560.44
474.187	661.44
474.406	662.44
474.625	550.44
474.844	489.44
475.063	489.44
475.282	516.44
475.501	485.44
475.72	496.44
475.939	493.44
476.158	501.44
476.377	512.44
476.596	498.44
476.814	500.44
477.033	524.44
477.252	525.44
477.471	516.44
477.69	528.44
477.908	514.44
478.127	518.44
478.346	531.44
478.564	539.44
478.783	542.44
479.002	550.44
479.22	541.44
479.439	584.44
479.658	571.44
479.876	586.44
480.095	596.44
480.313	594.44
480.532	598.44
480.751	588.44
480.969	609.44
481.188	667.44
481.406	688.44
481.624	605.44
481.843	604.44
482.061	590.44
482.28	583.44
482.498	580.44
482.717	573.44
482.935	588.44
483.153	578.44
483.372	589.44
483.59	580.44
483.808	587.44
484.027	593.44
484.245	572.44
484.463	580.44
484.681	593.44
484.9	590.44
485.118	619.44
485.336	586.44
485.554	586.44
485.772	609.44
485.99	599.44
486.209	596.44
486.427	591.44
486.645	640.44
486.863	636.44
487.081	653.44
487.299	645.44
487.517	633.44
487.735	630.44
487.953	648.44
488.171	651.44
488.389	634.44
488.607	632.44
488.825	620.44
489.043	648.44
489.261	658.44
489.479	651.44
489.696	650.44
489.914	658.44
490.132	656.44
490.35	675.44
490.568	659.44
490.786	678.44
491.003	680.44
491.221	689.44
491.439	713.44
491.657	714.44
491.874	724.44
492.092	739.44
492.31	738.44
492.527	753.44
492.745	765.44
492.963	753.44
493.18	731.44
493.398	749.44
493.615	762.44
493.833	736.44
494.05	761.44
494.268	754.44
494.485	771.44
494.703	772.44
494.92	748.44
495.138	774.44
495.355	779.44
495.573	763.44
495.79	780.44
496.008	752.44
496.225	759.44
496.442	772.44
496.66	746.44
496.877	762.44
497.094	770.44
497.312	761.44
497.529	755.44
497.746	788.44
497.963	811.44
498.181	827.44
498.398	820.44
498.615	820.44
498.832	814.44
499.049	826.44
499.267	824.44
499.484	841.44
499.701	892.44
499.918	893.44
500.135	893.44
500.352	955.44
500.569	942.44
500.786	971.44
501.003	932.44
501.22	932.44
501.437	905.44
501.654	907.44
