Data from 1971.PennyLincolnUp.Lamp.En5.5.200Scan.071719.P1.Scan 2. Changed Angle._HRD10591_15-24-05-842.txt Node
Date: Thu Jul 18 15:24:05 EDT 2019
User: cochatt
Spectrometer: HR+D1059
Trigger mode: 1
Integration Time (sec): 1.000000E-1
Scans to average: 1
Electric dark correction enabled: true
Nonlinearity correction enabled: false
Boxcar width: 0
XAxis mode: Wavelengths
Number of Pixels in Spectrum: 2048
>>>>>Begin Spectral Data<<<<<
223.165	-11.19
223.4	-11.19
223.635	-11.19
223.869	-10.19
224.104	-27.19
224.338	-15.19
224.573	-8.19
224.808	-24.19
225.042	-1.19
225.277	-14.19
225.511	-7.19
225.746	-0.19
225.98	15.81
226.215	23.81
226.449	16.81
226.683	15.81
226.918	24.81
227.152	21.81
227.387	33.81
227.621	27.81
227.856	36.81
228.09	43.81
228.324	49.81
228.559	44.81
228.793	73.81
229.027	104.81
229.262	120.81
229.496	130.81
229.73	161.81
229.964	161.81
230.199	131.81
230.433	129.81
230.667	135.81
230.901	125.81
231.136	96.81
231.37	96.81
231.604	122.81
231.838	113.81
232.072	121.81
232.306	103.81
232.541	120.81
232.775	119.81
233.009	120.81
233.243	113.81
233.477	100.81
233.711	118.81
233.945	111.81
234.179	133.81
234.413	124.81
234.647	116.81
234.881	114.81
235.115	130.81
235.349	125.81
235.583	120.81
235.817	128.81
236.051	132.81
236.285	127.81
236.519	124.81
236.753	148.81
236.987	165.81
237.221	206.81
237.455	245.81
237.689	214.81
237.922	163.81
238.156	150.81
238.39	146.81
238.624	129.81
238.858	125.81
239.091	125.81
239.325	118.81
239.559	132.81
239.793	134.81
240.027	154.81
240.26	172.81
240.494	183.81
240.728	176.81
240.961	171.81
241.195	161.81
241.429	146.81
241.662	149.81
241.896	119.81
242.13	169.81
242.363	148.81
242.597	138.81
242.83	131.81
243.064	155.81
243.298	130.81
243.531	123.81
243.765	148.81
243.998	140.81
244.232	136.81
244.465	147.81
244.699	153.81
244.932	157.81
245.166	143.81
245.399	159.81
245.633	147.81
245.866	161.81
246.099	134.81
246.333	150.81
246.566	154.81
246.8	147.81
247.033	183.81
247.266	156.81
247.5	169.81
247.733	180.81
247.966	178.81
248.2	175.81
248.433	184.81
248.666	174.81
248.899	204.81
249.133	225.81
249.366	234.81
249.599	226.81
249.832	194.81
250.066	188.81
250.299	202.81
250.532	201.81
250.765	238.81
250.998	228.81
251.231	256.81
251.465	209.81
251.698	233.81
251.931	217.81
252.164	206.81
252.397	210.81
252.63	227.81
252.863	196.81
253.096	235.81
253.329	245.81
253.562	237.81
253.795	245.81
254.028	239.81
254.261	248.81
254.494	247.81
254.727	269.81
254.96	316.81
255.193	312.81
255.426	276.81
255.659	250.81
255.892	254.81
256.124	242.81
256.357	270.81
256.59	237.81
256.823	224.81
257.056	232.81
257.289	220.81
257.521	233.81
257.754	231.81
257.987	221.81
258.22	223.81
258.452	223.81
258.685	220.81
258.918	220.81
259.151	236.81
259.383	224.81
259.616	234.81
259.849	220.81
260.081	232.81
260.314	279.81
260.547	276.81
260.779	277.81
261.012	269.81
261.244	258.81
261.477	251.81
261.71	233.81
261.942	234.81
262.175	246.81
262.407	239.81
262.64	215.81
262.872	222.81
263.105	242.81
263.337	225.81
263.57	198.81
263.802	232.81
264.035	211.81
264.267	222.81
264.499	218.81
264.732	208.81
264.964	229.81
265.197	219.81
265.429	214.81
265.661	213.81
265.894	220.81
266.126	220.81
266.358	219.81
266.591	208.81
266.823	243.81
267.055	236.81
267.287	235.81
267.52	212.81
267.752	243.81
267.984	230.81
268.216	218.81
268.448	250.81
268.681	257.81
268.913	258.81
269.145	295.81
269.377	288.81
269.609	278.81
269.841	272.81
270.073	287.81
270.306	316.81
270.538	323.81
270.77	344.81
271.002	338.81
271.234	314.81
271.466	319.81
271.698	354.81
271.93	337.81
272.162	351.81
272.394	350.81
272.626	297.81
272.858	315.81
273.09	309.81
273.322	307.81
273.553	293.81
273.785	273.81
274.017	267.81
274.249	256.81
274.481	277.81
274.713	264.81
274.945	276.81
275.176	287.81
275.408	263.81
275.64	255.81
275.872	283.81
276.104	263.81
276.335	286.81
276.567	300.81
276.799	280.81
277.031	319.81
277.262	329.81
277.494	319.81
277.726	314.81
277.957	291.81
278.189	301.81
278.421	275.81
278.652	264.81
278.884	261.81
279.115	268.81
279.347	282.81
279.579	276.81
279.81	267.81
280.042	256.81
280.273	283.81
280.505	256.81
280.736	282.81
280.968	272.81
281.199	259.81
281.431	267.81
281.662	266.81
281.894	254.81
282.125	271.81
282.356	295.81
282.588	321.81
282.819	303.81
283.051	284.81
283.282	265.81
283.513	278.81
283.745	274.81
283.976	282.81
284.207	267.81
284.439	269.81
284.67	284.81
284.901	277.81
285.132	268.81
285.364	279.81
285.595	286.81
285.826	279.81
286.057	286.81
286.288	277.81
286.52	278.81
286.751	275.81
286.982	282.81
287.213	271.81
287.444	288.81
287.675	286.81
287.906	278.81
288.138	306.81
288.369	308.81
288.6	294.81
288.831	291.81
289.062	293.81
289.293	289.81
289.524	278.81
289.755	261.81
289.986	274.81
290.217	260.81
290.448	287.81
290.679	287.81
290.91	259.81
291.141	286.81
291.371	286.81
291.602	275.81
291.833	277.81
292.064	272.81
292.295	282.81
292.526	283.81
292.757	256.81
292.987	272.81
293.218	291.81
293.449	302.81
293.68	286.81
293.91	272.81
294.141	267.81
294.372	285.81
294.603	275.81
294.833	266.81
295.064	294.81
295.295	279.81
295.525	285.81
295.756	287.81
295.987	299.81
296.217	328.81
296.448	335.81
296.679	312.81
296.909	287.81
297.14	288.81
297.37	292.81
297.601	288.81
297.831	291.81
298.062	293.81
298.292	286.81
298.523	295.81
298.753	297.81
298.984	292.81
299.214	294.81
299.445	305.81
299.675	300.81
299.905	280.81
300.136	294.81
300.366	279.81
300.597	291.81
300.827	313.81
301.057	317.81
301.288	312.81
301.518	310.81
301.748	311.81
301.979	315.81
302.209	308.81
302.439	299.81
302.669	328.81
302.9	314.81
303.13	313.81
303.36	320.81
303.59	318.81
303.82	355.81
304.051	322.81
304.281	323.81
304.511	324.81
304.741	313.81
304.971	310.81
305.201	314.81
305.431	314.81
305.661	319.81
305.891	295.81
306.121	312.81
306.352	314.81
306.582	319.81
306.812	320.81
307.042	320.81
307.272	315.81
307.502	320.81
307.731	328.81
307.961	311.81
308.191	315.81
308.421	294.81
308.651	336.81
308.881	336.81
309.111	349.81
309.341	349.81
309.571	344.81
309.8	355.81
310.03	377.81
310.26	368.81
310.49	375.81
310.72	386.81
310.949	418.81
311.179	434.81
311.409	390.81
311.639	389.81
311.868	372.81
312.098	396.81
312.328	379.81
312.557	421.81
312.787	442.81
313.017	431.81
313.246	383.81
313.476	391.81
313.706	394.81
313.935	382.81
314.165	402.81
314.394	423.81
314.624	402.81
314.853	415.81
315.083	372.81
315.312	361.81
315.542	370.81
315.771	370.81
316.001	364.81
316.23	356.81
316.46	360.81
316.689	374.81
316.919	380.81
317.148	404.81
317.377	385.81
317.607	386.81
317.836	389.81
318.065	387.81
318.295	372.81
318.524	376.81
318.753	377.81
318.983	380.81
319.212	379.81
319.441	387.81
319.67	399.81
319.9	384.81
320.129	409.81
320.358	390.81
320.587	408.81
320.816	406.81
321.046	408.81
321.275	403.81
321.504	400.81
321.733	400.81
321.962	444.81
322.191	445.81
322.42	463.81
322.649	471.81
322.878	480.81
323.108	497.81
323.337	531.81
323.566	544.81
323.795	627.81
324.024	675.81
324.253	804.81
324.482	1213.81
324.71	1854.81
324.939	2733.81
325.168	2337.81
325.397	1202.81
325.626	774.81
325.855	628.81
326.084	596.81
326.313	568.81
326.542	548.81
326.77	638.81
326.999	768.81
327.228	1068.81
327.457	1662.81
327.686	2021.81
327.914	1346.81
328.143	875.81
328.372	776.81
328.6	690.81
328.829	648.81
329.058	659.81
329.287	683.81
329.515	626.81
329.744	586.81
329.972	552.81
330.201	586.81
330.43	645.81
330.658	656.81
330.887	706.81
331.115	688.81
331.344	571.81
331.572	537.81
331.801	521.81
332.03	528.81
332.258	497.81
332.486	487.81
332.715	449.81
332.943	454.81
333.172	465.81
333.4	460.81
333.629	472.81
333.857	488.81
334.085	506.81
334.314	527.81
334.542	545.81
334.771	548.81
334.999	518.81
335.227	478.81
335.455	462.81
335.684	467.81
335.912	449.81
336.14	431.81
336.369	441.81
336.597	468.81
336.825	450.81
337.053	448.81
337.281	438.81
337.51	449.81
337.738	452.81
337.966	450.81
338.194	437.81
338.422	452.81
338.65	438.81
338.878	440.81
339.106	433.81
339.334	463.81
339.562	444.81
339.79	426.81
340.018	421.81
340.246	416.81
340.474	434.81
340.702	449.81
340.93	434.81
341.158	445.81
341.386	427.81
341.614	439.81
341.842	449.81
342.07	427.81
342.298	404.81
342.526	428.81
342.754	423.81
342.981	409.81
343.209	416.81
343.437	422.81
343.665	430.81
343.893	429.81
344.12	420.81
344.348	432.81
344.576	425.81
344.804	455.81
345.031	462.81
345.259	473.81
345.487	444.81
345.714	442.81
345.942	448.81
346.17	425.81
346.397	433.81
346.625	430.81
346.853	434.81
347.08	439.81
347.308	438.81
347.535	440.81
347.763	445.81
347.99	434.81
348.218	459.81
348.445	460.81
348.673	437.81
348.9	444.81
349.128	445.81
349.355	428.81
349.583	422.81
349.81	415.81
350.037	419.81
350.265	409.81
350.492	405.81
350.72	427.81
350.947	426.81
351.174	431.81
351.402	460.81
351.629	453.81
351.856	432.81
352.083	464.81
352.311	454.81
352.538	461.81
352.765	466.81
352.992	448.81
353.22	442.81
353.447	439.81
353.674	440.81
353.901	398.81
354.128	397.81
354.355	388.81
354.583	411.81
354.81	391.81
355.037	388.81
355.264	400.81
355.491	402.81
355.718	381.81
355.945	386.81
356.172	387.81
356.399	399.81
356.626	408.81
356.853	376.81
357.08	390.81
357.307	369.81
357.534	381.81
357.761	401.81
357.988	390.81
358.215	391.81
358.441	412.81
358.668	403.81
358.895	396.81
359.122	411.81
359.349	433.81
359.576	433.81
359.802	479.81
360.029	518.81
360.256	524.81
360.483	504.81
360.709	448.81
360.936	439.81
361.163	421.81
361.39	458.81
361.616	455.81
361.843	448.81
362.07	440.81
362.296	450.81
362.523	453.81
362.749	421.81
362.976	417.81
363.203	424.81
363.429	416.81
363.656	425.81
363.882	418.81
364.109	434.81
364.335	411.81
364.562	418.81
364.788	419.81
365.015	421.81
365.241	433.81
365.468	422.81
365.694	426.81
365.92	438.81
366.147	419.81
366.373	408.81
366.599	418.81
366.826	393.81
367.052	404.81
367.278	384.81
367.505	401.81
367.731	417.81
367.957	409.81
368.184	404.81
368.41	423.81
368.636	422.81
368.862	432.81
369.089	435.81
369.315	409.81
369.541	427.81
369.767	414.81
369.993	435.81
370.219	440.81
370.445	407.81
370.672	412.81
370.898	400.81
371.124	402.81
371.35	400.81
371.576	408.81
371.802	416.81
372.028	415.81
372.254	422.81
372.48	402.81
372.706	387.81
372.932	416.81
373.158	411.81
373.384	414.81
373.61	408.81
373.835	416.81
374.061	406.81
374.287	404.81
374.513	412.81
374.739	414.81
374.965	410.81
375.191	409.81
375.416	409.81
375.642	412.81
375.868	419.81
376.094	415.81
376.319	404.81
376.545	400.81
376.771	410.81
376.997	403.81
377.222	407.81
377.448	410.81
377.674	380.81
377.899	383.81
378.125	394.81
378.35	400.81
378.576	397.81
378.802	400.81
379.027	415.81
379.253	390.81
379.478	419.81
379.704	394.81
379.929	407.81
380.155	386.81
380.38	400.81
380.606	388.81
380.831	387.81
381.057	406.81
381.282	390.81
381.507	409.81
381.733	416.81
381.958	403.81
382.184	427.81
382.409	418.81
382.634	421.81
382.86	391.81
383.085	408.81
383.31	417.81
383.535	403.81
383.761	435.81
383.986	440.81
384.211	414.81
384.436	443.81
384.662	442.81
384.887	410.81
385.112	431.81
385.337	459.81
385.562	436.81
385.787	440.81
386.013	442.81
386.238	451.81
386.463	434.81
386.688	428.81
386.913	441.81
387.138	452.81
387.363	431.81
387.588	440.81
387.813	443.81
388.038	427.81
388.263	446.81
388.488	449.81
388.713	434.81
388.938	453.81
389.163	435.81
389.387	442.81
389.612	434.81
389.837	439.81
390.062	430.81
390.287	436.81
390.512	434.81
390.736	430.81
390.961	439.81
391.186	435.81
391.411	440.81
391.636	449.81
391.86	430.81
392.085	466.81
392.31	453.81
392.534	455.81
392.759	442.81
392.984	434.81
393.208	443.81
393.433	449.81
393.658	458.81
393.882	455.81
394.107	448.81
394.331	458.81
394.556	446.81
394.78	444.81
395.005	457.81
395.229	449.81
395.454	448.81
395.678	465.81
395.903	461.81
396.127	495.81
396.352	475.81
396.576	465.81
396.801	454.81
397.025	459.81
397.249	462.81
397.474	474.81
397.698	485.81
397.922	500.81
398.147	514.81
398.371	482.81
398.595	498.81
398.82	472.81
399.044	512.81
399.268	524.81
399.492	521.81
399.717	560.81
399.941	564.81
400.165	594.81
400.389	613.81
400.613	569.81
400.837	560.81
401.062	521.81
401.286	529.81
401.51	498.81
401.734	493.81
401.958	489.81
402.182	536.81
402.406	538.81
402.63	539.81
402.854	525.81
403.078	528.81
403.302	543.81
403.526	551.81
403.75	539.81
403.974	540.81
404.198	534.81
404.422	545.81
404.645	540.81
404.869	528.81
405.093	566.81
405.317	597.81
405.541	659.81
405.765	607.81
405.988	558.81
406.212	581.81
406.436	608.81
406.66	638.81
406.883	578.81
407.107	624.81
407.331	676.81
407.555	728.81
407.778	718.81
408.002	672.81
408.226	596.81
408.449	586.81
408.673	612.81
408.896	594.81
409.12	666.81
409.344	628.81
409.567	580.81
409.791	551.81
410.014	525.81
410.238	547.81
410.461	553.81
410.685	545.81
410.908	586.81
411.132	591.81
411.355	627.81
411.578	594.81
411.802	544.81
412.025	539.81
412.249	536.81
412.472	579.81
412.695	615.81
412.919	617.81
413.142	572.81
413.365	555.81
413.589	517.81
413.812	494.81
414.035	532.81
414.258	499.81
414.482	512.81
414.705	524.81
414.928	495.81
415.151	482.81
415.374	483.81
415.597	514.81
415.821	501.81
416.044	507.81
416.267	527.81
416.49	510.81
416.713	507.81
416.936	496.81
417.159	516.81
417.382	547.81
417.605	509.81
417.828	518.81
418.051	540.81
418.274	528.81
418.497	522.81
418.72	531.81
418.943	535.81
419.166	570.81
419.389	545.81
419.611	527.81
419.834	547.81
420.057	532.81
420.28	535.81
420.503	524.81
420.726	538.81
420.948	561.81
421.171	602.81
421.394	662.81
421.617	571.81
421.839	575.81
422.062	568.81
422.285	558.81
422.507	648.81
422.73	698.81
422.953	690.81
423.175	622.81
423.398	599.81
423.621	594.81
423.843	578.81
424.066	574.81
424.288	590.81
424.511	643.81
424.733	688.81
424.956	749.81
425.178	753.81
425.401	746.81
425.623	772.81
425.846	657.81
426.068	609.81
426.291	617.81
426.513	619.81
426.735	614.81
426.958	675.81
427.18	781.81
427.402	909.81
427.625	988.81
427.847	911.81
428.069	767.81
428.292	690.81
428.514	629.81
428.736	610.81
428.958	570.81
429.181	567.81
429.403	580.81
429.625	597.81
429.847	614.81
430.069	698.81
430.292	651.81
430.514	577.81
430.736	587.81
430.958	550.81
431.18	532.81
431.402	546.81
431.624	528.81
431.846	505.81
432.068	534.81
432.29	532.81
432.512	539.81
432.734	544.81
432.956	534.81
433.178	558.81
433.4	554.81
433.622	542.81
433.844	515.81
434.066	532.81
434.287	532.81
434.509	531.81
434.731	536.81
434.953	551.81
435.175	560.81
435.397	594.81
435.618	648.81
435.84	664.81
436.062	772.81
436.284	820.81
436.505	712.81
436.727	618.81
436.949	594.81
437.17	577.81
437.392	587.81
437.614	597.81
437.835	642.81
438.057	742.81
438.278	847.81
438.5	858.81
438.721	912.81
438.943	848.81
439.165	728.81
439.386	646.81
439.608	634.81
439.829	624.81
440.05	675.81
440.272	733.81
440.493	675.81
440.715	624.81
440.936	592.81
441.158	584.81
441.379	576.81
441.6	586.81
441.822	623.81
442.043	672.81
442.264	762.81
442.486	808.81
442.707	696.81
442.928	639.81
443.149	672.81
443.371	676.81
443.592	731.81
443.813	834.81
444.034	886.81
444.255	737.81
444.476	642.81
444.698	628.81
444.919	612.81
445.14	710.81
445.361	658.81
445.582	677.81
445.803	748.81
446.024	871.81
446.245	868.81
446.466	820.81
446.687	691.81
446.908	610.81
447.129	592.81
447.35	597.81
447.571	588.81
447.792	564.81
448.013	594.81
448.234	611.81
448.455	690.81
448.675	796.81
448.896	891.81
449.117	764.81
449.338	738.81
449.559	838.81
449.779	937.81
450	778.81
450.221	660.81
450.442	578.81
450.662	594.81
450.883	570.81
451.104	619.81
451.324	604.81
451.545	568.81
451.766	555.81
451.986	520.81
452.207	482.81
452.428	534.81
452.648	502.81
452.869	515.81
453.089	519.81
453.31	542.81
453.53	527.81
453.751	546.81
453.971	534.81
454.192	569.81
454.412	545.81
454.633	523.81
454.853	517.81
455.073	513.81
455.294	535.81
455.514	617.81
455.734	615.81
455.955	521.81
456.175	486.81
456.395	485.81
456.616	459.81
456.836	484.81
457.056	459.81
457.276	473.81
457.497	466.81
457.717	455.81
457.937	484.81
458.157	525.81
458.377	504.81
458.598	532.81
458.818	613.81
459.038	703.81
459.258	730.81
459.478	589.81
459.698	548.81
459.918	552.81
460.138	520.81
460.358	523.81
460.578	534.81
460.798	533.81
461.018	529.81
461.238	515.81
461.458	488.81
461.678	508.81
461.898	505.81
462.118	510.81
462.338	520.81
462.558	547.81
462.777	530.81
462.997	545.81
463.217	536.81
463.437	555.81
463.657	571.81
463.876	544.81
464.096	566.81
464.316	539.81
464.536	571.81
464.755	558.81
464.975	583.81
465.195	630.81
465.414	752.81
465.634	654.81
465.854	572.81
466.073	534.81
466.293	547.81
466.512	523.81
466.732	520.81
466.951	522.81
467.171	512.81
467.391	545.81
467.61	551.81
467.829	549.81
468.049	543.81
468.268	534.81
468.488	517.81
468.707	514.81
468.927	500.81
469.146	495.81
469.365	520.81
469.585	486.81
469.804	528.81
470.023	535.81
470.243	534.81
470.462	546.81
470.681	564.81
470.901	552.81
471.12	536.81
471.339	513.81
471.558	560.81
471.777	552.81
471.997	517.81
472.216	509.81
472.435	569.81
472.654	582.81
472.873	559.81
473.092	521.81
473.311	502.81
473.53	518.81
473.749	559.81
473.968	601.81
474.187	727.81
474.406	742.81
474.625	619.81
474.844	555.81
475.063	513.81
475.282	541.81
475.501	548.81
475.72	536.81
475.939	564.81
476.158	544.81
476.377	542.81
476.596	552.81
476.814	552.81
477.033	576.81
477.252	548.81
477.471	566.81
477.69	562.81
477.908	561.81
478.127	564.81
478.346	575.81
478.564	575.81
478.783	583.81
479.002	571.81
479.22	588.81
479.439	614.81
479.658	629.81
479.876	644.81
480.095	640.81
480.313	687.81
480.532	655.81
480.751	656.81
480.969	650.81
481.188	765.81
481.406	795.81
481.624	695.81
481.843	658.81
482.061	647.81
482.28	642.81
482.498	645.81
482.717	645.81
482.935	640.81
483.153	642.81
483.372	628.81
483.59	620.81
483.808	618.81
484.027	632.81
484.245	622.81
484.463	640.81
484.681	649.81
484.9	638.81
485.118	647.81
485.336	633.81
485.554	651.81
485.772	650.81
485.99	633.81
486.209	661.81
486.427	656.81
486.645	672.81
486.863	726.81
487.081	687.81
487.299	692.81
487.517	690.81
487.735	673.81
487.953	689.81
488.171	700.81
488.389	680.81
488.607	683.81
488.825	668.81
489.043	701.81
489.261	686.81
489.479	715.81
489.696	680.81
489.914	688.81
490.132	680.81
490.35	717.81
490.568	740.81
490.786	746.81
491.003	725.81
491.221	754.81
491.439	791.81
491.657	805.81
491.874	821.81
492.092	808.81
492.31	807.81
492.527	802.81
492.745	831.81
492.963	818.81
493.18	840.81
493.398	830.81
493.615	834.81
493.833	847.81
494.05	837.81
494.268	841.81
494.485	833.81
494.703	802.81
494.92	840.81
495.138	848.81
495.355	851.81
495.573	836.81
495.79	863.81
496.008	822.81
496.225	832.81
496.442	830.81
496.66	851.81
496.877	822.81
497.094	846.81
497.312	827.81
497.529	863.81
497.746	840.81
497.963	872.81
498.181	873.81
498.398	868.81
498.615	889.81
498.832	896.81
499.049	879.81
499.267	912.81
499.484	955.81
499.701	940.81
499.918	975.81
500.135	978.81
500.352	1009.81
500.569	1040.81
500.786	1024.81
501.003	1009.81
501.22	978.81
501.437	984.81
