Data from 1971.PennyLincolnUp.Lamp.En5.5.200Scan.071719.P1.Scan 2. Changed Angle._HRD10591_15-24-21-842.txt Node
Date: Thu Jul 18 15:24:21 EDT 2019
User: cochatt
Spectrometer: HR+D1059
Trigger mode: 1
Integration Time (sec): 1.000000E-1
Scans to average: 1
Electric dark correction enabled: true
Nonlinearity correction enabled: false
Boxcar width: 0
XAxis mode: Wavelengths
Number of Pixels in Spectrum: 2048
>>>>>Begin Spectral Data<<<<<
223.165	-8.75
223.4	-8.75
223.635	-8.75
223.869	-18.75
224.104	-15.75
224.338	-17.75
224.573	-20.75
224.808	-12.75
225.042	-3.75
225.277	-9.75
225.511	-0.75
225.746	-3.75
225.98	-4.75
226.215	24.25
226.449	27.25
226.683	15.25
226.918	26.25
227.152	24.25
227.387	30.25
227.621	39.25
227.856	49.25
228.09	42.25
228.324	48.25
228.559	68.25
228.793	76.25
229.027	103.25
229.262	116.25
229.496	134.25
229.73	168.25
229.964	190.25
230.199	152.25
230.433	128.25
230.667	115.25
230.901	124.25
231.136	118.25
231.37	126.25
231.604	108.25
231.838	133.25
232.072	124.25
232.306	123.25
232.541	120.25
232.775	127.25
233.009	122.25
233.243	120.25
233.477	123.25
233.711	118.25
233.945	125.25
234.179	122.25
234.413	126.25
234.647	130.25
234.881	124.25
235.115	107.25
235.349	134.25
235.583	122.25
235.817	139.25
236.051	147.25
236.285	142.25
236.519	130.25
236.753	147.25
236.987	165.25
237.221	213.25
237.455	285.25
237.689	242.25
237.922	164.25
238.156	136.25
238.39	148.25
238.624	120.25
238.858	138.25
239.091	133.25
239.325	142.25
239.559	139.25
239.793	143.25
240.027	150.25
240.26	153.25
240.494	174.25
240.728	178.25
240.961	171.25
241.195	169.25
241.429	163.25
241.662	148.25
241.896	138.25
242.13	142.25
242.363	136.25
242.597	143.25
242.83	147.25
243.064	148.25
243.298	156.25
243.531	156.25
243.765	151.25
243.998	159.25
244.232	170.25
244.465	150.25
244.699	147.25
244.932	155.25
245.166	145.25
245.399	147.25
245.633	154.25
245.866	148.25
246.099	170.25
246.333	163.25
246.566	170.25
246.8	167.25
247.033	152.25
247.266	154.25
247.5	180.25
247.733	191.25
247.966	178.25
248.2	185.25
248.433	202.25
248.666	191.25
248.899	190.25
249.133	227.25
249.366	229.25
249.599	218.25
249.832	193.25
250.066	186.25
250.299	187.25
250.532	214.25
250.765	230.25
250.998	242.25
251.231	271.25
251.465	243.25
251.698	237.25
251.931	217.25
252.164	222.25
252.397	219.25
252.63	228.25
252.863	226.25
253.096	250.25
253.329	252.25
253.562	256.25
253.795	235.25
254.028	230.25
254.261	237.25
254.494	258.25
254.727	282.25
254.96	311.25
255.193	297.25
255.426	277.25
255.659	280.25
255.892	262.25
256.124	254.25
256.357	253.25
256.59	248.25
256.823	248.25
257.056	248.25
257.289	230.25
257.521	224.25
257.754	235.25
257.987	237.25
258.22	220.25
258.452	232.25
258.685	233.25
258.918	212.25
259.151	242.25
259.383	235.25
259.616	242.25
259.849	228.25
260.081	264.25
260.314	274.25
260.547	290.25
260.779	280.25
261.012	263.25
261.244	235.25
261.477	236.25
261.71	257.25
261.942	247.25
262.175	287.25
262.407	253.25
262.64	246.25
262.872	239.25
263.105	242.25
263.337	231.25
263.57	214.25
263.802	225.25
264.035	224.25
264.267	231.25
264.499	210.25
264.732	209.25
264.964	230.25
265.197	220.25
265.429	230.25
265.661	224.25
265.894	231.25
266.126	227.25
266.358	221.25
266.591	203.25
266.823	224.25
267.055	247.25
267.287	244.25
267.52	228.25
267.752	232.25
267.984	227.25
268.216	239.25
268.448	254.25
268.681	249.25
268.913	246.25
269.145	268.25
269.377	282.25
269.609	295.25
269.841	303.25
270.073	315.25
270.306	320.25
270.538	349.25
270.77	351.25
271.002	330.25
271.234	314.25
271.466	329.25
271.698	336.25
271.93	356.25
272.162	370.25
272.394	351.25
272.626	341.25
272.858	323.25
273.09	289.25
273.322	282.25
273.553	304.25
273.785	292.25
274.017	289.25
274.249	265.25
274.481	264.25
274.713	270.25
274.945	294.25
275.176	273.25
275.408	286.25
275.64	281.25
275.872	276.25
276.104	263.25
276.335	297.25
276.567	293.25
276.799	306.25
277.031	336.25
277.262	334.25
277.494	324.25
277.726	327.25
277.957	282.25
278.189	272.25
278.421	286.25
278.652	287.25
278.884	270.25
279.115	288.25
279.347	273.25
279.579	264.25
279.81	276.25
280.042	270.25
280.273	253.25
280.505	278.25
280.736	279.25
280.968	263.25
281.199	278.25
281.431	264.25
281.662	276.25
281.894	267.25
282.125	291.25
282.356	299.25
282.588	314.25
282.819	328.25
283.051	280.25
283.282	278.25
283.513	270.25
283.745	278.25
283.976	287.25
284.207	267.25
284.439	263.25
284.67	263.25
284.901	278.25
285.132	295.25
285.364	278.25
285.595	268.25
285.826	282.25
286.057	299.25
286.288	276.25
286.52	277.25
286.751	262.25
286.982	277.25
287.213	286.25
287.444	285.25
287.675	294.25
287.906	282.25
288.138	300.25
288.369	307.25
288.6	302.25
288.831	296.25
289.062	281.25
289.293	286.25
289.524	289.25
289.755	290.25
289.986	272.25
290.217	287.25
290.448	268.25
290.679	270.25
290.91	295.25
291.141	295.25
291.371	289.25
291.602	284.25
291.833	278.25
292.064	283.25
292.295	263.25
292.526	297.25
292.757	277.25
292.987	285.25
293.218	287.25
293.449	287.25
293.68	284.25
293.91	287.25
294.141	279.25
294.372	288.25
294.603	286.25
294.833	282.25
295.064	288.25
295.295	314.25
295.525	290.25
295.756	295.25
295.987	316.25
296.217	332.25
296.448	336.25
296.679	313.25
296.909	302.25
297.14	306.25
297.37	299.25
297.601	298.25
297.831	272.25
298.062	281.25
298.292	290.25
298.523	312.25
298.753	284.25
298.984	294.25
299.214	296.25
299.445	295.25
299.675	332.25
299.905	301.25
300.136	302.25
300.366	311.25
300.597	294.25
300.827	322.25
301.057	310.25
301.288	328.25
301.518	327.25
301.748	315.25
301.979	314.25
302.209	341.25
302.439	325.25
302.669	311.25
302.9	340.25
303.13	318.25
303.36	311.25
303.59	339.25
303.82	342.25
304.051	329.25
304.281	296.25
304.511	326.25
304.741	311.25
304.971	292.25
305.201	314.25
305.431	327.25
305.661	319.25
305.891	332.25
306.121	329.25
306.352	323.25
306.582	339.25
306.812	339.25
307.042	326.25
307.272	319.25
307.502	324.25
307.731	326.25
307.961	317.25
308.191	328.25
308.421	335.25
308.651	346.25
308.881	337.25
309.111	352.25
309.341	341.25
309.571	348.25
309.8	374.25
310.03	384.25
310.26	388.25
310.49	364.25
310.72	400.25
310.949	392.25
311.179	412.25
311.409	410.25
311.639	375.25
311.868	376.25
312.098	393.25
312.328	402.25
312.557	407.25
312.787	451.25
313.017	428.25
313.246	402.25
313.476	404.25
313.706	382.25
313.935	398.25
314.165	387.25
314.394	392.25
314.624	415.25
314.853	398.25
315.083	397.25
315.312	382.25
315.542	379.25
315.771	376.25
316.001	402.25
316.23	388.25
316.46	380.25
316.689	374.25
316.919	390.25
317.148	405.25
317.377	417.25
317.607	392.25
317.836	400.25
318.065	382.25
318.295	396.25
318.524	381.25
318.753	382.25
318.983	374.25
319.212	385.25
319.441	383.25
319.67	430.25
319.9	431.25
320.129	391.25
320.358	406.25
320.587	400.25
320.816	406.25
321.046	405.25
321.275	427.25
321.504	424.25
321.733	424.25
321.962	428.25
322.191	430.25
322.42	463.25
322.649	483.25
322.878	494.25
323.108	494.25
323.337	552.25
323.566	564.25
323.795	613.25
324.024	699.25
324.253	851.25
324.482	1220.25
324.71	1941.25
324.939	2803.25
325.168	2399.25
325.397	1251.25
325.626	800.25
325.855	647.25
326.084	607.25
326.313	578.25
326.542	578.25
326.77	644.25
326.999	781.25
327.228	1093.25
327.457	1696.25
327.686	2079.25
327.914	1370.25
328.143	907.25
328.372	763.25
328.6	691.25
328.829	660.25
329.058	682.25
329.287	692.25
329.515	644.25
329.744	582.25
329.972	557.25
330.201	611.25
330.43	628.25
330.658	685.25
330.887	721.25
331.115	685.25
331.344	582.25
331.572	558.25
331.801	551.25
332.03	536.25
332.258	502.25
332.486	480.25
332.715	456.25
332.943	463.25
333.172	471.25
333.4	469.25
333.629	466.25
333.857	520.25
334.085	508.25
334.314	525.25
334.542	566.25
334.771	596.25
334.999	511.25
335.227	512.25
335.455	480.25
335.684	470.25
335.912	468.25
336.14	448.25
336.369	452.25
336.597	475.25
336.825	463.25
337.053	456.25
337.281	435.25
337.51	462.25
337.738	454.25
337.966	464.25
338.194	451.25
338.422	444.25
338.65	456.25
338.878	445.25
339.106	431.25
339.334	440.25
339.562	432.25
339.79	432.25
340.018	446.25
340.246	439.25
340.474	467.25
340.702	457.25
340.93	434.25
341.158	434.25
341.386	451.25
341.614	444.25
341.842	456.25
342.07	463.25
342.298	446.25
342.526	434.25
342.754	407.25
342.981	434.25
343.209	422.25
343.437	413.25
343.665	406.25
343.893	419.25
344.12	423.25
344.348	446.25
344.576	436.25
344.804	472.25
345.031	472.25
345.259	476.25
345.487	473.25
345.714	455.25
345.942	454.25
346.17	463.25
346.397	454.25
346.625	426.25
346.853	438.25
347.08	465.25
347.308	475.25
347.535	454.25
347.763	454.25
347.99	454.25
348.218	438.25
348.445	457.25
348.673	455.25
348.9	443.25
349.128	429.25
349.355	424.25
349.583	427.25
349.81	427.25
350.037	421.25
350.265	426.25
350.492	415.25
350.72	417.25
350.947	423.25
351.174	434.25
351.402	446.25
351.629	476.25
351.856	462.25
352.083	457.25
352.311	469.25
352.538	487.25
352.765	470.25
352.992	463.25
353.22	465.25
353.447	436.25
353.674	430.25
353.901	434.25
354.128	414.25
354.355	393.25
354.583	384.25
354.81	422.25
355.037	386.25
355.264	400.25
355.491	378.25
355.718	390.25
355.945	415.25
356.172	405.25
356.399	389.25
356.626	400.25
356.853	405.25
357.08	406.25
357.307	405.25
357.534	406.25
357.761	422.25
357.988	396.25
358.215	406.25
358.441	393.25
358.668	404.25
358.895	417.25
359.122	418.25
359.349	422.25
359.576	429.25
359.802	480.25
360.029	514.25
360.256	559.25
360.483	503.25
360.709	454.25
360.936	432.25
361.163	451.25
361.39	455.25
361.616	451.25
361.843	464.25
362.07	427.25
362.296	460.25
362.523	429.25
362.749	448.25
362.976	457.25
363.203	436.25
363.429	422.25
363.656	428.25
363.882	427.25
364.109	423.25
364.335	415.25
364.562	412.25
364.788	407.25
365.015	426.25
365.241	431.25
365.468	421.25
365.694	447.25
365.92	430.25
366.147	407.25
366.373	415.25
366.599	401.25
366.826	415.25
367.052	420.25
367.278	421.25
367.505	405.25
367.731	430.25
367.957	420.25
368.184	426.25
368.41	421.25
368.636	455.25
368.862	454.25
369.089	440.25
369.315	427.25
369.541	428.25
369.767	421.25
369.993	431.25
370.219	421.25
370.445	422.25
370.672	419.25
370.898	413.25
371.124	399.25
371.35	411.25
371.576	415.25
371.802	417.25
372.028	423.25
372.254	410.25
372.48	404.25
372.706	405.25
372.932	421.25
373.158	416.25
373.384	421.25
373.61	411.25
373.835	418.25
374.061	425.25
374.287	437.25
374.513	424.25
374.739	423.25
374.965	420.25
375.191	416.25
375.416	423.25
375.642	446.25
375.868	412.25
376.094	409.25
376.319	415.25
376.545	434.25
376.771	415.25
376.997	413.25
377.222	384.25
377.448	404.25
377.674	410.25
377.899	425.25
378.125	424.25
378.35	410.25
378.576	414.25
378.802	423.25
379.027	403.25
379.253	427.25
379.478	424.25
379.704	395.25
379.929	427.25
380.155	404.25
380.38	424.25
380.606	425.25
380.831	442.25
381.057	418.25
381.282	404.25
381.507	417.25
381.733	423.25
381.958	407.25
382.184	408.25
382.409	431.25
382.634	431.25
382.86	419.25
383.085	426.25
383.31	440.25
383.535	436.25
383.761	450.25
383.986	416.25
384.211	426.25
384.436	427.25
384.662	444.25
384.887	443.25
385.112	409.25
385.337	434.25
385.562	446.25
385.787	434.25
386.013	457.25
386.238	455.25
386.463	455.25
386.688	433.25
386.913	443.25
387.138	457.25
387.363	441.25
387.588	450.25
387.813	459.25
388.038	441.25
388.263	431.25
388.488	433.25
388.713	450.25
388.938	427.25
389.163	442.25
389.387	442.25
389.612	440.25
389.837	442.25
390.062	444.25
390.287	444.25
390.512	442.25
390.736	434.25
390.961	446.25
391.186	451.25
391.411	452.25
391.636	462.25
391.86	460.25
392.085	445.25
392.31	471.25
392.534	463.25
392.759	460.25
392.984	454.25
393.208	453.25
393.433	473.25
393.658	440.25
393.882	439.25
394.107	454.25
394.331	442.25
394.556	443.25
394.78	435.25
395.005	440.25
395.229	455.25
395.454	450.25
395.678	479.25
395.903	476.25
396.127	499.25
396.352	501.25
396.576	478.25
396.801	455.25
397.025	483.25
397.249	481.25
397.474	476.25
397.698	454.25
397.922	504.25
398.147	508.25
398.371	507.25
398.595	498.25
398.82	504.25
399.044	475.25
399.268	492.25
399.492	546.25
399.717	559.25
399.941	610.25
400.165	612.25
400.389	628.25
400.613	564.25
400.837	543.25
401.062	533.25
401.286	527.25
401.51	505.25
401.734	497.25
401.958	528.25
402.182	542.25
402.406	555.25
402.63	562.25
402.854	536.25
403.078	542.25
403.302	530.25
403.526	570.25
403.75	549.25
403.974	529.25
404.198	542.25
404.422	543.25
404.645	551.25
404.869	568.25
405.093	582.25
405.317	616.25
405.541	676.25
405.765	611.25
405.988	599.25
406.212	590.25
406.436	610.25
406.66	635.25
406.883	592.25
407.107	637.25
407.331	686.25
407.555	725.25
407.778	733.25
408.002	679.25
408.226	638.25
408.449	605.25
408.673	623.25
408.896	631.25
409.12	684.25
409.344	668.25
409.567	585.25
409.791	590.25
410.014	543.25
410.238	546.25
410.461	554.25
410.685	555.25
410.908	564.25
411.132	613.25
411.355	666.25
411.578	612.25
411.802	580.25
412.025	551.25
412.249	562.25
412.472	570.25
412.695	619.25
412.919	608.25
413.142	563.25
413.365	552.25
413.589	539.25
413.812	544.25
414.035	542.25
414.258	540.25
414.482	535.25
414.705	512.25
414.928	534.25
415.151	504.25
415.374	515.25
415.597	527.25
415.821	490.25
416.044	512.25
416.267	528.25
416.49	514.25
416.713	506.25
416.936	536.25
417.159	520.25
417.382	543.25
417.605	543.25
417.828	540.25
418.051	586.25
418.274	556.25
418.497	494.25
418.72	543.25
418.943	518.25
419.166	532.25
419.389	548.25
419.611	550.25
419.834	568.25
420.057	554.25
420.28	579.25
420.503	550.25
420.726	535.25
420.948	575.25
421.171	626.25
421.394	677.25
421.617	601.25
421.839	567.25
422.062	556.25
422.285	580.25
422.507	636.25
422.73	728.25
422.953	707.25
423.175	616.25
423.398	568.25
423.621	610.25
423.843	583.25
424.066	621.25
424.288	614.25
424.511	646.25
424.733	703.25
424.956	817.25
425.178	766.25
425.401	753.25
425.623	762.25
425.846	659.25
426.068	620.25
426.291	597.25
426.513	611.25
426.735	638.25
426.958	714.25
427.18	780.25
427.402	953.25
427.625	1010.25
427.847	944.25
428.069	781.25
428.292	728.25
428.514	631.25
428.736	581.25
428.958	604.25
429.181	567.25
429.403	560.25
429.625	609.25
429.847	651.25
430.069	700.25
430.292	698.25
430.514	623.25
430.736	554.25
430.958	566.25
431.18	523.25
431.402	574.25
431.624	562.25
431.846	552.25
432.068	525.25
432.29	544.25
432.512	537.25
432.734	520.25
432.956	547.25
433.178	560.25
433.4	581.25
433.622	549.25
433.844	540.25
434.066	552.25
434.287	559.25
434.509	523.25
434.731	547.25
434.953	552.25
435.175	575.25
435.397	602.25
435.618	636.25
435.84	681.25
436.062	806.25
436.284	867.25
436.505	724.25
436.727	647.25
436.949	614.25
437.17	598.25
437.392	609.25
437.614	597.25
437.835	652.25
438.057	782.25
438.278	867.25
438.5	889.25
438.721	964.25
438.943	924.25
439.165	718.25
439.386	661.25
439.608	654.25
439.829	658.25
440.05	711.25
440.272	764.25
440.493	708.25
440.715	634.25
440.936	617.25
441.158	592.25
441.379	586.25
441.6	622.25
441.822	645.25
442.043	700.25
442.264	756.25
442.486	788.25
442.707	690.25
442.928	649.25
443.149	666.25
443.371	682.25
443.592	725.25
443.813	833.25
444.034	899.25
444.255	735.25
444.476	670.25
444.698	646.25
444.919	637.25
445.14	732.25
445.361	678.25
445.582	676.25
445.803	758.25
446.024	895.25
446.245	902.25
446.466	807.25
446.687	716.25
446.908	662.25
447.129	610.25
447.35	606.25
447.571	590.25
447.792	578.25
448.013	586.25
448.234	613.25
448.455	692.25
448.675	824.25
448.896	917.25
449.117	802.25
449.338	782.25
449.559	878.25
449.779	948.25
450	792.25
450.221	662.25
450.442	618.25
450.662	599.25
450.883	620.25
451.104	654.25
451.324	616.25
451.545	586.25
451.766	558.25
451.986	508.25
452.207	528.25
452.428	516.25
452.648	518.25
452.869	538.25
453.089	530.25
453.31	548.25
453.53	563.25
453.751	496.25
453.971	533.25
454.192	582.25
454.412	557.25
454.633	527.25
454.853	529.25
455.073	503.25
455.294	551.25
455.514	650.25
455.734	642.25
455.955	541.25
456.175	504.25
456.395	478.25
456.616	486.25
456.836	476.25
457.056	482.25
457.276	481.25
457.497	504.25
457.717	494.25
457.937	496.25
458.157	496.25
458.377	501.25
458.598	534.25
458.818	623.25
459.038	724.25
459.258	740.25
459.478	618.25
459.698	544.25
459.918	545.25
460.138	554.25
460.358	509.25
460.578	534.25
460.798	520.25
461.018	535.25
461.238	544.25
461.458	523.25
461.678	508.25
461.898	518.25
462.118	504.25
462.338	530.25
462.558	541.25
462.777	536.25
462.997	550.25
463.217	540.25
463.437	528.25
463.657	533.25
463.876	555.25
464.096	559.25
464.316	532.25
464.536	562.25
464.755	568.25
464.975	553.25
465.195	626.25
465.414	742.25
465.634	651.25
465.854	614.25
466.073	566.25
466.293	553.25
466.512	538.25
466.732	535.25
466.951	552.25
467.171	516.25
467.391	535.25
467.61	567.25
467.829	554.25
468.049	562.25
468.268	526.25
468.488	532.25
468.707	516.25
468.927	502.25
469.146	514.25
469.365	522.25
469.585	517.25
469.804	527.25
470.023	546.25
470.243	546.25
470.462	535.25
470.681	570.25
470.901	544.25
471.12	534.25
471.339	546.25
471.558	548.25
471.777	555.25
471.997	542.25
472.216	545.25
472.435	597.25
472.654	572.25
472.873	548.25
473.092	555.25
473.311	544.25
473.53	539.25
473.749	566.25
473.968	595.25
474.187	709.25
474.406	746.25
474.625	598.25
474.844	572.25
475.063	555.25
475.282	555.25
475.501	546.25
475.72	539.25
475.939	547.25
476.158	571.25
476.377	551.25
476.596	545.25
476.814	540.25
477.033	574.25
477.252	572.25
477.471	554.25
477.69	574.25
477.908	571.25
478.127	586.25
478.346	573.25
478.564	563.25
478.783	620.25
479.002	618.25
479.22	601.25
479.439	617.25
479.658	647.25
479.876	680.25
480.095	659.25
480.313	703.25
480.532	679.25
480.751	662.25
480.969	655.25
481.188	763.25
481.406	779.25
481.624	727.25
481.843	683.25
482.061	688.25
482.28	667.25
482.498	632.25
482.717	635.25
482.935	642.25
483.153	646.25
483.372	626.25
483.59	646.25
483.808	663.25
484.027	639.25
484.245	635.25
484.463	651.25
484.681	661.25
484.9	666.25
485.118	651.25
485.336	667.25
485.554	662.25
485.772	663.25
485.99	667.25
486.209	668.25
486.427	666.25
486.645	689.25
486.863	730.25
487.081	725.25
487.299	683.25
487.517	685.25
487.735	696.25
487.953	685.25
488.171	706.25
488.389	717.25
488.607	713.25
488.825	686.25
489.043	698.25
489.261	730.25
489.479	715.25
489.696	687.25
489.914	708.25
490.132	743.25
490.35	763.25
490.568	756.25
490.786	750.25
491.003	778.25
491.221	799.25
491.439	798.25
491.657	796.25
491.874	826.25
492.092	834.25
492.31	820.25
492.527	834.25
492.745	826.25
492.963	821.25
493.18	810.25
493.398	839.25
493.615	858.25
493.833	824.25
494.05	857.25
494.268	825.25
494.485	856.25
494.703	847.25
494.92	836.25
495.138	863.25
495.355	874.25
495.573	854.25
495.79	864.25
496.008	849.25
496.225	838.25
496.442	839.25
496.66	847.25
496.877	850.25
497.094	855.25
497.312	855.25
497.529	838.25
497.746	901.25
497.963	876.25
498.181	906.25
498.398	885.25
498.615	906.25
498.832	906.25
499.049	905.25
499.267	934.25
499.484	918.25
499.701	963.25
499.918	984.25
500.135	1026.25
500.352	1059.25
500.569	1028.25
500.786	1016.25
501.003	1046.25
501.22	1040.25
501.437	1009.25
