Data from 1971.PennyLincolnUp.Lamp.En5.5.200Scan.071719.P1.Scan 2. Changed Angle._HRD10591_15-24-10-842.txt Node
Date: Thu Jul 18 15:24:10 EDT 2019
User: cochatt
Spectrometer: HR+D1059
Trigger mode: 1
Integration Time (sec): 1.000000E-1
Scans to average: 1
Electric dark correction enabled: true
Nonlinearity correction enabled: false
Boxcar width: 0
XAxis mode: Wavelengths
Number of Pixels in Spectrum: 2048
>>>>>Begin Spectral Data<<<<<
223.165	-20.19
223.4	-20.19
223.635	-20.19
223.869	3.81
224.104	-25.19
224.338	-15.19
224.573	-10.19
224.808	-10.19
225.042	0.81
225.277	-15.19
225.511	-6.19
225.746	-8.19
225.98	14.81
226.215	12.81
226.449	3.81
226.683	21.81
226.918	25.81
227.152	26.81
227.387	24.81
227.621	41.81
227.856	34.81
228.09	49.81
228.324	41.81
228.559	59.81
228.793	68.81
229.027	107.81
229.262	119.81
229.496	130.81
229.73	137.81
229.964	177.81
230.199	153.81
230.433	132.81
230.667	127.81
230.901	120.81
231.136	116.81
231.37	101.81
231.604	120.81
231.838	113.81
232.072	115.81
232.306	111.81
232.541	133.81
232.775	92.81
233.009	125.81
233.243	117.81
233.477	121.81
233.711	114.81
233.945	111.81
234.179	126.81
234.413	125.81
234.647	107.81
234.881	119.81
235.115	127.81
235.349	118.81
235.583	106.81
235.817	127.81
236.051	109.81
236.285	129.81
236.519	132.81
236.753	140.81
236.987	166.81
237.221	219.81
237.455	258.81
237.689	220.81
237.922	162.81
238.156	139.81
238.39	140.81
238.624	120.81
238.858	129.81
239.091	136.81
239.325	130.81
239.559	138.81
239.793	134.81
240.027	136.81
240.26	147.81
240.494	164.81
240.728	150.81
240.961	176.81
241.195	149.81
241.429	152.81
241.662	155.81
241.896	127.81
242.13	125.81
242.363	142.81
242.597	135.81
242.83	141.81
243.064	153.81
243.298	137.81
243.531	138.81
243.765	148.81
243.998	149.81
244.232	140.81
244.465	136.81
244.699	151.81
244.932	159.81
245.166	140.81
245.399	140.81
245.633	159.81
245.866	137.81
246.099	140.81
246.333	141.81
246.566	171.81
246.8	152.81
247.033	162.81
247.266	179.81
247.5	177.81
247.733	187.81
247.966	188.81
248.2	180.81
248.433	176.81
248.666	183.81
248.899	187.81
249.133	209.81
249.366	203.81
249.599	222.81
249.832	210.81
250.066	198.81
250.299	193.81
250.532	214.81
250.765	203.81
250.998	255.81
251.231	261.81
251.465	229.81
251.698	217.81
251.931	215.81
252.164	205.81
252.397	212.81
252.63	233.81
252.863	222.81
253.096	235.81
253.329	241.81
253.562	241.81
253.795	261.81
254.028	242.81
254.261	239.81
254.494	244.81
254.727	275.81
254.96	311.81
255.193	301.81
255.426	291.81
255.659	255.81
255.892	243.81
256.124	253.81
256.357	275.81
256.59	240.81
256.823	241.81
257.056	237.81
257.289	220.81
257.521	220.81
257.754	211.81
257.987	226.81
258.22	221.81
258.452	225.81
258.685	217.81
258.918	203.81
259.151	235.81
259.383	208.81
259.616	231.81
259.849	229.81
260.081	249.81
260.314	291.81
260.547	277.81
260.779	258.81
261.012	250.81
261.244	245.81
261.477	235.81
261.71	227.81
261.942	250.81
262.175	246.81
262.407	244.81
262.64	227.81
262.872	217.81
263.105	220.81
263.337	230.81
263.57	206.81
263.802	211.81
264.035	203.81
264.267	200.81
264.499	205.81
264.732	227.81
264.964	217.81
265.197	233.81
265.429	221.81
265.661	216.81
265.894	234.81
266.126	203.81
266.358	206.81
266.591	213.81
266.823	226.81
267.055	244.81
267.287	247.81
267.52	241.81
267.752	239.81
267.984	228.81
268.216	225.81
268.448	229.81
268.681	239.81
268.913	244.81
269.145	268.81
269.377	299.81
269.609	270.81
269.841	295.81
270.073	285.81
270.306	285.81
270.538	331.81
270.77	323.81
271.002	322.81
271.234	313.81
271.466	293.81
271.698	338.81
271.93	344.81
272.162	315.81
272.394	326.81
272.626	319.81
272.858	312.81
273.09	296.81
273.322	282.81
273.553	277.81
273.785	280.81
274.017	276.81
274.249	262.81
274.481	281.81
274.713	252.81
274.945	295.81
275.176	272.81
275.408	268.81
275.64	268.81
275.872	259.81
276.104	282.81
276.335	265.81
276.567	289.81
276.799	303.81
277.031	316.81
277.262	325.81
277.494	321.81
277.726	323.81
277.957	297.81
278.189	279.81
278.421	274.81
278.652	268.81
278.884	254.81
279.115	260.81
279.347	258.81
279.579	246.81
279.81	258.81
280.042	249.81
280.273	265.81
280.505	255.81
280.736	272.81
280.968	257.81
281.199	279.81
281.431	266.81
281.662	247.81
281.894	267.81
282.125	278.81
282.356	287.81
282.588	287.81
282.819	306.81
283.051	272.81
283.282	250.81
283.513	265.81
283.745	267.81
283.976	249.81
284.207	260.81
284.439	274.81
284.67	239.81
284.901	273.81
285.132	264.81
285.364	277.81
285.595	261.81
285.826	261.81
286.057	265.81
286.288	253.81
286.52	276.81
286.751	275.81
286.982	281.81
287.213	263.81
287.444	268.81
287.675	283.81
287.906	280.81
288.138	299.81
288.369	301.81
288.6	303.81
288.831	290.81
289.062	291.81
289.293	280.81
289.524	272.81
289.755	271.81
289.986	259.81
290.217	264.81
290.448	269.81
290.679	279.81
290.91	261.81
291.141	277.81
291.371	259.81
291.602	290.81
291.833	280.81
292.064	283.81
292.295	285.81
292.526	287.81
292.757	263.81
292.987	267.81
293.218	265.81
293.449	280.81
293.68	277.81
293.91	285.81
294.141	266.81
294.372	270.81
294.603	272.81
294.833	260.81
295.064	281.81
295.295	266.81
295.525	275.81
295.756	276.81
295.987	311.81
296.217	314.81
296.448	339.81
296.679	290.81
296.909	278.81
297.14	282.81
297.37	284.81
297.601	272.81
297.831	276.81
298.062	282.81
298.292	292.81
298.523	284.81
298.753	281.81
298.984	298.81
299.214	305.81
299.445	307.81
299.675	288.81
299.905	317.81
300.136	298.81
300.366	287.81
300.597	290.81
300.827	312.81
301.057	313.81
301.288	315.81
301.518	319.81
301.748	314.81
301.979	321.81
302.209	315.81
302.439	319.81
302.669	312.81
302.9	315.81
303.13	308.81
303.36	313.81
303.59	322.81
303.82	347.81
304.051	325.81
304.281	327.81
304.511	301.81
304.741	296.81
304.971	284.81
305.201	322.81
305.431	307.81
305.661	322.81
305.891	308.81
306.121	316.81
306.352	316.81
306.582	314.81
306.812	311.81
307.042	311.81
307.272	303.81
307.502	314.81
307.731	304.81
307.961	310.81
308.191	319.81
308.421	319.81
308.651	309.81
308.881	320.81
309.111	330.81
309.341	326.81
309.571	333.81
309.8	344.81
310.03	368.81
310.26	383.81
310.49	378.81
310.72	391.81
310.949	396.81
311.179	401.81
311.409	391.81
311.639	387.81
311.868	377.81
312.098	375.81
312.328	373.81
312.557	394.81
312.787	412.81
313.017	423.81
313.246	401.81
313.476	378.81
313.706	392.81
313.935	372.81
314.165	405.81
314.394	384.81
314.624	416.81
314.853	370.81
315.083	385.81
315.312	373.81
315.542	382.81
315.771	359.81
316.001	351.81
316.23	379.81
316.46	347.81
316.689	369.81
316.919	383.81
317.148	380.81
317.377	393.81
317.607	384.81
317.836	363.81
318.065	399.81
318.295	362.81
318.524	359.81
318.753	359.81
318.983	365.81
319.212	377.81
319.441	365.81
319.67	385.81
319.9	381.81
320.129	342.81
320.358	375.81
320.587	386.81
320.816	392.81
321.046	396.81
321.275	412.81
321.504	385.81
321.733	423.81
321.962	417.81
322.191	419.81
322.42	425.81
322.649	456.81
322.878	463.81
323.108	487.81
323.337	520.81
323.566	569.81
323.795	612.81
324.024	639.81
324.253	798.81
324.482	1202.81
324.71	1877.81
324.939	2673.81
325.168	2289.81
325.397	1216.81
325.626	778.81
325.855	650.81
326.084	557.81
326.313	535.81
326.542	570.81
326.77	635.81
326.999	740.81
327.228	1046.81
327.457	1628.81
327.686	1997.81
327.914	1319.81
328.143	868.81
328.372	740.81
328.6	698.81
328.829	656.81
329.058	667.81
329.287	676.81
329.515	593.81
329.744	568.81
329.972	553.81
330.201	597.81
330.43	623.81
330.658	665.81
330.887	705.81
331.115	679.81
331.344	576.81
331.572	538.81
331.801	523.81
332.03	498.81
332.258	482.81
332.486	442.81
332.715	439.81
332.943	419.81
333.172	428.81
333.4	475.81
333.629	453.81
333.857	488.81
334.085	511.81
334.314	499.81
334.542	545.81
334.771	544.81
334.999	520.81
335.227	475.81
335.455	455.81
335.684	445.81
335.912	429.81
336.14	431.81
336.369	447.81
336.597	463.81
336.825	454.81
337.053	439.81
337.281	433.81
337.51	411.81
337.738	423.81
337.966	432.81
338.194	451.81
338.422	440.81
338.65	434.81
338.878	417.81
339.106	426.81
339.334	429.81
339.562	419.81
339.79	437.81
340.018	421.81
340.246	433.81
340.474	427.81
340.702	435.81
340.93	420.81
341.158	413.81
341.386	420.81
341.614	429.81
341.842	451.81
342.07	432.81
342.298	415.81
342.526	390.81
342.754	424.81
342.981	423.81
343.209	408.81
343.437	392.81
343.665	410.81
343.893	386.81
344.12	436.81
344.348	426.81
344.576	419.81
344.804	433.81
345.031	462.81
345.259	466.81
345.487	452.81
345.714	416.81
345.942	434.81
346.17	423.81
346.397	422.81
346.625	427.81
346.853	424.81
347.08	412.81
347.308	429.81
347.535	411.81
347.763	453.81
347.99	425.81
348.218	428.81
348.445	435.81
348.673	432.81
348.9	446.81
349.128	410.81
349.355	387.81
349.583	430.81
349.81	417.81
350.037	404.81
350.265	390.81
350.492	401.81
350.72	422.81
350.947	415.81
351.174	426.81
351.402	439.81
351.629	439.81
351.856	428.81
352.083	434.81
352.311	455.81
352.538	443.81
352.765	451.81
352.992	443.81
353.22	426.81
353.447	420.81
353.674	409.81
353.901	396.81
354.128	391.81
354.355	392.81
354.583	402.81
354.81	401.81
355.037	407.81
355.264	403.81
355.491	410.81
355.718	376.81
355.945	389.81
356.172	392.81
356.399	370.81
356.626	390.81
356.853	377.81
357.08	393.81
357.307	388.81
357.534	372.81
357.761	390.81
357.988	382.81
358.215	398.81
358.441	376.81
358.668	405.81
358.895	400.81
359.122	403.81
359.349	416.81
359.576	415.81
359.802	475.81
360.029	499.81
360.256	533.81
360.483	479.81
360.709	449.81
360.936	415.81
361.163	431.81
361.39	442.81
361.616	413.81
361.843	447.81
362.07	423.81
362.296	425.81
362.523	413.81
362.749	432.81
362.976	437.81
363.203	426.81
363.429	409.81
363.656	404.81
363.882	405.81
364.109	424.81
364.335	407.81
364.562	404.81
364.788	393.81
365.015	405.81
365.241	397.81
365.468	400.81
365.694	421.81
365.92	432.81
366.147	397.81
366.373	402.81
366.599	397.81
366.826	395.81
367.052	397.81
367.278	384.81
367.505	389.81
367.731	418.81
367.957	416.81
368.184	407.81
368.41	405.81
368.636	437.81
368.862	442.81
369.089	411.81
369.315	406.81
369.541	425.81
369.767	416.81
369.993	398.81
370.219	402.81
370.445	410.81
370.672	395.81
370.898	393.81
371.124	390.81
371.35	389.81
371.576	395.81
371.802	385.81
372.028	397.81
372.254	400.81
372.48	393.81
372.706	390.81
372.932	400.81
373.158	377.81
373.384	419.81
373.61	395.81
373.835	390.81
374.061	398.81
374.287	402.81
374.513	410.81
374.739	410.81
374.965	389.81
375.191	411.81
375.416	402.81
375.642	379.81
375.868	413.81
376.094	397.81
376.319	392.81
376.545	398.81
376.771	401.81
376.997	386.81
377.222	407.81
377.448	400.81
377.674	382.81
377.899	397.81
378.125	399.81
378.35	391.81
378.576	386.81
378.802	383.81
379.027	401.81
379.253	398.81
379.478	379.81
379.704	403.81
379.929	386.81
380.155	405.81
380.38	389.81
380.606	406.81
380.831	391.81
381.057	402.81
381.282	395.81
381.507	389.81
381.733	408.81
381.958	419.81
382.184	388.81
382.409	402.81
382.634	430.81
382.86	424.81
383.085	404.81
383.31	409.81
383.535	391.81
383.761	395.81
383.986	422.81
384.211	406.81
384.436	394.81
384.662	431.81
384.887	407.81
385.112	421.81
385.337	426.81
385.562	424.81
385.787	424.81
386.013	433.81
386.238	440.81
386.463	419.81
386.688	417.81
386.913	428.81
387.138	439.81
387.363	423.81
387.588	437.81
387.813	429.81
388.038	403.81
388.263	415.81
388.488	421.81
388.713	423.81
388.938	433.81
389.163	421.81
389.387	426.81
389.612	419.81
389.837	428.81
390.062	430.81
390.287	432.81
390.512	464.81
390.736	421.81
390.961	434.81
391.186	439.81
391.411	424.81
391.636	444.81
391.86	424.81
392.085	425.81
392.31	443.81
392.534	428.81
392.759	428.81
392.984	427.81
393.208	433.81
393.433	438.81
393.658	456.81
393.882	424.81
394.107	423.81
394.331	426.81
394.556	449.81
394.78	425.81
395.005	431.81
395.229	425.81
395.454	446.81
395.678	463.81
395.903	472.81
396.127	471.81
396.352	482.81
396.576	464.81
396.801	467.81
397.025	450.81
397.249	450.81
397.474	456.81
397.698	443.81
397.922	491.81
398.147	498.81
398.371	477.81
398.595	467.81
398.82	483.81
399.044	468.81
399.268	490.81
399.492	521.81
399.717	503.81
399.941	539.81
400.165	589.81
400.389	619.81
400.613	559.81
400.837	534.81
401.062	492.81
401.286	506.81
401.51	489.81
401.734	489.81
401.958	490.81
402.182	504.81
402.406	514.81
402.63	511.81
402.854	509.81
403.078	498.81
403.302	511.81
403.526	513.81
403.75	531.81
403.974	528.81
404.198	516.81
404.422	523.81
404.645	520.81
404.869	544.81
405.093	570.81
405.317	595.81
405.541	644.81
405.765	598.81
405.988	575.81
406.212	576.81
406.436	597.81
406.66	604.81
406.883	576.81
407.107	589.81
407.331	641.81
407.555	691.81
407.778	708.81
408.002	629.81
408.226	557.81
408.449	563.81
408.673	535.81
408.896	607.81
409.12	669.81
409.344	619.81
409.567	554.81
409.791	533.81
410.014	525.81
410.238	532.81
410.461	520.81
410.685	533.81
410.908	554.81
411.132	563.81
411.355	615.81
411.578	582.81
411.802	532.81
412.025	543.81
412.249	535.81
412.472	558.81
412.695	592.81
412.919	587.81
413.142	515.81
413.365	533.81
413.589	529.81
413.812	512.81
414.035	506.81
414.258	484.81
414.482	475.81
414.705	484.81
414.928	485.81
415.151	463.81
415.374	505.81
415.597	472.81
415.821	487.81
416.044	501.81
416.267	492.81
416.49	500.81
416.713	488.81
416.936	500.81
417.159	516.81
417.382	530.81
417.605	492.81
417.828	515.81
418.051	532.81
418.274	534.81
418.497	485.81
418.72	509.81
418.943	471.81
419.166	540.81
419.389	546.81
419.611	534.81
419.834	539.81
420.057	567.81
420.28	554.81
420.503	532.81
420.726	531.81
420.948	571.81
421.171	619.81
421.394	652.81
421.617	575.81
421.839	547.81
422.062	539.81
422.285	572.81
422.507	634.81
422.73	680.81
422.953	663.81
423.175	604.81
423.398	570.81
423.621	575.81
423.843	607.81
424.066	595.81
424.288	589.81
424.511	600.81
424.733	687.81
424.956	746.81
425.178	733.81
425.401	740.81
425.623	729.81
425.846	658.81
426.068	607.81
426.291	568.81
426.513	573.81
426.735	636.81
426.958	641.81
427.18	766.81
427.402	861.81
427.625	984.81
427.847	879.81
428.069	759.81
428.292	693.81
428.514	607.81
428.736	590.81
428.958	583.81
429.181	570.81
429.403	577.81
429.625	591.81
429.847	627.81
430.069	672.81
430.292	696.81
430.514	569.81
430.736	526.81
430.958	557.81
431.18	525.81
431.402	528.81
431.624	504.81
431.846	511.81
432.068	500.81
432.29	496.81
432.512	516.81
432.734	525.81
432.956	517.81
433.178	537.81
433.4	560.81
433.622	529.81
433.844	505.81
434.066	536.81
434.287	497.81
434.509	498.81
434.731	517.81
434.953	536.81
435.175	567.81
435.397	589.81
435.618	610.81
435.84	652.81
436.062	742.81
436.284	819.81
436.505	683.81
436.727	623.81
436.949	569.81
437.17	576.81
437.392	587.81
437.614	584.81
437.835	645.81
438.057	731.81
438.278	852.81
438.5	854.81
438.721	914.81
438.943	892.81
439.165	691.81
439.386	641.81
439.608	640.81
439.829	631.81
440.05	674.81
440.272	714.81
440.493	669.81
440.715	614.81
440.936	583.81
441.158	557.81
441.379	540.81
441.6	596.81
441.822	603.81
442.043	633.81
442.264	765.81
442.486	802.81
442.707	653.81
442.928	617.81
443.149	626.81
443.371	653.81
443.592	683.81
443.813	807.81
444.034	862.81
444.255	705.81
444.476	625.81
444.698	588.81
444.919	601.81
445.14	700.81
445.361	665.81
445.582	665.81
445.803	737.81
446.024	847.81
446.245	860.81
446.466	786.81
446.687	679.81
446.908	604.81
447.129	592.81
447.35	587.81
447.571	579.81
447.792	564.81
448.013	570.81
448.234	609.81
448.455	663.81
448.675	773.81
448.896	854.81
449.117	782.81
449.338	726.81
449.559	834.81
449.779	915.81
450	747.81
450.221	623.81
450.442	613.81
450.662	573.81
450.883	563.81
451.104	601.81
451.324	566.81
451.545	533.81
451.766	530.81
451.986	528.81
452.207	497.81
452.428	514.81
452.648	512.81
452.869	480.81
453.089	521.81
453.31	531.81
453.53	525.81
453.751	514.81
453.971	515.81
454.192	541.81
454.412	528.81
454.633	538.81
454.853	517.81
455.073	496.81
455.294	549.81
455.514	625.81
455.734	598.81
455.955	527.81
456.175	484.81
456.395	486.81
456.616	467.81
456.836	477.81
457.056	419.81
457.276	437.81
457.497	469.81
457.717	470.81
457.937	465.81
458.157	480.81
458.377	475.81
458.598	501.81
458.818	601.81
459.038	709.81
459.258	684.81
459.478	591.81
459.698	521.81
459.918	491.81
460.138	504.81
460.358	505.81
460.578	521.81
460.798	507.81
461.018	501.81
461.238	498.81
461.458	508.81
461.678	505.81
461.898	506.81
462.118	506.81
462.338	511.81
462.558	511.81
462.777	509.81
462.997	543.81
463.217	529.81
463.437	524.81
463.657	525.81
463.876	538.81
464.096	523.81
464.316	545.81
464.536	525.81
464.755	547.81
464.975	567.81
465.195	620.81
465.414	730.81
465.634	629.81
465.854	571.81
466.073	548.81
466.293	528.81
466.512	517.81
466.732	500.81
466.951	501.81
467.171	487.81
467.391	502.81
467.61	536.81
467.829	530.81
468.049	547.81
468.268	544.81
468.488	516.81
468.707	489.81
468.927	500.81
469.146	503.81
469.365	510.81
469.585	513.81
469.804	509.81
470.023	513.81
470.243	512.81
470.462	528.81
470.681	568.81
470.901	560.81
471.12	535.81
471.339	517.81
471.558	538.81
471.777	515.81
471.997	519.81
472.216	522.81
472.435	571.81
472.654	563.81
472.873	503.81
473.092	511.81
473.311	498.81
473.53	491.81
473.749	551.81
473.968	578.81
474.187	681.81
474.406	715.81
474.625	602.81
474.844	537.81
475.063	527.81
475.282	524.81
475.501	512.81
475.72	543.81
475.939	552.81
476.158	536.81
476.377	541.81
476.596	539.81
476.814	530.81
477.033	534.81
477.252	559.81
477.471	548.81
477.69	533.81
477.908	573.81
478.127	536.81
478.346	541.81
478.564	565.81
478.783	600.81
479.002	570.81
479.22	599.81
479.439	614.81
479.658	609.81
479.876	635.81
480.095	640.81
480.313	667.81
480.532	623.81
480.751	611.81
480.969	627.81
481.188	689.81
481.406	773.81
481.624	676.81
481.843	639.81
482.061	643.81
482.28	619.81
482.498	645.81
482.717	613.81
482.935	620.81
483.153	604.81
483.372	620.81
483.59	626.81
483.808	608.81
484.027	617.81
484.245	610.81
484.463	608.81
484.681	648.81
484.9	622.81
485.118	621.81
485.336	631.81
485.554	641.81
485.772	632.81
485.99	634.81
486.209	642.81
486.427	653.81
486.645	679.81
486.863	682.81
487.081	690.81
487.299	665.81
487.517	666.81
487.735	678.81
487.953	650.81
488.171	689.81
488.389	659.81
488.607	676.81
488.825	674.81
489.043	696.81
489.261	696.81
489.479	692.81
489.696	661.81
489.914	700.81
490.132	698.81
490.35	713.81
490.568	697.81
490.786	767.81
491.003	765.81
491.221	756.81
491.439	764.81
491.657	768.81
491.874	781.81
492.092	794.81
492.31	788.81
492.527	809.81
492.745	806.81
492.963	804.81
493.18	819.81
493.398	808.81
493.615	823.81
493.833	796.81
494.05	794.81
494.268	821.81
494.485	809.81
494.703	801.81
494.92	829.81
495.138	822.81
495.355	793.81
495.573	814.81
495.79	825.81
496.008	825.81
496.225	801.81
496.442	804.81
496.66	815.81
496.877	789.81
497.094	819.81
497.312	833.81
497.529	824.81
497.746	824.81
497.963	851.81
498.181	864.81
498.398	876.81
498.615	875.81
498.832	894.81
499.049	874.81
499.267	877.81
499.484	904.81
499.701	920.81
499.918	920.81
500.135	986.81
500.352	996.81
500.569	982.81
500.786	980.81
501.003	979.81
501.22	980.81
501.437	981.81
501.654	960.81
