Data from 1971.PennyLincolnUp.Lamp.En5.5.200Scan.071719.P1._HRD10591_15-20-05-842.txt Node
Date: Thu Jul 18 15:20:05 EDT 2019
User: cochatt
Spectrometer: HR+D1059
Trigger mode: 1
Integration Time (sec): 1.000000E-1
Scans to average: 1
Electric dark correction enabled: true
Nonlinearity correction enabled: false
Boxcar width: 0
XAxis mode: Wavelengths
Number of Pixels in Spectrum: 2048
>>>>>Begin Spectral Data<<<<<
223.165	-21.12
223.4	-21.12
223.635	-21.12
223.869	-13.12
224.104	-16.12
224.338	-16.12
224.573	-19.12
224.808	7.88
225.042	-11.12
225.277	0.88
225.511	-10.12
225.746	-8.12
225.98	6.88
226.215	19.88
226.449	10.88
226.683	17.88
226.918	18.88
227.152	31.88
227.387	22.88
227.621	36.88
227.856	34.88
228.09	40.88
228.324	43.88
228.559	54.88
228.793	68.88
229.027	105.88
229.262	95.88
229.496	100.88
229.73	122.88
229.964	155.88
230.199	118.88
230.433	108.88
230.667	120.88
230.901	121.88
231.136	109.88
231.37	116.88
231.604	104.88
231.838	120.88
232.072	102.88
232.306	104.88
232.541	131.88
232.775	119.88
233.009	113.88
233.243	119.88
233.477	106.88
233.711	123.88
233.945	120.88
234.179	115.88
234.413	116.88
234.647	114.88
234.881	103.88
235.115	124.88
235.349	119.88
235.583	118.88
235.817	105.88
236.051	127.88
236.285	128.88
236.519	110.88
236.753	136.88
236.987	140.88
237.221	180.88
237.455	214.88
237.689	181.88
237.922	136.88
238.156	125.88
238.39	117.88
238.624	138.88
238.858	128.88
239.091	124.88
239.325	134.88
239.559	114.88
239.793	136.88
240.027	119.88
240.26	139.88
240.494	153.88
240.728	155.88
240.961	140.88
241.195	139.88
241.429	135.88
241.662	134.88
241.896	140.88
242.13	128.88
242.363	130.88
242.597	128.88
242.83	140.88
243.064	131.88
243.298	126.88
243.531	129.88
243.765	144.88
243.998	135.88
244.232	136.88
244.465	135.88
244.699	126.88
244.932	148.88
245.166	137.88
245.399	142.88
245.633	149.88
245.866	158.88
246.099	152.88
246.333	156.88
246.566	145.88
246.8	162.88
247.033	152.88
247.266	159.88
247.5	167.88
247.733	175.88
247.966	172.88
248.2	171.88
248.433	167.88
248.666	183.88
248.899	175.88
249.133	207.88
249.366	208.88
249.599	192.88
249.832	178.88
250.066	173.88
250.299	192.88
250.532	186.88
250.765	211.88
250.998	227.88
251.231	238.88
251.465	208.88
251.698	199.88
251.931	205.88
252.164	222.88
252.397	199.88
252.63	215.88
252.863	213.88
253.096	231.88
253.329	225.88
253.562	225.88
253.795	229.88
254.028	220.88
254.261	230.88
254.494	250.88
254.727	261.88
254.96	285.88
255.193	272.88
255.426	249.88
255.659	239.88
255.892	253.88
256.124	237.88
256.357	247.88
256.59	238.88
256.823	221.88
257.056	211.88
257.289	222.88
257.521	221.88
257.754	226.88
257.987	222.88
258.22	225.88
258.452	224.88
258.685	206.88
258.918	219.88
259.151	229.88
259.383	224.88
259.616	229.88
259.849	231.88
260.081	254.88
260.314	270.88
260.547	275.88
260.779	260.88
261.012	251.88
261.244	231.88
261.477	244.88
261.71	228.88
261.942	233.88
262.175	256.88
262.407	226.88
262.64	231.88
262.872	219.88
263.105	208.88
263.337	222.88
263.57	215.88
263.802	218.88
264.035	217.88
264.267	224.88
264.499	211.88
264.732	230.88
264.964	221.88
265.197	214.88
265.429	232.88
265.661	220.88
265.894	221.88
266.126	238.88
266.358	218.88
266.591	222.88
266.823	235.88
267.055	249.88
267.287	228.88
267.52	238.88
267.752	251.88
267.984	224.88
268.216	232.88
268.448	234.88
268.681	243.88
268.913	245.88
269.145	272.88
269.377	297.88
269.609	286.88
269.841	283.88
270.073	278.88
270.306	308.88
270.538	310.88
270.77	325.88
271.002	319.88
271.234	327.88
271.466	320.88
271.698	336.88
271.93	347.88
272.162	332.88
272.394	326.88
272.626	318.88
272.858	291.88
273.09	312.88
273.322	294.88
273.553	280.88
273.785	283.88
274.017	272.88
274.249	269.88
274.481	268.88
274.713	265.88
274.945	280.88
275.176	269.88
275.408	286.88
275.64	270.88
275.872	281.88
276.104	287.88
276.335	286.88
276.567	286.88
276.799	286.88
277.031	306.88
277.262	333.88
277.494	320.88
277.726	308.88
277.957	305.88
278.189	296.88
278.421	280.88
278.652	280.88
278.884	280.88
279.115	287.88
279.347	294.88
279.579	267.88
279.81	264.88
280.042	266.88
280.273	293.88
280.505	276.88
280.736	271.88
280.968	268.88
281.199	270.88
281.431	289.88
281.662	287.88
281.894	292.88
282.125	288.88
282.356	295.88
282.588	298.88
282.819	313.88
283.051	299.88
283.282	290.88
283.513	285.88
283.745	291.88
283.976	292.88
284.207	292.88
284.439	295.88
284.67	295.88
284.901	301.88
285.132	294.88
285.364	294.88
285.595	283.88
285.826	290.88
286.057	280.88
286.288	285.88
286.52	296.88
286.751	301.88
286.982	304.88
287.213	301.88
287.444	303.88
287.675	312.88
287.906	310.88
288.138	319.88
288.369	303.88
288.6	303.88
288.831	297.88
289.062	308.88
289.293	300.88
289.524	318.88
289.755	298.88
289.986	314.88
290.217	303.88
290.448	301.88
290.679	318.88
290.91	293.88
291.141	292.88
291.371	315.88
291.602	305.88
291.833	309.88
292.064	303.88
292.295	306.88
292.526	309.88
292.757	308.88
292.987	299.88
293.218	304.88
293.449	326.88
293.68	314.88
293.91	296.88
294.141	293.88
294.372	310.88
294.603	302.88
294.833	311.88
295.064	336.88
295.295	310.88
295.525	309.88
295.756	307.88
295.987	309.88
296.217	332.88
296.448	336.88
296.679	314.88
296.909	329.88
297.14	316.88
297.37	308.88
297.601	314.88
297.831	328.88
298.062	318.88
298.292	297.88
298.523	331.88
298.753	328.88
298.984	314.88
299.214	328.88
299.445	331.88
299.675	320.88
299.905	336.88
300.136	346.88
300.366	330.88
300.597	329.88
300.827	344.88
301.057	326.88
301.288	337.88
301.518	331.88
301.748	322.88
301.979	339.88
302.209	314.88
302.439	342.88
302.669	342.88
302.9	332.88
303.13	334.88
303.36	344.88
303.59	335.88
303.82	356.88
304.051	356.88
304.281	337.88
304.511	322.88
304.741	332.88
304.971	325.88
305.201	342.88
305.431	339.88
305.661	350.88
305.891	342.88
306.121	340.88
306.352	348.88
306.582	345.88
306.812	362.88
307.042	355.88
307.272	372.88
307.502	348.88
307.731	354.88
307.961	354.88
308.191	348.88
308.421	350.88
308.651	356.88
308.881	360.88
309.111	350.88
309.341	352.88
309.571	357.88
309.8	360.88
310.03	365.88
310.26	396.88
310.49	375.88
310.72	398.88
310.949	388.88
311.179	412.88
311.409	376.88
311.639	372.88
311.868	384.88
312.098	370.88
312.328	384.88
312.557	407.88
312.787	419.88
313.017	405.88
313.246	404.88
313.476	376.88
313.706	396.88
313.935	404.88
314.165	393.88
314.394	410.88
314.624	420.88
314.853	392.88
315.083	387.88
315.312	392.88
315.542	394.88
315.771	376.88
316.001	389.88
316.23	387.88
316.46	391.88
316.689	382.88
316.919	398.88
317.148	405.88
317.377	403.88
317.607	394.88
317.836	397.88
318.065	380.88
318.295	387.88
318.524	386.88
318.753	391.88
318.983	389.88
319.212	395.88
319.441	410.88
319.67	410.88
319.9	387.88
320.129	396.88
320.358	395.88
320.587	384.88
320.816	411.88
321.046	408.88
321.275	408.88
321.504	414.88
321.733	407.88
321.962	415.88
322.191	430.88
322.42	426.88
322.649	445.88
322.878	460.88
323.108	463.88
323.337	488.88
323.566	515.88
323.795	541.88
324.024	583.88
324.253	734.88
324.482	1022.88
324.71	1454.88
324.939	2063.88
325.168	1706.88
325.397	921.88
325.626	638.88
325.855	567.88
326.084	518.88
326.313	505.88
326.542	500.88
326.77	555.88
326.999	660.88
327.228	907.88
327.457	1334.88
327.686	1499.88
327.914	1010.88
328.143	710.88
328.372	629.88
328.6	584.88
328.829	553.88
329.058	566.88
329.287	570.88
329.515	536.88
329.744	508.88
329.972	503.88
330.201	526.88
330.43	560.88
330.658	582.88
330.887	600.88
331.115	587.88
331.344	507.88
331.572	512.88
331.801	498.88
332.03	497.88
332.258	469.88
332.486	478.88
332.715	470.88
332.943	452.88
333.172	426.88
333.4	464.88
333.629	445.88
333.857	463.88
334.085	477.88
334.314	488.88
334.542	492.88
334.771	519.88
334.999	512.88
335.227	457.88
335.455	484.88
335.684	463.88
335.912	445.88
336.14	416.88
336.369	434.88
336.597	450.88
336.825	437.88
337.053	456.88
337.281	461.88
337.51	432.88
337.738	422.88
337.966	441.88
338.194	438.88
338.422	429.88
338.65	427.88
338.878	429.88
339.106	417.88
339.334	438.88
339.562	440.88
339.79	429.88
340.018	428.88
340.246	428.88
340.474	414.88
340.702	418.88
340.93	412.88
341.158	424.88
341.386	407.88
341.614	423.88
341.842	422.88
342.07	407.88
342.298	422.88
342.526	438.88
342.754	414.88
342.981	405.88
343.209	411.88
343.437	401.88
343.665	425.88
343.893	417.88
344.12	426.88
344.348	421.88
344.576	429.88
344.804	445.88
345.031	437.88
345.259	442.88
345.487	427.88
345.714	423.88
345.942	420.88
346.17	405.88
346.397	408.88
346.625	412.88
346.853	387.88
347.08	423.88
347.308	392.88
347.535	408.88
347.763	427.88
347.99	426.88
348.218	406.88
348.445	427.88
348.673	427.88
348.9	410.88
349.128	398.88
349.355	387.88
349.583	404.88
349.81	413.88
350.037	410.88
350.265	399.88
350.492	375.88
350.72	387.88
350.947	404.88
351.174	418.88
351.402	436.88
351.629	414.88
351.856	421.88
352.083	392.88
352.311	414.88
352.538	408.88
352.765	419.88
352.992	419.88
353.22	403.88
353.447	379.88
353.674	382.88
353.901	390.88
354.128	393.88
354.355	358.88
354.583	367.88
354.81	372.88
355.037	356.88
355.264	381.88
355.491	371.88
355.718	371.88
355.945	373.88
356.172	366.88
356.399	360.88
356.626	364.88
356.853	372.88
357.08	369.88
357.307	375.88
357.534	380.88
357.761	372.88
357.988	375.88
358.215	382.88
358.441	379.88
358.668	370.88
358.895	380.88
359.122	392.88
359.349	400.88
359.576	406.88
359.802	428.88
360.029	430.88
360.256	450.88
360.483	414.88
360.709	399.88
360.936	398.88
361.163	381.88
361.39	385.88
361.616	386.88
361.843	396.88
362.07	395.88
362.296	386.88
362.523	398.88
362.749	377.88
362.976	399.88
363.203	398.88
363.429	384.88
363.656	386.88
363.882	382.88
364.109	375.88
364.335	376.88
364.562	375.88
364.788	382.88
365.015	376.88
365.241	367.88
365.468	380.88
365.694	374.88
365.92	382.88
366.147	390.88
366.373	389.88
366.599	363.88
366.826	380.88
367.052	380.88
367.278	351.88
367.505	379.88
367.731	369.88
367.957	362.88
368.184	365.88
368.41	365.88
368.636	374.88
368.862	388.88
369.089	376.88
369.315	384.88
369.541	349.88
369.767	362.88
369.993	375.88
370.219	364.88
370.445	361.88
370.672	380.88
370.898	365.88
371.124	351.88
371.35	375.88
371.576	391.88
371.802	376.88
372.028	372.88
372.254	359.88
372.48	359.88
372.706	371.88
372.932	378.88
373.158	363.88
373.384	386.88
373.61	380.88
373.835	369.88
374.061	379.88
374.287	371.88
374.513	370.88
374.739	368.88
374.965	367.88
375.191	409.88
375.416	372.88
375.642	372.88
375.868	357.88
376.094	357.88
376.319	342.88
376.545	367.88
376.771	372.88
376.997	361.88
377.222	357.88
377.448	360.88
377.674	366.88
377.899	359.88
378.125	344.88
378.35	372.88
378.576	351.88
378.802	331.88
379.027	373.88
379.253	354.88
379.478	358.88
379.704	374.88
379.929	361.88
380.155	369.88
380.38	367.88
380.606	368.88
380.831	357.88
381.057	396.88
381.282	383.88
381.507	354.88
381.733	365.88
381.958	352.88
382.184	366.88
382.409	382.88
382.634	367.88
382.86	365.88
383.085	375.88
383.31	370.88
383.535	357.88
383.761	358.88
383.986	374.88
384.211	375.88
384.436	359.88
384.662	365.88
384.887	381.88
385.112	388.88
385.337	381.88
385.562	371.88
385.787	383.88
386.013	373.88
386.238	391.88
386.463	391.88
386.688	377.88
386.913	377.88
387.138	381.88
387.363	383.88
387.588	368.88
387.813	374.88
388.038	392.88
388.263	363.88
388.488	362.88
388.713	388.88
388.938	374.88
389.163	401.88
389.387	388.88
389.612	389.88
389.837	376.88
390.062	364.88
390.287	379.88
390.512	355.88
390.736	370.88
390.961	384.88
391.186	380.88
391.411	394.88
391.636	396.88
391.86	405.88
392.085	390.88
392.31	373.88
392.534	375.88
392.759	378.88
392.984	375.88
393.208	405.88
393.433	376.88
393.658	384.88
393.882	391.88
394.107	394.88
394.331	411.88
394.556	404.88
394.78	386.88
395.005	390.88
395.229	382.88
395.454	384.88
395.678	399.88
395.903	394.88
396.127	417.88
396.352	426.88
396.576	395.88
396.801	380.88
397.025	378.88
397.249	399.88
397.474	380.88
397.698	410.88
397.922	408.88
398.147	428.88
398.371	414.88
398.595	420.88
398.82	413.88
399.044	417.88
399.268	443.88
399.492	462.88
399.717	470.88
399.941	492.88
400.165	490.88
400.389	511.88
400.613	458.88
400.837	420.88
401.062	443.88
401.286	425.88
401.51	431.88
401.734	415.88
401.958	429.88
402.182	420.88
402.406	430.88
402.63	431.88
402.854	420.88
403.078	425.88
403.302	438.88
403.526	472.88
403.75	430.88
403.974	449.88
404.198	437.88
404.422	436.88
404.645	432.88
404.869	448.88
405.093	462.88
405.317	507.88
405.541	538.88
405.765	489.88
405.988	483.88
406.212	462.88
406.436	453.88
406.66	485.88
406.883	489.88
407.107	504.88
407.331	504.88
407.555	564.88
407.778	586.88
408.002	516.88
408.226	476.88
408.449	466.88
408.673	494.88
408.896	513.88
409.12	536.88
409.344	504.88
409.567	463.88
409.791	426.88
410.014	414.88
410.238	438.88
410.461	430.88
410.685	438.88
410.908	456.88
411.132	474.88
411.355	503.88
411.578	486.88
411.802	434.88
412.025	449.88
412.249	440.88
412.472	449.88
412.695	479.88
412.919	475.88
413.142	459.88
413.365	428.88
413.589	424.88
413.812	405.88
414.035	404.88
414.258	384.88
414.482	395.88
414.705	390.88
414.928	403.88
415.151	415.88
415.374	412.88
415.597	419.88
415.821	420.88
416.044	403.88
416.267	412.88
416.49	398.88
416.713	395.88
416.936	393.88
417.159	417.88
417.382	428.88
417.605	397.88
417.828	431.88
418.051	445.88
418.274	442.88
418.497	424.88
418.72	421.88
418.943	422.88
419.166	422.88
419.389	438.88
419.611	418.88
419.834	439.88
420.057	423.88
420.28	444.88
420.503	440.88
420.726	452.88
420.948	454.88
421.171	487.88
421.394	483.88
421.617	465.88
421.839	446.88
422.062	425.88
422.285	442.88
422.507	486.88
422.73	571.88
422.953	520.88
423.175	494.88
423.398	471.88
423.621	453.88
423.843	485.88
424.066	474.88
424.288	451.88
424.511	490.88
424.733	538.88
424.956	587.88
425.178	584.88
425.401	570.88
425.623	574.88
425.846	483.88
426.068	462.88
426.291	454.88
426.513	454.88
426.735	478.88
426.958	510.88
427.18	554.88
427.402	672.88
427.625	712.88
427.847	633.88
428.069	558.88
428.292	500.88
428.514	485.88
428.736	448.88
428.958	441.88
429.181	420.88
429.403	423.88
429.625	436.88
429.847	451.88
430.069	528.88
430.292	503.88
430.514	450.88
430.736	426.88
430.958	407.88
431.18	398.88
431.402	400.88
431.624	411.88
431.846	390.88
432.068	391.88
432.29	400.88
432.512	396.88
432.734	408.88
432.956	426.88
433.178	414.88
433.4	406.88
433.622	412.88
433.844	410.88
434.066	384.88
434.287	399.88
434.509	414.88
434.731	384.88
434.953	422.88
435.175	437.88
435.397	443.88
435.618	464.88
435.84	489.88
436.062	562.88
436.284	614.88
436.505	520.88
436.727	490.88
436.949	450.88
437.17	421.88
437.392	440.88
437.614	432.88
437.835	472.88
438.057	533.88
438.278	622.88
438.5	621.88
438.721	678.88
438.943	653.88
439.165	544.88
439.386	490.88
439.608	454.88
439.829	471.88
440.05	507.88
440.272	544.88
440.493	502.88
440.715	459.88
440.936	430.88
441.158	433.88
441.379	430.88
441.6	445.88
441.822	460.88
442.043	501.88
442.264	561.88
442.486	591.88
442.707	529.88
442.928	457.88
443.149	490.88
443.371	503.88
443.592	550.88
443.813	592.88
444.034	652.88
444.255	551.88
444.476	477.88
444.698	464.88
444.919	452.88
445.14	558.88
445.361	500.88
445.582	468.88
445.803	567.88
446.024	650.88
446.245	632.88
446.466	570.88
446.687	501.88
446.908	448.88
447.129	455.88
447.35	434.88
447.571	411.88
447.792	406.88
448.013	428.88
448.234	455.88
448.455	492.88
448.675	592.88
448.896	680.88
449.117	574.88
449.338	553.88
449.559	636.88
449.779	707.88
450	581.88
450.221	467.88
450.442	440.88
450.662	423.88
450.883	403.88
451.104	430.88
451.324	416.88
451.545	417.88
451.766	384.88
451.986	384.88
452.207	397.88
452.428	376.88
452.648	373.88
452.869	378.88
453.089	366.88
453.31	398.88
453.53	390.88
453.751	398.88
453.971	390.88
454.192	382.88
454.412	381.88
454.633	363.88
454.853	380.88
455.073	364.88
455.294	401.88
455.514	462.88
455.734	430.88
455.955	393.88
456.175	380.88
456.395	355.88
456.616	335.88
456.836	354.88
457.056	344.88
457.276	347.88
457.497	327.88
457.717	365.88
457.937	352.88
458.157	363.88
458.377	356.88
458.598	383.88
458.818	431.88
459.038	514.88
459.258	510.88
459.478	412.88
459.698	394.88
459.918	406.88
460.138	388.88
460.358	404.88
460.578	390.88
460.798	379.88
461.018	406.88
461.238	394.88
461.458	404.88
461.678	389.88
461.898	390.88
462.118	415.88
462.338	410.88
462.558	409.88
462.777	399.88
462.997	416.88
463.217	413.88
463.437	408.88
463.657	417.88
463.876	413.88
464.096	425.88
464.316	398.88
464.536	410.88
464.755	406.88
464.975	402.88
465.195	454.88
465.414	508.88
465.634	434.88
465.854	413.88
466.073	423.88
466.293	398.88
466.512	375.88
466.732	394.88
466.951	396.88
467.171	375.88
467.391	370.88
467.61	391.88
467.829	393.88
468.049	386.88
468.268	398.88
468.488	382.88
468.707	362.88
468.927	376.88
469.146	370.88
469.365	367.88
469.585	393.88
469.804	384.88
470.023	384.88
470.243	389.88
470.462	391.88
470.681	420.88
470.901	405.88
471.12	393.88
471.339	381.88
471.558	406.88
471.777	392.88
471.997	382.88
472.216	392.88
472.435	408.88
472.654	415.88
472.873	382.88
473.092	373.88
473.311	401.88
473.53	397.88
473.749	411.88
473.968	434.88
474.187	518.88
474.406	557.88
474.625	439.88
474.844	407.88
475.063	394.88
475.282	390.88
475.501	394.88
475.72	399.88
475.939	399.88
476.158	410.88
476.377	393.88
476.596	409.88
476.814	390.88
477.033	401.88
477.252	414.88
477.471	395.88
477.69	418.88
477.908	429.88
478.127	432.88
478.346	421.88
478.564	442.88
478.783	421.88
479.002	438.88
479.22	444.88
479.439	443.88
479.658	440.88
479.876	450.88
480.095	471.88
480.313	493.88
480.532	471.88
480.751	463.88
480.969	473.88
481.188	498.88
481.406	519.88
481.624	468.88
481.843	448.88
482.061	458.88
482.28	460.88
482.498	456.88
482.717	466.88
482.935	453.88
483.153	468.88
483.372	466.88
483.59	469.88
483.808	451.88
484.027	452.88
484.245	466.88
484.463	444.88
484.681	461.88
484.9	442.88
485.118	462.88
485.336	456.88
485.554	452.88
485.772	467.88
485.99	471.88
486.209	475.88
486.427	439.88
486.645	477.88
486.863	485.88
487.081	485.88
487.299	484.88
487.517	490.88
487.735	469.88
487.953	481.88
488.171	494.88
488.389	462.88
488.607	487.88
488.825	488.88
489.043	491.88
489.261	469.88
489.479	498.88
489.696	476.88
489.914	493.88
490.132	504.88
490.35	502.88
490.568	498.88
490.786	502.88
491.003	506.88
491.221	518.88
491.439	539.88
491.657	532.88
491.874	541.88
492.092	560.88
492.31	571.88
492.527	595.88
492.745	574.88
492.963	587.88
493.18	574.88
493.398	576.88
493.615	582.88
493.833	559.88
494.05	573.88
494.268	566.88
494.485	560.88
494.703	581.88
494.92	591.88
495.138	563.88
495.355	568.88
495.573	567.88
495.79	567.88
496.008	586.88
496.225	542.88
496.442	540.88
496.66	573.88
496.877	573.88
497.094	577.88
497.312	572.88
497.529	590.88
497.746	598.88
497.963	629.88
498.181	619.88
498.398	619.88
498.615	607.88
498.832	614.88
499.049	634.88
499.267	655.88
499.484	676.88
499.701	670.88
499.918	713.88
500.135	731.88
500.352	749.88
500.569	768.88
500.786	768.88
501.003	777.88
501.22	732.88
501.437	725.88
501.654	706.88
501.871	685.88
