Data from 1971.PennyLincolnUp.Lamp.En5.5.200Scan.071719.P1._HRD10591_15-17-50-842.txt Node
Date: Thu Jul 18 15:17:50 EDT 2019
User: cochatt
Spectrometer: HR+D1059
Trigger mode: 1
Integration Time (sec): 1.000000E-1
Scans to average: 1
Electric dark correction enabled: true
Nonlinearity correction enabled: false
Boxcar width: 0
XAxis mode: Wavelengths
Number of Pixels in Spectrum: 2048
>>>>>Begin Spectral Data<<<<<
223.165	-12.06
223.4	-12.06
223.635	-12.06
223.869	-16.06
224.104	-17.06
224.338	-21.06
224.573	-11.06
224.808	-10.06
225.042	-17.06
225.277	-21.06
225.511	1.94
225.746	4.94
225.98	6.94
226.215	13.94
226.449	6.94
226.683	34.94
226.918	21.94
227.152	33.94
227.387	26.94
227.621	38.94
227.856	38.94
228.09	57.94
228.324	42.94
228.559	51.94
228.793	57.94
229.027	87.94
229.262	82.94
229.496	91.94
229.73	109.94
229.964	120.94
230.199	121.94
230.433	103.94
230.667	100.94
230.901	109.94
231.136	109.94
231.37	105.94
231.604	92.94
231.838	108.94
232.072	95.94
232.306	108.94
232.541	105.94
232.775	86.94
233.009	107.94
233.243	110.94
233.477	107.94
233.711	90.94
233.945	100.94
234.179	99.94
234.413	120.94
234.647	90.94
234.881	101.94
235.115	103.94
235.349	108.94
235.583	100.94
235.817	106.94
236.051	116.94
236.285	89.94
236.519	116.94
236.753	110.94
236.987	132.94
237.221	147.94
237.455	164.94
237.689	147.94
237.922	131.94
238.156	107.94
238.39	101.94
238.624	112.94
238.858	101.94
239.091	103.94
239.325	111.94
239.559	116.94
239.793	118.94
240.027	127.94
240.26	140.94
240.494	141.94
240.728	128.94
240.961	111.94
241.195	122.94
241.429	120.94
241.662	129.94
241.896	117.94
242.13	110.94
242.363	119.94
242.597	121.94
242.83	124.94
243.064	126.94
243.298	127.94
243.531	107.94
243.765	112.94
243.998	123.94
244.232	133.94
244.465	157.94
244.699	130.94
244.932	103.94
245.166	137.94
245.399	133.94
245.633	140.94
245.866	127.94
246.099	124.94
246.333	126.94
246.566	127.94
246.8	143.94
247.033	149.94
247.266	148.94
247.5	142.94
247.733	132.94
247.966	149.94
248.2	161.94
248.433	141.94
248.666	134.94
248.899	155.94
249.133	169.94
249.366	179.94
249.599	172.94
249.832	149.94
250.066	178.94
250.299	161.94
250.532	158.94
250.765	157.94
250.998	196.94
251.231	177.94
251.465	185.94
251.698	171.94
251.931	181.94
252.164	175.94
252.397	184.94
252.63	182.94
252.863	174.94
253.096	177.94
253.329	193.94
253.562	197.94
253.795	197.94
254.028	182.94
254.261	173.94
254.494	206.94
254.727	213.94
254.96	229.94
255.193	214.94
255.426	217.94
255.659	202.94
255.892	191.94
256.124	197.94
256.357	181.94
256.59	197.94
256.823	166.94
257.056	184.94
257.289	187.94
257.521	188.94
257.754	185.94
257.987	179.94
258.22	181.94
258.452	182.94
258.685	181.94
258.918	181.94
259.151	174.94
259.383	183.94
259.616	177.94
259.849	197.94
260.081	209.94
260.314	205.94
260.547	225.94
260.779	206.94
261.012	206.94
261.244	207.94
261.477	193.94
261.71	171.94
261.942	193.94
262.175	183.94
262.407	194.94
262.64	184.94
262.872	181.94
263.105	199.94
263.337	174.94
263.57	204.94
263.802	189.94
264.035	177.94
264.267	174.94
264.499	190.94
264.732	183.94
264.964	202.94
265.197	189.94
265.429	193.94
265.661	175.94
265.894	199.94
266.126	182.94
266.358	190.94
266.591	189.94
266.823	199.94
267.055	183.94
267.287	194.94
267.52	171.94
267.752	197.94
267.984	199.94
268.216	209.94
268.448	213.94
268.681	203.94
268.913	184.94
269.145	214.94
269.377	234.94
269.609	222.94
269.841	233.94
270.073	229.94
270.306	237.94
270.538	262.94
270.77	249.94
271.002	244.94
271.234	237.94
271.466	227.94
271.698	259.94
271.93	248.94
272.162	249.94
272.394	258.94
272.626	269.94
272.858	234.94
273.09	225.94
273.322	226.94
273.553	228.94
273.785	222.94
274.017	222.94
274.249	221.94
274.481	222.94
274.713	211.94
274.945	230.94
275.176	224.94
275.408	221.94
275.64	201.94
275.872	220.94
276.104	234.94
276.335	230.94
276.567	234.94
276.799	221.94
277.031	241.94
277.262	245.94
277.494	248.94
277.726	244.94
277.957	243.94
278.189	230.94
278.421	244.94
278.652	237.94
278.884	234.94
279.115	240.94
279.347	234.94
279.579	233.94
279.81	227.94
280.042	233.94
280.273	223.94
280.505	231.94
280.736	237.94
280.968	234.94
281.199	242.94
281.431	237.94
281.662	220.94
281.894	237.94
282.125	252.94
282.356	241.94
282.588	242.94
282.819	245.94
283.051	246.94
283.282	233.94
283.513	234.94
283.745	233.94
283.976	237.94
284.207	251.94
284.439	248.94
284.67	244.94
284.901	242.94
285.132	246.94
285.364	238.94
285.595	242.94
285.826	233.94
286.057	254.94
286.288	247.94
286.52	234.94
286.751	226.94
286.982	246.94
287.213	239.94
287.444	230.94
287.675	248.94
287.906	257.94
288.138	255.94
288.369	273.94
288.6	257.94
288.831	250.94
289.062	264.94
289.293	233.94
289.524	257.94
289.755	238.94
289.986	241.94
290.217	237.94
290.448	245.94
290.679	254.94
290.91	250.94
291.141	243.94
291.371	259.94
291.602	237.94
291.833	259.94
292.064	234.94
292.295	252.94
292.526	263.94
292.757	253.94
292.987	245.94
293.218	257.94
293.449	246.94
293.68	265.94
293.91	260.94
294.141	248.94
294.372	251.94
294.603	271.94
294.833	252.94
295.064	248.94
295.295	250.94
295.525	263.94
295.756	264.94
295.987	262.94
296.217	261.94
296.448	283.94
296.679	249.94
296.909	249.94
297.14	261.94
297.37	269.94
297.601	258.94
297.831	268.94
298.062	252.94
298.292	252.94
298.523	259.94
298.753	270.94
298.984	241.94
299.214	257.94
299.445	255.94
299.675	263.94
299.905	283.94
300.136	271.94
300.366	280.94
300.597	274.94
300.827	265.94
301.057	277.94
301.288	276.94
301.518	284.94
301.748	284.94
301.979	277.94
302.209	267.94
302.439	283.94
302.669	269.94
302.9	267.94
303.13	275.94
303.36	267.94
303.59	269.94
303.82	281.94
304.051	273.94
304.281	278.94
304.511	286.94
304.741	279.94
304.971	281.94
305.201	288.94
305.431	289.94
305.661	281.94
305.891	298.94
306.121	284.94
306.352	312.94
306.582	295.94
306.812	279.94
307.042	280.94
307.272	270.94
307.502	272.94
307.731	293.94
307.961	289.94
308.191	275.94
308.421	282.94
308.651	295.94
308.881	281.94
309.111	292.94
309.341	294.94
309.571	298.94
309.8	279.94
310.03	290.94
310.26	294.94
310.49	287.94
310.72	305.94
310.949	314.94
311.179	304.94
311.409	293.94
311.639	315.94
311.868	315.94
312.098	318.94
312.328	322.94
312.557	318.94
312.787	341.94
313.017	316.94
313.246	326.94
313.476	317.94
313.706	326.94
313.935	324.94
314.165	328.94
314.394	321.94
314.624	323.94
314.853	309.94
315.083	302.94
315.312	299.94
315.542	326.94
315.771	309.94
316.001	309.94
316.23	318.94
316.46	292.94
316.689	289.94
316.919	336.94
317.148	307.94
317.377	314.94
317.607	328.94
317.836	311.94
318.065	315.94
318.295	321.94
318.524	311.94
318.753	309.94
318.983	314.94
319.212	297.94
319.441	325.94
319.67	317.94
319.9	326.94
320.129	309.94
320.358	338.94
320.587	311.94
320.816	304.94
321.046	325.94
321.275	330.94
321.504	321.94
321.733	338.94
321.962	330.94
322.191	344.94
322.42	339.94
322.649	354.94
322.878	329.94
323.108	340.94
323.337	358.94
323.566	367.94
323.795	398.94
324.024	409.94
324.253	475.94
324.482	659.94
324.71	953.94
324.939	1279.94
325.168	1081.94
325.397	577.94
325.626	419.94
325.855	408.94
326.084	375.94
326.313	368.94
326.542	365.94
326.77	419.94
326.999	441.94
327.228	622.94
327.457	814.94
327.686	977.94
327.914	645.94
328.143	451.94
328.372	439.94
328.6	389.94
328.829	399.94
329.058	410.94
329.287	405.94
329.515	407.94
329.744	371.94
329.972	361.94
330.201	371.94
330.43	413.94
330.658	394.94
330.887	435.94
331.115	413.94
331.344	381.94
331.572	372.94
331.801	369.94
332.03	392.94
332.258	365.94
332.486	379.94
332.715	357.94
332.943	353.94
333.172	357.94
333.4	362.94
333.629	374.94
333.857	363.94
334.085	396.94
334.314	393.94
334.542	385.94
334.771	403.94
334.999	359.94
335.227	369.94
335.455	357.94
335.684	361.94
335.912	356.94
336.14	345.94
336.369	354.94
336.597	366.94
336.825	372.94
337.053	371.94
337.281	364.94
337.51	364.94
337.738	348.94
337.966	372.94
338.194	351.94
338.422	341.94
338.65	354.94
338.878	371.94
339.106	350.94
339.334	339.94
339.562	340.94
339.79	350.94
340.018	338.94
340.246	355.94
340.474	349.94
340.702	334.94
340.93	343.94
341.158	341.94
341.386	330.94
341.614	339.94
341.842	343.94
342.07	326.94
342.298	354.94
342.526	370.94
342.754	337.94
342.981	315.94
343.209	343.94
343.437	334.94
343.665	347.94
343.893	346.94
344.12	349.94
344.348	343.94
344.576	348.94
344.804	360.94
345.031	345.94
345.259	347.94
345.487	344.94
345.714	340.94
345.942	339.94
346.17	353.94
346.397	355.94
346.625	332.94
346.853	344.94
347.08	321.94
347.308	319.94
347.535	329.94
347.763	318.94
347.99	316.94
348.218	330.94
348.445	324.94
348.673	324.94
348.9	319.94
349.128	343.94
349.355	321.94
349.583	340.94
349.81	333.94
350.037	303.94
350.265	313.94
350.492	309.94
350.72	299.94
350.947	317.94
351.174	333.94
351.402	331.94
351.629	328.94
351.856	328.94
352.083	337.94
352.311	312.94
352.538	318.94
352.765	342.94
352.992	309.94
353.22	296.94
353.447	331.94
353.674	325.94
353.901	321.94
354.128	315.94
354.355	326.94
354.583	311.94
354.81	336.94
355.037	313.94
355.264	316.94
355.491	307.94
355.718	303.94
355.945	305.94
356.172	289.94
356.399	303.94
356.626	296.94
356.853	307.94
357.08	310.94
357.307	315.94
357.534	294.94
357.761	289.94
357.988	305.94
358.215	311.94
358.441	295.94
358.668	314.94
358.895	311.94
359.122	293.94
359.349	309.94
359.576	327.94
359.802	326.94
360.029	351.94
360.256	345.94
360.483	326.94
360.709	312.94
360.936	322.94
361.163	324.94
361.39	303.94
361.616	312.94
361.843	311.94
362.07	329.94
362.296	313.94
362.523	330.94
362.749	326.94
362.976	305.94
363.203	312.94
363.429	305.94
363.656	287.94
363.882	318.94
364.109	298.94
364.335	324.94
364.562	303.94
364.788	309.94
365.015	300.94
365.241	296.94
365.468	318.94
365.694	292.94
365.92	300.94
366.147	297.94
366.373	297.94
366.599	309.94
366.826	308.94
367.052	313.94
367.278	313.94
367.505	308.94
367.731	302.94
367.957	294.94
368.184	319.94
368.41	324.94
368.636	325.94
368.862	294.94
369.089	317.94
369.315	296.94
369.541	300.94
369.767	294.94
369.993	326.94
370.219	317.94
370.445	308.94
370.672	301.94
370.898	288.94
371.124	308.94
371.35	318.94
371.576	315.94
371.802	321.94
372.028	318.94
372.254	324.94
372.48	312.94
372.706	310.94
372.932	312.94
373.158	293.94
373.384	318.94
373.61	319.94
373.835	317.94
374.061	296.94
374.287	307.94
374.513	311.94
374.739	308.94
374.965	300.94
375.191	333.94
375.416	317.94
375.642	319.94
375.868	310.94
376.094	311.94
376.319	310.94
376.545	323.94
376.771	293.94
376.997	306.94
377.222	316.94
377.448	287.94
377.674	309.94
377.899	298.94
378.125	299.94
378.35	298.94
378.576	292.94
378.802	288.94
379.027	282.94
379.253	316.94
379.478	289.94
379.704	304.94
379.929	304.94
380.155	315.94
380.38	305.94
380.606	294.94
380.831	306.94
381.057	307.94
381.282	314.94
381.507	309.94
381.733	315.94
381.958	314.94
382.184	327.94
382.409	314.94
382.634	298.94
382.86	314.94
383.085	312.94
383.31	311.94
383.535	323.94
383.761	305.94
383.986	317.94
384.211	297.94
384.436	301.94
384.662	299.94
384.887	334.94
385.112	322.94
385.337	329.94
385.562	316.94
385.787	314.94
386.013	332.94
386.238	324.94
386.463	338.94
386.688	331.94
386.913	308.94
387.138	321.94
387.363	326.94
387.588	326.94
387.813	328.94
388.038	320.94
388.263	314.94
388.488	324.94
388.713	334.94
388.938	314.94
389.163	314.94
389.387	326.94
389.612	331.94
389.837	331.94
390.062	319.94
390.287	331.94
390.512	325.94
390.736	333.94
390.961	323.94
391.186	327.94
391.411	330.94
391.636	341.94
391.86	331.94
392.085	339.94
392.31	334.94
392.534	323.94
392.759	342.94
392.984	332.94
393.208	333.94
393.433	328.94
393.658	358.94
393.882	331.94
394.107	332.94
394.331	321.94
394.556	298.94
394.78	293.94
395.005	307.94
395.229	317.94
395.454	329.94
395.678	345.94
395.903	340.94
396.127	348.94
396.352	355.94
396.576	338.94
396.801	329.94
397.025	329.94
397.249	334.94
397.474	329.94
397.698	324.94
397.922	330.94
398.147	365.94
398.371	364.94
398.595	344.94
398.82	366.94
399.044	361.94
399.268	367.94
399.492	396.94
399.717	413.94
399.941	412.94
400.165	429.94
400.389	430.94
400.613	412.94
400.837	377.94
401.062	361.94
401.286	379.94
401.51	379.94
401.734	350.94
401.958	379.94
402.182	359.94
402.406	350.94
402.63	362.94
402.854	360.94
403.078	364.94
403.302	359.94
403.526	352.94
403.75	370.94
403.974	359.94
404.198	371.94
404.422	382.94
404.645	365.94
404.869	360.94
405.093	364.94
405.317	418.94
405.541	425.94
405.765	385.94
405.988	378.94
406.212	397.94
406.436	390.94
406.66	406.94
406.883	382.94
407.107	410.94
407.331	435.94
407.555	482.94
407.778	462.94
408.002	444.94
408.226	403.94
408.449	405.94
408.673	379.94
408.896	401.94
409.12	413.94
409.344	418.94
409.567	375.94
409.791	360.94
410.014	374.94
410.238	362.94
410.461	361.94
410.685	364.94
410.908	365.94
411.132	399.94
411.355	415.94
411.578	406.94
411.802	355.94
412.025	361.94
412.249	366.94
412.472	370.94
412.695	395.94
412.919	390.94
413.142	362.94
413.365	335.94
413.589	360.94
413.812	355.94
414.035	336.94
414.258	346.94
414.482	351.94
414.705	358.94
414.928	351.94
415.151	350.94
415.374	346.94
415.597	353.94
415.821	330.94
416.044	346.94
416.267	346.94
416.49	350.94
416.713	361.94
416.936	358.94
417.159	344.94
417.382	347.94
417.605	340.94
417.828	352.94
418.051	358.94
418.274	337.94
418.497	353.94
418.72	322.94
418.943	336.94
419.166	355.94
419.389	380.94
419.611	375.94
419.834	354.94
420.057	372.94
420.28	368.94
420.503	380.94
420.726	354.94
420.948	372.94
421.171	387.94
421.394	415.94
421.617	375.94
421.839	362.94
422.062	365.94
422.285	372.94
422.507	397.94
422.73	436.94
422.953	424.94
423.175	375.94
423.398	353.94
423.621	346.94
423.843	373.94
424.066	391.94
424.288	382.94
424.511	362.94
424.733	409.94
424.956	473.94
425.178	464.94
425.401	450.94
425.623	445.94
425.846	424.94
426.068	383.94
426.291	362.94
426.513	395.94
426.735	379.94
426.958	409.94
427.18	445.94
427.402	511.94
427.625	556.94
427.847	500.94
428.069	439.94
428.292	403.94
428.514	364.94
428.736	353.94
428.958	356.94
429.181	361.94
429.403	351.94
429.625	366.94
429.847	372.94
430.069	405.94
430.292	416.94
430.514	362.94
430.736	357.94
430.958	334.94
431.18	347.94
431.402	360.94
431.624	323.94
431.846	335.94
432.068	339.94
432.29	328.94
432.512	325.94
432.734	357.94
432.956	336.94
433.178	350.94
433.4	345.94
433.622	302.94
433.844	323.94
434.066	348.94
434.287	332.94
434.509	329.94
434.731	349.94
434.953	342.94
435.175	360.94
435.397	360.94
435.618	362.94
435.84	395.94
436.062	467.94
436.284	531.94
436.505	403.94
436.727	391.94
436.949	358.94
437.17	366.94
437.392	370.94
437.614	360.94
437.835	352.94
438.057	437.94
438.278	474.94
438.5	498.94
438.721	559.94
438.943	531.94
439.165	440.94
439.386	381.94
439.608	380.94
439.829	391.94
440.05	389.94
440.272	411.94
440.493	405.94
440.715	369.94
440.936	369.94
441.158	361.94
441.379	354.94
441.6	357.94
441.822	377.94
442.043	387.94
442.264	442.94
442.486	466.94
442.707	405.94
442.928	369.94
443.149	384.94
443.371	390.94
443.592	430.94
443.813	477.94
444.034	525.94
444.255	421.94
444.476	373.94
444.698	380.94
444.919	371.94
445.14	486.94
445.361	436.94
445.582	402.94
445.803	449.94
446.024	485.94
446.245	510.94
446.466	448.94
446.687	388.94
446.908	389.94
447.129	354.94
447.35	347.94
447.571	348.94
447.792	357.94
448.013	350.94
448.234	369.94
448.455	396.94
448.675	463.94
448.896	529.94
449.117	445.94
449.338	417.94
449.559	489.94
449.779	549.94
450	467.94
450.221	365.94
450.442	351.94
450.662	327.94
450.883	331.94
451.104	339.94
451.324	324.94
451.545	338.94
451.766	309.94
451.986	299.94
452.207	302.94
452.428	294.94
452.648	317.94
452.869	315.94
453.089	348.94
453.31	327.94
453.53	324.94
453.751	298.94
453.971	311.94
454.192	328.94
454.412	309.94
454.633	307.94
454.853	309.94
455.073	309.94
455.294	322.94
455.514	374.94
455.734	342.94
455.955	302.94
456.175	316.94
456.395	293.94
456.616	290.94
456.836	295.94
457.056	269.94
457.276	295.94
457.497	293.94
457.717	299.94
457.937	309.94
458.157	309.94
458.377	310.94
458.598	319.94
458.818	341.94
459.038	378.94
459.258	383.94
459.478	360.94
459.698	323.94
459.918	328.94
460.138	338.94
460.358	328.94
460.578	330.94
460.798	322.94
461.018	343.94
461.238	341.94
461.458	338.94
461.678	332.94
461.898	332.94
462.118	332.94
462.338	356.94
462.558	340.94
462.777	362.94
462.997	341.94
463.217	361.94
463.437	360.94
463.657	362.94
463.876	369.94
464.096	364.94
464.316	342.94
464.536	340.94
464.755	346.94
464.975	341.94
465.195	375.94
465.414	389.94
465.634	353.94
465.854	365.94
466.073	335.94
466.293	333.94
466.512	324.94
466.732	340.94
466.951	317.94
467.171	342.94
467.391	334.94
467.61	307.94
467.829	335.94
468.049	328.94
468.268	308.94
468.488	319.94
468.707	334.94
468.927	333.94
469.146	299.94
469.365	307.94
469.585	328.94
469.804	316.94
470.023	339.94
470.243	330.94
470.462	351.94
470.681	329.94
470.901	313.94
471.12	320.94
471.339	334.94
471.558	320.94
471.777	318.94
471.997	325.94
472.216	313.94
472.435	320.94
472.654	299.94
472.873	316.94
473.092	314.94
473.311	321.94
473.53	327.94
473.749	334.94
473.968	357.94
474.187	411.94
474.406	403.94
474.625	364.94
474.844	317.94
475.063	332.94
475.282	347.94
475.501	341.94
475.72	345.94
475.939	348.94
476.158	333.94
476.377	342.94
476.596	345.94
476.814	344.94
477.033	339.94
477.252	348.94
477.471	347.94
477.69	351.94
477.908	359.94
478.127	372.94
478.346	369.94
478.564	348.94
478.783	366.94
479.002	349.94
479.22	372.94
479.439	379.94
479.658	381.94
479.876	345.94
480.095	392.94
480.313	391.94
480.532	395.94
480.751	382.94
480.969	387.94
481.188	406.94
481.406	410.94
481.624	377.94
481.843	364.94
482.061	375.94
482.28	373.94
482.498	361.94
482.717	381.94
482.935	362.94
483.153	373.94
483.372	377.94
483.59	361.94
483.808	357.94
484.027	375.94
484.245	373.94
484.463	367.94
484.681	374.94
484.9	371.94
485.118	400.94
485.336	396.94
485.554	379.94
485.772	397.94
485.99	371.94
486.209	377.94
486.427	382.94
486.645	388.94
486.863	397.94
487.081	401.94
487.299	406.94
487.517	407.94
487.735	398.94
487.953	395.94
488.171	428.94
488.389	413.94
488.607	388.94
488.825	389.94
489.043	399.94
489.261	381.94
489.479	416.94
489.696	386.94
489.914	420.94
490.132	415.94
490.35	430.94
490.568	402.94
490.786	443.94
491.003	419.94
491.221	438.94
491.439	439.94
491.657	456.94
491.874	430.94
492.092	457.94
492.31	454.94
492.527	460.94
492.745	466.94
492.963	454.94
493.18	459.94
493.398	460.94
493.615	465.94
493.833	462.94
494.05	453.94
494.268	476.94
494.485	467.94
494.703	473.94
494.92	486.94
495.138	462.94
495.355	483.94
495.573	455.94
495.79	467.94
496.008	466.94
496.225	461.94
496.442	455.94
496.66	477.94
496.877	464.94
497.094	481.94
497.312	472.94
497.529	494.94
497.746	492.94
497.963	490.94
498.181	494.94
498.398	493.94
498.615	511.94
498.832	511.94
499.049	524.94
499.267	523.94
499.484	567.94
499.701	598.94
499.918	596.94
500.135	629.94
500.352	618.94
500.569	659.94
500.786	655.94
501.003	654.94
501.22	633.94
501.437	592.94
501.654	581.94
501.871	578.94
502.088	552.94
