Data from 1971.PennyLincolnUp.Lamp.En5.5.200Scan.071719.P1.Scan 2. Changed Angle._HRD10591_15-23-14-842.txt Node
Date: Thu Jul 18 15:23:14 EDT 2019
User: cochatt
Spectrometer: HR+D1059
Trigger mode: 1
Integration Time (sec): 1.000000E-1
Scans to average: 1
Electric dark correction enabled: true
Nonlinearity correction enabled: false
Boxcar width: 0
XAxis mode: Wavelengths
Number of Pixels in Spectrum: 2048
>>>>>Begin Spectral Data<<<<<
223.165	-0.56
223.4	-0.56
223.635	-0.56
223.869	3.44
224.104	-22.56
224.338	-24.56
224.573	-25.56
224.808	1.44
225.042	-13.56
225.277	1.44
225.511	-8.56
225.746	-4.56
225.98	-2.56
226.215	12.44
226.449	11.44
226.683	20.44
226.918	15.44
227.152	36.44
227.387	43.44
227.621	47.44
227.856	28.44
228.09	43.44
228.324	41.44
228.559	38.44
228.793	58.44
229.027	89.44
229.262	109.44
229.496	115.44
229.73	124.44
229.964	163.44
230.199	137.44
230.433	115.44
230.667	112.44
230.901	109.44
231.136	102.44
231.37	116.44
231.604	120.44
231.838	102.44
232.072	116.44
232.306	120.44
232.541	123.44
232.775	125.44
233.009	119.44
233.243	116.44
233.477	106.44
233.711	118.44
233.945	115.44
234.179	95.44
234.413	108.44
234.647	123.44
234.881	111.44
235.115	124.44
235.349	115.44
235.583	124.44
235.817	143.44
236.051	131.44
236.285	126.44
236.519	126.44
236.753	132.44
236.987	148.44
237.221	196.44
237.455	239.44
237.689	201.44
237.922	148.44
238.156	125.44
238.39	148.44
238.624	128.44
238.858	125.44
239.091	121.44
239.325	123.44
239.559	113.44
239.793	111.44
240.027	134.44
240.26	140.44
240.494	164.44
240.728	161.44
240.961	164.44
241.195	133.44
241.429	150.44
241.662	124.44
241.896	120.44
242.13	159.44
242.363	136.44
242.597	142.44
242.83	129.44
243.064	142.44
243.298	142.44
243.531	130.44
243.765	136.44
243.998	140.44
244.232	147.44
244.465	147.44
244.699	168.44
244.932	153.44
245.166	147.44
245.399	141.44
245.633	137.44
245.866	143.44
246.099	143.44
246.333	145.44
246.566	151.44
246.8	161.44
247.033	149.44
247.266	166.44
247.5	152.44
247.733	175.44
247.966	185.44
248.2	171.44
248.433	180.44
248.666	183.44
248.899	178.44
249.133	212.44
249.366	213.44
249.599	209.44
249.832	189.44
250.066	182.44
250.299	191.44
250.532	195.44
250.765	212.44
250.998	220.44
251.231	233.44
251.465	218.44
251.698	226.44
251.931	236.44
252.164	189.44
252.397	214.44
252.63	216.44
252.863	218.44
253.096	221.44
253.329	251.44
253.562	224.44
253.795	223.44
254.028	239.44
254.261	225.44
254.494	228.44
254.727	290.44
254.96	287.44
255.193	289.44
255.426	276.44
255.659	259.44
255.892	233.44
256.124	243.44
256.357	223.44
256.59	230.44
256.823	216.44
257.056	213.44
257.289	210.44
257.521	220.44
257.754	216.44
257.987	224.44
258.22	190.44
258.452	208.44
258.685	214.44
258.918	216.44
259.151	231.44
259.383	231.44
259.616	240.44
259.849	225.44
260.081	233.44
260.314	252.44
260.547	286.44
260.779	258.44
261.012	242.44
261.244	245.44
261.477	232.44
261.71	211.44
261.942	224.44
262.175	243.44
262.407	238.44
262.64	219.44
262.872	223.44
263.105	212.44
263.337	213.44
263.57	220.44
263.802	211.44
264.035	220.44
264.267	214.44
264.499	204.44
264.732	201.44
264.964	209.44
265.197	217.44
265.429	214.44
265.661	221.44
265.894	215.44
266.126	214.44
266.358	213.44
266.591	215.44
266.823	223.44
267.055	214.44
267.287	213.44
267.52	233.44
267.752	223.44
267.984	224.44
268.216	214.44
268.448	221.44
268.681	227.44
268.913	255.44
269.145	265.44
269.377	270.44
269.609	278.44
269.841	268.44
270.073	275.44
270.306	303.44
270.538	330.44
270.77	317.44
271.002	332.44
271.234	304.44
271.466	297.44
271.698	319.44
271.93	338.44
272.162	329.44
272.394	316.44
272.626	312.44
272.858	291.44
273.09	277.44
273.322	288.44
273.553	268.44
273.785	259.44
274.017	273.44
274.249	259.44
274.481	242.44
274.713	267.44
274.945	275.44
275.176	257.44
275.408	258.44
275.64	268.44
275.872	243.44
276.104	239.44
276.335	256.44
276.567	282.44
276.799	278.44
277.031	308.44
277.262	327.44
277.494	326.44
277.726	308.44
277.957	301.44
278.189	277.44
278.421	263.44
278.652	282.44
278.884	274.44
279.115	257.44
279.347	247.44
279.579	252.44
279.81	246.44
280.042	258.44
280.273	247.44
280.505	240.44
280.736	259.44
280.968	260.44
281.199	257.44
281.431	260.44
281.662	237.44
281.894	259.44
282.125	261.44
282.356	279.44
282.588	293.44
282.819	295.44
283.051	270.44
283.282	253.44
283.513	261.44
283.745	242.44
283.976	263.44
284.207	261.44
284.439	273.44
284.67	246.44
284.901	265.44
285.132	246.44
285.364	259.44
285.595	244.44
285.826	265.44
286.057	268.44
286.288	264.44
286.52	265.44
286.751	259.44
286.982	261.44
287.213	278.44
287.444	280.44
287.675	277.44
287.906	261.44
288.138	277.44
288.369	284.44
288.6	299.44
288.831	305.44
289.062	290.44
289.293	286.44
289.524	263.44
289.755	271.44
289.986	283.44
290.217	255.44
290.448	258.44
290.679	280.44
290.91	275.44
291.141	268.44
291.371	271.44
291.602	261.44
291.833	285.44
292.064	273.44
292.295	268.44
292.526	279.44
292.757	285.44
292.987	284.44
293.218	263.44
293.449	295.44
293.68	265.44
293.91	269.44
294.141	259.44
294.372	261.44
294.603	275.44
294.833	260.44
295.064	289.44
295.295	278.44
295.525	283.44
295.756	283.44
295.987	281.44
296.217	296.44
296.448	333.44
296.679	274.44
296.909	261.44
297.14	281.44
297.37	261.44
297.601	275.44
297.831	281.44
298.062	292.44
298.292	275.44
298.523	280.44
298.753	280.44
298.984	279.44
299.214	273.44
299.445	292.44
299.675	312.44
299.905	291.44
300.136	294.44
300.366	304.44
300.597	295.44
300.827	305.44
301.057	320.44
301.288	295.44
301.518	292.44
301.748	288.44
301.979	325.44
302.209	315.44
302.439	292.44
302.669	292.44
302.9	308.44
303.13	312.44
303.36	322.44
303.59	314.44
303.82	309.44
304.051	314.44
304.281	303.44
304.511	287.44
304.741	307.44
304.971	298.44
305.201	299.44
305.431	312.44
305.661	313.44
305.891	283.44
306.121	314.44
306.352	303.44
306.582	351.44
306.812	315.44
307.042	303.44
307.272	327.44
307.502	313.44
307.731	320.44
307.961	309.44
308.191	315.44
308.421	307.44
308.651	325.44
308.881	316.44
309.111	311.44
309.341	325.44
309.571	336.44
309.8	346.44
310.03	369.44
310.26	362.44
310.49	352.44
310.72	369.44
310.949	401.44
311.179	389.44
311.409	365.44
311.639	363.44
311.868	351.44
312.098	368.44
312.328	379.44
312.557	383.44
312.787	398.44
313.017	391.44
313.246	379.44
313.476	351.44
313.706	357.44
313.935	383.44
314.165	385.44
314.394	398.44
314.624	393.44
314.853	360.44
315.083	347.44
315.312	363.44
315.542	360.44
315.771	322.44
316.001	335.44
316.23	350.44
316.46	374.44
316.689	359.44
316.919	375.44
317.148	380.44
317.377	377.44
317.607	365.44
317.836	387.44
318.065	373.44
318.295	379.44
318.524	365.44
318.753	353.44
318.983	367.44
319.212	365.44
319.441	375.44
319.67	379.44
319.9	377.44
320.129	349.44
320.358	364.44
320.587	387.44
320.816	370.44
321.046	383.44
321.275	411.44
321.504	391.44
321.733	387.44
321.962	396.44
322.191	419.44
322.42	453.44
322.649	439.44
322.878	472.44
323.108	468.44
323.337	508.44
323.566	547.44
323.795	561.44
324.024	601.44
324.253	749.44
324.482	1073.44
324.71	1733.44
324.939	2475.44
325.168	2103.44
325.397	1089.44
325.626	744.44
325.855	609.44
326.084	531.44
326.313	505.44
326.542	537.44
326.77	581.44
326.999	672.44
327.228	976.44
327.457	1469.44
327.686	1800.44
327.914	1207.44
328.143	801.44
328.372	707.44
328.6	650.44
328.829	594.44
329.058	619.44
329.287	617.44
329.515	590.44
329.744	547.44
329.972	507.44
330.201	556.44
330.43	605.44
330.658	620.44
330.887	622.44
331.115	647.44
331.344	565.44
331.572	507.44
331.801	501.44
332.03	497.44
332.258	482.44
332.486	450.44
332.715	436.44
332.943	396.44
333.172	445.44
333.4	433.44
333.629	455.44
333.857	461.44
334.085	483.44
334.314	476.44
334.542	509.44
334.771	525.44
334.999	490.44
335.227	443.44
335.455	426.44
335.684	432.44
335.912	425.44
336.14	407.44
336.369	439.44
336.597	461.44
336.825	437.44
337.053	425.44
337.281	427.44
337.51	426.44
337.738	438.44
337.966	425.44
338.194	444.44
338.422	428.44
338.65	420.44
338.878	397.44
339.106	408.44
339.334	420.44
339.562	405.44
339.79	394.44
340.018	431.44
340.246	411.44
340.474	433.44
340.702	425.44
340.93	423.44
341.158	412.44
341.386	433.44
341.614	442.44
341.842	401.44
342.07	411.44
342.298	396.44
342.526	421.44
342.754	400.44
342.981	373.44
343.209	392.44
343.437	396.44
343.665	410.44
343.893	404.44
344.12	411.44
344.348	417.44
344.576	408.44
344.804	420.44
345.031	427.44
345.259	462.44
345.487	433.44
345.714	431.44
345.942	415.44
346.17	391.44
346.397	397.44
346.625	405.44
346.853	407.44
347.08	422.44
347.308	419.44
347.535	419.44
347.763	429.44
347.99	431.44
348.218	430.44
348.445	420.44
348.673	453.44
348.9	407.44
349.128	408.44
349.355	392.44
349.583	412.44
349.81	376.44
350.037	405.44
350.265	390.44
350.492	401.44
350.72	411.44
350.947	413.44
351.174	437.44
351.402	431.44
351.629	435.44
351.856	432.44
352.083	422.44
352.311	446.44
352.538	437.44
352.765	437.44
352.992	449.44
353.22	418.44
353.447	408.44
353.674	409.44
353.901	409.44
354.128	405.44
354.355	395.44
354.583	394.44
354.81	381.44
355.037	389.44
355.264	380.44
355.491	378.44
355.718	386.44
355.945	375.44
356.172	383.44
356.399	384.44
356.626	383.44
356.853	387.44
357.08	381.44
357.307	374.44
357.534	397.44
357.761	378.44
357.988	387.44
358.215	381.44
358.441	370.44
358.668	381.44
358.895	387.44
359.122	383.44
359.349	399.44
359.576	418.44
359.802	459.44
360.029	475.44
360.256	512.44
360.483	452.44
360.709	433.44
360.936	416.44
361.163	426.44
361.39	437.44
361.616	416.44
361.843	422.44
362.07	409.44
362.296	409.44
362.523	431.44
362.749	419.44
362.976	403.44
363.203	401.44
363.429	388.44
363.656	417.44
363.882	383.44
364.109	399.44
364.335	410.44
364.562	402.44
364.788	415.44
365.015	391.44
365.241	391.44
365.468	407.44
365.694	431.44
365.92	411.44
366.147	395.44
366.373	403.44
366.599	409.44
366.826	391.44
367.052	381.44
367.278	397.44
367.505	395.44
367.731	398.44
367.957	404.44
368.184	409.44
368.41	411.44
368.636	423.44
368.862	418.44
369.089	404.44
369.315	404.44
369.541	393.44
369.767	397.44
369.993	392.44
370.219	394.44
370.445	386.44
370.672	401.44
370.898	372.44
371.124	381.44
371.35	377.44
371.576	389.44
371.802	404.44
372.028	391.44
372.254	397.44
372.48	406.44
372.706	405.44
372.932	392.44
373.158	401.44
373.384	391.44
373.61	406.44
373.835	397.44
374.061	402.44
374.287	411.44
374.513	405.44
374.739	395.44
374.965	392.44
375.191	400.44
375.416	400.44
375.642	372.44
375.868	407.44
376.094	394.44
376.319	380.44
376.545	380.44
376.771	401.44
376.997	396.44
377.222	396.44
377.448	397.44
377.674	387.44
377.899	393.44
378.125	394.44
378.35	389.44
378.576	385.44
378.802	397.44
379.027	393.44
379.253	394.44
379.478	388.44
379.704	389.44
379.929	411.44
380.155	408.44
380.38	399.44
380.606	404.44
380.831	418.44
381.057	426.44
381.282	413.44
381.507	425.44
381.733	394.44
381.958	427.44
382.184	415.44
382.409	397.44
382.634	411.44
382.86	416.44
383.085	422.44
383.31	398.44
383.535	406.44
383.761	400.44
383.986	421.44
384.211	406.44
384.436	411.44
384.662	437.44
384.887	422.44
385.112	426.44
385.337	423.44
385.562	433.44
385.787	431.44
386.013	448.44
386.238	457.44
386.463	429.44
386.688	435.44
386.913	426.44
387.138	427.44
387.363	443.44
387.588	440.44
387.813	436.44
388.038	436.44
388.263	434.44
388.488	443.44
388.713	429.44
388.938	411.44
389.163	434.44
389.387	440.44
389.612	433.44
389.837	466.44
390.062	423.44
390.287	437.44
390.512	455.44
390.736	426.44
390.961	433.44
391.186	456.44
391.411	455.44
391.636	423.44
391.86	437.44
392.085	433.44
392.31	451.44
392.534	465.44
392.759	425.44
392.984	444.44
393.208	427.44
393.433	472.44
393.658	457.44
393.882	439.44
394.107	432.44
394.331	443.44
394.556	440.44
394.78	415.44
395.005	445.44
395.229	423.44
395.454	428.44
395.678	458.44
395.903	453.44
396.127	472.44
396.352	495.44
396.576	463.44
396.801	461.44
397.025	458.44
397.249	465.44
397.474	463.44
397.698	471.44
397.922	480.44
398.147	499.44
398.371	501.44
398.595	483.44
398.82	493.44
399.044	498.44
399.268	506.44
399.492	496.44
399.717	551.44
399.941	555.44
400.165	619.44
400.389	606.44
400.613	565.44
400.837	497.44
401.062	499.44
401.286	503.44
401.51	500.44
401.734	499.44
401.958	496.44
402.182	519.44
402.406	537.44
402.63	525.44
402.854	529.44
403.078	509.44
403.302	545.44
403.526	529.44
403.75	516.44
403.974	520.44
404.198	519.44
404.422	503.44
404.645	552.44
404.869	541.44
405.093	559.44
405.317	603.44
405.541	623.44
405.765	580.44
405.988	573.44
406.212	557.44
406.436	607.44
406.66	618.44
406.883	588.44
407.107	589.44
407.331	627.44
407.555	687.44
407.778	716.44
408.002	645.44
408.226	597.44
408.449	598.44
408.673	563.44
408.896	611.44
409.12	667.44
409.344	625.44
409.567	573.44
409.791	542.44
410.014	531.44
410.238	524.44
410.461	532.44
410.685	548.44
410.908	534.44
411.132	599.44
411.355	628.44
411.578	589.44
411.802	530.44
412.025	505.44
412.249	532.44
412.472	556.44
412.695	587.44
412.919	606.44
413.142	535.44
413.365	517.44
413.589	512.44
413.812	500.44
414.035	510.44
414.258	507.44
414.482	501.44
414.705	488.44
414.928	517.44
415.151	484.44
415.374	493.44
415.597	491.44
415.821	496.44
416.044	511.44
416.267	503.44
416.49	491.44
416.713	503.44
416.936	490.44
417.159	507.44
417.382	513.44
417.605	522.44
417.828	538.44
418.051	525.44
418.274	511.44
418.497	487.44
418.72	505.44
418.943	490.44
419.166	522.44
419.389	544.44
419.611	507.44
419.834	544.44
420.057	531.44
420.28	531.44
420.503	537.44
420.726	534.44
420.948	542.44
421.171	597.44
421.394	629.44
421.617	564.44
421.839	549.44
422.062	549.44
422.285	537.44
422.507	633.44
422.73	693.44
422.953	665.44
423.175	623.44
423.398	563.44
423.621	564.44
423.843	585.44
424.066	579.44
424.288	567.44
424.511	602.44
424.733	664.44
424.956	752.44
425.178	723.44
425.401	718.44
425.623	757.44
425.846	650.44
426.068	615.44
426.291	579.44
426.513	600.44
426.735	595.44
426.958	633.44
427.18	729.44
427.402	881.44
427.625	963.44
427.847	895.44
428.069	742.44
428.292	671.44
428.514	604.44
428.736	573.44
428.958	577.44
429.181	569.44
429.403	553.44
429.625	565.44
429.847	600.44
430.069	668.44
430.292	659.44
430.514	560.44
430.736	567.44
430.958	531.44
431.18	520.44
431.402	522.44
431.624	498.44
431.846	516.44
432.068	524.44
432.29	488.44
432.512	518.44
432.734	539.44
432.956	535.44
433.178	525.44
433.4	543.44
433.622	516.44
433.844	531.44
434.066	497.44
434.287	499.44
434.509	517.44
434.731	511.44
434.953	536.44
435.175	548.44
435.397	589.44
435.618	600.44
435.84	621.44
436.062	758.44
436.284	804.44
436.505	697.44
436.727	611.44
436.949	587.44
437.17	562.44
437.392	541.44
437.614	573.44
437.835	596.44
438.057	724.44
438.278	811.44
438.5	809.44
438.721	872.44
438.943	864.44
439.165	701.44
439.386	647.44
439.608	617.44
439.829	622.44
440.05	645.44
440.272	695.44
440.493	637.44
440.715	601.44
440.936	580.44
441.158	551.44
441.379	554.44
441.6	579.44
441.822	596.44
442.043	625.44
442.264	745.44
442.486	760.44
442.707	655.44
442.928	629.44
443.149	607.44
443.371	633.44
443.592	676.44
443.813	762.44
444.034	833.44
444.255	716.44
444.476	620.44
444.698	611.44
444.919	590.44
445.14	679.44
445.361	659.44
445.582	661.44
445.803	722.44
446.024	847.44
446.245	837.44
446.466	778.44
446.687	660.44
446.908	607.44
447.129	556.44
447.35	539.44
447.571	563.44
447.792	560.44
448.013	599.44
448.234	598.44
448.455	643.44
448.675	780.44
448.896	884.44
449.117	756.44
449.338	690.44
449.559	816.44
449.779	917.44
450	751.44
450.221	625.44
450.442	554.44
450.662	577.44
450.883	580.44
451.104	596.44
451.324	578.44
451.545	544.44
451.766	518.44
451.986	485.44
452.207	509.44
452.428	501.44
452.648	516.44
452.869	503.44
453.089	522.44
453.31	515.44
453.53	511.44
453.751	495.44
453.971	519.44
454.192	544.44
454.412	505.44
454.633	497.44
454.853	507.44
455.073	499.44
455.294	527.44
455.514	603.44
455.734	588.44
455.955	506.44
456.175	477.44
456.395	471.44
456.616	455.44
456.836	433.44
457.056	455.44
457.276	451.44
457.497	481.44
457.717	472.44
457.937	476.44
458.157	487.44
458.377	485.44
458.598	515.44
458.818	575.44
459.038	681.44
459.258	708.44
459.478	607.44
459.698	535.44
459.918	515.44
460.138	514.44
460.358	523.44
460.578	512.44
460.798	517.44
461.018	491.44
461.238	492.44
461.458	510.44
461.678	507.44
461.898	521.44
462.118	510.44
462.338	504.44
462.558	520.44
462.777	558.44
462.997	531.44
463.217	540.44
463.437	568.44
463.657	520.44
463.876	531.44
464.096	537.44
464.316	506.44
464.536	533.44
464.755	559.44
464.975	553.44
465.195	600.44
465.414	688.44
465.634	646.44
465.854	575.44
466.073	531.44
466.293	540.44
466.512	506.44
466.732	496.44
466.951	501.44
467.171	483.44
467.391	511.44
467.61	526.44
467.829	549.44
468.049	548.44
468.268	526.44
468.488	510.44
468.707	487.44
468.927	506.44
469.146	493.44
469.365	500.44
469.585	480.44
469.804	500.44
470.023	521.44
470.243	522.44
470.462	517.44
470.681	539.44
470.901	545.44
471.12	529.44
471.339	527.44
471.558	496.44
471.777	503.44
471.997	506.44
472.216	516.44
472.435	566.44
472.654	551.44
472.873	498.44
473.092	500.44
473.311	504.44
473.53	499.44
473.749	513.44
473.968	579.44
474.187	677.44
474.406	719.44
474.625	587.44
474.844	527.44
475.063	536.44
475.282	528.44
475.501	499.44
475.72	540.44
475.939	529.44
476.158	523.44
476.377	513.44
476.596	530.44
476.814	540.44
477.033	560.44
477.252	550.44
477.471	547.44
477.69	548.44
477.908	563.44
478.127	567.44
478.346	554.44
478.564	559.44
478.783	547.44
479.002	579.44
479.22	611.44
479.439	610.44
479.658	600.44
479.876	618.44
480.095	623.44
480.313	657.44
480.532	633.44
480.751	642.44
480.969	667.44
481.188	709.44
481.406	748.44
481.624	659.44
481.843	643.44
482.061	621.44
482.28	640.44
482.498	630.44
482.717	612.44
482.935	600.44
483.153	600.44
483.372	586.44
483.59	604.44
483.808	592.44
484.027	611.44
484.245	632.44
484.463	631.44
484.681	632.44
484.9	627.44
485.118	648.44
485.336	625.44
485.554	631.44
485.772	660.44
485.99	631.44
486.209	625.44
486.427	636.44
486.645	639.44
486.863	652.44
487.081	682.44
487.299	664.44
487.517	684.44
487.735	653.44
487.953	676.44
488.171	684.44
488.389	646.44
488.607	653.44
488.825	666.44
489.043	681.44
489.261	665.44
489.479	675.44
489.696	692.44
489.914	687.44
490.132	729.44
490.35	711.44
490.568	693.44
490.786	726.44
491.003	724.44
491.221	751.44
491.439	776.44
491.657	773.44
491.874	763.44
492.092	780.44
492.31	794.44
492.527	769.44
492.745	765.44
492.963	764.44
493.18	802.44
493.398	813.44
493.615	801.44
493.833	801.44
494.05	798.44
494.268	810.44
494.485	781.44
494.703	795.44
494.92	801.44
495.138	796.44
495.355	806.44
495.573	805.44
495.79	819.44
496.008	779.44
496.225	788.44
496.442	819.44
496.66	805.44
496.877	791.44
497.094	820.44
497.312	801.44
497.529	809.44
497.746	825.44
497.963	857.44
498.181	859.44
498.398	855.44
498.615	863.44
498.832	892.44
499.049	875.44
499.267	887.44
499.484	897.44
499.701	890.44
499.918	935.44
500.135	977.44
500.352	1002.44
500.569	993.44
500.786	1015.44
501.003	1008.44
501.22	992.44
501.437	964.44
501.654	964.44
