Data from 1971.PennyLincolnUp.Lamp.En5.5.200Scan.071719.P1.Scan 2. Changed Angle._HRD10591_15-25-12-842.txt Node
Date: Thu Jul 18 15:25:12 EDT 2019
User: cochatt
Spectrometer: HR+D1059
Trigger mode: 1
Integration Time (sec): 1.000000E-1
Scans to average: 1
Electric dark correction enabled: true
Nonlinearity correction enabled: false
Boxcar width: 0
XAxis mode: Wavelengths
Number of Pixels in Spectrum: 2048
>>>>>Begin Spectral Data<<<<<
223.165	-24.62
223.4	-24.62
223.635	-24.62
223.869	-24.62
224.104	-11.62
224.338	-15.62
224.573	-14.62
224.808	-5.62
225.042	4.38
225.277	-5.62
225.511	-4.62
225.746	7.38
225.98	8.38
226.215	4.38
226.449	8.38
226.683	25.38
226.918	28.38
227.152	20.38
227.387	28.38
227.621	39.38
227.856	38.38
228.09	61.38
228.324	39.38
228.559	65.38
228.793	73.38
229.027	111.38
229.262	130.38
229.496	143.38
229.73	171.38
229.964	171.38
230.199	149.38
230.433	132.38
230.667	150.38
230.901	123.38
231.136	124.38
231.37	138.38
231.604	124.38
231.838	121.38
232.072	126.38
232.306	112.38
232.541	124.38
232.775	121.38
233.009	115.38
233.243	125.38
233.477	134.38
233.711	130.38
233.945	134.38
234.179	128.38
234.413	118.38
234.647	127.38
234.881	126.38
235.115	114.38
235.349	132.38
235.583	140.38
235.817	151.38
236.051	141.38
236.285	140.38
236.519	147.38
236.753	158.38
236.987	179.38
237.221	211.38
237.455	279.38
237.689	200.38
237.922	160.38
238.156	147.38
238.39	134.38
238.624	134.38
238.858	133.38
239.091	133.38
239.325	131.38
239.559	125.38
239.793	144.38
240.027	133.38
240.26	166.38
240.494	188.38
240.728	172.38
240.961	150.38
241.195	154.38
241.429	144.38
241.662	151.38
241.896	154.38
242.13	129.38
242.363	132.38
242.597	142.38
242.83	157.38
243.064	141.38
243.298	131.38
243.531	159.38
243.765	136.38
243.998	153.38
244.232	154.38
244.465	157.38
244.699	139.38
244.932	156.38
245.166	157.38
245.399	145.38
245.633	157.38
245.866	160.38
246.099	154.38
246.333	158.38
246.566	163.38
246.8	166.38
247.033	175.38
247.266	161.38
247.5	159.38
247.733	193.38
247.966	173.38
248.2	186.38
248.433	198.38
248.666	166.38
248.899	208.38
249.133	214.38
249.366	252.38
249.599	245.38
249.832	205.38
250.066	193.38
250.299	201.38
250.532	210.38
250.765	230.38
250.998	248.38
251.231	248.38
251.465	237.38
251.698	252.38
251.931	233.38
252.164	212.38
252.397	232.38
252.63	231.38
252.863	207.38
253.096	234.38
253.329	250.38
253.562	245.38
253.795	238.38
254.028	246.38
254.261	229.38
254.494	266.38
254.727	293.38
254.96	312.38
255.193	291.38
255.426	289.38
255.659	271.38
255.892	241.38
256.124	252.38
256.357	266.38
256.59	237.38
256.823	252.38
257.056	224.38
257.289	220.38
257.521	225.38
257.754	231.38
257.987	220.38
258.22	236.38
258.452	236.38
258.685	220.38
258.918	225.38
259.151	213.38
259.383	225.38
259.616	246.38
259.849	249.38
260.081	240.38
260.314	268.38
260.547	293.38
260.779	263.38
261.012	274.38
261.244	242.38
261.477	245.38
261.71	233.38
261.942	259.38
262.175	246.38
262.407	258.38
262.64	250.38
262.872	225.38
263.105	213.38
263.337	217.38
263.57	223.38
263.802	229.38
264.035	221.38
264.267	228.38
264.499	237.38
264.732	230.38
264.964	243.38
265.197	233.38
265.429	231.38
265.661	221.38
265.894	207.38
266.126	220.38
266.358	228.38
266.591	223.38
266.823	228.38
267.055	228.38
267.287	248.38
267.52	236.38
267.752	250.38
267.984	224.38
268.216	233.38
268.448	257.38
268.681	254.38
268.913	258.38
269.145	288.38
269.377	306.38
269.609	297.38
269.841	293.38
270.073	297.38
270.306	322.38
270.538	337.38
270.77	335.38
271.002	342.38
271.234	320.38
271.466	315.38
271.698	353.38
271.93	332.38
272.162	342.38
272.394	353.38
272.626	331.38
272.858	301.38
273.09	300.38
273.322	303.38
273.553	274.38
273.785	280.38
274.017	270.38
274.249	284.38
274.481	274.38
274.713	274.38
274.945	287.38
275.176	290.38
275.408	278.38
275.64	285.38
275.872	265.38
276.104	274.38
276.335	285.38
276.567	277.38
276.799	300.38
277.031	331.38
277.262	337.38
277.494	328.38
277.726	316.38
277.957	299.38
278.189	263.38
278.421	284.38
278.652	274.38
278.884	279.38
279.115	252.38
279.347	278.38
279.579	268.38
279.81	262.38
280.042	287.38
280.273	267.38
280.505	265.38
280.736	272.38
280.968	279.38
281.199	297.38
281.431	267.38
281.662	261.38
281.894	255.38
282.125	273.38
282.356	293.38
282.588	330.38
282.819	323.38
283.051	274.38
283.282	268.38
283.513	278.38
283.745	283.38
283.976	271.38
284.207	287.38
284.439	276.38
284.67	279.38
284.901	302.38
285.132	275.38
285.364	271.38
285.595	288.38
285.826	267.38
286.057	266.38
286.288	257.38
286.52	267.38
286.751	289.38
286.982	285.38
287.213	285.38
287.444	288.38
287.675	286.38
287.906	283.38
288.138	297.38
288.369	283.38
288.6	309.38
288.831	295.38
289.062	301.38
289.293	303.38
289.524	280.38
289.755	283.38
289.986	280.38
290.217	269.38
290.448	270.38
290.679	283.38
290.91	287.38
291.141	272.38
291.371	303.38
291.602	285.38
291.833	286.38
292.064	280.38
292.295	289.38
292.526	271.38
292.757	274.38
292.987	296.38
293.218	280.38
293.449	280.38
293.68	306.38
293.91	295.38
294.141	273.38
294.372	277.38
294.603	292.38
294.833	282.38
295.064	276.38
295.295	295.38
295.525	274.38
295.756	303.38
295.987	292.38
296.217	314.38
296.448	337.38
296.679	306.38
296.909	293.38
297.14	295.38
297.37	302.38
297.601	274.38
297.831	285.38
298.062	313.38
298.292	292.38
298.523	286.38
298.753	292.38
298.984	299.38
299.214	284.38
299.445	302.38
299.675	298.38
299.905	311.38
300.136	288.38
300.366	298.38
300.597	305.38
300.827	313.38
301.057	308.38
301.288	316.38
301.518	325.38
301.748	305.38
301.979	291.38
302.209	317.38
302.439	328.38
302.669	305.38
302.9	321.38
303.13	338.38
303.36	329.38
303.59	320.38
303.82	351.38
304.051	323.38
304.281	319.38
304.511	288.38
304.741	303.38
304.971	320.38
305.201	319.38
305.431	334.38
305.661	304.38
305.891	305.38
306.121	329.38
306.352	353.38
306.582	344.38
306.812	334.38
307.042	318.38
307.272	324.38
307.502	312.38
307.731	311.38
307.961	320.38
308.191	315.38
308.421	340.38
308.651	352.38
308.881	354.38
309.111	336.38
309.341	335.38
309.571	349.38
309.8	380.38
310.03	384.38
310.26	382.38
310.49	412.38
310.72	391.38
310.949	408.38
311.179	431.38
311.409	392.38
311.639	393.38
311.868	383.38
312.098	362.38
312.328	412.38
312.557	421.38
312.787	442.38
313.017	422.38
313.246	394.38
313.476	392.38
313.706	405.38
313.935	378.38
314.165	398.38
314.394	431.38
314.624	423.38
314.853	407.38
315.083	412.38
315.312	367.38
315.542	361.38
315.771	359.38
316.001	365.38
316.23	364.38
316.46	380.38
316.689	392.38
316.919	382.38
317.148	399.38
317.377	392.38
317.607	393.38
317.836	394.38
318.065	376.38
318.295	393.38
318.524	374.38
318.753	376.38
318.983	360.38
319.212	374.38
319.441	414.38
319.67	393.38
319.9	382.38
320.129	391.38
320.358	392.38
320.587	411.38
320.816	386.38
321.046	426.38
321.275	424.38
321.504	400.38
321.733	410.38
321.962	428.38
322.191	428.38
322.42	476.38
322.649	476.38
322.878	496.38
323.108	526.38
323.337	529.38
323.566	563.38
323.795	615.38
324.024	658.38
324.253	827.38
324.482	1212.38
324.71	1950.38
324.939	2814.38
325.168	2393.38
325.397	1229.38
325.626	802.38
325.855	653.38
326.084	588.38
326.313	555.38
326.542	590.38
326.77	632.38
326.999	772.38
327.228	1101.38
327.457	1682.38
327.686	2088.38
327.914	1385.38
328.143	895.38
328.372	790.38
328.6	700.38
328.829	673.38
329.058	703.38
329.287	692.38
329.515	649.38
329.744	572.38
329.972	590.38
330.201	607.38
330.43	652.38
330.658	706.38
330.887	745.38
331.115	711.38
331.344	560.38
331.572	543.38
331.801	545.38
332.03	525.38
332.258	508.38
332.486	468.38
332.715	478.38
332.943	458.38
333.172	448.38
333.4	475.38
333.629	465.38
333.857	502.38
334.085	496.38
334.314	515.38
334.542	576.38
334.771	590.38
334.999	530.38
335.227	486.38
335.455	458.38
335.684	470.38
335.912	446.38
336.14	446.38
336.369	453.38
336.597	459.38
336.825	473.38
337.053	453.38
337.281	446.38
337.51	452.38
337.738	435.38
337.966	440.38
338.194	457.38
338.422	457.38
338.65	472.38
338.878	429.38
339.106	424.38
339.334	425.38
339.562	432.38
339.79	424.38
340.018	448.38
340.246	437.38
340.474	451.38
340.702	453.38
340.93	439.38
341.158	416.38
341.386	452.38
341.614	452.38
341.842	444.38
342.07	414.38
342.298	446.38
342.526	427.38
342.754	428.38
342.981	421.38
343.209	393.38
343.437	420.38
343.665	403.38
343.893	403.38
344.12	405.38
344.348	422.38
344.576	412.38
344.804	464.38
345.031	468.38
345.259	496.38
345.487	461.38
345.714	459.38
345.942	424.38
346.17	443.38
346.397	436.38
346.625	433.38
346.853	443.38
347.08	421.38
347.308	432.38
347.535	441.38
347.763	449.38
347.99	468.38
348.218	458.38
348.445	470.38
348.673	442.38
348.9	433.38
349.128	416.38
349.355	421.38
349.583	432.38
349.81	418.38
350.037	417.38
350.265	418.38
350.492	426.38
350.72	448.38
350.947	433.38
351.174	446.38
351.402	452.38
351.629	456.38
351.856	439.38
352.083	445.38
352.311	478.38
352.538	477.38
352.765	465.38
352.992	454.38
353.22	443.38
353.447	443.38
353.674	442.38
353.901	415.38
354.128	394.38
354.355	390.38
354.583	426.38
354.81	400.38
355.037	393.38
355.264	406.38
355.491	400.38
355.718	390.38
355.945	388.38
356.172	393.38
356.399	393.38
356.626	405.38
356.853	390.38
357.08	365.38
357.307	418.38
357.534	370.38
357.761	388.38
357.988	394.38
358.215	412.38
358.441	411.38
358.668	405.38
358.895	422.38
359.122	433.38
359.349	414.38
359.576	445.38
359.802	474.38
360.029	486.38
360.256	527.38
360.483	506.38
360.709	473.38
360.936	445.38
361.163	447.38
361.39	452.38
361.616	447.38
361.843	450.38
362.07	457.38
362.296	446.38
362.523	448.38
362.749	426.38
362.976	445.38
363.203	445.38
363.429	412.38
363.656	418.38
363.882	413.38
364.109	398.38
364.335	427.38
364.562	419.38
364.788	411.38
365.015	406.38
365.241	421.38
365.468	410.38
365.694	425.38
365.92	433.38
366.147	423.38
366.373	400.38
366.599	408.38
366.826	409.38
367.052	406.38
367.278	401.38
367.505	410.38
367.731	417.38
367.957	400.38
368.184	412.38
368.41	422.38
368.636	431.38
368.862	445.38
369.089	439.38
369.315	416.38
369.541	428.38
369.767	404.38
369.993	395.38
370.219	404.38
370.445	415.38
370.672	397.38
370.898	430.38
371.124	397.38
371.35	386.38
371.576	396.38
371.802	406.38
372.028	398.38
372.254	415.38
372.48	412.38
372.706	421.38
372.932	426.38
373.158	418.38
373.384	424.38
373.61	390.38
373.835	406.38
374.061	411.38
374.287	417.38
374.513	413.38
374.739	407.38
374.965	406.38
375.191	424.38
375.416	427.38
375.642	431.38
375.868	415.38
376.094	427.38
376.319	421.38
376.545	391.38
376.771	410.38
376.997	394.38
377.222	430.38
377.448	412.38
377.674	410.38
377.899	406.38
378.125	401.38
378.35	396.38
378.576	402.38
378.802	406.38
379.027	392.38
379.253	413.38
379.478	391.38
379.704	398.38
379.929	397.38
380.155	416.38
380.38	414.38
380.606	439.38
380.831	414.38
381.057	435.38
381.282	431.38
381.507	418.38
381.733	426.38
381.958	406.38
382.184	414.38
382.409	409.38
382.634	430.38
382.86	416.38
383.085	408.38
383.31	409.38
383.535	410.38
383.761	409.38
383.986	421.38
384.211	421.38
384.436	417.38
384.662	428.38
384.887	413.38
385.112	441.38
385.337	450.38
385.562	406.38
385.787	429.38
386.013	470.38
386.238	458.38
386.463	455.38
386.688	438.38
386.913	436.38
387.138	445.38
387.363	430.38
387.588	421.38
387.813	429.38
388.038	433.38
388.263	444.38
388.488	444.38
388.713	437.38
388.938	429.38
389.163	442.38
389.387	458.38
389.612	430.38
389.837	441.38
390.062	421.38
390.287	449.38
390.512	440.38
390.736	448.38
390.961	460.38
391.186	442.38
391.411	433.38
391.636	458.38
391.86	420.38
392.085	430.38
392.31	426.38
392.534	457.38
392.759	453.38
392.984	441.38
393.208	447.38
393.433	454.38
393.658	456.38
393.882	410.38
394.107	458.38
394.331	433.38
394.556	433.38
394.78	451.38
395.005	441.38
395.229	453.38
395.454	437.38
395.678	461.38
395.903	480.38
396.127	481.38
396.352	466.38
396.576	477.38
396.801	445.38
397.025	441.38
397.249	477.38
397.474	483.38
397.698	457.38
397.922	483.38
398.147	493.38
398.371	502.38
398.595	512.38
398.82	499.38
399.044	481.38
399.268	503.38
399.492	551.38
399.717	537.38
399.941	562.38
400.165	603.38
400.389	632.38
400.613	566.38
400.837	544.38
401.062	516.38
401.286	530.38
401.51	525.38
401.734	515.38
401.958	500.38
402.182	509.38
402.406	535.38
402.63	528.38
402.854	544.38
403.078	522.38
403.302	533.38
403.526	529.38
403.75	526.38
403.974	527.38
404.198	522.38
404.422	530.38
404.645	527.38
404.869	549.38
405.093	578.38
405.317	648.38
405.541	637.38
405.765	612.38
405.988	552.38
406.212	575.38
406.436	605.38
406.66	601.38
406.883	583.38
407.107	624.38
407.331	663.38
407.555	731.38
407.778	707.38
408.002	649.38
408.226	614.38
408.449	620.38
408.673	583.38
408.896	621.38
409.12	683.38
409.344	621.38
409.567	574.38
409.791	537.38
410.014	521.38
410.238	549.38
410.461	534.38
410.685	534.38
410.908	584.38
411.132	593.38
411.355	656.38
411.578	620.38
411.802	555.38
412.025	545.38
412.249	552.38
412.472	590.38
412.695	634.38
412.919	627.38
413.142	553.38
413.365	550.38
413.589	526.38
413.812	521.38
414.035	507.38
414.258	522.38
414.482	493.38
414.705	514.38
414.928	503.38
415.151	472.38
415.374	496.38
415.597	479.38
415.821	481.38
416.044	512.38
416.267	496.38
416.49	509.38
416.713	524.38
416.936	495.38
417.159	510.38
417.382	535.38
417.605	528.38
417.828	525.38
418.051	548.38
418.274	507.38
418.497	515.38
418.72	524.38
418.943	518.38
419.166	551.38
419.389	550.38
419.611	557.38
419.834	558.38
420.057	586.38
420.28	552.38
420.503	562.38
420.726	566.38
420.948	570.38
421.171	613.38
421.394	653.38
421.617	598.38
421.839	562.38
422.062	527.38
422.285	591.38
422.507	646.38
422.73	719.38
422.953	701.38
423.175	644.38
423.398	604.38
423.621	582.38
423.843	600.38
424.066	610.38
424.288	599.38
424.511	637.38
424.733	668.38
424.956	776.38
425.178	735.38
425.401	734.38
425.623	762.38
425.846	649.38
426.068	621.38
426.291	618.38
426.513	594.38
426.735	607.38
426.958	675.38
427.18	756.38
427.402	898.38
427.625	990.38
427.847	908.38
428.069	781.38
428.292	679.38
428.514	606.38
428.736	630.38
428.958	583.38
429.181	580.38
429.403	582.38
429.625	597.38
429.847	625.38
430.069	699.38
430.292	700.38
430.514	583.38
430.736	538.38
430.958	547.38
431.18	555.38
431.402	527.38
431.624	531.38
431.846	525.38
432.068	517.38
432.29	534.38
432.512	547.38
432.734	553.38
432.956	522.38
433.178	530.38
433.4	557.38
433.622	554.38
433.844	560.38
434.066	528.38
434.287	530.38
434.509	549.38
434.731	542.38
434.953	545.38
435.175	565.38
435.397	594.38
435.618	614.38
435.84	658.38
436.062	742.38
436.284	848.38
436.505	714.38
436.727	651.38
436.949	598.38
437.17	568.38
437.392	570.38
437.614	593.38
437.835	638.38
438.057	751.38
438.278	853.38
438.5	885.38
438.721	922.38
438.943	889.38
439.165	721.38
439.386	658.38
439.608	652.38
439.829	654.38
440.05	674.38
440.272	742.38
440.493	710.38
440.715	619.38
440.936	607.38
441.158	564.38
441.379	571.38
441.6	597.38
441.822	634.38
442.043	670.38
442.264	780.38
442.486	770.38
442.707	702.38
442.928	666.38
443.149	648.38
443.371	681.38
443.592	708.38
443.813	820.38
444.034	854.38
444.255	720.38
444.476	648.38
444.698	630.38
444.919	617.38
445.14	725.38
445.361	692.38
445.582	676.38
445.803	757.38
446.024	913.38
446.245	873.38
446.466	787.38
446.687	684.38
446.908	660.38
447.129	594.38
447.35	600.38
447.571	571.38
447.792	584.38
448.013	605.38
448.234	614.38
448.455	669.38
448.675	817.38
448.896	895.38
449.117	784.38
449.338	749.38
449.559	841.38
449.779	943.38
450	753.38
450.221	637.38
450.442	618.38
450.662	591.38
450.883	610.38
451.104	616.38
451.324	597.38
451.545	572.38
451.766	536.38
451.986	509.38
452.207	519.38
452.428	506.38
452.648	524.38
452.869	522.38
453.089	548.38
453.31	524.38
453.53	540.38
453.751	509.38
453.971	523.38
454.192	566.38
454.412	537.38
454.633	521.38
454.853	508.38
455.073	512.38
455.294	540.38
455.514	632.38
455.734	617.38
455.955	536.38
456.175	482.38
456.395	485.38
456.616	489.38
456.836	479.38
457.056	467.38
457.276	458.38
457.497	470.38
457.717	471.38
457.937	496.38
458.157	484.38
458.377	502.38
458.598	546.38
458.818	631.38
459.038	704.38
459.258	711.38
459.478	605.38
459.698	560.38
459.918	530.38
460.138	536.38
460.358	524.38
460.578	508.38
460.798	525.38
461.018	516.38
461.238	506.38
461.458	526.38
461.678	522.38
461.898	530.38
462.118	510.38
462.338	524.38
462.558	536.38
462.777	537.38
462.997	544.38
463.217	564.38
463.437	542.38
463.657	554.38
463.876	555.38
464.096	557.38
464.316	547.38
464.536	536.38
464.755	565.38
464.975	564.38
465.195	644.38
465.414	760.38
465.634	654.38
465.854	600.38
466.073	576.38
466.293	556.38
466.512	518.38
466.732	527.38
466.951	510.38
467.171	519.38
467.391	546.38
467.61	534.38
467.829	552.38
468.049	550.38
468.268	519.38
468.488	536.38
468.707	524.38
468.927	510.38
469.146	514.38
469.365	530.38
469.585	511.38
469.804	508.38
470.023	542.38
470.243	546.38
470.462	567.38
470.681	572.38
470.901	545.38
471.12	548.38
471.339	512.38
471.558	543.38
471.777	550.38
471.997	517.38
472.216	551.38
472.435	585.38
472.654	582.38
472.873	558.38
473.092	529.38
473.311	536.38
473.53	541.38
473.749	553.38
473.968	590.38
474.187	698.38
474.406	719.38
474.625	604.38
474.844	542.38
475.063	561.38
475.282	547.38
475.501	559.38
475.72	557.38
475.939	543.38
476.158	530.38
476.377	555.38
476.596	518.38
476.814	557.38
477.033	573.38
477.252	580.38
477.471	557.38
477.69	566.38
477.908	574.38
478.127	583.38
478.346	591.38
478.564	608.38
478.783	571.38
479.002	589.38
479.22	609.38
479.439	613.38
479.658	652.38
479.876	645.38
480.095	641.38
480.313	680.38
480.532	660.38
480.751	652.38
480.969	664.38
481.188	745.38
481.406	805.38
481.624	683.38
481.843	662.38
482.061	654.38
482.28	652.38
482.498	652.38
482.717	645.38
482.935	619.38
483.153	634.38
483.372	645.38
483.59	640.38
483.808	640.38
484.027	633.38
484.245	655.38
484.463	647.38
484.681	651.38
484.9	664.38
485.118	656.38
485.336	645.38
485.554	649.38
485.772	642.38
485.99	644.38
486.209	644.38
486.427	650.38
486.645	676.38
486.863	729.38
487.081	706.38
487.299	674.38
487.517	668.38
487.735	667.38
487.953	658.38
488.171	687.38
488.389	692.38
488.607	685.38
488.825	672.38
489.043	668.38
489.261	720.38
489.479	679.38
489.696	712.38
489.914	706.38
490.132	705.38
490.35	727.38
490.568	753.38
490.786	734.38
491.003	772.38
491.221	753.38
491.439	793.38
491.657	770.38
491.874	801.38
492.092	798.38
492.31	810.38
492.527	828.38
492.745	824.38
492.963	820.38
493.18	807.38
493.398	858.38
493.615	843.38
493.833	843.38
494.05	823.38
494.268	828.38
494.485	848.38
494.703	838.38
494.92	825.38
495.138	848.38
495.355	815.38
495.573	855.38
495.79	839.38
496.008	813.38
496.225	843.38
496.442	831.38
496.66	830.38
496.877	830.38
497.094	837.38
497.312	829.38
497.529	860.38
497.746	857.38
497.963	869.38
498.181	886.38
498.398	888.38
498.615	884.38
498.832	892.38
499.049	874.38
499.267	893.38
499.484	920.38
499.701	932.38
499.918	936.38
500.135	970.38
500.352	996.38
500.569	996.38
500.786	1021.38
501.003	996.38
501.22	993.38
501.437	987.38
501.654	1017.38
