Data from 1971.PennyLincolnUp.Lamp.En5.5.200Scan.071719.P1.Scan 2. Changed Angle._HRD10591_15-24-38-842.txt Node
Date: Thu Jul 18 15:24:38 EDT 2019
User: cochatt
Spectrometer: HR+D1059
Trigger mode: 1
Integration Time (sec): 1.000000E-1
Scans to average: 1
Electric dark correction enabled: true
Nonlinearity correction enabled: false
Boxcar width: 0
XAxis mode: Wavelengths
Number of Pixels in Spectrum: 2048
>>>>>Begin Spectral Data<<<<<
223.165	-8.31
223.4	-8.31
223.635	-8.31
223.869	-7.31
224.104	-20.31
224.338	-15.31
224.573	-10.31
224.808	-16.31
225.042	-7.31
225.277	1.69
225.511	15.69
225.746	-9.31
225.98	-2.31
226.215	5.69
226.449	11.69
226.683	11.69
226.918	20.69
227.152	29.69
227.387	33.69
227.621	35.69
227.856	48.69
228.09	56.69
228.324	67.69
228.559	50.69
228.793	69.69
229.027	119.69
229.262	140.69
229.496	140.69
229.73	150.69
229.964	189.69
230.199	174.69
230.433	142.69
230.667	121.69
230.901	122.69
231.136	112.69
231.37	130.69
231.604	129.69
231.838	114.69
232.072	110.69
232.306	128.69
232.541	115.69
232.775	117.69
233.009	131.69
233.243	131.69
233.477	127.69
233.711	123.69
233.945	134.69
234.179	133.69
234.413	122.69
234.647	122.69
234.881	114.69
235.115	144.69
235.349	136.69
235.583	134.69
235.817	133.69
236.051	143.69
236.285	142.69
236.519	154.69
236.753	141.69
236.987	171.69
237.221	219.69
237.455	274.69
237.689	227.69
237.922	147.69
238.156	150.69
238.39	157.69
238.624	141.69
238.858	130.69
239.091	136.69
239.325	133.69
239.559	145.69
239.793	145.69
240.027	144.69
240.26	174.69
240.494	171.69
240.728	175.69
240.961	169.69
241.195	155.69
241.429	144.69
241.662	167.69
241.896	150.69
242.13	131.69
242.363	143.69
242.597	135.69
242.83	149.69
243.064	159.69
243.298	161.69
243.531	167.69
243.765	167.69
243.998	153.69
244.232	169.69
244.465	161.69
244.699	164.69
244.932	150.69
245.166	167.69
245.399	177.69
245.633	157.69
245.866	148.69
246.099	170.69
246.333	157.69
246.566	158.69
246.8	174.69
247.033	179.69
247.266	151.69
247.5	170.69
247.733	177.69
247.966	190.69
248.2	191.69
248.433	209.69
248.666	191.69
248.899	211.69
249.133	214.69
249.366	236.69
249.599	218.69
249.832	203.69
250.066	224.69
250.299	206.69
250.532	217.69
250.765	229.69
250.998	263.69
251.231	259.69
251.465	242.69
251.698	220.69
251.931	220.69
252.164	224.69
252.397	226.69
252.63	207.69
252.863	231.69
253.096	238.69
253.329	241.69
253.562	265.69
253.795	271.69
254.028	250.69
254.261	242.69
254.494	252.69
254.727	285.69
254.96	305.69
255.193	309.69
255.426	301.69
255.659	277.69
255.892	282.69
256.124	263.69
256.357	273.69
256.59	235.69
256.823	233.69
257.056	238.69
257.289	231.69
257.521	227.69
257.754	235.69
257.987	242.69
258.22	223.69
258.452	217.69
258.685	213.69
258.918	233.69
259.151	220.69
259.383	239.69
259.616	231.69
259.849	245.69
260.081	268.69
260.314	274.69
260.547	285.69
260.779	280.69
261.012	261.69
261.244	238.69
261.477	240.69
261.71	240.69
261.942	259.69
262.175	271.69
262.407	243.69
262.64	246.69
262.872	235.69
263.105	226.69
263.337	227.69
263.57	216.69
263.802	212.69
264.035	215.69
264.267	233.69
264.499	220.69
264.732	226.69
264.964	222.69
265.197	224.69
265.429	216.69
265.661	226.69
265.894	232.69
266.126	231.69
266.358	236.69
266.591	240.69
266.823	225.69
267.055	240.69
267.287	230.69
267.52	240.69
267.752	250.69
267.984	238.69
268.216	239.69
268.448	233.69
268.681	249.69
268.913	245.69
269.145	283.69
269.377	287.69
269.609	309.69
269.841	309.69
270.073	300.69
270.306	316.69
270.538	338.69
270.77	336.69
271.002	339.69
271.234	321.69
271.466	322.69
271.698	348.69
271.93	339.69
272.162	345.69
272.394	350.69
272.626	319.69
272.858	322.69
273.09	305.69
273.322	288.69
273.553	298.69
273.785	283.69
274.017	285.69
274.249	281.69
274.481	274.69
274.713	268.69
274.945	269.69
275.176	279.69
275.408	302.69
275.64	274.69
275.872	282.69
276.104	303.69
276.335	285.69
276.567	304.69
276.799	310.69
277.031	328.69
277.262	350.69
277.494	339.69
277.726	347.69
277.957	323.69
278.189	293.69
278.421	293.69
278.652	287.69
278.884	294.69
279.115	274.69
279.347	261.69
279.579	269.69
279.81	268.69
280.042	262.69
280.273	270.69
280.505	267.69
280.736	284.69
280.968	283.69
281.199	263.69
281.431	261.69
281.662	276.69
281.894	276.69
282.125	277.69
282.356	298.69
282.588	331.69
282.819	330.69
283.051	291.69
283.282	263.69
283.513	268.69
283.745	289.69
283.976	302.69
284.207	271.69
284.439	293.69
284.67	280.69
284.901	277.69
285.132	284.69
285.364	281.69
285.595	285.69
285.826	277.69
286.057	290.69
286.288	274.69
286.52	270.69
286.751	288.69
286.982	282.69
287.213	267.69
287.444	279.69
287.675	302.69
287.906	315.69
288.138	322.69
288.369	317.69
288.6	313.69
288.831	310.69
289.062	304.69
289.293	286.69
289.524	311.69
289.755	290.69
289.986	294.69
290.217	293.69
290.448	277.69
290.679	279.69
290.91	279.69
291.141	290.69
291.371	282.69
291.602	279.69
291.833	281.69
292.064	299.69
292.295	296.69
292.526	301.69
292.757	293.69
292.987	295.69
293.218	282.69
293.449	291.69
293.68	291.69
293.91	294.69
294.141	274.69
294.372	297.69
294.603	285.69
294.833	305.69
295.064	280.69
295.295	282.69
295.525	275.69
295.756	295.69
295.987	313.69
296.217	348.69
296.448	338.69
296.679	295.69
296.909	292.69
297.14	292.69
297.37	296.69
297.601	301.69
297.831	280.69
298.062	290.69
298.292	283.69
298.523	299.69
298.753	320.69
298.984	313.69
299.214	300.69
299.445	304.69
299.675	313.69
299.905	315.69
300.136	320.69
300.366	313.69
300.597	304.69
300.827	333.69
301.057	307.69
301.288	325.69
301.518	330.69
301.748	316.69
301.979	319.69
302.209	332.69
302.439	283.69
302.669	319.69
302.9	325.69
303.13	333.69
303.36	331.69
303.59	333.69
303.82	346.69
304.051	344.69
304.281	333.69
304.511	340.69
304.741	309.69
304.971	300.69
305.201	319.69
305.431	331.69
305.661	332.69
305.891	320.69
306.121	327.69
306.352	340.69
306.582	338.69
306.812	350.69
307.042	313.69
307.272	328.69
307.502	332.69
307.731	334.69
307.961	340.69
308.191	318.69
308.421	329.69
308.651	336.69
308.881	344.69
309.111	335.69
309.341	351.69
309.571	362.69
309.8	375.69
310.03	389.69
310.26	397.69
310.49	397.69
310.72	388.69
310.949	440.69
311.179	441.69
311.409	407.69
311.639	382.69
311.868	390.69
312.098	421.69
312.328	393.69
312.557	430.69
312.787	445.69
313.017	428.69
313.246	393.69
313.476	377.69
313.706	391.69
313.935	391.69
314.165	406.69
314.394	417.69
314.624	417.69
314.853	405.69
315.083	397.69
315.312	381.69
315.542	399.69
315.771	387.69
316.001	389.69
316.23	381.69
316.46	364.69
316.689	393.69
316.919	409.69
317.148	411.69
317.377	385.69
317.607	391.69
317.836	394.69
318.065	381.69
318.295	385.69
318.524	386.69
318.753	420.69
318.983	377.69
319.212	393.69
319.441	396.69
319.67	406.69
319.9	389.69
320.129	391.69
320.358	401.69
320.587	408.69
320.816	417.69
321.046	419.69
321.275	420.69
321.504	441.69
321.733	401.69
321.962	445.69
322.191	470.69
322.42	470.69
322.649	479.69
322.878	505.69
323.108	512.69
323.337	546.69
323.566	558.69
323.795	610.69
324.024	685.69
324.253	821.69
324.482	1279.69
324.71	1953.69
324.939	2817.69
325.168	2353.69
325.397	1236.69
325.626	759.69
325.855	642.69
326.084	610.69
326.313	571.69
326.542	562.69
326.77	625.69
326.999	797.69
327.228	1085.69
327.457	1700.69
327.686	2101.69
327.914	1369.69
328.143	881.69
328.372	755.69
328.6	718.69
328.829	650.69
329.058	707.69
329.287	693.69
329.515	624.69
329.744	573.69
329.972	583.69
330.201	593.69
330.43	670.69
330.658	703.69
330.887	727.69
331.115	701.69
331.344	613.69
331.572	519.69
331.801	527.69
332.03	534.69
332.258	502.69
332.486	453.69
332.715	457.69
332.943	466.69
333.172	485.69
333.4	470.69
333.629	475.69
333.857	506.69
334.085	523.69
334.314	514.69
334.542	556.69
334.771	576.69
334.999	546.69
335.227	497.69
335.455	467.69
335.684	478.69
335.912	448.69
336.14	464.69
336.369	482.69
336.597	459.69
336.825	478.69
337.053	454.69
337.281	460.69
337.51	441.69
337.738	439.69
337.966	450.69
338.194	478.69
338.422	477.69
338.65	465.69
338.878	443.69
339.106	434.69
339.334	456.69
339.562	449.69
339.79	447.69
340.018	440.69
340.246	441.69
340.474	449.69
340.702	433.69
340.93	459.69
341.158	458.69
341.386	464.69
341.614	458.69
341.842	463.69
342.07	442.69
342.298	428.69
342.526	430.69
342.754	426.69
342.981	437.69
343.209	405.69
343.437	441.69
343.665	421.69
343.893	442.69
344.12	429.69
344.348	432.69
344.576	441.69
344.804	455.69
345.031	471.69
345.259	505.69
345.487	465.69
345.714	441.69
345.942	437.69
346.17	414.69
346.397	429.69
346.625	433.69
346.853	426.69
347.08	440.69
347.308	448.69
347.535	455.69
347.763	459.69
347.99	468.69
348.218	446.69
348.445	448.69
348.673	473.69
348.9	457.69
349.128	437.69
349.355	426.69
349.583	418.69
349.81	421.69
350.037	403.69
350.265	426.69
350.492	443.69
350.72	428.69
350.947	434.69
351.174	451.69
351.402	448.69
351.629	462.69
351.856	448.69
352.083	451.69
352.311	460.69
352.538	465.69
352.765	476.69
352.992	457.69
353.22	466.69
353.447	459.69
353.674	456.69
353.901	426.69
354.128	430.69
354.355	414.69
354.583	430.69
354.81	406.69
355.037	402.69
355.264	406.69
355.491	407.69
355.718	381.69
355.945	409.69
356.172	381.69
356.399	405.69
356.626	412.69
356.853	427.69
357.08	403.69
357.307	388.69
357.534	407.69
357.761	399.69
357.988	429.69
358.215	395.69
358.441	403.69
358.668	425.69
358.895	413.69
359.122	431.69
359.349	449.69
359.576	457.69
359.802	482.69
360.029	517.69
360.256	547.69
360.483	494.69
360.709	479.69
360.936	454.69
361.163	471.69
361.39	447.69
361.616	458.69
361.843	451.69
362.07	453.69
362.296	454.69
362.523	454.69
362.749	441.69
362.976	447.69
363.203	451.69
363.429	411.69
363.656	436.69
363.882	427.69
364.109	423.69
364.335	434.69
364.562	416.69
364.788	427.69
365.015	417.69
365.241	416.69
365.468	445.69
365.694	435.69
365.92	441.69
366.147	436.69
366.373	449.69
366.599	439.69
366.826	430.69
367.052	415.69
367.278	411.69
367.505	422.69
367.731	428.69
367.957	435.69
368.184	440.69
368.41	431.69
368.636	439.69
368.862	444.69
369.089	453.69
369.315	429.69
369.541	416.69
369.767	423.69
369.993	434.69
370.219	422.69
370.445	440.69
370.672	417.69
370.898	417.69
371.124	402.69
371.35	423.69
371.576	425.69
371.802	427.69
372.028	409.69
372.254	404.69
372.48	412.69
372.706	418.69
372.932	431.69
373.158	421.69
373.384	424.69
373.61	412.69
373.835	412.69
374.061	408.69
374.287	426.69
374.513	424.69
374.739	412.69
374.965	428.69
375.191	419.69
375.416	431.69
375.642	408.69
375.868	446.69
376.094	432.69
376.319	432.69
376.545	411.69
376.771	407.69
376.997	416.69
377.222	426.69
377.448	426.69
377.674	415.69
377.899	416.69
378.125	408.69
378.35	406.69
378.576	421.69
378.802	402.69
379.027	417.69
379.253	417.69
379.478	428.69
379.704	429.69
379.929	441.69
380.155	413.69
380.38	419.69
380.606	428.69
380.831	417.69
381.057	421.69
381.282	417.69
381.507	406.69
381.733	439.69
381.958	439.69
382.184	433.69
382.409	439.69
382.634	447.69
382.86	417.69
383.085	415.69
383.31	435.69
383.535	442.69
383.761	438.69
383.986	425.69
384.211	435.69
384.436	422.69
384.662	424.69
384.887	427.69
385.112	419.69
385.337	441.69
385.562	447.69
385.787	445.69
386.013	451.69
386.238	459.69
386.463	470.69
386.688	467.69
386.913	447.69
387.138	438.69
387.363	444.69
387.588	434.69
387.813	453.69
388.038	443.69
388.263	427.69
388.488	430.69
388.713	451.69
388.938	429.69
389.163	467.69
389.387	446.69
389.612	456.69
389.837	426.69
390.062	451.69
390.287	433.69
390.512	430.69
390.736	442.69
390.961	443.69
391.186	448.69
391.411	447.69
391.636	452.69
391.86	455.69
392.085	473.69
392.31	453.69
392.534	453.69
392.759	495.69
392.984	467.69
393.208	453.69
393.433	474.69
393.658	479.69
393.882	470.69
394.107	481.69
394.331	459.69
394.556	450.69
394.78	461.69
395.005	462.69
395.229	448.69
395.454	469.69
395.678	475.69
395.903	463.69
396.127	513.69
396.352	518.69
396.576	483.69
396.801	489.69
397.025	475.69
397.249	479.69
397.474	472.69
397.698	470.69
397.922	496.69
398.147	519.69
398.371	506.69
398.595	507.69
398.82	489.69
399.044	508.69
399.268	511.69
399.492	541.69
399.717	581.69
399.941	597.69
400.165	632.69
400.389	622.69
400.613	592.69
400.837	572.69
401.062	553.69
401.286	537.69
401.51	532.69
401.734	528.69
401.958	531.69
402.182	531.69
402.406	545.69
402.63	553.69
402.854	559.69
403.078	543.69
403.302	541.69
403.526	537.69
403.75	563.69
403.974	540.69
404.198	527.69
404.422	529.69
404.645	531.69
404.869	563.69
405.093	584.69
405.317	635.69
405.541	670.69
405.765	619.69
405.988	600.69
406.212	627.69
406.436	609.69
406.66	634.69
406.883	592.69
407.107	629.69
407.331	671.69
407.555	738.69
407.778	734.69
408.002	648.69
408.226	645.69
408.449	635.69
408.673	626.69
408.896	638.69
409.12	681.69
409.344	630.69
409.567	585.69
409.791	547.69
410.014	563.69
410.238	540.69
410.461	529.69
410.685	561.69
410.908	597.69
411.132	627.69
411.355	645.69
411.578	624.69
411.802	573.69
412.025	551.69
412.249	577.69
412.472	597.69
412.695	620.69
412.919	628.69
413.142	579.69
413.365	549.69
413.589	549.69
413.812	517.69
414.035	529.69
414.258	526.69
414.482	499.69
414.705	519.69
414.928	519.69
415.151	502.69
415.374	511.69
415.597	535.69
415.821	513.69
416.044	527.69
416.267	514.69
416.49	511.69
416.713	507.69
416.936	512.69
417.159	502.69
417.382	525.69
417.605	545.69
417.828	552.69
418.051	567.69
418.274	546.69
418.497	529.69
418.72	529.69
418.943	506.69
419.166	550.69
419.389	551.69
419.611	554.69
419.834	558.69
420.057	565.69
420.28	554.69
420.503	561.69
420.726	573.69
420.948	577.69
421.171	636.69
421.394	671.69
421.617	595.69
421.839	579.69
422.062	570.69
422.285	577.69
422.507	647.69
422.73	761.69
422.953	703.69
423.175	625.69
423.398	591.69
423.621	595.69
423.843	605.69
424.066	602.69
424.288	609.69
424.511	620.69
424.733	723.69
424.956	782.69
425.178	766.69
425.401	772.69
425.623	773.69
425.846	675.69
426.068	639.69
426.291	638.69
426.513	619.69
426.735	640.69
426.958	700.69
427.18	775.69
427.402	937.69
427.625	997.69
427.847	926.69
428.069	800.69
428.292	711.69
428.514	640.69
428.736	619.69
428.958	607.69
429.181	588.69
429.403	592.69
429.625	581.69
429.847	638.69
430.069	706.69
430.292	700.69
430.514	615.69
430.736	573.69
430.958	584.69
431.18	552.69
431.402	561.69
431.624	540.69
431.846	517.69
432.068	537.69
432.29	541.69
432.512	546.69
432.734	549.69
432.956	541.69
433.178	557.69
433.4	571.69
433.622	569.69
433.844	561.69
434.066	535.69
434.287	539.69
434.509	566.69
434.731	555.69
434.953	555.69
435.175	587.69
435.397	610.69
435.618	610.69
435.84	699.69
436.062	759.69
436.284	842.69
436.505	729.69
436.727	649.69
436.949	623.69
437.17	599.69
437.392	567.69
437.614	593.69
437.835	678.69
438.057	781.69
438.278	893.69
438.5	868.69
438.721	939.69
438.943	895.69
439.165	723.69
439.386	680.69
439.608	639.69
439.829	647.69
440.05	700.69
440.272	752.69
440.493	708.69
440.715	627.69
440.936	577.69
441.158	573.69
441.379	553.69
441.6	615.69
441.822	625.69
442.043	672.69
442.264	811.69
442.486	846.69
442.707	706.69
442.928	665.69
443.149	647.69
443.371	677.69
443.592	748.69
443.813	847.69
444.034	903.69
444.255	745.69
444.476	671.69
444.698	644.69
444.919	625.69
445.14	767.69
445.361	717.69
445.582	676.69
445.803	763.69
446.024	871.69
446.245	930.69
446.466	841.69
446.687	713.69
446.908	646.69
447.129	620.69
447.35	610.69
447.571	572.69
447.792	589.69
448.013	593.69
448.234	623.69
448.455	687.69
448.675	822.69
448.896	940.69
449.117	818.69
449.338	761.69
449.559	877.69
449.779	930.69
450	777.69
450.221	675.69
450.442	605.69
450.662	586.69
450.883	591.69
451.104	612.69
451.324	598.69
451.545	589.69
451.766	562.69
451.986	521.69
452.207	531.69
452.428	530.69
452.648	544.69
452.869	528.69
453.089	535.69
453.31	555.69
453.53	543.69
453.751	537.69
453.971	549.69
454.192	537.69
454.412	542.69
454.633	537.69
454.853	538.69
455.073	546.69
455.294	567.69
455.514	649.69
455.734	633.69
455.955	550.69
456.175	503.69
456.395	497.69
456.616	484.69
456.836	496.69
457.056	486.69
457.276	489.69
457.497	495.69
457.717	481.69
457.937	503.69
458.157	474.69
458.377	496.69
458.598	550.69
458.818	622.69
459.038	741.69
459.258	735.69
459.478	616.69
459.698	540.69
459.918	541.69
460.138	532.69
460.358	539.69
460.578	521.69
460.798	519.69
461.018	533.69
461.238	518.69
461.458	521.69
461.678	519.69
461.898	523.69
462.118	518.69
462.338	529.69
462.558	521.69
462.777	547.69
462.997	557.69
463.217	531.69
463.437	557.69
463.657	559.69
463.876	568.69
464.096	555.69
464.316	562.69
464.536	584.69
464.755	561.69
464.975	575.69
465.195	623.69
465.414	773.69
465.634	649.69
465.854	589.69
466.073	571.69
466.293	542.69
466.512	521.69
466.732	542.69
466.951	537.69
467.171	529.69
467.391	517.69
467.61	544.69
467.829	544.69
468.049	546.69
468.268	525.69
468.488	553.69
468.707	520.69
468.927	513.69
469.146	509.69
469.365	514.69
469.585	512.69
469.804	531.69
470.023	543.69
470.243	569.69
470.462	551.69
470.681	576.69
470.901	546.69
471.12	541.69
471.339	536.69
471.558	531.69
471.777	552.69
471.997	543.69
472.216	530.69
472.435	606.69
472.654	600.69
472.873	539.69
473.092	558.69
473.311	521.69
473.53	545.69
473.749	554.69
473.968	603.69
474.187	731.69
474.406	762.69
474.625	636.69
474.844	569.69
475.063	580.69
475.282	531.69
475.501	542.69
475.72	572.69
475.939	565.69
476.158	560.69
476.377	550.69
476.596	550.69
476.814	584.69
477.033	589.69
477.252	553.69
477.471	568.69
477.69	587.69
477.908	572.69
478.127	590.69
478.346	571.69
478.564	601.69
478.783	591.69
479.002	616.69
479.22	641.69
479.439	624.69
479.658	647.69
479.876	665.69
480.095	673.69
480.313	696.69
480.532	688.69
480.751	659.69
480.969	692.69
481.188	750.69
481.406	797.69
481.624	717.69
481.843	684.69
482.061	673.69
482.28	660.69
482.498	643.69
482.717	635.69
482.935	636.69
483.153	633.69
483.372	639.69
483.59	647.69
483.808	669.69
484.027	671.69
484.245	642.69
484.463	645.69
484.681	643.69
484.9	634.69
485.118	656.69
485.336	674.69
485.554	662.69
485.772	669.69
485.99	696.69
486.209	669.69
486.427	661.69
486.645	693.69
486.863	717.69
487.081	738.69
487.299	724.69
487.517	705.69
487.735	698.69
487.953	735.69
488.171	724.69
488.389	702.69
488.607	699.69
488.825	719.69
489.043	721.69
489.261	698.69
489.479	721.69
489.696	713.69
489.914	726.69
490.132	731.69
490.35	729.69
490.568	738.69
490.786	750.69
491.003	805.69
491.221	801.69
491.439	814.69
491.657	820.69
491.874	810.69
492.092	821.69
492.31	839.69
492.527	830.69
492.745	842.69
492.963	865.69
493.18	860.69
493.398	828.69
493.615	854.69
493.833	843.69
494.05	866.69
494.268	835.69
494.485	858.69
494.703	839.69
494.92	846.69
495.138	840.69
495.355	845.69
495.573	870.69
495.79	859.69
496.008	850.69
496.225	850.69
496.442	884.69
496.66	839.69
496.877	819.69
497.094	869.69
497.312	847.69
497.529	815.69
497.746	865.69
497.963	885.69
498.181	875.69
498.398	889.69
498.615	876.69
498.832	911.69
499.049	923.69
499.267	944.69
499.484	942.69
499.701	960.69
499.918	966.69
500.135	1030.69
500.352	1007.69
500.569	999.69
500.786	1024.69
501.003	1029.69
501.22	1027.69
501.437	1004.69
