Data from 1971.PennyLincolnUp.Lamp.En5.5.200Scan.071719.P1._HRD10591_15-18-17-841.txt Node
Date: Thu Jul 18 15:18:17 EDT 2019
User: cochatt
Spectrometer: HR+D1059
Trigger mode: 1
Integration Time (sec): 1.000000E-1
Scans to average: 1
Electric dark correction enabled: true
Nonlinearity correction enabled: false
Boxcar width: 0
XAxis mode: Wavelengths
Number of Pixels in Spectrum: 2048
>>>>>Begin Spectral Data<<<<<
223.165	0.5
223.4	0.5
223.635	0.5
223.869	-19.5
224.104	-16.5
224.338	-20.5
224.573	-18.5
224.808	-22.5
225.042	-6.5
225.277	-11.5
225.511	-3.5
225.746	7.5
225.98	4.5
226.215	5.5
226.449	25.5
226.683	25.5
226.918	16.5
227.152	33.5
227.387	36.5
227.621	31.5
227.856	56.5
228.09	61.5
228.324	35.5
228.559	58.5
228.793	60.5
229.027	79.5
229.262	85.5
229.496	113.5
229.73	108.5
229.964	116.5
230.199	124.5
230.433	96.5
230.667	115.5
230.901	103.5
231.136	127.5
231.37	111.5
231.604	125.5
231.838	92.5
232.072	95.5
232.306	120.5
232.541	111.5
232.775	102.5
233.009	111.5
233.243	113.5
233.477	112.5
233.711	102.5
233.945	117.5
234.179	123.5
234.413	128.5
234.647	135.5
234.881	112.5
235.115	111.5
235.349	103.5
235.583	108.5
235.817	108.5
236.051	132.5
236.285	117.5
236.519	109.5
236.753	125.5
236.987	132.5
237.221	153.5
237.455	191.5
237.689	155.5
237.922	151.5
238.156	132.5
238.39	129.5
238.624	107.5
238.858	125.5
239.091	121.5
239.325	116.5
239.559	133.5
239.793	132.5
240.027	126.5
240.26	144.5
240.494	148.5
240.728	150.5
240.961	132.5
241.195	123.5
241.429	139.5
241.662	126.5
241.896	128.5
242.13	120.5
242.363	132.5
242.597	120.5
242.83	123.5
243.064	138.5
243.298	139.5
243.531	138.5
243.765	129.5
243.998	136.5
244.232	139.5
244.465	121.5
244.699	145.5
244.932	141.5
245.166	133.5
245.399	140.5
245.633	145.5
245.866	123.5
246.099	143.5
246.333	153.5
246.566	162.5
246.8	147.5
247.033	151.5
247.266	150.5
247.5	169.5
247.733	154.5
247.966	169.5
248.2	155.5
248.433	147.5
248.666	165.5
248.899	178.5
249.133	185.5
249.366	167.5
249.599	181.5
249.832	170.5
250.066	174.5
250.299	172.5
250.532	184.5
250.765	188.5
250.998	196.5
251.231	200.5
251.465	199.5
251.698	183.5
251.931	195.5
252.164	188.5
252.397	184.5
252.63	177.5
252.863	179.5
253.096	213.5
253.329	205.5
253.562	220.5
253.795	207.5
254.028	209.5
254.261	207.5
254.494	209.5
254.727	250.5
254.96	263.5
255.193	244.5
255.426	246.5
255.659	219.5
255.892	221.5
256.124	207.5
256.357	206.5
256.59	212.5
256.823	210.5
257.056	203.5
257.289	204.5
257.521	195.5
257.754	196.5
257.987	199.5
258.22	202.5
258.452	197.5
258.685	195.5
258.918	195.5
259.151	201.5
259.383	216.5
259.616	204.5
259.849	200.5
260.081	229.5
260.314	248.5
260.547	226.5
260.779	240.5
261.012	222.5
261.244	225.5
261.477	214.5
261.71	226.5
261.942	207.5
262.175	217.5
262.407	221.5
262.64	217.5
262.872	231.5
263.105	204.5
263.337	219.5
263.57	185.5
263.802	213.5
264.035	190.5
264.267	204.5
264.499	197.5
264.732	207.5
264.964	200.5
265.197	212.5
265.429	207.5
265.661	202.5
265.894	191.5
266.126	208.5
266.358	211.5
266.591	222.5
266.823	210.5
267.055	212.5
267.287	209.5
267.52	204.5
267.752	220.5
267.984	203.5
268.216	206.5
268.448	223.5
268.681	227.5
268.913	234.5
269.145	252.5
269.377	248.5
269.609	257.5
269.841	250.5
270.073	267.5
270.306	262.5
270.538	286.5
270.77	307.5
271.002	285.5
271.234	273.5
271.466	287.5
271.698	274.5
271.93	265.5
272.162	296.5
272.394	276.5
272.626	272.5
272.858	267.5
273.09	248.5
273.322	258.5
273.553	263.5
273.785	247.5
274.017	244.5
274.249	265.5
274.481	259.5
274.713	245.5
274.945	251.5
275.176	233.5
275.408	261.5
275.64	232.5
275.872	241.5
276.104	258.5
276.335	257.5
276.567	251.5
276.799	261.5
277.031	266.5
277.262	278.5
277.494	291.5
277.726	297.5
277.957	287.5
278.189	270.5
278.421	269.5
278.652	264.5
278.884	274.5
279.115	241.5
279.347	262.5
279.579	257.5
279.81	256.5
280.042	253.5
280.273	249.5
280.505	250.5
280.736	246.5
280.968	269.5
281.199	251.5
281.431	236.5
281.662	261.5
281.894	253.5
282.125	266.5
282.356	283.5
282.588	281.5
282.819	284.5
283.051	270.5
283.282	259.5
283.513	265.5
283.745	253.5
283.976	274.5
284.207	270.5
284.439	268.5
284.67	273.5
284.901	260.5
285.132	278.5
285.364	259.5
285.595	259.5
285.826	267.5
286.057	274.5
286.288	267.5
286.52	268.5
286.751	271.5
286.982	250.5
287.213	270.5
287.444	291.5
287.675	275.5
287.906	287.5
288.138	291.5
288.369	303.5
288.6	293.5
288.831	289.5
289.062	282.5
289.293	283.5
289.524	283.5
289.755	263.5
289.986	249.5
290.217	262.5
290.448	276.5
290.679	265.5
290.91	265.5
291.141	263.5
291.371	267.5
291.602	277.5
291.833	288.5
292.064	270.5
292.295	282.5
292.526	277.5
292.757	266.5
292.987	278.5
293.218	262.5
293.449	280.5
293.68	280.5
293.91	286.5
294.141	260.5
294.372	291.5
294.603	272.5
294.833	286.5
295.064	295.5
295.295	284.5
295.525	268.5
295.756	289.5
295.987	291.5
296.217	288.5
296.448	289.5
296.679	297.5
296.909	291.5
297.14	290.5
297.37	291.5
297.601	278.5
297.831	279.5
298.062	296.5
298.292	287.5
298.523	291.5
298.753	290.5
298.984	289.5
299.214	292.5
299.445	299.5
299.675	268.5
299.905	297.5
300.136	298.5
300.366	277.5
300.597	295.5
300.827	298.5
301.057	305.5
301.288	317.5
301.518	299.5
301.748	284.5
301.979	310.5
302.209	326.5
302.439	319.5
302.669	319.5
302.9	312.5
303.13	288.5
303.36	302.5
303.59	310.5
303.82	313.5
304.051	331.5
304.281	300.5
304.511	310.5
304.741	301.5
304.971	309.5
305.201	299.5
305.431	321.5
305.661	307.5
305.891	327.5
306.121	326.5
306.352	303.5
306.582	324.5
306.812	315.5
307.042	317.5
307.272	312.5
307.502	323.5
307.731	315.5
307.961	310.5
308.191	292.5
308.421	311.5
308.651	311.5
308.881	318.5
309.111	318.5
309.341	318.5
309.571	310.5
309.8	328.5
310.03	320.5
310.26	352.5
310.49	349.5
310.72	361.5
310.949	348.5
311.179	345.5
311.409	347.5
311.639	349.5
311.868	347.5
312.098	356.5
312.328	334.5
312.557	380.5
312.787	366.5
313.017	355.5
313.246	367.5
313.476	369.5
313.706	362.5
313.935	349.5
314.165	366.5
314.394	364.5
314.624	362.5
314.853	350.5
315.083	350.5
315.312	365.5
315.542	345.5
315.771	334.5
316.001	343.5
316.23	351.5
316.46	355.5
316.689	341.5
316.919	348.5
317.148	361.5
317.377	362.5
317.607	345.5
317.836	362.5
318.065	356.5
318.295	355.5
318.524	351.5
318.753	360.5
318.983	329.5
319.212	346.5
319.441	355.5
319.67	352.5
319.9	347.5
320.129	352.5
320.358	352.5
320.587	362.5
320.816	376.5
321.046	363.5
321.275	383.5
321.504	359.5
321.733	365.5
321.962	364.5
322.191	376.5
322.42	379.5
322.649	402.5
322.878	395.5
323.108	408.5
323.337	451.5
323.566	445.5
323.795	456.5
324.024	500.5
324.253	575.5
324.482	822.5
324.71	1159.5
324.939	1611.5
325.168	1349.5
325.397	740.5
325.626	524.5
325.855	460.5
326.084	440.5
326.313	438.5
326.542	446.5
326.77	483.5
326.999	559.5
327.228	765.5
327.457	1020.5
327.686	1217.5
327.914	816.5
328.143	601.5
328.372	519.5
328.6	483.5
328.829	479.5
329.058	479.5
329.287	477.5
329.515	466.5
329.744	419.5
329.972	436.5
330.201	453.5
330.43	472.5
330.658	481.5
330.887	494.5
331.115	517.5
331.344	449.5
331.572	429.5
331.801	416.5
332.03	441.5
332.258	425.5
332.486	400.5
332.715	394.5
332.943	404.5
333.172	399.5
333.4	400.5
333.629	408.5
333.857	439.5
334.085	439.5
334.314	436.5
334.542	439.5
334.771	443.5
334.999	423.5
335.227	387.5
335.455	413.5
335.684	393.5
335.912	425.5
336.14	412.5
336.369	393.5
336.597	424.5
336.825	420.5
337.053	401.5
337.281	386.5
337.51	385.5
337.738	405.5
337.966	390.5
338.194	398.5
338.422	399.5
338.65	401.5
338.878	384.5
339.106	391.5
339.334	399.5
339.562	394.5
339.79	360.5
340.018	383.5
340.246	393.5
340.474	382.5
340.702	384.5
340.93	374.5
341.158	373.5
341.386	395.5
341.614	379.5
341.842	368.5
342.07	375.5
342.298	379.5
342.526	391.5
342.754	389.5
342.981	384.5
343.209	351.5
343.437	385.5
343.665	387.5
343.893	391.5
344.12	390.5
344.348	405.5
344.576	394.5
344.804	404.5
345.031	382.5
345.259	386.5
345.487	382.5
345.714	381.5
345.942	389.5
346.17	368.5
346.397	349.5
346.625	377.5
346.853	380.5
347.08	365.5
347.308	373.5
347.535	362.5
347.763	371.5
347.99	369.5
348.218	386.5
348.445	389.5
348.673	387.5
348.9	358.5
349.128	362.5
349.355	375.5
349.583	359.5
349.81	355.5
350.037	358.5
350.265	341.5
350.492	356.5
350.72	370.5
350.947	373.5
351.174	380.5
351.402	344.5
351.629	341.5
351.856	365.5
352.083	366.5
352.311	363.5
352.538	373.5
352.765	376.5
352.992	364.5
353.22	368.5
353.447	364.5
353.674	362.5
353.901	357.5
354.128	336.5
354.355	353.5
354.583	351.5
354.81	345.5
355.037	350.5
355.264	342.5
355.491	344.5
355.718	328.5
355.945	368.5
356.172	353.5
356.399	347.5
356.626	315.5
356.853	361.5
357.08	349.5
357.307	359.5
357.534	331.5
357.761	360.5
357.988	338.5
358.215	329.5
358.441	336.5
358.668	354.5
358.895	365.5
359.122	361.5
359.349	352.5
359.576	359.5
359.802	371.5
360.029	388.5
360.256	413.5
360.483	381.5
360.709	356.5
360.936	391.5
361.163	376.5
361.39	355.5
361.616	355.5
361.843	359.5
362.07	350.5
362.296	365.5
362.523	367.5
362.749	347.5
362.976	351.5
363.203	338.5
363.429	334.5
363.656	356.5
363.882	340.5
364.109	366.5
364.335	325.5
364.562	351.5
364.788	331.5
365.015	357.5
365.241	347.5
365.468	358.5
365.694	353.5
365.92	346.5
366.147	356.5
366.373	349.5
366.599	347.5
366.826	337.5
367.052	335.5
367.278	358.5
367.505	355.5
367.731	324.5
367.957	325.5
368.184	337.5
368.41	342.5
368.636	355.5
368.862	355.5
369.089	337.5
369.315	349.5
369.541	337.5
369.767	357.5
369.993	344.5
370.219	317.5
370.445	349.5
370.672	348.5
370.898	338.5
371.124	336.5
371.35	340.5
371.576	332.5
371.802	328.5
372.028	355.5
372.254	343.5
372.48	313.5
372.706	336.5
372.932	342.5
373.158	347.5
373.384	346.5
373.61	335.5
373.835	335.5
374.061	364.5
374.287	350.5
374.513	351.5
374.739	353.5
374.965	333.5
375.191	335.5
375.416	336.5
375.642	336.5
375.868	337.5
376.094	332.5
376.319	341.5
376.545	342.5
376.771	323.5
376.997	347.5
377.222	341.5
377.448	335.5
377.674	338.5
377.899	326.5
378.125	331.5
378.35	320.5
378.576	327.5
378.802	304.5
379.027	331.5
379.253	328.5
379.478	339.5
379.704	326.5
379.929	327.5
380.155	324.5
380.38	323.5
380.606	334.5
380.831	329.5
381.057	324.5
381.282	332.5
381.507	326.5
381.733	322.5
381.958	325.5
382.184	343.5
382.409	329.5
382.634	328.5
382.86	353.5
383.085	346.5
383.31	344.5
383.535	325.5
383.761	357.5
383.986	331.5
384.211	345.5
384.436	345.5
384.662	336.5
384.887	356.5
385.112	353.5
385.337	316.5
385.562	350.5
385.787	357.5
386.013	361.5
386.238	347.5
386.463	331.5
386.688	353.5
386.913	345.5
387.138	356.5
387.363	352.5
387.588	371.5
387.813	362.5
388.038	371.5
388.263	369.5
388.488	345.5
388.713	353.5
388.938	349.5
389.163	352.5
389.387	341.5
389.612	347.5
389.837	337.5
390.062	328.5
390.287	365.5
390.512	351.5
390.736	356.5
390.961	352.5
391.186	357.5
391.411	357.5
391.636	357.5
391.86	343.5
392.085	351.5
392.31	361.5
392.534	357.5
392.759	377.5
392.984	349.5
393.208	360.5
393.433	367.5
393.658	374.5
393.882	344.5
394.107	339.5
394.331	346.5
394.556	352.5
394.78	344.5
395.005	360.5
395.229	350.5
395.454	362.5
395.678	363.5
395.903	374.5
396.127	403.5
396.352	384.5
396.576	368.5
396.801	349.5
397.025	369.5
397.249	357.5
397.474	368.5
397.698	386.5
397.922	395.5
398.147	381.5
398.371	377.5
398.595	381.5
398.82	398.5
399.044	389.5
399.268	414.5
399.492	432.5
399.717	419.5
399.941	458.5
400.165	479.5
400.389	467.5
400.613	455.5
400.837	403.5
401.062	394.5
401.286	387.5
401.51	388.5
401.734	379.5
401.958	395.5
402.182	390.5
402.406	407.5
402.63	408.5
402.854	383.5
403.078	402.5
403.302	392.5
403.526	404.5
403.75	399.5
403.974	388.5
404.198	411.5
404.422	405.5
404.645	402.5
404.869	422.5
405.093	443.5
405.317	462.5
405.541	488.5
405.765	430.5
405.988	420.5
406.212	401.5
406.436	430.5
406.66	419.5
406.883	421.5
407.107	447.5
407.331	476.5
407.555	501.5
407.778	500.5
408.002	480.5
408.226	445.5
408.449	445.5
408.673	444.5
408.896	456.5
409.12	506.5
409.344	471.5
409.567	414.5
409.791	417.5
410.014	404.5
410.238	392.5
410.461	400.5
410.685	402.5
410.908	406.5
411.132	436.5
411.355	471.5
411.578	431.5
411.802	373.5
412.025	401.5
412.249	409.5
412.472	419.5
412.695	430.5
412.919	448.5
413.142	388.5
413.365	405.5
413.589	379.5
413.812	394.5
414.035	381.5
414.258	364.5
414.482	369.5
414.705	375.5
414.928	365.5
415.151	390.5
415.374	371.5
415.597	385.5
415.821	377.5
416.044	368.5
416.267	375.5
416.49	375.5
416.713	380.5
416.936	376.5
417.159	373.5
417.382	368.5
417.605	379.5
417.828	399.5
418.051	383.5
418.274	364.5
418.497	376.5
418.72	368.5
418.943	375.5
419.166	398.5
419.389	398.5
419.611	392.5
419.834	381.5
420.057	366.5
420.28	405.5
420.503	397.5
420.726	378.5
420.948	401.5
421.171	431.5
421.394	446.5
421.617	399.5
421.839	395.5
422.062	393.5
422.285	419.5
422.507	459.5
422.73	513.5
422.953	482.5
423.175	429.5
423.398	402.5
423.621	422.5
423.843	408.5
424.066	410.5
424.288	430.5
424.511	429.5
424.733	485.5
424.956	552.5
425.178	507.5
425.401	523.5
425.623	494.5
425.846	447.5
426.068	403.5
426.291	414.5
426.513	413.5
426.735	429.5
426.958	460.5
427.18	526.5
427.402	607.5
427.625	652.5
427.847	574.5
428.069	496.5
428.292	439.5
428.514	413.5
428.736	421.5
428.958	386.5
429.181	396.5
429.403	387.5
429.625	408.5
429.847	411.5
430.069	484.5
430.292	446.5
430.514	404.5
430.736	387.5
430.958	383.5
431.18	353.5
431.402	378.5
431.624	373.5
431.846	379.5
432.068	353.5
432.29	378.5
432.512	353.5
432.734	362.5
432.956	354.5
433.178	372.5
433.4	399.5
433.622	389.5
433.844	378.5
434.066	349.5
434.287	377.5
434.509	373.5
434.731	373.5
434.953	366.5
435.175	409.5
435.397	400.5
435.618	441.5
435.84	448.5
436.062	509.5
436.284	567.5
436.505	459.5
436.727	412.5
436.949	406.5
437.17	396.5
437.392	408.5
437.614	395.5
437.835	419.5
438.057	491.5
438.278	537.5
438.5	568.5
438.721	606.5
438.943	577.5
439.165	477.5
439.386	454.5
439.608	409.5
439.829	429.5
440.05	441.5
440.272	481.5
440.493	446.5
440.715	417.5
440.936	391.5
441.158	395.5
441.379	391.5
441.6	421.5
441.822	408.5
442.043	430.5
442.264	516.5
442.486	537.5
442.707	444.5
442.928	421.5
443.149	438.5
443.371	437.5
443.592	485.5
443.813	555.5
444.034	586.5
444.255	485.5
444.476	433.5
444.698	447.5
444.919	429.5
445.14	567.5
445.361	472.5
445.582	451.5
445.803	499.5
446.024	538.5
446.245	560.5
446.466	493.5
446.687	449.5
446.908	429.5
447.129	409.5
447.35	380.5
447.571	381.5
447.792	414.5
448.013	394.5
448.234	401.5
448.455	443.5
448.675	529.5
448.896	610.5
449.117	529.5
449.338	483.5
449.559	556.5
449.779	651.5
450	511.5
450.221	421.5
450.442	378.5
450.662	382.5
450.883	367.5
451.104	407.5
451.324	385.5
451.545	375.5
451.766	344.5
451.986	329.5
452.207	350.5
452.428	357.5
452.648	354.5
452.869	342.5
453.089	345.5
453.31	344.5
453.53	361.5
453.751	355.5
453.971	335.5
454.192	344.5
454.412	346.5
454.633	334.5
454.853	328.5
455.073	345.5
455.294	371.5
455.514	399.5
455.734	399.5
455.955	356.5
456.175	329.5
456.395	337.5
456.616	337.5
456.836	334.5
457.056	336.5
457.276	325.5
457.497	310.5
457.717	319.5
457.937	329.5
458.157	334.5
458.377	336.5
458.598	356.5
458.818	391.5
459.038	449.5
459.258	434.5
459.478	395.5
459.698	352.5
459.918	343.5
460.138	350.5
460.358	360.5
460.578	378.5
460.798	382.5
461.018	374.5
461.238	368.5
461.458	374.5
461.678	371.5
461.898	359.5
462.118	355.5
462.338	363.5
462.558	383.5
462.777	373.5
462.997	377.5
463.217	384.5
463.437	385.5
463.657	374.5
463.876	391.5
464.096	381.5
464.316	378.5
464.536	378.5
464.755	388.5
464.975	393.5
465.195	410.5
465.414	443.5
465.634	399.5
465.854	370.5
466.073	362.5
466.293	353.5
466.512	342.5
466.732	346.5
466.951	336.5
467.171	352.5
467.391	363.5
467.61	359.5
467.829	352.5
468.049	353.5
468.268	353.5
468.488	340.5
468.707	354.5
468.927	348.5
469.146	359.5
469.365	355.5
469.585	323.5
469.804	357.5
470.023	354.5
470.243	350.5
470.462	371.5
470.681	377.5
470.901	364.5
471.12	371.5
471.339	376.5
471.558	372.5
471.777	368.5
471.997	330.5
472.216	349.5
472.435	382.5
472.654	359.5
472.873	359.5
473.092	357.5
473.311	336.5
473.53	366.5
473.749	359.5
473.968	401.5
474.187	480.5
474.406	503.5
474.625	405.5
474.844	355.5
475.063	352.5
475.282	349.5
475.501	367.5
475.72	366.5
475.939	372.5
476.158	365.5
476.377	355.5
476.596	361.5
476.814	381.5
477.033	370.5
477.252	386.5
477.471	390.5
477.69	380.5
477.908	387.5
478.127	392.5
478.346	376.5
478.564	399.5
478.783	379.5
479.002	382.5
479.22	420.5
479.439	420.5
479.658	408.5
479.876	406.5
480.095	432.5
480.313	447.5
480.532	433.5
480.751	412.5
480.969	439.5
481.188	447.5
481.406	473.5
481.624	444.5
481.843	409.5
482.061	415.5
482.28	413.5
482.498	424.5
482.717	398.5
482.935	415.5
483.153	419.5
483.372	416.5
483.59	397.5
483.808	396.5
484.027	396.5
484.245	396.5
484.463	435.5
484.681	413.5
484.9	404.5
485.118	412.5
485.336	407.5
485.554	418.5
485.772	417.5
485.99	427.5
486.209	411.5
486.427	405.5
486.645	420.5
486.863	439.5
487.081	419.5
487.299	411.5
487.517	446.5
487.735	469.5
487.953	472.5
488.171	451.5
488.389	440.5
488.607	464.5
488.825	453.5
489.043	465.5
489.261	444.5
489.479	428.5
489.696	450.5
489.914	441.5
490.132	460.5
490.35	468.5
490.568	459.5
490.786	466.5
491.003	462.5
491.221	485.5
491.439	502.5
491.657	509.5
491.874	497.5
492.092	503.5
492.31	504.5
492.527	512.5
492.745	517.5
492.963	511.5
493.18	521.5
493.398	513.5
493.615	514.5
493.833	503.5
494.05	520.5
494.268	521.5
494.485	527.5
494.703	516.5
494.92	521.5
495.138	526.5
495.355	517.5
495.573	523.5
495.79	503.5
496.008	528.5
496.225	525.5
496.442	521.5
496.66	540.5
496.877	517.5
497.094	497.5
497.312	521.5
497.529	529.5
497.746	534.5
497.963	523.5
498.181	559.5
498.398	545.5
498.615	563.5
498.832	578.5
499.049	596.5
499.267	597.5
499.484	615.5
499.701	641.5
499.918	627.5
500.135	673.5
500.352	694.5
500.569	680.5
500.786	710.5
501.003	714.5
501.22	667.5
501.437	656.5
501.654	657.5
501.871	620.5
502.088	597.5
502.305	607.5
502.522	594.5
502.739	577.5
502.956	569.5
503.172	541.5
503.389	533.5
503.606	553.5
503.823	539.5
504.04	507.5
504.256	522.5
504.473	508.5
504.69	506.5
504.907	500.5
505.123	518.5
505.34	507.5
505.557	477.5
505.773	471.5
505.99	478.5
506.207	523.5
506.423	484.5
506.64	481.5
506.856	487.5
507.073	477.5
507.289	462.5
507.506	480.5
507.722	479.5
507.939	483.5
508.155	490.5
508.372	470.5
508.588	458.5
508.805	463.5
509.021	480.5
509.238	469.5
509.454	480.5
509.67	460.5
509.887	463.5
510.103	477.5
510.319	491.5
510.536	538.5
510.752	795.5
510.968	635.5
511.184	484.5
511.401	463.5
511.617	432.5
511.833	443.5
512.049	447.5
512.265	448.5
512.481	424.5
512.698	439.5
512.914	425.5
513.13	444.5
513.346	436.5
513.562	420.5
513.778	451.5
513.994	432.5
514.21	449.5
514.426	436.5
514.642	476.5
514.858	490.5
515.074	511.5
515.29	586.5
515.506	815.5
515.721	708.5
515.937	508.5
516.153	477.5
516.369	479.5
516.585	453.5
516.801	445.5
517.016	439.5
517.232	443.5
517.448	463.5
517.664	476.5
517.879	439.5
518.095	457.5
518.311	466.5
518.527	437.5
518.742	432.5
518.958	441.5
519.173	464.5
519.389	430.5
519.605	453.5
519.82	435.5
520.036	461.5
