Data from 1971.PennyLincolnUp.Lamp.En5.5.200Scan.071719.P1.Scan 2. Changed Angle._HRD10591_15-24-27-842.txt Node
Date: Thu Jul 18 15:24:27 EDT 2019
User: cochatt
Spectrometer: HR+D1059
Trigger mode: 1
Integration Time (sec): 1.000000E-1
Scans to average: 1
Electric dark correction enabled: true
Nonlinearity correction enabled: false
Boxcar width: 0
XAxis mode: Wavelengths
Number of Pixels in Spectrum: 2048
>>>>>Begin Spectral Data<<<<<
223.165	-17.88
223.4	-17.88
223.635	-17.88
223.869	-8.88
224.104	-23.88
224.338	-24.88
224.573	0.12
224.808	-8.88
225.042	-13.88
225.277	-6.88
225.511	3.12
225.746	-11.88
225.98	3.12
226.215	18.12
226.449	21.12
226.683	33.12
226.918	21.12
227.152	17.12
227.387	27.12
227.621	24.12
227.856	51.12
228.09	49.12
228.324	57.12
228.559	57.12
228.793	76.12
229.027	118.12
229.262	117.12
229.496	126.12
229.73	164.12
229.964	172.12
230.199	153.12
230.433	119.12
230.667	125.12
230.901	119.12
231.136	126.12
231.37	114.12
231.604	122.12
231.838	123.12
232.072	126.12
232.306	116.12
232.541	117.12
232.775	124.12
233.009	104.12
233.243	119.12
233.477	126.12
233.711	134.12
233.945	148.12
234.179	122.12
234.413	113.12
234.647	127.12
234.881	122.12
235.115	124.12
235.349	117.12
235.583	128.12
235.817	122.12
236.051	139.12
236.285	133.12
236.519	125.12
236.753	153.12
236.987	165.12
237.221	212.12
237.455	275.12
237.689	233.12
237.922	169.12
238.156	153.12
238.39	158.12
238.624	132.12
238.858	126.12
239.091	148.12
239.325	137.12
239.559	128.12
239.793	149.12
240.027	143.12
240.26	160.12
240.494	173.12
240.728	187.12
240.961	165.12
241.195	150.12
241.429	142.12
241.662	161.12
241.896	146.12
242.13	136.12
242.363	136.12
242.597	149.12
242.83	147.12
243.064	167.12
243.298	150.12
243.531	139.12
243.765	145.12
243.998	141.12
244.232	150.12
244.465	156.12
244.699	154.12
244.932	156.12
245.166	134.12
245.399	161.12
245.633	163.12
245.866	160.12
246.099	143.12
246.333	154.12
246.566	171.12
246.8	160.12
247.033	160.12
247.266	157.12
247.5	171.12
247.733	193.12
247.966	193.12
248.2	186.12
248.433	181.12
248.666	199.12
248.899	211.12
249.133	222.12
249.366	229.12
249.599	236.12
249.832	217.12
250.066	194.12
250.299	202.12
250.532	209.12
250.765	220.12
250.998	258.12
251.231	260.12
251.465	236.12
251.698	236.12
251.931	225.12
252.164	212.12
252.397	213.12
252.63	216.12
252.863	241.12
253.096	250.12
253.329	269.12
253.562	236.12
253.795	252.12
254.028	228.12
254.261	227.12
254.494	240.12
254.727	287.12
254.96	317.12
255.193	308.12
255.426	295.12
255.659	270.12
255.892	267.12
256.124	263.12
256.357	262.12
256.59	236.12
256.823	250.12
257.056	232.12
257.289	231.12
257.521	252.12
257.754	234.12
257.987	236.12
258.22	205.12
258.452	228.12
258.685	223.12
258.918	221.12
259.151	210.12
259.383	241.12
259.616	243.12
259.849	220.12
260.081	249.12
260.314	267.12
260.547	274.12
260.779	268.12
261.012	248.12
261.244	249.12
261.477	257.12
261.71	254.12
261.942	269.12
262.175	266.12
262.407	249.12
262.64	234.12
262.872	216.12
263.105	244.12
263.337	229.12
263.57	223.12
263.802	220.12
264.035	235.12
264.267	234.12
264.499	220.12
264.732	229.12
264.964	236.12
265.197	215.12
265.429	202.12
265.661	221.12
265.894	232.12
266.126	230.12
266.358	230.12
266.591	243.12
266.823	229.12
267.055	232.12
267.287	249.12
267.52	236.12
267.752	240.12
267.984	246.12
268.216	241.12
268.448	228.12
268.681	245.12
268.913	260.12
269.145	276.12
269.377	307.12
269.609	282.12
269.841	295.12
270.073	306.12
270.306	323.12
270.538	361.12
270.77	342.12
271.002	349.12
271.234	312.12
271.466	335.12
271.698	361.12
271.93	362.12
272.162	355.12
272.394	358.12
272.626	317.12
272.858	329.12
273.09	317.12
273.322	305.12
273.553	290.12
273.785	285.12
274.017	284.12
274.249	291.12
274.481	288.12
274.713	278.12
274.945	283.12
275.176	281.12
275.408	281.12
275.64	270.12
275.872	270.12
276.104	292.12
276.335	269.12
276.567	282.12
276.799	297.12
277.031	322.12
277.262	342.12
277.494	322.12
277.726	324.12
277.957	317.12
278.189	300.12
278.421	290.12
278.652	280.12
278.884	264.12
279.115	276.12
279.347	273.12
279.579	271.12
279.81	278.12
280.042	280.12
280.273	276.12
280.505	273.12
280.736	274.12
280.968	259.12
281.199	269.12
281.431	265.12
281.662	279.12
281.894	274.12
282.125	268.12
282.356	321.12
282.588	316.12
282.819	336.12
283.051	291.12
283.282	281.12
283.513	288.12
283.745	281.12
283.976	268.12
284.207	306.12
284.439	275.12
284.67	292.12
284.901	283.12
285.132	267.12
285.364	308.12
285.595	271.12
285.826	267.12
286.057	284.12
286.288	277.12
286.52	289.12
286.751	278.12
286.982	278.12
287.213	285.12
287.444	290.12
287.675	281.12
287.906	307.12
288.138	316.12
288.369	321.12
288.6	322.12
288.831	313.12
289.062	287.12
289.293	291.12
289.524	283.12
289.755	276.12
289.986	289.12
290.217	271.12
290.448	286.12
290.679	281.12
290.91	271.12
291.141	264.12
291.371	291.12
291.602	288.12
291.833	280.12
292.064	282.12
292.295	286.12
292.526	317.12
292.757	298.12
292.987	297.12
293.218	282.12
293.449	312.12
293.68	306.12
293.91	276.12
294.141	286.12
294.372	298.12
294.603	292.12
294.833	277.12
295.064	283.12
295.295	286.12
295.525	279.12
295.756	302.12
295.987	301.12
296.217	314.12
296.448	340.12
296.679	306.12
296.909	310.12
297.14	284.12
297.37	308.12
297.601	297.12
297.831	293.12
298.062	302.12
298.292	299.12
298.523	313.12
298.753	308.12
298.984	307.12
299.214	322.12
299.445	311.12
299.675	309.12
299.905	302.12
300.136	328.12
300.366	295.12
300.597	338.12
300.827	320.12
301.057	324.12
301.288	329.12
301.518	310.12
301.748	337.12
301.979	321.12
302.209	332.12
302.439	327.12
302.669	336.12
302.9	322.12
303.13	314.12
303.36	331.12
303.59	342.12
303.82	356.12
304.051	346.12
304.281	316.12
304.511	330.12
304.741	314.12
304.971	313.12
305.201	320.12
305.431	317.12
305.661	325.12
305.891	329.12
306.121	324.12
306.352	335.12
306.582	357.12
306.812	343.12
307.042	328.12
307.272	340.12
307.502	325.12
307.731	333.12
307.961	334.12
308.191	341.12
308.421	355.12
308.651	329.12
308.881	340.12
309.111	362.12
309.341	356.12
309.571	371.12
309.8	388.12
310.03	364.12
310.26	378.12
310.49	375.12
310.72	413.12
310.949	418.12
311.179	422.12
311.409	396.12
311.639	384.12
311.868	387.12
312.098	401.12
312.328	402.12
312.557	429.12
312.787	470.12
313.017	425.12
313.246	413.12
313.476	398.12
313.706	403.12
313.935	413.12
314.165	410.12
314.394	433.12
314.624	425.12
314.853	413.12
315.083	416.12
315.312	397.12
315.542	375.12
315.771	392.12
316.001	377.12
316.23	370.12
316.46	365.12
316.689	380.12
316.919	391.12
317.148	414.12
317.377	404.12
317.607	392.12
317.836	401.12
318.065	398.12
318.295	401.12
318.524	371.12
318.753	391.12
318.983	386.12
319.212	381.12
319.441	400.12
319.67	430.12
319.9	392.12
320.129	410.12
320.358	411.12
320.587	402.12
320.816	407.12
321.046	424.12
321.275	429.12
321.504	440.12
321.733	434.12
321.962	443.12
322.191	465.12
322.42	483.12
322.649	470.12
322.878	508.12
323.108	524.12
323.337	557.12
323.566	578.12
323.795	621.12
324.024	676.12
324.253	853.12
324.482	1246.12
324.71	1952.12
324.939	2854.12
325.168	2426.12
325.397	1234.12
325.626	805.12
325.855	674.12
326.084	596.12
326.313	587.12
326.542	570.12
326.77	639.12
326.999	794.12
327.228	1128.12
327.457	1678.12
327.686	2075.12
327.914	1397.12
328.143	882.12
328.372	748.12
328.6	704.12
328.829	660.12
329.058	697.12
329.287	699.12
329.515	630.12
329.744	577.12
329.972	587.12
330.201	619.12
330.43	634.12
330.658	731.12
330.887	739.12
331.115	722.12
331.344	594.12
331.572	568.12
331.801	540.12
332.03	530.12
332.258	520.12
332.486	505.12
332.715	489.12
332.943	480.12
333.172	506.12
333.4	476.12
333.629	489.12
333.857	517.12
334.085	506.12
334.314	545.12
334.542	570.12
334.771	572.12
334.999	548.12
335.227	490.12
335.455	490.12
335.684	461.12
335.912	462.12
336.14	468.12
336.369	457.12
336.597	466.12
336.825	474.12
337.053	454.12
337.281	437.12
337.51	477.12
337.738	441.12
337.966	463.12
338.194	465.12
338.422	468.12
338.65	455.12
338.878	453.12
339.106	438.12
339.334	442.12
339.562	457.12
339.79	439.12
340.018	457.12
340.246	435.12
340.474	446.12
340.702	463.12
340.93	471.12
341.158	461.12
341.386	459.12
341.614	464.12
341.842	465.12
342.07	444.12
342.298	447.12
342.526	448.12
342.754	458.12
342.981	437.12
343.209	430.12
343.437	450.12
343.665	442.12
343.893	447.12
344.12	465.12
344.348	467.12
344.576	438.12
344.804	458.12
345.031	473.12
345.259	492.12
345.487	498.12
345.714	472.12
345.942	434.12
346.17	443.12
346.397	433.12
346.625	445.12
346.853	422.12
347.08	419.12
347.308	449.12
347.535	453.12
347.763	461.12
347.99	468.12
348.218	474.12
348.445	465.12
348.673	466.12
348.9	439.12
349.128	440.12
349.355	426.12
349.583	447.12
349.81	440.12
350.037	429.12
350.265	427.12
350.492	462.12
350.72	441.12
350.947	442.12
351.174	424.12
351.402	453.12
351.629	451.12
351.856	459.12
352.083	456.12
352.311	481.12
352.538	489.12
352.765	477.12
352.992	461.12
353.22	450.12
353.447	455.12
353.674	444.12
353.901	407.12
354.128	427.12
354.355	434.12
354.583	406.12
354.81	422.12
355.037	432.12
355.264	419.12
355.491	398.12
355.718	417.12
355.945	409.12
356.172	421.12
356.399	398.12
356.626	398.12
356.853	422.12
357.08	413.12
357.307	363.12
357.534	404.12
357.761	418.12
357.988	412.12
358.215	432.12
358.441	411.12
358.668	426.12
358.895	424.12
359.122	447.12
359.349	427.12
359.576	455.12
359.802	463.12
360.029	527.12
360.256	564.12
360.483	503.12
360.709	472.12
360.936	474.12
361.163	428.12
361.39	479.12
361.616	473.12
361.843	426.12
362.07	440.12
362.296	446.12
362.523	440.12
362.749	468.12
362.976	436.12
363.203	428.12
363.429	441.12
363.656	422.12
363.882	432.12
364.109	430.12
364.335	405.12
364.562	441.12
364.788	422.12
365.015	427.12
365.241	400.12
365.468	416.12
365.694	445.12
365.92	445.12
366.147	430.12
366.373	432.12
366.599	410.12
366.826	434.12
367.052	422.12
367.278	426.12
367.505	416.12
367.731	440.12
367.957	418.12
368.184	416.12
368.41	454.12
368.636	449.12
368.862	455.12
369.089	425.12
369.315	439.12
369.541	418.12
369.767	420.12
369.993	389.12
370.219	438.12
370.445	426.12
370.672	416.12
370.898	425.12
371.124	425.12
371.35	419.12
371.576	427.12
371.802	425.12
372.028	399.12
372.254	424.12
372.48	408.12
372.706	419.12
372.932	409.12
373.158	421.12
373.384	416.12
373.61	413.12
373.835	418.12
374.061	448.12
374.287	426.12
374.513	440.12
374.739	432.12
374.965	418.12
375.191	410.12
375.416	415.12
375.642	404.12
375.868	430.12
376.094	421.12
376.319	425.12
376.545	413.12
376.771	419.12
376.997	413.12
377.222	412.12
377.448	399.12
377.674	428.12
377.899	418.12
378.125	414.12
378.35	437.12
378.576	425.12
378.802	417.12
379.027	436.12
379.253	420.12
379.478	401.12
379.704	426.12
379.929	418.12
380.155	442.12
380.38	424.12
380.606	432.12
380.831	419.12
381.057	444.12
381.282	419.12
381.507	416.12
381.733	428.12
381.958	420.12
382.184	446.12
382.409	428.12
382.634	428.12
382.86	424.12
383.085	445.12
383.31	436.12
383.535	435.12
383.761	434.12
383.986	458.12
384.211	458.12
384.436	422.12
384.662	427.12
384.887	449.12
385.112	452.12
385.337	447.12
385.562	440.12
385.787	444.12
386.013	470.12
386.238	471.12
386.463	474.12
386.688	459.12
386.913	473.12
387.138	457.12
387.363	449.12
387.588	450.12
387.813	469.12
388.038	463.12
388.263	483.12
388.488	438.12
388.713	450.12
388.938	473.12
389.163	448.12
389.387	471.12
389.612	457.12
389.837	448.12
390.062	455.12
390.287	447.12
390.512	456.12
390.736	454.12
390.961	460.12
391.186	476.12
391.411	482.12
391.636	457.12
391.86	471.12
392.085	471.12
392.31	472.12
392.534	463.12
392.759	475.12
392.984	472.12
393.208	449.12
393.433	468.12
393.658	449.12
393.882	474.12
394.107	444.12
394.331	470.12
394.556	477.12
394.78	485.12
395.005	475.12
395.229	486.12
395.454	464.12
395.678	480.12
395.903	492.12
396.127	515.12
396.352	529.12
396.576	503.12
396.801	472.12
397.025	490.12
397.249	520.12
397.474	479.12
397.698	478.12
397.922	535.12
398.147	551.12
398.371	521.12
398.595	507.12
398.82	506.12
399.044	529.12
399.268	518.12
399.492	556.12
399.717	577.12
399.941	610.12
400.165	636.12
400.389	658.12
400.613	613.12
400.837	567.12
401.062	562.12
401.286	547.12
401.51	555.12
401.734	537.12
401.958	557.12
402.182	540.12
402.406	536.12
402.63	552.12
402.854	548.12
403.078	541.12
403.302	547.12
403.526	555.12
403.75	565.12
403.974	556.12
404.198	551.12
404.422	560.12
404.645	580.12
404.869	572.12
405.093	607.12
405.317	637.12
405.541	697.12
405.765	640.12
405.988	602.12
406.212	632.12
406.436	628.12
406.66	646.12
406.883	620.12
407.107	632.12
407.331	667.12
407.555	771.12
407.778	753.12
408.002	674.12
408.226	656.12
408.449	619.12
408.673	610.12
408.896	668.12
409.12	720.12
409.344	654.12
409.567	589.12
409.791	585.12
410.014	576.12
410.238	567.12
410.461	573.12
410.685	585.12
410.908	602.12
411.132	628.12
411.355	638.12
411.578	646.12
411.802	587.12
412.025	544.12
412.249	572.12
412.472	612.12
412.695	641.12
412.919	640.12
413.142	592.12
413.365	552.12
413.589	560.12
413.812	543.12
414.035	545.12
414.258	518.12
414.482	532.12
414.705	536.12
414.928	535.12
415.151	530.12
415.374	535.12
415.597	518.12
415.821	532.12
416.044	546.12
416.267	541.12
416.49	536.12
416.713	530.12
416.936	512.12
417.159	526.12
417.382	541.12
417.605	544.12
417.828	549.12
418.051	564.12
418.274	576.12
418.497	544.12
418.72	541.12
418.943	549.12
419.166	549.12
419.389	564.12
419.611	581.12
419.834	580.12
420.057	582.12
420.28	564.12
420.503	552.12
420.726	568.12
420.948	615.12
421.171	629.12
421.394	691.12
421.617	598.12
421.839	581.12
422.062	567.12
422.285	602.12
422.507	643.12
422.73	734.12
422.953	708.12
423.175	654.12
423.398	620.12
423.621	587.12
423.843	607.12
424.066	621.12
424.288	577.12
424.511	632.12
424.733	712.12
424.956	829.12
425.178	768.12
425.401	786.12
425.623	774.12
425.846	698.12
426.068	659.12
426.291	631.12
426.513	661.12
426.735	640.12
426.958	690.12
427.18	788.12
427.402	932.12
427.625	1048.12
427.847	946.12
428.069	809.12
428.292	709.12
428.514	650.12
428.736	634.12
428.958	609.12
429.181	590.12
429.403	581.12
429.625	601.12
429.847	649.12
430.069	727.12
430.292	727.12
430.514	639.12
430.736	603.12
430.958	570.12
431.18	554.12
431.402	555.12
431.624	514.12
431.846	546.12
432.068	554.12
432.29	580.12
432.512	541.12
432.734	555.12
432.956	572.12
433.178	576.12
433.4	562.12
433.622	541.12
433.844	548.12
434.066	534.12
434.287	554.12
434.509	542.12
434.731	556.12
434.953	571.12
435.175	574.12
435.397	606.12
435.618	641.12
435.84	690.12
436.062	805.12
436.284	871.12
436.505	756.12
436.727	668.12
436.949	635.12
437.17	576.12
437.392	597.12
437.614	614.12
437.835	651.12
438.057	782.12
438.278	889.12
438.5	894.12
438.721	971.12
438.943	900.12
439.165	745.12
439.386	670.12
439.608	675.12
439.829	654.12
440.05	705.12
440.272	751.12
440.493	724.12
440.715	643.12
440.936	615.12
441.158	602.12
441.379	611.12
441.6	636.12
441.822	644.12
442.043	701.12
442.264	758.12
442.486	859.12
442.707	716.12
442.928	659.12
443.149	681.12
443.371	715.12
443.592	764.12
443.813	847.12
444.034	949.12
444.255	768.12
444.476	680.12
444.698	642.12
444.919	648.12
445.14	753.12
445.361	719.12
445.582	703.12
445.803	784.12
446.024	896.12
446.245	900.12
446.466	852.12
446.687	723.12
446.908	663.12
447.129	624.12
447.35	619.12
447.571	571.12
447.792	598.12
448.013	621.12
448.234	647.12
448.455	679.12
448.675	815.12
448.896	960.12
449.117	809.12
449.338	770.12
449.559	868.12
449.779	994.12
450	813.12
450.221	665.12
450.442	624.12
450.662	589.12
450.883	644.12
451.104	605.12
451.324	605.12
451.545	595.12
451.766	556.12
451.986	557.12
452.207	531.12
452.428	525.12
452.648	520.12
452.869	546.12
453.089	560.12
453.31	572.12
453.53	567.12
453.751	553.12
453.971	552.12
454.192	576.12
454.412	553.12
454.633	542.12
454.853	525.12
455.073	528.12
455.294	549.12
455.514	664.12
455.734	659.12
455.955	545.12
456.175	512.12
456.395	504.12
456.616	481.12
456.836	500.12
457.056	500.12
457.276	469.12
457.497	485.12
457.717	488.12
457.937	507.12
458.157	493.12
458.377	518.12
458.598	554.12
458.818	636.12
459.038	740.12
459.258	759.12
459.478	640.12
459.698	577.12
459.918	558.12
460.138	559.12
460.358	528.12
460.578	509.12
460.798	539.12
461.018	550.12
461.238	536.12
461.458	533.12
461.678	556.12
461.898	538.12
462.118	532.12
462.338	535.12
462.558	540.12
462.777	537.12
462.997	572.12
463.217	576.12
463.437	555.12
463.657	565.12
463.876	558.12
464.096	556.12
464.316	577.12
464.536	581.12
464.755	602.12
464.975	586.12
465.195	642.12
465.414	788.12
465.634	681.12
465.854	585.12
466.073	595.12
466.293	557.12
466.512	552.12
466.732	558.12
466.951	535.12
467.171	570.12
467.391	547.12
467.61	556.12
467.829	570.12
468.049	544.12
468.268	559.12
468.488	537.12
468.707	532.12
468.927	528.12
469.146	514.12
469.365	535.12
469.585	553.12
469.804	556.12
470.023	557.12
470.243	551.12
470.462	556.12
470.681	588.12
470.901	593.12
471.12	568.12
471.339	577.12
471.558	551.12
471.777	546.12
471.997	565.12
472.216	566.12
472.435	630.12
472.654	581.12
472.873	553.12
473.092	536.12
473.311	538.12
473.53	535.12
473.749	553.12
473.968	604.12
474.187	757.12
474.406	768.12
474.625	632.12
474.844	578.12
475.063	559.12
475.282	568.12
475.501	580.12
475.72	583.12
475.939	582.12
476.158	563.12
476.377	565.12
476.596	530.12
476.814	562.12
477.033	593.12
477.252	586.12
477.471	581.12
477.69	585.12
477.908	587.12
478.127	594.12
478.346	612.12
478.564	588.12
478.783	612.12
479.002	633.12
479.22	605.12
479.439	671.12
479.658	657.12
479.876	676.12
480.095	691.12
480.313	731.12
480.532	674.12
480.751	696.12
480.969	694.12
481.188	760.12
481.406	794.12
481.624	731.12
481.843	695.12
482.061	676.12
482.28	652.12
482.498	682.12
482.717	647.12
482.935	676.12
483.153	645.12
483.372	663.12
483.59	648.12
483.808	683.12
484.027	648.12
484.245	643.12
484.463	660.12
484.681	701.12
484.9	665.12
485.118	664.12
485.336	685.12
485.554	691.12
485.772	692.12
485.99	673.12
486.209	668.12
486.427	664.12
486.645	691.12
486.863	730.12
487.081	714.12
487.299	721.12
487.517	713.12
487.735	729.12
487.953	750.12
488.171	753.12
488.389	714.12
488.607	740.12
488.825	724.12
489.043	726.12
489.261	731.12
489.479	713.12
489.696	715.12
489.914	719.12
490.132	729.12
490.35	750.12
490.568	755.12
490.786	787.12
491.003	783.12
491.221	823.12
491.439	836.12
491.657	825.12
491.874	845.12
492.092	821.12
492.31	845.12
492.527	840.12
492.745	833.12
492.963	854.12
493.18	836.12
493.398	891.12
493.615	850.12
493.833	858.12
494.05	860.12
494.268	852.12
494.485	859.12
494.703	866.12
494.92	859.12
495.138	865.12
495.355	857.12
495.573	865.12
495.79	843.12
496.008	836.12
496.225	844.12
496.442	843.12
496.66	862.12
496.877	836.12
497.094	872.12
497.312	875.12
497.529	876.12
497.746	901.12
497.963	898.12
498.181	908.12
498.398	929.12
498.615	927.12
498.832	950.12
499.049	922.12
499.267	953.12
499.484	970.12
499.701	981.12
499.918	1014.12
500.135	1043.12
500.352	1062.12
500.569	1053.12
500.786	1078.12
501.003	1091.12
501.22	1065.12
501.437	1057.12
