Data from 1971.PennyLincolnUp.Lamp.En5.5.200Scan.071719.P1._HRD10591_15-20-50-842.txt Node
Date: Thu Jul 18 15:20:50 EDT 2019
User: cochatt
Spectrometer: HR+D1059
Trigger mode: 1
Integration Time (sec): 1.000000E-1
Scans to average: 1
Electric dark correction enabled: true
Nonlinearity correction enabled: false
Boxcar width: 0
XAxis mode: Wavelengths
Number of Pixels in Spectrum: 2048
>>>>>Begin Spectral Data<<<<<
223.165	-11.75
223.4	-11.75
223.635	-11.75
223.869	-18.75
224.104	-14.75
224.338	-5.75
224.573	-28.75
224.808	-17.75
225.042	-5.75
225.277	-3.75
225.511	-12.75
225.746	16.25
225.98	-1.75
226.215	0.25
226.449	20.25
226.683	25.25
226.918	30.25
227.152	29.25
227.387	30.25
227.621	45.25
227.856	47.25
228.09	49.25
228.324	57.25
228.559	55.25
228.793	76.25
229.027	97.25
229.262	97.25
229.496	97.25
229.73	135.25
229.964	137.25
230.199	141.25
230.433	111.25
230.667	105.25
230.901	102.25
231.136	103.25
231.37	124.25
231.604	100.25
231.838	108.25
232.072	103.25
232.306	100.25
232.541	108.25
232.775	103.25
233.009	106.25
233.243	106.25
233.477	117.25
233.711	122.25
233.945	111.25
234.179	124.25
234.413	108.25
234.647	123.25
234.881	117.25
235.115	121.25
235.349	113.25
235.583	108.25
235.817	111.25
236.051	130.25
236.285	147.25
236.519	131.25
236.753	130.25
236.987	137.25
237.221	164.25
237.455	197.25
237.689	153.25
237.922	131.25
238.156	124.25
238.39	124.25
238.624	119.25
238.858	120.25
239.091	133.25
239.325	117.25
239.559	125.25
239.793	138.25
240.027	129.25
240.26	153.25
240.494	155.25
240.728	151.25
240.961	143.25
241.195	138.25
241.429	153.25
241.662	156.25
241.896	137.25
242.13	126.25
242.363	124.25
242.597	129.25
242.83	147.25
243.064	136.25
243.298	125.25
243.531	137.25
243.765	137.25
243.998	150.25
244.232	137.25
244.465	131.25
244.699	133.25
244.932	142.25
245.166	143.25
245.399	153.25
245.633	139.25
245.866	136.25
246.099	152.25
246.333	151.25
246.566	150.25
246.8	153.25
247.033	154.25
247.266	157.25
247.5	167.25
247.733	172.25
247.966	186.25
248.2	169.25
248.433	181.25
248.666	159.25
248.899	189.25
249.133	192.25
249.366	199.25
249.599	203.25
249.832	194.25
250.066	185.25
250.299	196.25
250.532	202.25
250.765	204.25
250.998	227.25
251.231	230.25
251.465	204.25
251.698	214.25
251.931	217.25
252.164	201.25
252.397	194.25
252.63	195.25
252.863	207.25
253.096	241.25
253.329	247.25
253.562	246.25
253.795	230.25
254.028	217.25
254.261	229.25
254.494	229.25
254.727	274.25
254.96	295.25
255.193	277.25
255.426	258.25
255.659	243.25
255.892	250.25
256.124	237.25
256.357	252.25
256.59	218.25
256.823	213.25
257.056	234.25
257.289	220.25
257.521	217.25
257.754	231.25
257.987	215.25
258.22	222.25
258.452	221.25
258.685	206.25
258.918	219.25
259.151	214.25
259.383	214.25
259.616	240.25
259.849	226.25
260.081	234.25
260.314	255.25
260.547	273.25
260.779	257.25
261.012	241.25
261.244	237.25
261.477	233.25
261.71	221.25
261.942	228.25
262.175	249.25
262.407	226.25
262.64	232.25
262.872	234.25
263.105	222.25
263.337	228.25
263.57	213.25
263.802	205.25
264.035	227.25
264.267	236.25
264.499	226.25
264.732	213.25
264.964	219.25
265.197	256.25
265.429	213.25
265.661	236.25
265.894	225.25
266.126	226.25
266.358	226.25
266.591	228.25
266.823	227.25
267.055	253.25
267.287	237.25
267.52	237.25
267.752	242.25
267.984	238.25
268.216	242.25
268.448	259.25
268.681	229.25
268.913	267.25
269.145	259.25
269.377	286.25
269.609	287.25
269.841	267.25
270.073	290.25
270.306	306.25
270.538	318.25
270.77	335.25
271.002	333.25
271.234	286.25
271.466	309.25
271.698	329.25
271.93	339.25
272.162	341.25
272.394	330.25
272.626	296.25
272.858	305.25
273.09	285.25
273.322	293.25
273.553	286.25
273.785	270.25
274.017	269.25
274.249	264.25
274.481	275.25
274.713	271.25
274.945	277.25
275.176	291.25
275.408	270.25
275.64	271.25
275.872	264.25
276.104	263.25
276.335	281.25
276.567	279.25
276.799	300.25
277.031	313.25
277.262	322.25
277.494	339.25
277.726	335.25
277.957	309.25
278.189	305.25
278.421	295.25
278.652	281.25
278.884	272.25
279.115	269.25
279.347	281.25
279.579	275.25
279.81	276.25
280.042	271.25
280.273	281.25
280.505	282.25
280.736	266.25
280.968	280.25
281.199	269.25
281.431	273.25
281.662	277.25
281.894	291.25
282.125	289.25
282.356	301.25
282.588	311.25
282.819	313.25
283.051	301.25
283.282	277.25
283.513	281.25
283.745	301.25
283.976	291.25
284.207	289.25
284.439	293.25
284.67	293.25
284.901	300.25
285.132	291.25
285.364	287.25
285.595	308.25
285.826	296.25
286.057	313.25
286.288	298.25
286.52	294.25
286.751	272.25
286.982	280.25
287.213	301.25
287.444	303.25
287.675	294.25
287.906	323.25
288.138	308.25
288.369	302.25
288.6	302.25
288.831	312.25
289.062	297.25
289.293	300.25
289.524	317.25
289.755	315.25
289.986	314.25
290.217	291.25
290.448	294.25
290.679	305.25
290.91	303.25
291.141	303.25
291.371	306.25
291.602	291.25
291.833	307.25
292.064	274.25
292.295	302.25
292.526	291.25
292.757	296.25
292.987	297.25
293.218	296.25
293.449	309.25
293.68	307.25
293.91	280.25
294.141	283.25
294.372	293.25
294.603	305.25
294.833	314.25
295.064	314.25
295.295	301.25
295.525	307.25
295.756	316.25
295.987	315.25
296.217	325.25
296.448	333.25
296.679	313.25
296.909	324.25
297.14	324.25
297.37	309.25
297.601	313.25
297.831	313.25
298.062	318.25
298.292	330.25
298.523	325.25
298.753	313.25
298.984	313.25
299.214	322.25
299.445	310.25
299.675	309.25
299.905	335.25
300.136	323.25
300.366	306.25
300.597	317.25
300.827	324.25
301.057	334.25
301.288	351.25
301.518	355.25
301.748	311.25
301.979	347.25
302.209	345.25
302.439	351.25
302.669	341.25
302.9	336.25
303.13	338.25
303.36	352.25
303.59	344.25
303.82	360.25
304.051	367.25
304.281	347.25
304.511	347.25
304.741	357.25
304.971	343.25
305.201	336.25
305.431	341.25
305.661	347.25
305.891	327.25
306.121	349.25
306.352	342.25
306.582	360.25
306.812	349.25
307.042	358.25
307.272	358.25
307.502	335.25
307.731	347.25
307.961	366.25
308.191	345.25
308.421	352.25
308.651	345.25
308.881	358.25
309.111	374.25
309.341	351.25
309.571	380.25
309.8	355.25
310.03	377.25
310.26	406.25
310.49	388.25
310.72	405.25
310.949	404.25
311.179	390.25
311.409	402.25
311.639	392.25
311.868	382.25
312.098	399.25
312.328	410.25
312.557	402.25
312.787	428.25
313.017	408.25
313.246	392.25
313.476	397.25
313.706	360.25
313.935	381.25
314.165	403.25
314.394	413.25
314.624	398.25
314.853	402.25
315.083	400.25
315.312	392.25
315.542	412.25
315.771	398.25
316.001	395.25
316.23	410.25
316.46	376.25
316.689	379.25
316.919	382.25
317.148	400.25
317.377	396.25
317.607	381.25
317.836	395.25
318.065	401.25
318.295	397.25
318.524	391.25
318.753	363.25
318.983	374.25
319.212	379.25
319.441	385.25
319.67	389.25
319.9	384.25
320.129	386.25
320.358	402.25
320.587	392.25
320.816	414.25
321.046	413.25
321.275	422.25
321.504	400.25
321.733	406.25
321.962	441.25
322.191	420.25
322.42	443.25
322.649	448.25
322.878	443.25
323.108	454.25
323.337	477.25
323.566	517.25
323.795	557.25
324.024	589.25
324.253	712.25
324.482	1035.25
324.71	1545.25
324.939	2085.25
325.168	1725.25
325.397	927.25
325.626	649.25
325.855	561.25
326.084	521.25
326.313	516.25
326.542	511.25
326.77	554.25
326.999	655.25
327.228	875.25
327.457	1311.25
327.686	1477.25
327.914	1013.25
328.143	668.25
328.372	632.25
328.6	601.25
328.829	563.25
329.058	556.25
329.287	582.25
329.515	535.25
329.744	525.25
329.972	495.25
330.201	515.25
330.43	561.25
330.658	567.25
330.887	602.25
331.115	586.25
331.344	512.25
331.572	474.25
331.801	499.25
332.03	467.25
332.258	458.25
332.486	467.25
332.715	446.25
332.943	466.25
333.172	441.25
333.4	447.25
333.629	465.25
333.857	488.25
334.085	488.25
334.314	498.25
334.542	531.25
334.771	511.25
334.999	489.25
335.227	478.25
335.455	445.25
335.684	469.25
335.912	447.25
336.14	433.25
336.369	451.25
336.597	460.25
336.825	441.25
337.053	433.25
337.281	429.25
337.51	442.25
337.738	410.25
337.966	411.25
338.194	425.25
338.422	437.25
338.65	420.25
338.878	419.25
339.106	421.25
339.334	441.25
339.562	419.25
339.79	424.25
340.018	429.25
340.246	435.25
340.474	413.25
340.702	417.25
340.93	431.25
341.158	407.25
341.386	425.25
341.614	419.25
341.842	421.25
342.07	418.25
342.298	419.25
342.526	416.25
342.754	422.25
342.981	411.25
343.209	413.25
343.437	415.25
343.665	438.25
343.893	399.25
344.12	441.25
344.348	402.25
344.576	413.25
344.804	435.25
345.031	446.25
345.259	429.25
345.487	439.25
345.714	429.25
345.942	408.25
346.17	375.25
346.397	402.25
346.625	413.25
346.853	414.25
347.08	408.25
347.308	395.25
347.535	425.25
347.763	415.25
347.99	414.25
348.218	413.25
348.445	418.25
348.673	423.25
348.9	397.25
349.128	410.25
349.355	392.25
349.583	410.25
349.81	401.25
350.037	389.25
350.265	384.25
350.492	393.25
350.72	408.25
350.947	395.25
351.174	413.25
351.402	411.25
351.629	414.25
351.856	387.25
352.083	421.25
352.311	418.25
352.538	419.25
352.765	416.25
352.992	409.25
353.22	411.25
353.447	395.25
353.674	410.25
353.901	395.25
354.128	383.25
354.355	379.25
354.583	380.25
354.81	378.25
355.037	383.25
355.264	375.25
355.491	375.25
355.718	366.25
355.945	390.25
356.172	389.25
356.399	373.25
356.626	364.25
356.853	363.25
357.08	381.25
357.307	363.25
357.534	369.25
357.761	375.25
357.988	366.25
358.215	361.25
358.441	365.25
358.668	378.25
358.895	383.25
359.122	381.25
359.349	395.25
359.576	397.25
359.802	400.25
360.029	422.25
360.256	448.25
360.483	416.25
360.709	396.25
360.936	390.25
361.163	397.25
361.39	401.25
361.616	395.25
361.843	393.25
362.07	386.25
362.296	397.25
362.523	394.25
362.749	394.25
362.976	379.25
363.203	398.25
363.429	360.25
363.656	371.25
363.882	373.25
364.109	376.25
364.335	368.25
364.562	374.25
364.788	382.25
365.015	388.25
365.241	370.25
365.468	393.25
365.694	372.25
365.92	372.25
366.147	350.25
366.373	387.25
366.599	353.25
366.826	353.25
367.052	361.25
367.278	361.25
367.505	363.25
367.731	388.25
367.957	373.25
368.184	379.25
368.41	361.25
368.636	367.25
368.862	392.25
369.089	391.25
369.315	375.25
369.541	384.25
369.767	371.25
369.993	369.25
370.219	362.25
370.445	365.25
370.672	361.25
370.898	369.25
371.124	377.25
371.35	355.25
371.576	365.25
371.802	359.25
372.028	362.25
372.254	386.25
372.48	377.25
372.706	365.25
372.932	375.25
373.158	355.25
373.384	361.25
373.61	361.25
373.835	390.25
374.061	349.25
374.287	363.25
374.513	358.25
374.739	369.25
374.965	403.25
375.191	362.25
375.416	357.25
375.642	369.25
375.868	377.25
376.094	381.25
376.319	363.25
376.545	358.25
376.771	350.25
376.997	363.25
377.222	350.25
377.448	348.25
377.674	339.25
377.899	353.25
378.125	349.25
378.35	350.25
378.576	352.25
378.802	361.25
379.027	349.25
379.253	361.25
379.478	333.25
379.704	342.25
379.929	347.25
380.155	358.25
380.38	349.25
380.606	347.25
380.831	369.25
381.057	365.25
381.282	360.25
381.507	362.25
381.733	335.25
381.958	357.25
382.184	349.25
382.409	374.25
382.634	370.25
382.86	366.25
383.085	365.25
383.31	347.25
383.535	366.25
383.761	358.25
383.986	357.25
384.211	357.25
384.436	355.25
384.662	375.25
384.887	376.25
385.112	377.25
385.337	390.25
385.562	382.25
385.787	364.25
386.013	395.25
386.238	375.25
386.463	379.25
386.688	401.25
386.913	371.25
387.138	362.25
387.363	380.25
387.588	377.25
387.813	385.25
388.038	375.25
388.263	362.25
388.488	373.25
388.713	374.25
388.938	380.25
389.163	373.25
389.387	382.25
389.612	372.25
389.837	372.25
390.062	377.25
390.287	370.25
390.512	355.25
390.736	354.25
390.961	379.25
391.186	395.25
391.411	377.25
391.636	371.25
391.86	383.25
392.085	389.25
392.31	391.25
392.534	397.25
392.759	388.25
392.984	396.25
393.208	394.25
393.433	381.25
393.658	395.25
393.882	386.25
394.107	383.25
394.331	382.25
394.556	366.25
394.78	379.25
395.005	397.25
395.229	375.25
395.454	388.25
395.678	387.25
395.903	404.25
396.127	405.25
396.352	415.25
396.576	388.25
396.801	389.25
397.025	391.25
397.249	409.25
397.474	389.25
397.698	389.25
397.922	417.25
398.147	414.25
398.371	423.25
398.595	415.25
398.82	427.25
399.044	443.25
399.268	420.25
399.492	472.25
399.717	491.25
399.941	488.25
400.165	513.25
400.389	499.25
400.613	458.25
400.837	443.25
401.062	423.25
401.286	418.25
401.51	428.25
401.734	419.25
401.958	433.25
402.182	419.25
402.406	408.25
402.63	414.25
402.854	419.25
403.078	428.25
403.302	421.25
403.526	427.25
403.75	443.25
403.974	417.25
404.198	440.25
404.422	429.25
404.645	430.25
404.869	437.25
405.093	454.25
405.317	497.25
405.541	541.25
405.765	474.25
405.988	451.25
406.212	449.25
406.436	473.25
406.66	480.25
406.883	471.25
407.107	494.25
407.331	498.25
407.555	555.25
407.778	565.25
408.002	527.25
408.226	489.25
408.449	461.25
408.673	471.25
408.896	474.25
409.12	529.25
409.344	513.25
409.567	453.25
409.791	436.25
410.014	430.25
410.238	435.25
410.461	443.25
410.685	436.25
410.908	451.25
411.132	488.25
411.355	486.25
411.578	468.25
411.802	418.25
412.025	426.25
412.249	446.25
412.472	452.25
412.695	484.25
412.919	469.25
413.142	434.25
413.365	420.25
413.589	404.25
413.812	403.25
414.035	409.25
414.258	408.25
414.482	398.25
414.705	421.25
414.928	395.25
415.151	409.25
415.374	405.25
415.597	418.25
415.821	428.25
416.044	413.25
416.267	424.25
416.49	401.25
416.713	404.25
416.936	398.25
417.159	387.25
417.382	424.25
417.605	412.25
417.828	423.25
418.051	407.25
418.274	423.25
418.497	385.25
418.72	400.25
418.943	394.25
419.166	413.25
419.389	423.25
419.611	450.25
419.834	444.25
420.057	430.25
420.28	439.25
420.503	401.25
420.726	390.25
420.948	421.25
421.171	479.25
421.394	532.25
421.617	447.25
421.839	439.25
422.062	439.25
422.285	452.25
422.507	490.25
422.73	553.25
422.953	499.25
423.175	466.25
423.398	437.25
423.621	426.25
423.843	439.25
424.066	460.25
424.288	472.25
424.511	486.25
424.733	514.25
424.956	586.25
425.178	570.25
425.401	573.25
425.623	578.25
425.846	522.25
426.068	467.25
426.291	459.25
426.513	438.25
426.735	465.25
426.958	481.25
427.18	582.25
427.402	661.25
427.625	717.25
427.847	659.25
428.069	564.25
428.292	517.25
428.514	444.25
428.736	419.25
428.958	413.25
429.181	438.25
429.403	425.25
429.625	444.25
429.847	470.25
430.069	513.25
430.292	503.25
430.514	428.25
430.736	407.25
430.958	417.25
431.18	405.25
431.402	418.25
431.624	409.25
431.846	388.25
432.068	389.25
432.29	394.25
432.512	410.25
432.734	423.25
432.956	406.25
433.178	393.25
433.4	392.25
433.622	419.25
433.844	412.25
434.066	388.25
434.287	388.25
434.509	388.25
434.731	398.25
434.953	414.25
435.175	414.25
435.397	461.25
435.618	454.25
435.84	489.25
436.062	578.25
436.284	606.25
436.505	518.25
436.727	467.25
436.949	427.25
437.17	419.25
437.392	394.25
437.614	437.25
437.835	458.25
438.057	529.25
438.278	620.25
438.5	630.25
438.721	671.25
438.943	652.25
439.165	515.25
439.386	474.25
439.608	483.25
439.829	458.25
440.05	490.25
440.272	536.25
440.493	503.25
440.715	439.25
440.936	433.25
441.158	426.25
441.379	405.25
441.6	444.25
441.822	472.25
442.043	499.25
442.264	575.25
442.486	588.25
442.707	501.25
442.928	463.25
443.149	498.25
443.371	489.25
443.592	555.25
443.813	588.25
444.034	657.25
444.255	543.25
444.476	476.25
444.698	463.25
444.919	459.25
445.14	566.25
445.361	499.25
445.582	507.25
445.803	557.25
446.024	638.25
446.245	613.25
446.466	581.25
446.687	492.25
446.908	455.25
447.129	431.25
447.35	422.25
447.571	418.25
447.792	417.25
448.013	411.25
448.234	458.25
448.455	482.25
448.675	583.25
448.896	668.25
449.117	561.25
449.338	538.25
449.559	630.25
449.779	692.25
450	569.25
450.221	470.25
450.442	430.25
450.662	442.25
450.883	418.25
451.104	428.25
451.324	431.25
451.545	388.25
451.766	397.25
451.986	375.25
452.207	364.25
452.428	389.25
452.648	376.25
452.869	379.25
453.089	401.25
453.31	405.25
453.53	382.25
453.751	402.25
453.971	361.25
454.192	393.25
454.412	369.25
454.633	366.25
454.853	379.25
455.073	368.25
455.294	392.25
455.514	471.25
455.734	428.25
455.955	365.25
456.175	363.25
456.395	366.25
456.616	355.25
456.836	345.25
457.056	338.25
457.276	327.25
457.497	333.25
457.717	341.25
457.937	371.25
458.157	366.25
458.377	367.25
458.598	380.25
458.818	430.25
459.038	471.25
459.258	508.25
459.478	443.25
459.698	399.25
459.918	391.25
460.138	395.25
460.358	383.25
460.578	381.25
460.798	407.25
461.018	385.25
461.238	395.25
461.458	393.25
461.678	389.25
461.898	385.25
462.118	388.25
462.338	397.25
462.558	417.25
462.777	386.25
462.997	411.25
463.217	405.25
463.437	419.25
463.657	405.25
463.876	399.25
464.096	411.25
464.316	405.25
464.536	422.25
464.755	412.25
464.975	420.25
465.195	445.25
465.414	484.25
465.634	466.25
465.854	431.25
466.073	397.25
466.293	395.25
466.512	367.25
466.732	391.25
466.951	396.25
467.171	385.25
467.391	391.25
467.61	391.25
467.829	378.25
468.049	395.25
468.268	358.25
468.488	369.25
468.707	381.25
468.927	378.25
469.146	368.25
469.365	395.25
469.585	375.25
469.804	375.25
470.023	379.25
470.243	391.25
470.462	413.25
470.681	407.25
470.901	410.25
471.12	384.25
471.339	390.25
471.558	383.25
471.777	397.25
471.997	394.25
472.216	381.25
472.435	420.25
472.654	383.25
472.873	372.25
473.092	391.25
473.311	392.25
473.53	402.25
473.749	405.25
473.968	427.25
474.187	522.25
474.406	521.25
474.625	446.25
474.844	395.25
475.063	410.25
475.282	380.25
475.501	388.25
475.72	393.25
475.939	405.25
476.158	384.25
476.377	433.25
476.596	410.25
476.814	389.25
477.033	385.25
477.252	390.25
477.471	393.25
477.69	417.25
477.908	443.25
478.127	414.25
478.346	419.25
478.564	418.25
478.783	410.25
479.002	415.25
479.22	442.25
479.439	449.25
479.658	438.25
479.876	467.25
480.095	460.25
480.313	451.25
480.532	452.25
480.751	437.25
480.969	474.25
481.188	507.25
481.406	539.25
481.624	485.25
481.843	446.25
482.061	455.25
482.28	438.25
482.498	443.25
482.717	440.25
482.935	439.25
483.153	451.25
483.372	457.25
483.59	462.25
483.808	430.25
484.027	451.25
484.245	454.25
484.463	454.25
484.681	454.25
484.9	453.25
485.118	447.25
485.336	445.25
485.554	452.25
485.772	439.25
485.99	450.25
486.209	456.25
486.427	461.25
486.645	445.25
486.863	494.25
487.081	512.25
487.299	466.25
487.517	479.25
487.735	469.25
487.953	489.25
488.171	481.25
488.389	470.25
488.607	473.25
488.825	475.25
489.043	474.25
489.261	460.25
489.479	487.25
489.696	500.25
489.914	485.25
490.132	529.25
490.35	494.25
490.568	503.25
490.786	514.25
491.003	508.25
491.221	543.25
491.439	536.25
491.657	547.25
491.874	547.25
492.092	544.25
492.31	564.25
492.527	561.25
492.745	557.25
492.963	572.25
493.18	549.25
493.398	568.25
493.615	582.25
493.833	559.25
494.05	587.25
494.268	578.25
494.485	587.25
494.703	579.25
494.92	550.25
495.138	572.25
495.355	579.25
495.573	551.25
495.79	581.25
496.008	563.25
496.225	567.25
496.442	571.25
496.66	557.25
496.877	564.25
497.094	573.25
497.312	591.25
497.529	590.25
497.746	587.25
497.963	567.25
498.181	604.25
498.398	595.25
498.615	600.25
498.832	637.25
499.049	648.25
499.267	668.25
499.484	677.25
499.701	678.25
499.918	699.25
500.135	725.25
500.352	731.25
500.569	721.25
500.786	734.25
501.003	752.25
501.22	718.25
501.437	712.25
501.654	698.25
501.871	705.25
