Data from 1971.PennyLincolnUp.Lamp.En5.5.200Scan.071719.P1.Scan 2. Changed Angle._HRD10591_15-23-40-842.txt Node
Date: Thu Jul 18 15:23:40 EDT 2019
User: cochatt
Spectrometer: HR+D1059
Trigger mode: 1
Integration Time (sec): 1.000000E-1
Scans to average: 1
Electric dark correction enabled: true
Nonlinearity correction enabled: false
Boxcar width: 0
XAxis mode: Wavelengths
Number of Pixels in Spectrum: 2048
>>>>>Begin Spectral Data<<<<<
223.165	-21.38
223.4	-21.38
223.635	-21.38
223.869	-10.38
224.104	-4.38
224.338	-0.38
224.573	-8.38
224.808	-0.38
225.042	-15.38
225.277	2.62
225.511	-7.38
225.746	-15.38
225.98	2.62
226.215	8.62
226.449	15.62
226.683	9.62
226.918	9.62
227.152	34.62
227.387	20.62
227.621	35.62
227.856	38.62
228.09	56.62
228.324	42.62
228.559	27.62
228.793	68.62
229.027	101.62
229.262	127.62
229.496	135.62
229.73	151.62
229.964	170.62
230.199	131.62
230.433	131.62
230.667	120.62
230.901	120.62
231.136	131.62
231.37	124.62
231.604	118.62
231.838	114.62
232.072	111.62
232.306	119.62
232.541	117.62
232.775	130.62
233.009	120.62
233.243	113.62
233.477	109.62
233.711	113.62
233.945	122.62
234.179	112.62
234.413	114.62
234.647	111.62
234.881	116.62
235.115	113.62
235.349	129.62
235.583	113.62
235.817	127.62
236.051	156.62
236.285	133.62
236.519	122.62
236.753	139.62
236.987	148.62
237.221	192.62
237.455	269.62
237.689	217.62
237.922	147.62
238.156	130.62
238.39	128.62
238.624	126.62
238.858	128.62
239.091	129.62
239.325	125.62
239.559	143.62
239.793	144.62
240.027	137.62
240.26	149.62
240.494	164.62
240.728	163.62
240.961	156.62
241.195	154.62
241.429	142.62
241.662	144.62
241.896	135.62
242.13	153.62
242.363	139.62
242.597	134.62
242.83	143.62
243.064	140.62
243.298	160.62
243.531	141.62
243.765	140.62
243.998	137.62
244.232	150.62
244.465	129.62
244.699	146.62
244.932	156.62
245.166	144.62
245.399	146.62
245.633	143.62
245.866	153.62
246.099	158.62
246.333	148.62
246.566	149.62
246.8	162.62
247.033	170.62
247.266	172.62
247.5	165.62
247.733	185.62
247.966	185.62
248.2	186.62
248.433	180.62
248.666	185.62
248.899	227.62
249.133	215.62
249.366	229.62
249.599	232.62
249.832	213.62
250.066	187.62
250.299	197.62
250.532	208.62
250.765	213.62
250.998	234.62
251.231	247.62
251.465	217.62
251.698	221.62
251.931	219.62
252.164	210.62
252.397	208.62
252.63	228.62
252.863	224.62
253.096	225.62
253.329	237.62
253.562	255.62
253.795	243.62
254.028	241.62
254.261	232.62
254.494	246.62
254.727	269.62
254.96	300.62
255.193	281.62
255.426	259.62
255.659	259.62
255.892	252.62
256.124	227.62
256.357	246.62
256.59	259.62
256.823	242.62
257.056	226.62
257.289	220.62
257.521	223.62
257.754	225.62
257.987	206.62
258.22	213.62
258.452	214.62
258.685	218.62
258.918	226.62
259.151	226.62
259.383	232.62
259.616	224.62
259.849	220.62
260.081	222.62
260.314	268.62
260.547	281.62
260.779	265.62
261.012	253.62
261.244	243.62
261.477	221.62
261.71	241.62
261.942	234.62
262.175	279.62
262.407	223.62
262.64	236.62
262.872	204.62
263.105	220.62
263.337	219.62
263.57	219.62
263.802	225.62
264.035	228.62
264.267	227.62
264.499	202.62
264.732	217.62
264.964	225.62
265.197	224.62
265.429	202.62
265.661	212.62
265.894	221.62
266.126	227.62
266.358	217.62
266.591	218.62
266.823	225.62
267.055	223.62
267.287	213.62
267.52	233.62
267.752	233.62
267.984	236.62
268.216	242.62
268.448	233.62
268.681	225.62
268.913	241.62
269.145	264.62
269.377	272.62
269.609	275.62
269.841	272.62
270.073	285.62
270.306	288.62
270.538	324.62
270.77	331.62
271.002	317.62
271.234	289.62
271.466	321.62
271.698	324.62
271.93	341.62
272.162	322.62
272.394	318.62
272.626	314.62
272.858	293.62
273.09	300.62
273.322	281.62
273.553	262.62
273.785	271.62
274.017	244.62
274.249	248.62
274.481	277.62
274.713	255.62
274.945	279.62
275.176	281.62
275.408	272.62
275.64	263.62
275.872	251.62
276.104	250.62
276.335	260.62
276.567	277.62
276.799	283.62
277.031	327.62
277.262	338.62
277.494	334.62
277.726	298.62
277.957	292.62
278.189	266.62
278.421	276.62
278.652	255.62
278.884	263.62
279.115	255.62
279.347	257.62
279.579	260.62
279.81	264.62
280.042	263.62
280.273	273.62
280.505	286.62
280.736	276.62
280.968	262.62
281.199	247.62
281.431	263.62
281.662	252.62
281.894	269.62
282.125	267.62
282.356	280.62
282.588	292.62
282.819	316.62
283.051	269.62
283.282	244.62
283.513	267.62
283.745	268.62
283.976	249.62
284.207	283.62
284.439	273.62
284.67	281.62
284.901	261.62
285.132	284.62
285.364	261.62
285.595	265.62
285.826	261.62
286.057	267.62
286.288	276.62
286.52	264.62
286.751	262.62
286.982	271.62
287.213	248.62
287.444	279.62
287.675	273.62
287.906	279.62
288.138	292.62
288.369	293.62
288.6	283.62
288.831	280.62
289.062	297.62
289.293	268.62
289.524	267.62
289.755	275.62
289.986	268.62
290.217	282.62
290.448	267.62
290.679	278.62
290.91	282.62
291.141	267.62
291.371	290.62
291.602	291.62
291.833	268.62
292.064	259.62
292.295	276.62
292.526	276.62
292.757	279.62
292.987	276.62
293.218	285.62
293.449	299.62
293.68	261.62
293.91	285.62
294.141	271.62
294.372	287.62
294.603	282.62
294.833	271.62
295.064	274.62
295.295	287.62
295.525	292.62
295.756	287.62
295.987	291.62
296.217	323.62
296.448	314.62
296.679	304.62
296.909	289.62
297.14	277.62
297.37	297.62
297.601	275.62
297.831	287.62
298.062	289.62
298.292	286.62
298.523	273.62
298.753	279.62
298.984	287.62
299.214	270.62
299.445	278.62
299.675	304.62
299.905	299.62
300.136	308.62
300.366	294.62
300.597	297.62
300.827	308.62
301.057	288.62
301.288	307.62
301.518	316.62
301.748	290.62
301.979	309.62
302.209	320.62
302.439	310.62
302.669	306.62
302.9	296.62
303.13	326.62
303.36	321.62
303.59	308.62
303.82	326.62
304.051	337.62
304.281	325.62
304.511	312.62
304.741	316.62
304.971	321.62
305.201	320.62
305.431	313.62
305.661	313.62
305.891	304.62
306.121	320.62
306.352	325.62
306.582	319.62
306.812	311.62
307.042	307.62
307.272	329.62
307.502	311.62
307.731	324.62
307.961	317.62
308.191	326.62
308.421	319.62
308.651	318.62
308.881	341.62
309.111	333.62
309.341	342.62
309.571	353.62
309.8	358.62
310.03	375.62
310.26	373.62
310.49	360.62
310.72	369.62
310.949	410.62
311.179	403.62
311.409	383.62
311.639	378.62
311.868	389.62
312.098	360.62
312.328	381.62
312.557	383.62
312.787	423.62
313.017	429.62
313.246	403.62
313.476	378.62
313.706	355.62
313.935	392.62
314.165	401.62
314.394	405.62
314.624	390.62
314.853	379.62
315.083	370.62
315.312	380.62
315.542	356.62
315.771	359.62
316.001	373.62
316.23	375.62
316.46	365.62
316.689	383.62
316.919	394.62
317.148	376.62
317.377	391.62
317.607	384.62
317.836	380.62
318.065	375.62
318.295	365.62
318.524	349.62
318.753	375.62
318.983	369.62
319.212	394.62
319.441	397.62
319.67	389.62
319.9	367.62
320.129	369.62
320.358	374.62
320.587	386.62
320.816	407.62
321.046	388.62
321.275	401.62
321.504	386.62
321.733	407.62
321.962	397.62
322.191	418.62
322.42	442.62
322.649	473.62
322.878	453.62
323.108	499.62
323.337	505.62
323.566	555.62
323.795	583.62
324.024	664.62
324.253	805.62
324.482	1183.62
324.71	1848.62
324.939	2631.62
325.168	2263.62
325.397	1171.62
325.626	774.62
325.855	636.62
326.084	553.62
326.313	554.62
326.542	561.62
326.77	601.62
326.999	727.62
327.228	1056.62
327.457	1633.62
327.686	2016.62
327.914	1303.62
328.143	879.62
328.372	731.62
328.6	665.62
328.829	635.62
329.058	650.62
329.287	673.62
329.515	612.62
329.744	565.62
329.972	568.62
330.201	581.62
330.43	621.62
330.658	637.62
330.887	696.62
331.115	691.62
331.344	576.62
331.572	538.62
331.801	541.62
332.03	539.62
332.258	500.62
332.486	479.62
332.715	437.62
332.943	452.62
333.172	458.62
333.4	463.62
333.629	462.62
333.857	488.62
334.085	498.62
334.314	504.62
334.542	564.62
334.771	569.62
334.999	486.62
335.227	465.62
335.455	458.62
335.684	453.62
335.912	448.62
336.14	441.62
336.369	448.62
336.597	454.62
336.825	464.62
337.053	453.62
337.281	431.62
337.51	431.62
337.738	442.62
337.966	426.62
338.194	428.62
338.422	422.62
338.65	454.62
338.878	420.62
339.106	430.62
339.334	417.62
339.562	412.62
339.79	431.62
340.018	420.62
340.246	433.62
340.474	423.62
340.702	446.62
340.93	428.62
341.158	428.62
341.386	426.62
341.614	445.62
341.842	449.62
342.07	425.62
342.298	414.62
342.526	423.62
342.754	435.62
342.981	407.62
343.209	411.62
343.437	408.62
343.665	417.62
343.893	431.62
344.12	420.62
344.348	418.62
344.576	424.62
344.804	437.62
345.031	433.62
345.259	472.62
345.487	446.62
345.714	440.62
345.942	426.62
346.17	415.62
346.397	427.62
346.625	413.62
346.853	418.62
347.08	401.62
347.308	416.62
347.535	433.62
347.763	431.62
347.99	451.62
348.218	459.62
348.445	437.62
348.673	457.62
348.9	418.62
349.128	435.62
349.355	415.62
349.583	407.62
349.81	386.62
350.037	409.62
350.265	415.62
350.492	423.62
350.72	400.62
350.947	431.62
351.174	440.62
351.402	445.62
351.629	437.62
351.856	423.62
352.083	440.62
352.311	485.62
352.538	467.62
352.765	466.62
352.992	449.62
353.22	409.62
353.447	441.62
353.674	448.62
353.901	420.62
354.128	405.62
354.355	403.62
354.583	408.62
354.81	380.62
355.037	402.62
355.264	395.62
355.491	386.62
355.718	385.62
355.945	404.62
356.172	406.62
356.399	377.62
356.626	394.62
356.853	379.62
357.08	394.62
357.307	405.62
357.534	379.62
357.761	375.62
357.988	412.62
358.215	375.62
358.441	385.62
358.668	391.62
358.895	399.62
359.122	391.62
359.349	392.62
359.576	436.62
359.802	467.62
360.029	501.62
360.256	499.62
360.483	475.62
360.709	441.62
360.936	442.62
361.163	447.62
361.39	442.62
361.616	440.62
361.843	451.62
362.07	447.62
362.296	444.62
362.523	447.62
362.749	418.62
362.976	430.62
363.203	415.62
363.429	407.62
363.656	410.62
363.882	435.62
364.109	415.62
364.335	404.62
364.562	401.62
364.788	404.62
365.015	415.62
365.241	407.62
365.468	416.62
365.694	442.62
365.92	423.62
366.147	414.62
366.373	413.62
366.599	408.62
366.826	391.62
367.052	408.62
367.278	420.62
367.505	392.62
367.731	413.62
367.957	382.62
368.184	412.62
368.41	413.62
368.636	421.62
368.862	428.62
369.089	418.62
369.315	394.62
369.541	407.62
369.767	395.62
369.993	405.62
370.219	389.62
370.445	395.62
370.672	394.62
370.898	403.62
371.124	423.62
371.35	395.62
371.576	394.62
371.802	392.62
372.028	405.62
372.254	412.62
372.48	407.62
372.706	397.62
372.932	416.62
373.158	389.62
373.384	405.62
373.61	405.62
373.835	409.62
374.061	410.62
374.287	436.62
374.513	425.62
374.739	409.62
374.965	398.62
375.191	389.62
375.416	421.62
375.642	398.62
375.868	421.62
376.094	420.62
376.319	409.62
376.545	389.62
376.771	420.62
376.997	390.62
377.222	387.62
377.448	395.62
377.674	412.62
377.899	405.62
378.125	399.62
378.35	383.62
378.576	387.62
378.802	388.62
379.027	407.62
379.253	409.62
379.478	416.62
379.704	397.62
379.929	394.62
380.155	395.62
380.38	399.62
380.606	419.62
380.831	421.62
381.057	419.62
381.282	398.62
381.507	421.62
381.733	410.62
381.958	422.62
382.184	404.62
382.409	429.62
382.634	407.62
382.86	408.62
383.085	417.62
383.31	432.62
383.535	410.62
383.761	421.62
383.986	426.62
384.211	416.62
384.436	432.62
384.662	420.62
384.887	445.62
385.112	431.62
385.337	423.62
385.562	431.62
385.787	451.62
386.013	447.62
386.238	444.62
386.463	451.62
386.688	453.62
386.913	435.62
387.138	432.62
387.363	411.62
387.588	440.62
387.813	421.62
388.038	449.62
388.263	428.62
388.488	442.62
388.713	436.62
388.938	423.62
389.163	443.62
389.387	422.62
389.612	435.62
389.837	436.62
390.062	435.62
390.287	456.62
390.512	431.62
390.736	426.62
390.961	450.62
391.186	427.62
391.411	451.62
391.636	441.62
391.86	448.62
392.085	444.62
392.31	438.62
392.534	452.62
392.759	442.62
392.984	457.62
393.208	427.62
393.433	468.62
393.658	479.62
393.882	458.62
394.107	447.62
394.331	449.62
394.556	449.62
394.78	440.62
395.005	459.62
395.229	452.62
395.454	449.62
395.678	467.62
395.903	478.62
396.127	471.62
396.352	496.62
396.576	456.62
396.801	458.62
397.025	464.62
397.249	464.62
397.474	491.62
397.698	488.62
397.922	467.62
398.147	503.62
398.371	514.62
398.595	488.62
398.82	499.62
399.044	487.62
399.268	499.62
399.492	539.62
399.717	556.62
399.941	578.62
400.165	595.62
400.389	645.62
400.613	592.62
400.837	529.62
401.062	524.62
401.286	523.62
401.51	518.62
401.734	499.62
401.958	535.62
402.182	515.62
402.406	540.62
402.63	518.62
402.854	521.62
403.078	544.62
403.302	530.62
403.526	543.62
403.75	523.62
403.974	550.62
404.198	490.62
404.422	536.62
404.645	528.62
404.869	525.62
405.093	588.62
405.317	620.62
405.541	644.62
405.765	616.62
405.988	567.62
406.212	564.62
406.436	600.62
406.66	609.62
406.883	586.62
407.107	603.62
407.331	644.62
407.555	737.62
407.778	718.62
408.002	699.62
408.226	610.62
408.449	597.62
408.673	578.62
408.896	605.62
409.12	654.62
409.344	620.62
409.567	583.62
409.791	560.62
410.014	549.62
410.238	555.62
410.461	544.62
410.685	554.62
410.908	545.62
411.132	623.62
411.355	645.62
411.578	603.62
411.802	543.62
412.025	547.62
412.249	546.62
412.472	594.62
412.695	617.62
412.919	602.62
413.142	561.62
413.365	520.62
413.589	535.62
413.812	516.62
414.035	524.62
414.258	500.62
414.482	503.62
414.705	535.62
414.928	508.62
415.151	502.62
415.374	520.62
415.597	509.62
415.821	514.62
416.044	502.62
416.267	515.62
416.49	510.62
416.713	513.62
416.936	498.62
417.159	512.62
417.382	511.62
417.605	526.62
417.828	523.62
418.051	554.62
418.274	540.62
418.497	511.62
418.72	512.62
418.943	508.62
419.166	561.62
419.389	544.62
419.611	555.62
419.834	544.62
420.057	550.62
420.28	547.62
420.503	552.62
420.726	528.62
420.948	553.62
421.171	613.62
421.394	643.62
421.617	588.62
421.839	545.62
422.062	566.62
422.285	571.62
422.507	627.62
422.73	717.62
422.953	695.62
423.175	598.62
423.398	573.62
423.621	572.62
423.843	604.62
424.066	603.62
424.288	595.62
424.511	619.62
424.733	682.62
424.956	795.62
425.178	724.62
425.401	741.62
425.623	760.62
425.846	667.62
426.068	611.62
426.291	612.62
426.513	607.62
426.735	617.62
426.958	669.62
427.18	751.62
427.402	906.62
427.625	1014.62
427.847	903.62
428.069	785.62
428.292	691.62
428.514	582.62
428.736	605.62
428.958	598.62
429.181	558.62
429.403	568.62
429.625	580.62
429.847	609.62
430.069	688.62
430.292	674.62
430.514	585.62
430.736	563.62
430.958	562.62
431.18	552.62
431.402	543.62
431.624	507.62
431.846	513.62
432.068	523.62
432.29	540.62
432.512	526.62
432.734	557.62
432.956	548.62
433.178	530.62
433.4	557.62
433.622	540.62
433.844	540.62
434.066	520.62
434.287	503.62
434.509	551.62
434.731	545.62
434.953	569.62
435.175	540.62
435.397	599.62
435.618	634.62
435.84	662.62
436.062	769.62
436.284	834.62
436.505	712.62
436.727	648.62
436.949	602.62
437.17	579.62
437.392	608.62
437.614	605.62
437.835	643.62
438.057	755.62
438.278	870.62
438.5	849.62
438.721	931.62
438.943	891.62
439.165	710.62
439.386	619.62
439.608	636.62
439.829	639.62
440.05	643.62
440.272	696.62
440.493	687.62
440.715	631.62
440.936	605.62
441.158	579.62
441.379	573.62
441.6	587.62
441.822	625.62
442.043	680.62
442.264	741.62
442.486	795.62
442.707	672.62
442.928	639.62
443.149	651.62
443.371	696.62
443.592	723.62
443.813	798.62
444.034	865.62
444.255	716.62
444.476	635.62
444.698	613.62
444.919	602.62
445.14	708.62
445.361	683.62
445.582	672.62
445.803	763.62
446.024	844.62
446.245	897.62
446.466	793.62
446.687	667.62
446.908	625.62
447.129	591.62
447.35	583.62
447.571	568.62
447.792	568.62
448.013	576.62
448.234	584.62
448.455	651.62
448.675	769.62
448.896	878.62
449.117	787.62
449.338	748.62
449.559	841.62
449.779	917.62
450	779.62
450.221	669.62
450.442	609.62
450.662	556.62
450.883	583.62
451.104	633.62
451.324	586.62
451.545	583.62
451.766	563.62
451.986	515.62
452.207	517.62
452.428	501.62
452.648	528.62
452.869	522.62
453.089	533.62
453.31	552.62
453.53	518.62
453.751	517.62
453.971	543.62
454.192	541.62
454.412	540.62
454.633	516.62
454.853	501.62
455.073	500.62
455.294	539.62
455.514	609.62
455.734	625.62
455.955	503.62
456.175	500.62
456.395	488.62
456.616	490.62
456.836	477.62
457.056	485.62
457.276	459.62
457.497	474.62
457.717	451.62
457.937	485.62
458.157	466.62
458.377	511.62
458.598	523.62
458.818	579.62
459.038	697.62
459.258	715.62
459.478	625.62
459.698	549.62
459.918	531.62
460.138	518.62
460.358	512.62
460.578	530.62
460.798	523.62
461.018	532.62
461.238	513.62
461.458	519.62
461.678	514.62
461.898	522.62
462.118	525.62
462.338	538.62
462.558	531.62
462.777	514.62
462.997	555.62
463.217	533.62
463.437	549.62
463.657	544.62
463.876	553.62
464.096	553.62
464.316	552.62
464.536	543.62
464.755	575.62
464.975	556.62
465.195	610.62
465.414	746.62
465.634	662.62
465.854	585.62
466.073	559.62
466.293	519.62
466.512	479.62
466.732	530.62
466.951	523.62
467.171	525.62
467.391	521.62
467.61	536.62
467.829	542.62
468.049	524.62
468.268	525.62
468.488	493.62
468.707	513.62
468.927	529.62
469.146	490.62
469.365	523.62
469.585	520.62
469.804	524.62
470.023	546.62
470.243	558.62
470.462	525.62
470.681	547.62
470.901	557.62
471.12	536.62
471.339	554.62
471.558	541.62
471.777	532.62
471.997	523.62
472.216	510.62
472.435	563.62
472.654	563.62
472.873	531.62
473.092	539.62
473.311	535.62
473.53	528.62
473.749	536.62
473.968	581.62
474.187	733.62
474.406	731.62
474.625	593.62
474.844	542.62
475.063	525.62
475.282	534.62
475.501	517.62
475.72	545.62
475.939	541.62
476.158	541.62
476.377	521.62
476.596	555.62
476.814	549.62
477.033	563.62
477.252	567.62
477.471	569.62
477.69	556.62
477.908	553.62
478.127	576.62
478.346	573.62
478.564	567.62
478.783	578.62
479.002	592.62
479.22	586.62
479.439	637.62
479.658	631.62
479.876	628.62
480.095	655.62
480.313	667.62
480.532	658.62
480.751	634.62
480.969	642.62
481.188	714.62
481.406	772.62
481.624	699.62
481.843	647.62
482.061	637.62
482.28	637.62
482.498	612.62
482.717	647.62
482.935	609.62
483.153	643.62
483.372	611.62
483.59	648.62
483.808	616.62
484.027	600.62
484.245	651.62
484.463	627.62
484.681	628.62
484.9	659.62
485.118	652.62
485.336	643.62
485.554	646.62
485.772	644.62
485.99	639.62
486.209	658.62
486.427	669.62
486.645	677.62
486.863	701.62
487.081	683.62
487.299	699.62
487.517	693.62
487.735	674.62
487.953	690.62
488.171	691.62
488.389	708.62
488.607	703.62
488.825	676.62
489.043	657.62
489.261	697.62
489.479	683.62
489.696	690.62
489.914	692.62
490.132	708.62
490.35	703.62
490.568	717.62
490.786	747.62
491.003	741.62
491.221	777.62
491.439	800.62
491.657	774.62
491.874	790.62
492.092	780.62
492.31	827.62
492.527	803.62
492.745	786.62
492.963	820.62
493.18	823.62
493.398	818.62
493.615	848.62
493.833	836.62
494.05	826.62
494.268	816.62
494.485	802.62
494.703	804.62
494.92	824.62
495.138	809.62
495.355	836.62
495.573	832.62
495.79	833.62
496.008	844.62
496.225	811.62
496.442	804.62
496.66	842.62
496.877	833.62
497.094	829.62
497.312	840.62
497.529	850.62
497.746	855.62
497.963	864.62
498.181	854.62
498.398	890.62
498.615	870.62
498.832	877.62
499.049	876.62
499.267	923.62
499.484	927.62
499.701	962.62
499.918	983.62
500.135	993.62
500.352	977.62
500.569	996.62
500.786	1001.62
501.003	1033.62
501.22	987.62
501.437	987.62
501.654	982.62
