Data from 1971.PennyLincolnUp.Lamp.En5.5.200Scan.071719.P1._HRD10591_15-20-53-843.txt Node
Date: Thu Jul 18 15:20:53 EDT 2019
User: cochatt
Spectrometer: HR+D1059
Trigger mode: 1
Integration Time (sec): 1.000000E-1
Scans to average: 1
Electric dark correction enabled: true
Nonlinearity correction enabled: false
Boxcar width: 0
XAxis mode: Wavelengths
Number of Pixels in Spectrum: 2048
>>>>>Begin Spectral Data<<<<<
223.165	-7.75
223.4	-7.75
223.635	-7.75
223.869	-12.75
224.104	-19.75
224.338	-15.75
224.573	-13.75
224.808	-18.75
225.042	-20.75
225.277	-14.75
225.511	-5.75
225.746	12.25
225.98	14.25
226.215	18.25
226.449	7.25
226.683	11.25
226.918	33.25
227.152	33.25
227.387	35.25
227.621	31.25
227.856	39.25
228.09	33.25
228.324	46.25
228.559	66.25
228.793	66.25
229.027	102.25
229.262	102.25
229.496	100.25
229.73	124.25
229.964	138.25
230.199	121.25
230.433	106.25
230.667	122.25
230.901	111.25
231.136	107.25
231.37	117.25
231.604	108.25
231.838	110.25
232.072	108.25
232.306	94.25
232.541	110.25
232.775	114.25
233.009	122.25
233.243	132.25
233.477	105.25
233.711	121.25
233.945	107.25
234.179	115.25
234.413	130.25
234.647	123.25
234.881	113.25
235.115	106.25
235.349	106.25
235.583	121.25
235.817	113.25
236.051	118.25
236.285	109.25
236.519	126.25
236.753	141.25
236.987	132.25
237.221	170.25
237.455	202.25
237.689	173.25
237.922	123.25
238.156	130.25
238.39	124.25
238.624	123.25
238.858	114.25
239.091	114.25
239.325	111.25
239.559	141.25
239.793	130.25
240.027	140.25
240.26	133.25
240.494	148.25
240.728	128.25
240.961	148.25
241.195	155.25
241.429	115.25
241.662	121.25
241.896	147.25
242.13	139.25
242.363	137.25
242.597	122.25
242.83	129.25
243.064	138.25
243.298	145.25
243.531	151.25
243.765	136.25
243.998	143.25
244.232	121.25
244.465	137.25
244.699	146.25
244.932	157.25
245.166	143.25
245.399	139.25
245.633	149.25
245.866	161.25
246.099	141.25
246.333	150.25
246.566	155.25
246.8	136.25
247.033	142.25
247.266	150.25
247.5	157.25
247.733	167.25
247.966	170.25
248.2	171.25
248.433	191.25
248.666	180.25
248.899	166.25
249.133	195.25
249.366	191.25
249.599	190.25
249.832	201.25
250.066	190.25
250.299	180.25
250.532	192.25
250.765	207.25
250.998	219.25
251.231	241.25
251.465	208.25
251.698	202.25
251.931	195.25
252.164	203.25
252.397	208.25
252.63	206.25
252.863	227.25
253.096	218.25
253.329	219.25
253.562	218.25
253.795	216.25
254.028	214.25
254.261	238.25
254.494	238.25
254.727	270.25
254.96	280.25
255.193	285.25
255.426	255.25
255.659	236.25
255.892	239.25
256.124	234.25
256.357	226.25
256.59	236.25
256.823	220.25
257.056	225.25
257.289	209.25
257.521	210.25
257.754	215.25
257.987	222.25
258.22	203.25
258.452	211.25
258.685	238.25
258.918	210.25
259.151	222.25
259.383	229.25
259.616	221.25
259.849	221.25
260.081	221.25
260.314	271.25
260.547	260.25
260.779	246.25
261.012	234.25
261.244	222.25
261.477	223.25
261.71	218.25
261.942	214.25
262.175	235.25
262.407	220.25
262.64	245.25
262.872	215.25
263.105	219.25
263.337	208.25
263.57	217.25
263.802	232.25
264.035	211.25
264.267	220.25
264.499	199.25
264.732	235.25
264.964	227.25
265.197	210.25
265.429	223.25
265.661	216.25
265.894	213.25
266.126	225.25
266.358	222.25
266.591	231.25
266.823	230.25
267.055	214.25
267.287	243.25
267.52	217.25
267.752	229.25
267.984	228.25
268.216	233.25
268.448	237.25
268.681	245.25
268.913	241.25
269.145	285.25
269.377	281.25
269.609	285.25
269.841	275.25
270.073	286.25
270.306	307.25
270.538	343.25
270.77	323.25
271.002	302.25
271.234	299.25
271.466	311.25
271.698	321.25
271.93	343.25
272.162	299.25
272.394	308.25
272.626	324.25
272.858	289.25
273.09	287.25
273.322	288.25
273.553	272.25
273.785	261.25
274.017	289.25
274.249	267.25
274.481	271.25
274.713	281.25
274.945	289.25
275.176	259.25
275.408	273.25
275.64	276.25
275.872	265.25
276.104	261.25
276.335	280.25
276.567	277.25
276.799	289.25
277.031	296.25
277.262	325.25
277.494	315.25
277.726	323.25
277.957	289.25
278.189	287.25
278.421	278.25
278.652	277.25
278.884	263.25
279.115	266.25
279.347	267.25
279.579	275.25
279.81	262.25
280.042	258.25
280.273	270.25
280.505	297.25
280.736	289.25
280.968	261.25
281.199	271.25
281.431	258.25
281.662	261.25
281.894	286.25
282.125	293.25
282.356	286.25
282.588	302.25
282.819	317.25
283.051	271.25
283.282	274.25
283.513	297.25
283.745	283.25
283.976	275.25
284.207	290.25
284.439	294.25
284.67	293.25
284.901	271.25
285.132	286.25
285.364	289.25
285.595	295.25
285.826	283.25
286.057	293.25
286.288	275.25
286.52	259.25
286.751	291.25
286.982	302.25
287.213	280.25
287.444	301.25
287.675	299.25
287.906	306.25
288.138	318.25
288.369	316.25
288.6	309.25
288.831	319.25
289.062	316.25
289.293	296.25
289.524	314.25
289.755	298.25
289.986	307.25
290.217	297.25
290.448	294.25
290.679	307.25
290.91	301.25
291.141	296.25
291.371	302.25
291.602	287.25
291.833	289.25
292.064	285.25
292.295	297.25
292.526	310.25
292.757	294.25
292.987	291.25
293.218	283.25
293.449	295.25
293.68	292.25
293.91	307.25
294.141	281.25
294.372	293.25
294.603	287.25
294.833	305.25
295.064	303.25
295.295	297.25
295.525	299.25
295.756	292.25
295.987	317.25
296.217	331.25
296.448	353.25
296.679	320.25
296.909	298.25
297.14	299.25
297.37	317.25
297.601	299.25
297.831	310.25
298.062	313.25
298.292	315.25
298.523	321.25
298.753	321.25
298.984	309.25
299.214	308.25
299.445	324.25
299.675	311.25
299.905	306.25
300.136	317.25
300.366	307.25
300.597	311.25
300.827	334.25
301.057	327.25
301.288	321.25
301.518	318.25
301.748	337.25
301.979	363.25
302.209	331.25
302.439	332.25
302.669	331.25
302.9	331.25
303.13	338.25
303.36	325.25
303.59	340.25
303.82	351.25
304.051	325.25
304.281	342.25
304.511	345.25
304.741	327.25
304.971	336.25
305.201	325.25
305.431	331.25
305.661	347.25
305.891	336.25
306.121	331.25
306.352	356.25
306.582	333.25
306.812	355.25
307.042	316.25
307.272	330.25
307.502	348.25
307.731	328.25
307.961	338.25
308.191	342.25
308.421	347.25
308.651	364.25
308.881	338.25
309.111	342.25
309.341	346.25
309.571	355.25
309.8	361.25
310.03	366.25
310.26	378.25
310.49	395.25
310.72	371.25
310.949	381.25
311.179	390.25
311.409	367.25
311.639	387.25
311.868	382.25
312.098	367.25
312.328	393.25
312.557	372.25
312.787	410.25
313.017	429.25
313.246	383.25
313.476	382.25
313.706	381.25
313.935	396.25
314.165	403.25
314.394	407.25
314.624	412.25
314.853	391.25
315.083	382.25
315.312	386.25
315.542	386.25
315.771	381.25
316.001	390.25
316.23	395.25
316.46	362.25
316.689	383.25
316.919	381.25
317.148	399.25
317.377	403.25
317.607	385.25
317.836	363.25
318.065	392.25
318.295	385.25
318.524	381.25
318.753	381.25
318.983	392.25
319.212	385.25
319.441	370.25
319.67	402.25
319.9	377.25
320.129	399.25
320.358	382.25
320.587	393.25
320.816	390.25
321.046	383.25
321.275	410.25
321.504	394.25
321.733	406.25
321.962	419.25
322.191	414.25
322.42	430.25
322.649	438.25
322.878	461.25
323.108	472.25
323.337	489.25
323.566	491.25
323.795	503.25
324.024	556.25
324.253	686.25
324.482	966.25
324.71	1464.25
324.939	2018.25
325.168	1650.25
325.397	899.25
325.626	627.25
325.855	561.25
326.084	523.25
326.313	486.25
326.542	510.25
326.77	554.25
326.999	649.25
327.228	878.25
327.457	1275.25
327.686	1480.25
327.914	1000.25
328.143	699.25
328.372	616.25
328.6	584.25
328.829	546.25
329.058	525.25
329.287	553.25
329.515	522.25
329.744	495.25
329.972	526.25
330.201	532.25
330.43	553.25
330.658	563.25
330.887	586.25
331.115	549.25
331.344	505.25
331.572	486.25
331.801	484.25
332.03	479.25
332.258	443.25
332.486	450.25
332.715	455.25
332.943	433.25
333.172	441.25
333.4	446.25
333.629	437.25
333.857	451.25
334.085	481.25
334.314	481.25
334.542	500.25
334.771	518.25
334.999	476.25
335.227	453.25
335.455	443.25
335.684	430.25
335.912	428.25
336.14	458.25
336.369	420.25
336.597	433.25
336.825	439.25
337.053	461.25
337.281	426.25
337.51	420.25
337.738	447.25
337.966	433.25
338.194	444.25
338.422	419.25
338.65	413.25
338.878	435.25
339.106	419.25
339.334	426.25
339.562	421.25
339.79	415.25
340.018	433.25
340.246	411.25
340.474	413.25
340.702	394.25
340.93	405.25
341.158	404.25
341.386	417.25
341.614	391.25
341.842	426.25
342.07	422.25
342.298	415.25
342.526	414.25
342.754	399.25
342.981	395.25
343.209	424.25
343.437	419.25
343.665	403.25
343.893	409.25
344.12	433.25
344.348	406.25
344.576	413.25
344.804	424.25
345.031	430.25
345.259	422.25
345.487	430.25
345.714	404.25
345.942	429.25
346.17	399.25
346.397	408.25
346.625	402.25
346.853	409.25
347.08	407.25
347.308	411.25
347.535	388.25
347.763	410.25
347.99	412.25
348.218	409.25
348.445	423.25
348.673	392.25
348.9	381.25
349.128	412.25
349.355	377.25
349.583	382.25
349.81	406.25
350.037	369.25
350.265	387.25
350.492	384.25
350.72	379.25
350.947	406.25
351.174	419.25
351.402	399.25
351.629	405.25
351.856	397.25
352.083	387.25
352.311	414.25
352.538	399.25
352.765	403.25
352.992	397.25
353.22	392.25
353.447	384.25
353.674	378.25
353.901	383.25
354.128	386.25
354.355	360.25
354.583	386.25
354.81	345.25
355.037	355.25
355.264	355.25
355.491	356.25
355.718	366.25
355.945	338.25
356.172	347.25
356.399	355.25
356.626	359.25
356.853	361.25
357.08	340.25
357.307	355.25
357.534	371.25
357.761	365.25
357.988	344.25
358.215	362.25
358.441	366.25
358.668	358.25
358.895	376.25
359.122	361.25
359.349	392.25
359.576	395.25
359.802	410.25
360.029	446.25
360.256	444.25
360.483	429.25
360.709	383.25
360.936	366.25
361.163	376.25
361.39	401.25
361.616	396.25
361.843	396.25
362.07	373.25
362.296	387.25
362.523	399.25
362.749	401.25
362.976	391.25
363.203	382.25
363.429	366.25
363.656	355.25
363.882	376.25
364.109	370.25
364.335	364.25
364.562	364.25
364.788	363.25
365.015	362.25
365.241	363.25
365.468	378.25
365.694	362.25
365.92	373.25
366.147	341.25
366.373	366.25
366.599	372.25
366.826	369.25
367.052	372.25
367.278	373.25
367.505	377.25
367.731	362.25
367.957	373.25
368.184	371.25
368.41	365.25
368.636	357.25
368.862	374.25
369.089	381.25
369.315	376.25
369.541	355.25
369.767	364.25
369.993	377.25
370.219	362.25
370.445	377.25
370.672	369.25
370.898	371.25
371.124	355.25
371.35	358.25
371.576	364.25
371.802	364.25
372.028	372.25
372.254	364.25
372.48	350.25
372.706	369.25
372.932	342.25
373.158	345.25
373.384	348.25
373.61	341.25
373.835	372.25
374.061	364.25
374.287	365.25
374.513	369.25
374.739	361.25
374.965	364.25
375.191	372.25
375.416	360.25
375.642	351.25
375.868	372.25
376.094	371.25
376.319	350.25
376.545	357.25
376.771	362.25
376.997	352.25
377.222	354.25
377.448	339.25
377.674	330.25
377.899	351.25
378.125	355.25
378.35	354.25
378.576	354.25
378.802	330.25
379.027	336.25
379.253	345.25
379.478	344.25
379.704	338.25
379.929	344.25
380.155	337.25
380.38	340.25
380.606	347.25
380.831	335.25
381.057	356.25
381.282	357.25
381.507	335.25
381.733	349.25
381.958	346.25
382.184	341.25
382.409	361.25
382.634	354.25
382.86	343.25
383.085	359.25
383.31	346.25
383.535	345.25
383.761	362.25
383.986	353.25
384.211	349.25
384.436	345.25
384.662	356.25
384.887	347.25
385.112	349.25
385.337	388.25
385.562	367.25
385.787	371.25
386.013	371.25
386.238	396.25
386.463	373.25
386.688	371.25
386.913	380.25
387.138	374.25
387.363	360.25
387.588	381.25
387.813	378.25
388.038	375.25
388.263	363.25
388.488	371.25
388.713	379.25
388.938	373.25
389.163	369.25
389.387	369.25
389.612	375.25
389.837	359.25
390.062	374.25
390.287	363.25
390.512	361.25
390.736	373.25
390.961	364.25
391.186	361.25
391.411	369.25
391.636	374.25
391.86	370.25
392.085	379.25
392.31	375.25
392.534	376.25
392.759	382.25
392.984	360.25
393.208	383.25
393.433	377.25
393.658	389.25
393.882	358.25
394.107	361.25
394.331	382.25
394.556	373.25
394.78	354.25
395.005	365.25
395.229	371.25
395.454	381.25
395.678	386.25
395.903	383.25
396.127	402.25
396.352	400.25
396.576	389.25
396.801	383.25
397.025	380.25
397.249	388.25
397.474	399.25
397.698	387.25
397.922	368.25
398.147	395.25
398.371	399.25
398.595	406.25
398.82	420.25
399.044	423.25
399.268	423.25
399.492	440.25
399.717	472.25
399.941	477.25
400.165	490.25
400.389	501.25
400.613	461.25
400.837	422.25
401.062	414.25
401.286	422.25
401.51	438.25
401.734	415.25
401.958	411.25
402.182	410.25
402.406	415.25
402.63	404.25
402.854	423.25
403.078	429.25
403.302	422.25
403.526	398.25
403.75	419.25
403.974	429.25
404.198	421.25
404.422	409.25
404.645	436.25
404.869	423.25
405.093	463.25
405.317	494.25
405.541	503.25
405.765	475.25
405.988	443.25
406.212	439.25
406.436	460.25
406.66	469.25
406.883	461.25
407.107	502.25
407.331	524.25
407.555	567.25
407.778	543.25
408.002	508.25
408.226	491.25
408.449	457.25
408.673	465.25
408.896	475.25
409.12	521.25
409.344	494.25
409.567	433.25
409.791	411.25
410.014	413.25
410.238	413.25
410.461	435.25
410.685	429.25
410.908	441.25
411.132	457.25
411.355	496.25
411.578	465.25
411.802	427.25
412.025	417.25
412.249	437.25
412.472	469.25
412.695	480.25
412.919	457.25
413.142	429.25
413.365	418.25
413.589	415.25
413.812	406.25
414.035	415.25
414.258	391.25
414.482	389.25
414.705	393.25
414.928	379.25
415.151	374.25
415.374	406.25
415.597	387.25
415.821	395.25
416.044	387.25
416.267	406.25
416.49	402.25
416.713	390.25
416.936	389.25
417.159	411.25
417.382	405.25
417.605	394.25
417.828	407.25
418.051	422.25
418.274	399.25
418.497	401.25
418.72	393.25
418.943	408.25
419.166	393.25
419.389	421.25
419.611	410.25
419.834	425.25
420.057	426.25
420.28	419.25
420.503	427.25
420.726	412.25
420.948	440.25
421.171	449.25
421.394	492.25
421.617	429.25
421.839	410.25
422.062	442.25
422.285	443.25
422.507	470.25
422.73	527.25
422.953	524.25
423.175	454.25
423.398	434.25
423.621	444.25
423.843	452.25
424.066	431.25
424.288	454.25
424.511	450.25
424.733	498.25
424.956	566.25
425.178	552.25
425.401	550.25
425.623	566.25
425.846	470.25
426.068	443.25
426.291	463.25
426.513	447.25
426.735	466.25
426.958	502.25
427.18	579.25
427.402	651.25
427.625	696.25
427.847	629.25
428.069	539.25
428.292	481.25
428.514	452.25
428.736	423.25
428.958	435.25
429.181	417.25
429.403	431.25
429.625	430.25
429.847	445.25
430.069	496.25
430.292	515.25
430.514	441.25
430.736	395.25
430.958	406.25
431.18	399.25
431.402	396.25
431.624	405.25
431.846	385.25
432.068	355.25
432.29	383.25
432.512	397.25
432.734	406.25
432.956	400.25
433.178	413.25
433.4	414.25
433.622	377.25
433.844	403.25
434.066	386.25
434.287	385.25
434.509	395.25
434.731	391.25
434.953	398.25
435.175	398.25
435.397	449.25
435.618	445.25
435.84	494.25
436.062	559.25
436.284	599.25
436.505	536.25
436.727	463.25
436.949	416.25
437.17	433.25
437.392	405.25
437.614	417.25
437.835	451.25
438.057	507.25
438.278	604.25
438.5	606.25
438.721	674.25
438.943	636.25
439.165	519.25
439.386	457.25
439.608	461.25
439.829	463.25
440.05	483.25
440.272	515.25
440.493	482.25
440.715	461.25
440.936	437.25
441.158	423.25
441.379	427.25
441.6	438.25
441.822	450.25
442.043	487.25
442.264	551.25
442.486	591.25
442.707	462.25
442.928	456.25
443.149	463.25
443.371	475.25
443.592	511.25
443.813	556.25
444.034	625.25
444.255	519.25
444.476	467.25
444.698	457.25
444.919	450.25
445.14	540.25
445.361	501.25
445.582	489.25
445.803	546.25
446.024	599.25
446.245	620.25
446.466	578.25
446.687	483.25
446.908	461.25
447.129	435.25
447.35	430.25
447.571	429.25
447.792	419.25
448.013	413.25
448.234	437.25
448.455	484.25
448.675	558.25
448.896	641.25
449.117	550.25
449.338	530.25
449.559	606.25
449.779	690.25
450	541.25
450.221	458.25
450.442	441.25
450.662	415.25
450.883	428.25
451.104	440.25
451.324	438.25
451.545	389.25
451.766	385.25
451.986	378.25
452.207	373.25
452.428	375.25
452.648	378.25
452.869	374.25
453.089	386.25
453.31	378.25
453.53	358.25
453.751	354.25
453.971	371.25
454.192	367.25
454.412	367.25
454.633	381.25
454.853	370.25
455.073	376.25
455.294	408.25
455.514	453.25
455.734	435.25
455.955	380.25
456.175	350.25
456.395	338.25
456.616	342.25
456.836	369.25
457.056	357.25
457.276	340.25
457.497	365.25
457.717	336.25
457.937	347.25
458.157	359.25
458.377	361.25
458.598	378.25
458.818	419.25
459.038	471.25
459.258	479.25
459.478	429.25
459.698	376.25
459.918	385.25
460.138	387.25
460.358	381.25
460.578	395.25
460.798	377.25
461.018	383.25
461.238	388.25
461.458	395.25
461.678	380.25
461.898	391.25
462.118	371.25
462.338	404.25
462.558	410.25
462.777	394.25
462.997	418.25
463.217	410.25
463.437	413.25
463.657	407.25
463.876	410.25
464.096	396.25
464.316	385.25
464.536	401.25
464.755	398.25
464.975	395.25
465.195	431.25
465.414	463.25
465.634	443.25
465.854	397.25
466.073	395.25
466.293	396.25
466.512	393.25
466.732	374.25
466.951	369.25
467.171	361.25
467.391	381.25
467.61	350.25
467.829	390.25
468.049	374.25
468.268	396.25
468.488	371.25
468.707	365.25
468.927	355.25
469.146	371.25
469.365	380.25
469.585	363.25
469.804	362.25
470.023	381.25
470.243	381.25
470.462	386.25
470.681	405.25
470.901	383.25
471.12	384.25
471.339	397.25
471.558	382.25
471.777	390.25
471.997	382.25
472.216	379.25
472.435	423.25
472.654	400.25
472.873	379.25
473.092	369.25
473.311	383.25
473.53	379.25
473.749	410.25
473.968	424.25
474.187	512.25
474.406	515.25
474.625	434.25
474.844	409.25
475.063	402.25
475.282	393.25
475.501	398.25
475.72	396.25
475.939	404.25
476.158	400.25
476.377	399.25
476.596	395.25
476.814	387.25
477.033	414.25
477.252	407.25
477.471	400.25
477.69	411.25
477.908	407.25
478.127	427.25
478.346	417.25
478.564	403.25
478.783	408.25
479.002	415.25
479.22	419.25
479.439	430.25
479.658	453.25
479.876	430.25
480.095	445.25
480.313	460.25
480.532	456.25
480.751	456.25
480.969	471.25
481.188	485.25
481.406	498.25
481.624	483.25
481.843	438.25
482.061	436.25
482.28	428.25
482.498	453.25
482.717	423.25
482.935	433.25
483.153	438.25
483.372	450.25
483.59	439.25
483.808	445.25
484.027	411.25
484.245	456.25
484.463	428.25
484.681	435.25
484.9	447.25
485.118	447.25
485.336	447.25
485.554	447.25
485.772	462.25
485.99	457.25
486.209	457.25
486.427	463.25
486.645	453.25
486.863	463.25
487.081	471.25
487.299	481.25
487.517	470.25
487.735	472.25
487.953	501.25
488.171	501.25
488.389	478.25
488.607	453.25
488.825	465.25
489.043	470.25
489.261	486.25
489.479	459.25
489.696	481.25
489.914	495.25
490.132	491.25
490.35	516.25
490.568	506.25
490.786	524.25
491.003	526.25
491.221	524.25
491.439	506.25
491.657	539.25
491.874	532.25
492.092	555.25
492.31	547.25
492.527	539.25
492.745	549.25
492.963	549.25
493.18	540.25
493.398	559.25
493.615	553.25
493.833	567.25
494.05	571.25
494.268	558.25
494.485	563.25
494.703	561.25
494.92	566.25
495.138	572.25
495.355	538.25
495.573	561.25
495.79	563.25
496.008	577.25
496.225	574.25
496.442	566.25
496.66	567.25
496.877	573.25
497.094	579.25
497.312	582.25
497.529	556.25
497.746	547.25
497.963	587.25
498.181	585.25
498.398	607.25
498.615	619.25
498.832	633.25
499.049	605.25
499.267	621.25
499.484	627.25
499.701	662.25
499.918	671.25
500.135	700.25
500.352	746.25
500.569	747.25
500.786	734.25
501.003	724.25
501.22	722.25
501.437	696.25
501.654	683.25
501.871	679.25
