Data from 1971.PennyLincolnUp.Lamp.En5.5.200Scan.071719.P1.Scan 2. Changed Angle._HRD10591_15-23-04-842.txt Node
Date: Thu Jul 18 15:23:04 EDT 2019
User: cochatt
Spectrometer: HR+D1059
Trigger mode: 1
Integration Time (sec): 1.000000E-1
Scans to average: 1
Electric dark correction enabled: true
Nonlinearity correction enabled: false
Boxcar width: 0
XAxis mode: Wavelengths
Number of Pixels in Spectrum: 2048
>>>>>Begin Spectral Data<<<<<
223.165	1.12
223.4	1.12
223.635	1.12
223.869	-9.88
224.104	-21.88
224.338	-15.88
224.573	-4.88
224.808	-22.88
225.042	-5.88
225.277	-8.88
225.511	-12.88
225.746	11.12
225.98	9.12
226.215	4.12
226.449	17.12
226.683	19.12
226.918	16.12
227.152	25.12
227.387	22.12
227.621	41.12
227.856	48.12
228.09	40.12
228.324	60.12
228.559	55.12
228.793	78.12
229.027	111.12
229.262	94.12
229.496	111.12
229.73	137.12
229.964	176.12
230.199	143.12
230.433	128.12
230.667	127.12
230.901	131.12
231.136	132.12
231.37	124.12
231.604	112.12
231.838	118.12
232.072	122.12
232.306	130.12
232.541	126.12
232.775	111.12
233.009	111.12
233.243	121.12
233.477	123.12
233.711	122.12
233.945	99.12
234.179	118.12
234.413	120.12
234.647	109.12
234.881	124.12
235.115	126.12
235.349	126.12
235.583	118.12
235.817	111.12
236.051	124.12
236.285	116.12
236.519	127.12
236.753	142.12
236.987	154.12
237.221	194.12
237.455	248.12
237.689	191.12
237.922	144.12
238.156	130.12
238.39	134.12
238.624	126.12
238.858	124.12
239.091	134.12
239.325	124.12
239.559	129.12
239.793	131.12
240.027	143.12
240.26	168.12
240.494	160.12
240.728	154.12
240.961	152.12
241.195	137.12
241.429	162.12
241.662	144.12
241.896	135.12
242.13	131.12
242.363	138.12
242.597	147.12
242.83	157.12
243.064	134.12
243.298	143.12
243.531	136.12
243.765	150.12
243.998	149.12
244.232	149.12
244.465	158.12
244.699	153.12
244.932	134.12
245.166	157.12
245.399	151.12
245.633	159.12
245.866	162.12
246.099	151.12
246.333	147.12
246.566	158.12
246.8	166.12
247.033	160.12
247.266	162.12
247.5	154.12
247.733	166.12
247.966	181.12
248.2	179.12
248.433	168.12
248.666	173.12
248.899	186.12
249.133	208.12
249.366	215.12
249.599	214.12
249.832	207.12
250.066	200.12
250.299	198.12
250.532	206.12
250.765	213.12
250.998	230.12
251.231	225.12
251.465	222.12
251.698	209.12
251.931	211.12
252.164	193.12
252.397	207.12
252.63	222.12
252.863	225.12
253.096	215.12
253.329	254.12
253.562	240.12
253.795	248.12
254.028	213.12
254.261	223.12
254.494	221.12
254.727	266.12
254.96	282.12
255.193	288.12
255.426	239.12
255.659	250.12
255.892	240.12
256.124	238.12
256.357	223.12
256.59	222.12
256.823	233.12
257.056	221.12
257.289	221.12
257.521	235.12
257.754	229.12
257.987	216.12
258.22	207.12
258.452	219.12
258.685	207.12
258.918	220.12
259.151	206.12
259.383	230.12
259.616	227.12
259.849	227.12
260.081	246.12
260.314	244.12
260.547	251.12
260.779	264.12
261.012	232.12
261.244	239.12
261.477	221.12
261.71	234.12
261.942	225.12
262.175	240.12
262.407	234.12
262.64	208.12
262.872	220.12
263.105	213.12
263.337	220.12
263.57	219.12
263.802	226.12
264.035	210.12
264.267	223.12
264.499	215.12
264.732	214.12
264.964	206.12
265.197	208.12
265.429	198.12
265.661	207.12
265.894	204.12
266.126	222.12
266.358	206.12
266.591	211.12
266.823	230.12
267.055	239.12
267.287	234.12
267.52	229.12
267.752	192.12
267.984	220.12
268.216	223.12
268.448	219.12
268.681	225.12
268.913	231.12
269.145	242.12
269.377	270.12
269.609	275.12
269.841	276.12
270.073	267.12
270.306	280.12
270.538	313.12
270.77	301.12
271.002	302.12
271.234	298.12
271.466	293.12
271.698	308.12
271.93	328.12
272.162	332.12
272.394	328.12
272.626	311.12
272.858	300.12
273.09	282.12
273.322	274.12
273.553	275.12
273.785	276.12
274.017	257.12
274.249	249.12
274.481	247.12
274.713	263.12
274.945	266.12
275.176	266.12
275.408	254.12
275.64	253.12
275.872	229.12
276.104	273.12
276.335	262.12
276.567	247.12
276.799	269.12
277.031	289.12
277.262	302.12
277.494	330.12
277.726	304.12
277.957	276.12
278.189	262.12
278.421	254.12
278.652	258.12
278.884	270.12
279.115	256.12
279.347	252.12
279.579	247.12
279.81	243.12
280.042	267.12
280.273	265.12
280.505	252.12
280.736	245.12
280.968	247.12
281.199	244.12
281.431	256.12
281.662	239.12
281.894	243.12
282.125	260.12
282.356	291.12
282.588	294.12
282.819	273.12
283.051	270.12
283.282	253.12
283.513	255.12
283.745	246.12
283.976	255.12
284.207	258.12
284.439	276.12
284.67	270.12
284.901	248.12
285.132	263.12
285.364	266.12
285.595	269.12
285.826	269.12
286.057	270.12
286.288	253.12
286.52	255.12
286.751	253.12
286.982	266.12
287.213	256.12
287.444	268.12
287.675	265.12
287.906	268.12
288.138	274.12
288.369	284.12
288.6	278.12
288.831	276.12
289.062	275.12
289.293	283.12
289.524	280.12
289.755	264.12
289.986	272.12
290.217	253.12
290.448	274.12
290.679	273.12
290.91	270.12
291.141	266.12
291.371	266.12
291.602	275.12
291.833	269.12
292.064	270.12
292.295	276.12
292.526	273.12
292.757	261.12
292.987	264.12
293.218	262.12
293.449	264.12
293.68	278.12
293.91	258.12
294.141	273.12
294.372	271.12
294.603	270.12
294.833	245.12
295.064	256.12
295.295	290.12
295.525	285.12
295.756	266.12
295.987	286.12
296.217	306.12
296.448	295.12
296.679	276.12
296.909	267.12
297.14	274.12
297.37	258.12
297.601	281.12
297.831	293.12
298.062	264.12
298.292	273.12
298.523	282.12
298.753	306.12
298.984	272.12
299.214	302.12
299.445	282.12
299.675	278.12
299.905	302.12
300.136	284.12
300.366	278.12
300.597	271.12
300.827	271.12
301.057	285.12
301.288	293.12
301.518	288.12
301.748	298.12
301.979	286.12
302.209	287.12
302.439	294.12
302.669	290.12
302.9	279.12
303.13	298.12
303.36	304.12
303.59	291.12
303.82	298.12
304.051	310.12
304.281	292.12
304.511	294.12
304.741	311.12
304.971	297.12
305.201	283.12
305.431	295.12
305.661	287.12
305.891	292.12
306.121	285.12
306.352	301.12
306.582	326.12
306.812	324.12
307.042	315.12
307.272	311.12
307.502	295.12
307.731	306.12
307.961	321.12
308.191	295.12
308.421	290.12
308.651	312.12
308.881	311.12
309.111	315.12
309.341	335.12
309.571	322.12
309.8	336.12
310.03	358.12
310.26	366.12
310.49	348.12
310.72	380.12
310.949	363.12
311.179	390.12
311.409	346.12
311.639	363.12
311.868	374.12
312.098	365.12
312.328	360.12
312.557	386.12
312.787	395.12
313.017	411.12
313.246	371.12
313.476	345.12
313.706	361.12
313.935	355.12
314.165	368.12
314.394	383.12
314.624	366.12
314.853	364.12
315.083	372.12
315.312	362.12
315.542	363.12
315.771	324.12
316.001	327.12
316.23	342.12
316.46	332.12
316.689	363.12
316.919	366.12
317.148	368.12
317.377	354.12
317.607	375.12
317.836	381.12
318.065	358.12
318.295	362.12
318.524	352.12
318.753	334.12
318.983	349.12
319.212	353.12
319.441	361.12
319.67	379.12
319.9	355.12
320.129	345.12
320.358	364.12
320.587	349.12
320.816	365.12
321.046	389.12
321.275	364.12
321.504	388.12
321.733	400.12
321.962	392.12
322.191	412.12
322.42	413.12
322.649	420.12
322.878	411.12
323.108	445.12
323.337	483.12
323.566	486.12
323.795	512.12
324.024	583.12
324.253	712.12
324.482	997.12
324.71	1552.12
324.939	2269.12
325.168	1980.12
325.397	1038.12
325.626	670.12
325.855	555.12
326.084	516.12
326.313	497.12
326.542	499.12
326.77	547.12
326.999	663.12
327.228	899.12
327.457	1400.12
327.686	1704.12
327.914	1120.12
328.143	753.12
328.372	636.12
328.6	606.12
328.829	571.12
329.058	589.12
329.287	606.12
329.515	551.12
329.744	502.12
329.972	491.12
330.201	519.12
330.43	556.12
330.658	584.12
330.887	603.12
331.115	600.12
331.344	492.12
331.572	473.12
331.801	472.12
332.03	443.12
332.258	463.12
332.486	435.12
332.715	449.12
332.943	432.12
333.172	440.12
333.4	401.12
333.629	436.12
333.857	440.12
334.085	461.12
334.314	456.12
334.542	490.12
334.771	501.12
334.999	461.12
335.227	468.12
335.455	463.12
335.684	446.12
335.912	404.12
336.14	420.12
336.369	383.12
336.597	426.12
336.825	417.12
337.053	425.12
337.281	411.12
337.51	419.12
337.738	409.12
337.966	409.12
338.194	410.12
338.422	423.12
338.65	412.12
338.878	401.12
339.106	403.12
339.334	418.12
339.562	401.12
339.79	407.12
340.018	401.12
340.246	405.12
340.474	414.12
340.702	411.12
340.93	391.12
341.158	398.12
341.386	423.12
341.614	416.12
341.842	421.12
342.07	415.12
342.298	417.12
342.526	378.12
342.754	399.12
342.981	384.12
343.209	380.12
343.437	378.12
343.665	398.12
343.893	415.12
344.12	392.12
344.348	406.12
344.576	416.12
344.804	407.12
345.031	429.12
345.259	414.12
345.487	442.12
345.714	413.12
345.942	390.12
346.17	408.12
346.397	382.12
346.625	398.12
346.853	378.12
347.08	404.12
347.308	416.12
347.535	396.12
347.763	440.12
347.99	424.12
348.218	408.12
348.445	432.12
348.673	418.12
348.9	404.12
349.128	400.12
349.355	389.12
349.583	401.12
349.81	403.12
350.037	377.12
350.265	396.12
350.492	379.12
350.72	384.12
350.947	390.12
351.174	430.12
351.402	414.12
351.629	403.12
351.856	400.12
352.083	411.12
352.311	414.12
352.538	429.12
352.765	425.12
352.992	426.12
353.22	417.12
353.447	409.12
353.674	419.12
353.901	411.12
354.128	382.12
354.355	393.12
354.583	380.12
354.81	371.12
355.037	382.12
355.264	376.12
355.491	380.12
355.718	388.12
355.945	375.12
356.172	358.12
356.399	362.12
356.626	375.12
356.853	379.12
357.08	390.12
357.307	378.12
357.534	367.12
357.761	374.12
357.988	377.12
358.215	383.12
358.441	381.12
358.668	390.12
358.895	404.12
359.122	394.12
359.349	377.12
359.576	415.12
359.802	439.12
360.029	474.12
360.256	495.12
360.483	446.12
360.709	412.12
360.936	412.12
361.163	408.12
361.39	426.12
361.616	428.12
361.843	413.12
362.07	417.12
362.296	427.12
362.523	403.12
362.749	404.12
362.976	409.12
363.203	400.12
363.429	401.12
363.656	408.12
363.882	410.12
364.109	374.12
364.335	391.12
364.562	394.12
364.788	399.12
365.015	381.12
365.241	387.12
365.468	394.12
365.694	388.12
365.92	404.12
366.147	414.12
366.373	390.12
366.599	384.12
366.826	397.12
367.052	399.12
367.278	404.12
367.505	393.12
367.731	394.12
367.957	389.12
368.184	396.12
368.41	398.12
368.636	418.12
368.862	407.12
369.089	386.12
369.315	400.12
369.541	411.12
369.767	405.12
369.993	388.12
370.219	388.12
370.445	400.12
370.672	388.12
370.898	392.12
371.124	390.12
371.35	380.12
371.576	389.12
371.802	410.12
372.028	393.12
372.254	391.12
372.48	403.12
372.706	408.12
372.932	380.12
373.158	404.12
373.384	391.12
373.61	375.12
373.835	376.12
374.061	387.12
374.287	408.12
374.513	403.12
374.739	389.12
374.965	395.12
375.191	391.12
375.416	411.12
375.642	406.12
375.868	373.12
376.094	403.12
376.319	388.12
376.545	401.12
376.771	371.12
376.997	409.12
377.222	404.12
377.448	382.12
377.674	371.12
377.899	397.12
378.125	375.12
378.35	397.12
378.576	390.12
378.802	410.12
379.027	379.12
379.253	400.12
379.478	378.12
379.704	388.12
379.929	388.12
380.155	406.12
380.38	414.12
380.606	413.12
380.831	406.12
381.057	400.12
381.282	410.12
381.507	386.12
381.733	401.12
381.958	398.12
382.184	420.12
382.409	421.12
382.634	418.12
382.86	396.12
383.085	392.12
383.31	390.12
383.535	397.12
383.761	407.12
383.986	392.12
384.211	430.12
384.436	408.12
384.662	423.12
384.887	429.12
385.112	413.12
385.337	422.12
385.562	424.12
385.787	417.12
386.013	425.12
386.238	432.12
386.463	434.12
386.688	438.12
386.913	427.12
387.138	429.12
387.363	416.12
387.588	421.12
387.813	422.12
388.038	428.12
388.263	407.12
388.488	407.12
388.713	438.12
388.938	444.12
389.163	427.12
389.387	457.12
389.612	418.12
389.837	439.12
390.062	421.12
390.287	421.12
390.512	428.12
390.736	438.12
390.961	407.12
391.186	432.12
391.411	431.12
391.636	437.12
391.86	434.12
392.085	442.12
392.31	436.12
392.534	427.12
392.759	441.12
392.984	427.12
393.208	438.12
393.433	458.12
393.658	448.12
393.882	454.12
394.107	432.12
394.331	431.12
394.556	433.12
394.78	429.12
395.005	448.12
395.229	419.12
395.454	446.12
395.678	456.12
395.903	447.12
396.127	483.12
396.352	485.12
396.576	446.12
396.801	437.12
397.025	452.12
397.249	475.12
397.474	470.12
397.698	446.12
397.922	467.12
398.147	468.12
398.371	495.12
398.595	475.12
398.82	490.12
399.044	491.12
399.268	504.12
399.492	500.12
399.717	537.12
399.941	582.12
400.165	594.12
400.389	568.12
400.613	549.12
400.837	503.12
401.062	505.12
401.286	503.12
401.51	498.12
401.734	488.12
401.958	489.12
402.182	505.12
402.406	514.12
402.63	517.12
402.854	495.12
403.078	506.12
403.302	508.12
403.526	519.12
403.75	528.12
403.974	499.12
404.198	502.12
404.422	522.12
404.645	510.12
404.869	522.12
405.093	546.12
405.317	599.12
405.541	616.12
405.765	573.12
405.988	534.12
406.212	571.12
406.436	553.12
406.66	620.12
406.883	598.12
407.107	592.12
407.331	635.12
407.555	654.12
407.778	684.12
408.002	614.12
408.226	590.12
408.449	560.12
408.673	586.12
408.896	617.12
409.12	649.12
409.344	603.12
409.567	559.12
409.791	526.12
410.014	534.12
410.238	516.12
410.461	532.12
410.685	524.12
410.908	531.12
411.132	566.12
411.355	615.12
411.578	578.12
411.802	566.12
412.025	527.12
412.249	542.12
412.472	584.12
412.695	589.12
412.919	580.12
413.142	520.12
413.365	503.12
413.589	518.12
413.812	500.12
414.035	508.12
414.258	500.12
414.482	503.12
414.705	510.12
414.928	488.12
415.151	487.12
415.374	494.12
415.597	489.12
415.821	474.12
416.044	485.12
416.267	506.12
416.49	496.12
416.713	472.12
416.936	487.12
417.159	476.12
417.382	482.12
417.605	513.12
417.828	498.12
418.051	524.12
418.274	500.12
418.497	498.12
418.72	500.12
418.943	505.12
419.166	525.12
419.389	519.12
419.611	504.12
419.834	517.12
420.057	498.12
420.28	516.12
420.503	526.12
420.726	517.12
420.948	559.12
421.171	568.12
421.394	597.12
421.617	552.12
421.839	512.12
422.062	527.12
422.285	545.12
422.507	580.12
422.73	680.12
422.953	671.12
423.175	591.12
423.398	580.12
423.621	536.12
423.843	565.12
424.066	568.12
424.288	557.12
424.511	604.12
424.733	656.12
424.956	728.12
425.178	736.12
425.401	686.12
425.623	717.12
425.846	632.12
426.068	605.12
426.291	564.12
426.513	585.12
426.735	585.12
426.958	609.12
427.18	705.12
427.402	818.12
427.625	940.12
427.847	836.12
428.069	730.12
428.292	634.12
428.514	609.12
428.736	555.12
428.958	564.12
429.181	561.12
429.403	536.12
429.625	550.12
429.847	609.12
430.069	661.12
430.292	626.12
430.514	557.12
430.736	532.12
430.958	526.12
431.18	521.12
431.402	510.12
431.624	495.12
431.846	496.12
432.068	494.12
432.29	512.12
432.512	488.12
432.734	517.12
432.956	523.12
433.178	526.12
433.4	505.12
433.622	519.12
433.844	518.12
434.066	502.12
434.287	499.12
434.509	482.12
434.731	522.12
434.953	536.12
435.175	533.12
435.397	571.12
435.618	608.12
435.84	602.12
436.062	728.12
436.284	786.12
436.505	679.12
436.727	605.12
436.949	577.12
437.17	559.12
437.392	534.12
437.614	570.12
437.835	610.12
438.057	725.12
438.278	811.12
438.5	800.12
438.721	876.12
438.943	819.12
439.165	670.12
439.386	604.12
439.608	596.12
439.829	624.12
440.05	632.12
440.272	678.12
440.493	646.12
440.715	578.12
440.936	556.12
441.158	558.12
441.379	532.12
441.6	569.12
441.822	574.12
442.043	645.12
442.264	706.12
442.486	761.12
442.707	629.12
442.928	603.12
443.149	624.12
443.371	638.12
443.592	680.12
443.813	762.12
444.034	838.12
444.255	704.12
444.476	597.12
444.698	582.12
444.919	588.12
445.14	674.12
445.361	646.12
445.582	641.12
445.803	704.12
446.024	808.12
446.245	831.12
446.466	735.12
446.687	638.12
446.908	576.12
447.129	554.12
447.35	531.12
447.571	570.12
447.792	543.12
448.013	556.12
448.234	578.12
448.455	628.12
448.675	736.12
448.896	825.12
449.117	746.12
449.338	679.12
449.559	818.12
449.779	860.12
450	694.12
450.221	605.12
450.442	552.12
450.662	549.12
450.883	566.12
451.104	562.12
451.324	576.12
451.545	527.12
451.766	504.12
451.986	486.12
452.207	464.12
452.428	460.12
452.648	502.12
452.869	486.12
453.089	482.12
453.31	528.12
453.53	503.12
453.751	491.12
453.971	492.12
454.192	528.12
454.412	525.12
454.633	491.12
454.853	472.12
455.073	503.12
455.294	528.12
455.514	580.12
455.734	568.12
455.955	483.12
456.175	483.12
456.395	453.12
456.616	462.12
456.836	455.12
457.056	447.12
457.276	442.12
457.497	442.12
457.717	466.12
457.937	446.12
458.157	468.12
458.377	459.12
458.598	479.12
458.818	564.12
459.038	664.12
459.258	656.12
459.478	551.12
459.698	495.12
459.918	501.12
460.138	493.12
460.358	508.12
460.578	491.12
460.798	486.12
461.018	520.12
461.238	507.12
461.458	481.12
461.678	490.12
461.898	490.12
462.118	499.12
462.338	486.12
462.558	507.12
462.777	525.12
462.997	499.12
463.217	535.12
463.437	527.12
463.657	512.12
463.876	525.12
464.096	538.12
464.316	532.12
464.536	547.12
464.755	559.12
464.975	535.12
465.195	603.12
465.414	655.12
465.634	599.12
465.854	552.12
466.073	537.12
466.293	511.12
466.512	504.12
466.732	479.12
466.951	502.12
467.171	468.12
467.391	487.12
467.61	488.12
467.829	517.12
468.049	528.12
468.268	502.12
468.488	494.12
468.707	475.12
468.927	482.12
469.146	478.12
469.365	489.12
469.585	475.12
469.804	489.12
470.023	503.12
470.243	497.12
470.462	522.12
470.681	538.12
470.901	538.12
471.12	495.12
471.339	492.12
471.558	515.12
471.777	506.12
471.997	499.12
472.216	494.12
472.435	514.12
472.654	543.12
472.873	513.12
473.092	495.12
473.311	496.12
473.53	501.12
473.749	510.12
473.968	573.12
474.187	675.12
474.406	678.12
474.625	564.12
474.844	542.12
475.063	504.12
475.282	508.12
475.501	494.12
475.72	503.12
475.939	528.12
476.158	534.12
476.377	522.12
476.596	516.12
476.814	542.12
477.033	536.12
477.252	564.12
477.471	545.12
477.69	543.12
477.908	559.12
478.127	542.12
478.346	566.12
478.564	569.12
478.783	538.12
479.002	539.12
479.22	561.12
479.439	601.12
479.658	620.12
479.876	586.12
480.095	596.12
480.313	630.12
480.532	626.12
480.751	607.12
480.969	621.12
481.188	680.12
481.406	708.12
481.624	652.12
481.843	634.12
482.061	639.12
482.28	610.12
482.498	592.12
482.717	591.12
482.935	593.12
483.153	605.12
483.372	600.12
483.59	628.12
483.808	610.12
484.027	623.12
484.245	602.12
484.463	590.12
484.681	608.12
484.9	616.12
485.118	634.12
485.336	614.12
485.554	627.12
485.772	632.12
485.99	618.12
486.209	635.12
486.427	626.12
486.645	650.12
486.863	669.12
487.081	679.12
487.299	676.12
487.517	659.12
487.735	657.12
487.953	636.12
488.171	644.12
488.389	671.12
488.607	678.12
488.825	658.12
489.043	660.12
489.261	682.12
489.479	654.12
489.696	675.12
489.914	674.12
490.132	673.12
490.35	688.12
490.568	714.12
490.786	679.12
491.003	701.12
491.221	723.12
491.439	722.12
491.657	712.12
491.874	750.12
492.092	764.12
492.31	778.12
492.527	791.12
492.745	803.12
492.963	771.12
493.18	771.12
493.398	796.12
493.615	793.12
493.833	800.12
494.05	828.12
494.268	787.12
494.485	807.12
494.703	778.12
494.92	792.12
495.138	790.12
495.355	772.12
495.573	772.12
495.79	821.12
496.008	812.12
496.225	802.12
496.442	812.12
496.66	794.12
496.877	811.12
497.094	805.12
497.312	810.12
497.529	802.12
497.746	796.12
497.963	833.12
498.181	852.12
498.398	850.12
498.615	859.12
498.832	847.12
499.049	865.12
499.267	853.12
499.484	892.12
499.701	916.12
499.918	967.12
500.135	949.12
500.352	968.12
500.569	978.12
500.786	974.12
501.003	979.12
501.22	959.12
501.437	936.12
501.654	930.12
