Data from 1971.PennyLincolnUp.Lamp.En5.5.200Scan.071719.P1._HRD10591_15-19-36-841.txt Node
Date: Thu Jul 18 15:19:36 EDT 2019
User: cochatt
Spectrometer: HR+D1059
Trigger mode: 1
Integration Time (sec): 1.000000E-1
Scans to average: 1
Electric dark correction enabled: true
Nonlinearity correction enabled: false
Boxcar width: 0
XAxis mode: Wavelengths
Number of Pixels in Spectrum: 2048
>>>>>Begin Spectral Data<<<<<
223.165	-24.56
223.4	-24.56
223.635	-24.56
223.869	-18.56
224.104	-17.56
224.338	-16.56
224.573	-5.56
224.808	-11.56
225.042	-0.56
225.277	1.44
225.511	-13.56
225.746	8.44
225.98	15.44
226.215	7.44
226.449	16.44
226.683	15.44
226.918	24.44
227.152	19.44
227.387	21.44
227.621	24.44
227.856	34.44
228.09	45.44
228.324	39.44
228.559	37.44
228.793	67.44
229.027	87.44
229.262	88.44
229.496	95.44
229.73	119.44
229.964	124.44
230.199	136.44
230.433	115.44
230.667	108.44
230.901	104.44
231.136	108.44
231.37	106.44
231.604	107.44
231.838	111.44
232.072	117.44
232.306	97.44
232.541	121.44
232.775	119.44
233.009	97.44
233.243	108.44
233.477	113.44
233.711	115.44
233.945	108.44
234.179	115.44
234.413	121.44
234.647	116.44
234.881	117.44
235.115	117.44
235.349	110.44
235.583	124.44
235.817	131.44
236.051	107.44
236.285	105.44
236.519	126.44
236.753	136.44
236.987	124.44
237.221	170.44
237.455	187.44
237.689	172.44
237.922	151.44
238.156	139.44
238.39	134.44
238.624	125.44
238.858	117.44
239.091	120.44
239.325	115.44
239.559	137.44
239.793	129.44
240.027	142.44
240.26	145.44
240.494	144.44
240.728	146.44
240.961	131.44
241.195	138.44
241.429	136.44
241.662	120.44
241.896	123.44
242.13	123.44
242.363	131.44
242.597	120.44
242.83	137.44
243.064	137.44
243.298	138.44
243.531	141.44
243.765	134.44
243.998	147.44
244.232	153.44
244.465	139.44
244.699	137.44
244.932	136.44
245.166	136.44
245.399	156.44
245.633	150.44
245.866	140.44
246.099	135.44
246.333	134.44
246.566	151.44
246.8	151.44
247.033	135.44
247.266	151.44
247.5	160.44
247.733	178.44
247.966	168.44
248.2	173.44
248.433	147.44
248.666	186.44
248.899	189.44
249.133	197.44
249.366	201.44
249.599	189.44
249.832	190.44
250.066	189.44
250.299	186.44
250.532	188.44
250.765	210.44
250.998	227.44
251.231	228.44
251.465	215.44
251.698	207.44
251.931	204.44
252.164	211.44
252.397	185.44
252.63	207.44
252.863	210.44
253.096	223.44
253.329	221.44
253.562	205.44
253.795	214.44
254.028	214.44
254.261	211.44
254.494	226.44
254.727	260.44
254.96	255.44
255.193	284.44
255.426	275.44
255.659	228.44
255.892	237.44
256.124	231.44
256.357	253.44
256.59	226.44
256.823	214.44
257.056	224.44
257.289	209.44
257.521	216.44
257.754	219.44
257.987	218.44
258.22	205.44
258.452	204.44
258.685	205.44
258.918	212.44
259.151	226.44
259.383	226.44
259.616	214.44
259.849	250.44
260.081	234.44
260.314	257.44
260.547	262.44
260.779	245.44
261.012	234.44
261.244	232.44
261.477	206.44
261.71	234.44
261.942	244.44
262.175	224.44
262.407	223.44
262.64	224.44
262.872	220.44
263.105	219.44
263.337	213.44
263.57	226.44
263.802	222.44
264.035	217.44
264.267	206.44
264.499	215.44
264.732	220.44
264.964	217.44
265.197	227.44
265.429	218.44
265.661	205.44
265.894	215.44
266.126	220.44
266.358	218.44
266.591	241.44
266.823	233.44
267.055	235.44
267.287	230.44
267.52	228.44
267.752	233.44
267.984	224.44
268.216	252.44
268.448	232.44
268.681	245.44
268.913	264.44
269.145	255.44
269.377	285.44
269.609	264.44
269.841	271.44
270.073	291.44
270.306	285.44
270.538	342.44
270.77	303.44
271.002	305.44
271.234	294.44
271.466	303.44
271.698	324.44
271.93	327.44
272.162	332.44
272.394	314.44
272.626	305.44
272.858	276.44
273.09	285.44
273.322	281.44
273.553	259.44
273.785	278.44
274.017	271.44
274.249	261.44
274.481	279.44
274.713	275.44
274.945	295.44
275.176	277.44
275.408	284.44
275.64	269.44
275.872	257.44
276.104	276.44
276.335	265.44
276.567	278.44
276.799	272.44
277.031	314.44
277.262	331.44
277.494	323.44
277.726	306.44
277.957	320.44
278.189	298.44
278.421	285.44
278.652	273.44
278.884	293.44
279.115	265.44
279.347	270.44
279.579	271.44
279.81	275.44
280.042	272.44
280.273	284.44
280.505	262.44
280.736	269.44
280.968	276.44
281.199	270.44
281.431	294.44
281.662	288.44
281.894	276.44
282.125	281.44
282.356	289.44
282.588	316.44
282.819	307.44
283.051	284.44
283.282	282.44
283.513	274.44
283.745	274.44
283.976	281.44
284.207	311.44
284.439	276.44
284.67	289.44
284.901	282.44
285.132	290.44
285.364	297.44
285.595	294.44
285.826	291.44
286.057	296.44
286.288	310.44
286.52	283.44
286.751	280.44
286.982	291.44
287.213	287.44
287.444	306.44
287.675	303.44
287.906	317.44
288.138	300.44
288.369	314.44
288.6	320.44
288.831	298.44
289.062	295.44
289.293	298.44
289.524	310.44
289.755	285.44
289.986	291.44
290.217	305.44
290.448	305.44
290.679	280.44
290.91	295.44
291.141	289.44
291.371	306.44
291.602	281.44
291.833	300.44
292.064	282.44
292.295	284.44
292.526	283.44
292.757	283.44
292.987	298.44
293.218	307.44
293.449	294.44
293.68	287.44
293.91	292.44
294.141	301.44
294.372	296.44
294.603	298.44
294.833	303.44
295.064	284.44
295.295	297.44
295.525	297.44
295.756	305.44
295.987	304.44
296.217	316.44
296.448	324.44
296.679	306.44
296.909	304.44
297.14	299.44
297.37	305.44
297.601	299.44
297.831	313.44
298.062	298.44
298.292	309.44
298.523	311.44
298.753	321.44
298.984	312.44
299.214	300.44
299.445	304.44
299.675	305.44
299.905	313.44
300.136	330.44
300.366	310.44
300.597	318.44
300.827	317.44
301.057	343.44
301.288	348.44
301.518	314.44
301.748	331.44
301.979	322.44
302.209	345.44
302.439	320.44
302.669	332.44
302.9	325.44
303.13	323.44
303.36	321.44
303.59	349.44
303.82	332.44
304.051	335.44
304.281	341.44
304.511	346.44
304.741	337.44
304.971	334.44
305.201	324.44
305.431	330.44
305.661	332.44
305.891	324.44
306.121	338.44
306.352	328.44
306.582	325.44
306.812	323.44
307.042	341.44
307.272	333.44
307.502	331.44
307.731	334.44
307.961	349.44
308.191	331.44
308.421	345.44
308.651	341.44
308.881	346.44
309.111	350.44
309.341	338.44
309.571	354.44
309.8	352.44
310.03	363.44
310.26	381.44
310.49	369.44
310.72	362.44
310.949	373.44
311.179	381.44
311.409	391.44
311.639	381.44
311.868	370.44
312.098	395.44
312.328	390.44
312.557	403.44
312.787	407.44
313.017	392.44
313.246	383.44
313.476	379.44
313.706	375.44
313.935	381.44
314.165	380.44
314.394	399.44
314.624	406.44
314.853	396.44
315.083	385.44
315.312	360.44
315.542	364.44
315.771	390.44
316.001	379.44
316.23	375.44
316.46	373.44
316.689	399.44
316.919	386.44
317.148	407.44
317.377	404.44
317.607	394.44
317.836	377.44
318.065	405.44
318.295	371.44
318.524	381.44
318.753	387.44
318.983	369.44
319.212	377.44
319.441	381.44
319.67	385.44
319.9	389.44
320.129	388.44
320.358	391.44
320.587	387.44
320.816	393.44
321.046	414.44
321.275	412.44
321.504	393.44
321.733	405.44
321.962	422.44
322.191	397.44
322.42	419.44
322.649	457.44
322.878	446.44
323.108	456.44
323.337	479.44
323.566	477.44
323.795	497.44
324.024	583.44
324.253	675.44
324.482	951.44
324.71	1443.44
324.939	1924.44
325.168	1634.44
325.397	857.44
325.626	619.44
325.855	551.44
326.084	499.44
326.313	482.44
326.542	482.44
326.77	532.44
326.999	633.44
327.228	866.44
327.457	1275.44
327.686	1430.44
327.914	949.44
328.143	651.44
328.372	602.44
328.6	552.44
328.829	531.44
329.058	560.44
329.287	567.44
329.515	520.44
329.744	488.44
329.972	488.44
330.201	501.44
330.43	514.44
330.658	556.44
330.887	552.44
331.115	533.44
331.344	504.44
331.572	480.44
331.801	479.44
332.03	476.44
332.258	475.44
332.486	449.44
332.715	432.44
332.943	425.44
333.172	447.44
333.4	466.44
333.629	466.44
333.857	464.44
334.085	467.44
334.314	479.44
334.542	507.44
334.771	507.44
334.999	479.44
335.227	479.44
335.455	454.44
335.684	434.44
335.912	460.44
336.14	431.44
336.369	403.44
336.597	457.44
336.825	415.44
337.053	450.44
337.281	450.44
337.51	433.44
337.738	435.44
337.966	431.44
338.194	443.44
338.422	458.44
338.65	430.44
338.878	399.44
339.106	417.44
339.334	437.44
339.562	413.44
339.79	383.44
340.018	428.44
340.246	412.44
340.474	431.44
340.702	426.44
340.93	403.44
341.158	393.44
341.386	413.44
341.614	421.44
341.842	432.44
342.07	409.44
342.298	399.44
342.526	390.44
342.754	410.44
342.981	390.44
343.209	417.44
343.437	409.44
343.665	414.44
343.893	397.44
344.12	427.44
344.348	395.44
344.576	411.44
344.804	425.44
345.031	402.44
345.259	415.44
345.487	415.44
345.714	425.44
345.942	412.44
346.17	399.44
346.397	395.44
346.625	378.44
346.853	397.44
347.08	394.44
347.308	398.44
347.535	403.44
347.763	412.44
347.99	405.44
348.218	407.44
348.445	425.44
348.673	407.44
348.9	402.44
349.128	420.44
349.355	400.44
349.583	387.44
349.81	387.44
350.037	376.44
350.265	395.44
350.492	420.44
350.72	375.44
350.947	411.44
351.174	390.44
351.402	392.44
351.629	388.44
351.856	393.44
352.083	395.44
352.311	417.44
352.538	399.44
352.765	407.44
352.992	397.44
353.22	375.44
353.447	395.44
353.674	379.44
353.901	368.44
354.128	377.44
354.355	380.44
354.583	375.44
354.81	367.44
355.037	378.44
355.264	353.44
355.491	377.44
355.718	383.44
355.945	370.44
356.172	372.44
356.399	375.44
356.626	368.44
356.853	364.44
357.08	372.44
357.307	370.44
357.534	378.44
357.761	358.44
357.988	335.44
358.215	363.44
358.441	367.44
358.668	369.44
358.895	367.44
359.122	365.44
359.349	362.44
359.576	407.44
359.802	405.44
360.029	411.44
360.256	425.44
360.483	419.44
360.709	395.44
360.936	398.44
361.163	409.44
361.39	391.44
361.616	385.44
361.843	384.44
362.07	382.44
362.296	385.44
362.523	379.44
362.749	368.44
362.976	360.44
363.203	373.44
363.429	361.44
363.656	362.44
363.882	357.44
364.109	361.44
364.335	367.44
364.562	374.44
364.788	375.44
365.015	370.44
365.241	377.44
365.468	386.44
365.694	387.44
365.92	358.44
366.147	385.44
366.373	356.44
366.599	373.44
366.826	363.44
367.052	353.44
367.278	354.44
367.505	358.44
367.731	366.44
367.957	350.44
368.184	371.44
368.41	348.44
368.636	369.44
368.862	367.44
369.089	367.44
369.315	389.44
369.541	369.44
369.767	378.44
369.993	372.44
370.219	336.44
370.445	359.44
370.672	357.44
370.898	354.44
371.124	370.44
371.35	355.44
371.576	356.44
371.802	376.44
372.028	361.44
372.254	343.44
372.48	355.44
372.706	363.44
372.932	355.44
373.158	358.44
373.384	366.44
373.61	360.44
373.835	348.44
374.061	347.44
374.287	365.44
374.513	358.44
374.739	361.44
374.965	376.44
375.191	359.44
375.416	364.44
375.642	349.44
375.868	368.44
376.094	365.44
376.319	358.44
376.545	368.44
376.771	357.44
376.997	353.44
377.222	343.44
377.448	362.44
377.674	351.44
377.899	354.44
378.125	349.44
378.35	347.44
378.576	338.44
378.802	339.44
379.027	343.44
379.253	340.44
379.478	342.44
379.704	337.44
379.929	353.44
380.155	349.44
380.38	343.44
380.606	352.44
380.831	329.44
381.057	337.44
381.282	340.44
381.507	344.44
381.733	356.44
381.958	384.44
382.184	370.44
382.409	343.44
382.634	348.44
382.86	341.44
383.085	352.44
383.31	359.44
383.535	374.44
383.761	365.44
383.986	361.44
384.211	371.44
384.436	377.44
384.662	348.44
384.887	359.44
385.112	367.44
385.337	354.44
385.562	379.44
385.787	377.44
386.013	369.44
386.238	366.44
386.463	381.44
386.688	367.44
386.913	361.44
387.138	377.44
387.363	378.44
387.588	385.44
387.813	374.44
388.038	379.44
388.263	363.44
388.488	403.44
388.713	380.44
388.938	367.44
389.163	373.44
389.387	367.44
389.612	367.44
389.837	359.44
390.062	375.44
390.287	355.44
390.512	353.44
390.736	363.44
390.961	367.44
391.186	368.44
391.411	381.44
391.636	370.44
391.86	350.44
392.085	373.44
392.31	391.44
392.534	371.44
392.759	377.44
392.984	376.44
393.208	364.44
393.433	377.44
393.658	381.44
393.882	355.44
394.107	383.44
394.331	379.44
394.556	356.44
394.78	375.44
395.005	381.44
395.229	378.44
395.454	387.44
395.678	370.44
395.903	388.44
396.127	411.44
396.352	418.44
396.576	397.44
396.801	388.44
397.025	380.44
397.249	390.44
397.474	396.44
397.698	385.44
397.922	407.44
398.147	405.44
398.371	431.44
398.595	403.44
398.82	405.44
399.044	415.44
399.268	428.44
399.492	456.44
399.717	465.44
399.941	486.44
400.165	495.44
400.389	525.44
400.613	476.44
400.837	434.44
401.062	433.44
401.286	418.44
401.51	428.44
401.734	420.44
401.958	413.44
402.182	423.44
402.406	399.44
402.63	412.44
402.854	423.44
403.078	425.44
403.302	437.44
403.526	417.44
403.75	439.44
403.974	418.44
404.198	411.44
404.422	438.44
404.645	415.44
404.869	439.44
405.093	459.44
405.317	500.44
405.541	527.44
405.765	483.44
405.988	467.44
406.212	456.44
406.436	473.44
406.66	470.44
406.883	457.44
407.107	476.44
407.331	511.44
407.555	544.44
407.778	564.44
408.002	504.44
408.226	484.44
408.449	467.44
408.673	450.44
408.896	496.44
409.12	502.44
409.344	487.44
409.567	444.44
409.791	419.44
410.014	421.44
410.238	415.44
410.461	413.44
410.685	451.44
410.908	432.44
411.132	455.44
411.355	484.44
411.578	478.44
411.802	440.44
412.025	411.44
412.249	416.44
412.472	439.44
412.695	485.44
412.919	458.44
413.142	429.44
413.365	425.44
413.589	433.44
413.812	393.44
414.035	393.44
414.258	401.44
414.482	415.44
414.705	403.44
414.928	402.44
415.151	398.44
415.374	383.44
415.597	387.44
415.821	387.44
416.044	389.44
416.267	403.44
416.49	399.44
416.713	379.44
416.936	387.44
417.159	405.44
417.382	398.44
417.605	419.44
417.828	422.44
418.051	407.44
418.274	400.44
418.497	429.44
418.72	379.44
418.943	424.44
419.166	398.44
419.389	439.44
419.611	428.44
419.834	421.44
420.057	412.44
420.28	411.44
420.503	410.44
420.726	412.44
420.948	427.44
421.171	464.44
421.394	482.44
421.617	444.44
421.839	415.44
422.062	425.44
422.285	445.44
422.507	466.44
422.73	532.44
422.953	510.44
423.175	465.44
423.398	443.44
423.621	435.44
423.843	451.44
424.066	447.44
424.288	451.44
424.511	486.44
424.733	504.44
424.956	579.44
425.178	554.44
425.401	535.44
425.623	571.44
425.846	480.44
426.068	439.44
426.291	439.44
426.513	442.44
426.735	467.44
426.958	503.44
427.18	551.44
427.402	666.44
427.625	699.44
427.847	636.44
428.069	550.44
428.292	488.44
428.514	445.44
428.736	421.44
428.958	431.44
429.181	435.44
429.403	425.44
429.625	447.44
429.847	447.44
430.069	528.44
430.292	485.44
430.514	442.44
430.736	423.44
430.958	420.44
431.18	391.44
431.402	389.44
431.624	392.44
431.846	394.44
432.068	385.44
432.29	388.44
432.512	369.44
432.734	396.44
432.956	403.44
433.178	405.44
433.4	398.44
433.622	385.44
433.844	399.44
434.066	383.44
434.287	406.44
434.509	394.44
434.731	386.44
434.953	413.44
435.175	403.44
435.397	445.44
435.618	429.44
435.84	496.44
436.062	546.44
436.284	613.44
436.505	513.44
436.727	452.44
436.949	431.44
437.17	408.44
437.392	427.44
437.614	417.44
437.835	442.44
438.057	539.44
438.278	613.44
438.5	601.44
438.721	666.44
438.943	627.44
439.165	509.44
439.386	464.44
439.608	466.44
439.829	447.44
440.05	486.44
440.272	517.44
440.493	467.44
440.715	449.44
440.936	417.44
441.158	436.44
441.379	419.44
441.6	432.44
441.822	437.44
442.043	481.44
442.264	560.44
442.486	569.44
442.707	488.44
442.928	447.44
443.149	464.44
443.371	472.44
443.592	526.44
443.813	577.44
444.034	632.44
444.255	515.44
444.476	473.44
444.698	457.44
444.919	452.44
445.14	585.44
445.361	523.44
445.582	475.44
445.803	541.44
446.024	627.44
446.245	615.44
446.466	569.44
446.687	509.44
446.908	466.44
447.129	447.44
447.35	415.44
447.571	422.44
447.792	408.44
448.013	433.44
448.234	453.44
448.455	469.44
448.675	551.44
448.896	621.44
449.117	560.44
449.338	552.44
449.559	615.44
449.779	679.44
450	559.44
450.221	469.44
450.442	428.44
450.662	407.44
450.883	426.44
451.104	434.44
451.324	404.44
451.545	395.44
451.766	395.44
451.986	383.44
452.207	382.44
452.428	372.44
452.648	360.44
452.869	369.44
453.089	375.44
453.31	397.44
453.53	370.44
453.751	360.44
453.971	371.44
454.192	373.44
454.412	367.44
454.633	379.44
454.853	360.44
455.073	366.44
455.294	405.44
455.514	439.44
455.734	433.44
455.955	360.44
456.175	359.44
456.395	350.44
456.616	342.44
456.836	349.44
457.056	356.44
457.276	340.44
457.497	334.44
457.717	328.44
457.937	352.44
458.157	356.44
458.377	363.44
458.598	386.44
458.818	439.44
459.038	476.44
459.258	485.44
459.478	422.44
459.698	409.44
459.918	361.44
460.138	373.44
460.358	374.44
460.578	371.44
460.798	398.44
461.018	390.44
461.238	374.44
461.458	380.44
461.678	397.44
461.898	387.44
462.118	367.44
462.338	395.44
462.558	392.44
462.777	397.44
462.997	391.44
463.217	412.44
463.437	418.44
463.657	421.44
463.876	409.44
464.096	405.44
464.316	401.44
464.536	415.44
464.755	407.44
464.975	429.44
465.195	438.44
465.414	501.44
465.634	445.44
465.854	409.44
466.073	408.44
466.293	379.44
466.512	381.44
466.732	395.44
466.951	374.44
467.171	378.44
467.391	388.44
467.61	379.44
467.829	393.44
468.049	388.44
468.268	373.44
468.488	365.44
468.707	367.44
468.927	356.44
469.146	397.44
469.365	354.44
469.585	363.44
469.804	381.44
470.023	372.44
470.243	379.44
470.462	399.44
470.681	399.44
470.901	390.44
471.12	387.44
471.339	396.44
471.558	409.44
471.777	374.44
471.997	378.44
472.216	380.44
472.435	406.44
472.654	369.44
472.873	371.44
473.092	368.44
473.311	370.44
473.53	380.44
473.749	389.44
473.968	431.44
474.187	503.44
474.406	525.44
474.625	423.44
474.844	410.44
475.063	394.44
475.282	385.44
475.501	389.44
475.72	404.44
475.939	399.44
476.158	381.44
476.377	376.44
476.596	387.44
476.814	407.44
477.033	399.44
477.252	388.44
477.471	393.44
477.69	404.44
477.908	405.44
478.127	403.44
478.346	410.44
478.564	407.44
478.783	408.44
479.002	433.44
479.22	431.44
479.439	418.44
479.658	441.44
479.876	441.44
480.095	465.44
480.313	473.44
480.532	461.44
480.751	459.44
480.969	447.44
481.188	502.44
481.406	511.44
481.624	468.44
481.843	445.44
482.061	443.44
482.28	444.44
482.498	441.44
482.717	437.44
482.935	442.44
483.153	454.44
483.372	447.44
483.59	440.44
483.808	456.44
484.027	443.44
484.245	436.44
484.463	433.44
484.681	446.44
484.9	468.44
485.118	459.44
485.336	437.44
485.554	448.44
485.772	439.44
485.99	457.44
486.209	494.44
486.427	465.44
486.645	447.44
486.863	486.44
487.081	469.44
487.299	458.44
487.517	481.44
487.735	488.44
487.953	460.44
488.171	477.44
488.389	473.44
488.607	490.44
488.825	452.44
489.043	475.44
489.261	488.44
489.479	476.44
489.696	471.44
489.914	493.44
490.132	481.44
490.35	498.44
490.568	508.44
490.786	513.44
491.003	518.44
491.221	535.44
491.439	534.44
491.657	547.44
491.874	556.44
492.092	533.44
492.31	551.44
492.527	538.44
492.745	574.44
492.963	529.44
493.18	529.44
493.398	554.44
493.615	569.44
493.833	570.44
494.05	563.44
494.268	555.44
494.485	545.44
494.703	580.44
494.92	563.44
495.138	568.44
495.355	555.44
495.573	579.44
495.79	563.44
496.008	565.44
496.225	563.44
496.442	564.44
496.66	575.44
496.877	560.44
497.094	561.44
497.312	568.44
497.529	592.44
497.746	572.44
497.963	590.44
498.181	595.44
498.398	610.44
498.615	640.44
498.832	625.44
499.049	610.44
499.267	648.44
499.484	643.44
499.701	683.44
499.918	674.44
500.135	693.44
500.352	712.44
500.569	767.44
500.786	735.44
501.003	765.44
501.22	743.44
501.437	720.44
501.654	677.44
501.871	673.44
502.088	652.44
