Data from 1971.PennyLincolnUp.Lamp.En5.5.200Scan.071719.P1._HRD10591_15-18-13-841.txt Node
Date: Thu Jul 18 15:18:13 EDT 2019
User: cochatt
Spectrometer: HR+D1059
Trigger mode: 1
Integration Time (sec): 1.000000E-1
Scans to average: 1
Electric dark correction enabled: true
Nonlinearity correction enabled: false
Boxcar width: 0
XAxis mode: Wavelengths
Number of Pixels in Spectrum: 2048
>>>>>Begin Spectral Data<<<<<
223.165	-5.5
223.4	-5.5
223.635	-5.5
223.869	-10.5
224.104	-13.5
224.338	-14.5
224.573	-6.5
224.808	-21.5
225.042	-12.5
225.277	-9.5
225.511	5.5
225.746	5.5
225.98	-9.5
226.215	5.5
226.449	20.5
226.683	18.5
226.918	21.5
227.152	26.5
227.387	28.5
227.621	38.5
227.856	40.5
228.09	46.5
228.324	53.5
228.559	53.5
228.793	68.5
229.027	91.5
229.262	96.5
229.496	105.5
229.73	120.5
229.964	124.5
230.199	103.5
230.433	107.5
230.667	105.5
230.901	95.5
231.136	106.5
231.37	96.5
231.604	123.5
231.838	91.5
232.072	93.5
232.306	116.5
232.541	118.5
232.775	115.5
233.009	103.5
233.243	97.5
233.477	113.5
233.711	104.5
233.945	106.5
234.179	101.5
234.413	129.5
234.647	107.5
234.881	111.5
235.115	110.5
235.349	111.5
235.583	108.5
235.817	122.5
236.051	113.5
236.285	104.5
236.519	119.5
236.753	131.5
236.987	132.5
237.221	135.5
237.455	191.5
237.689	148.5
237.922	118.5
238.156	105.5
238.39	125.5
238.624	110.5
238.858	117.5
239.091	116.5
239.325	117.5
239.559	116.5
239.793	135.5
240.027	123.5
240.26	130.5
240.494	151.5
240.728	133.5
240.961	131.5
241.195	124.5
241.429	135.5
241.662	118.5
241.896	143.5
242.13	135.5
242.363	121.5
242.597	123.5
242.83	138.5
243.064	138.5
243.298	132.5
243.531	127.5
243.765	129.5
243.998	131.5
244.232	135.5
244.465	141.5
244.699	143.5
244.932	156.5
245.166	138.5
245.399	133.5
245.633	133.5
245.866	149.5
246.099	149.5
246.333	137.5
246.566	153.5
246.8	134.5
247.033	143.5
247.266	143.5
247.5	141.5
247.733	154.5
247.966	163.5
248.2	152.5
248.433	169.5
248.666	158.5
248.899	161.5
249.133	189.5
249.366	188.5
249.599	175.5
249.832	175.5
250.066	171.5
250.299	176.5
250.532	189.5
250.765	185.5
250.998	205.5
251.231	200.5
251.465	189.5
251.698	204.5
251.931	185.5
252.164	181.5
252.397	196.5
252.63	196.5
252.863	191.5
253.096	196.5
253.329	205.5
253.562	202.5
253.795	222.5
254.028	200.5
254.261	197.5
254.494	226.5
254.727	236.5
254.96	241.5
255.193	230.5
255.426	222.5
255.659	204.5
255.892	218.5
256.124	208.5
256.357	227.5
256.59	223.5
256.823	199.5
257.056	197.5
257.289	207.5
257.521	204.5
257.754	212.5
257.987	201.5
258.22	201.5
258.452	198.5
258.685	200.5
258.918	198.5
259.151	204.5
259.383	213.5
259.616	208.5
259.849	210.5
260.081	228.5
260.314	222.5
260.547	241.5
260.779	228.5
261.012	233.5
261.244	219.5
261.477	197.5
261.71	206.5
261.942	227.5
262.175	225.5
262.407	215.5
262.64	211.5
262.872	201.5
263.105	203.5
263.337	203.5
263.57	192.5
263.802	203.5
264.035	203.5
264.267	206.5
264.499	188.5
264.732	212.5
264.964	197.5
265.197	226.5
265.429	198.5
265.661	219.5
265.894	200.5
266.126	203.5
266.358	197.5
266.591	217.5
266.823	231.5
267.055	219.5
267.287	223.5
267.52	210.5
267.752	203.5
267.984	220.5
268.216	209.5
268.448	228.5
268.681	221.5
268.913	233.5
269.145	229.5
269.377	259.5
269.609	251.5
269.841	237.5
270.073	255.5
270.306	282.5
270.538	290.5
270.77	291.5
271.002	280.5
271.234	294.5
271.466	277.5
271.698	290.5
271.93	307.5
272.162	291.5
272.394	313.5
272.626	294.5
272.858	262.5
273.09	265.5
273.322	259.5
273.553	254.5
273.785	255.5
274.017	259.5
274.249	245.5
274.481	256.5
274.713	249.5
274.945	240.5
275.176	254.5
275.408	255.5
275.64	254.5
275.872	260.5
276.104	246.5
276.335	261.5
276.567	251.5
276.799	275.5
277.031	289.5
277.262	301.5
277.494	298.5
277.726	282.5
277.957	258.5
278.189	261.5
278.421	260.5
278.652	267.5
278.884	263.5
279.115	253.5
279.347	241.5
279.579	245.5
279.81	252.5
280.042	251.5
280.273	256.5
280.505	275.5
280.736	243.5
280.968	262.5
281.199	251.5
281.431	269.5
281.662	265.5
281.894	260.5
282.125	262.5
282.356	248.5
282.588	285.5
282.819	281.5
283.051	272.5
283.282	266.5
283.513	279.5
283.745	275.5
283.976	276.5
284.207	271.5
284.439	278.5
284.67	267.5
284.901	266.5
285.132	270.5
285.364	270.5
285.595	264.5
285.826	264.5
286.057	271.5
286.288	270.5
286.52	280.5
286.751	268.5
286.982	254.5
287.213	245.5
287.444	257.5
287.675	283.5
287.906	271.5
288.138	290.5
288.369	286.5
288.6	294.5
288.831	283.5
289.062	295.5
289.293	285.5
289.524	301.5
289.755	292.5
289.986	285.5
290.217	264.5
290.448	282.5
290.679	286.5
290.91	286.5
291.141	286.5
291.371	279.5
291.602	311.5
291.833	286.5
292.064	277.5
292.295	274.5
292.526	274.5
292.757	294.5
292.987	272.5
293.218	280.5
293.449	285.5
293.68	275.5
293.91	280.5
294.141	281.5
294.372	276.5
294.603	284.5
294.833	291.5
295.064	269.5
295.295	289.5
295.525	278.5
295.756	298.5
295.987	277.5
296.217	303.5
296.448	298.5
296.679	272.5
296.909	271.5
297.14	300.5
297.37	295.5
297.601	283.5
297.831	291.5
298.062	294.5
298.292	298.5
298.523	308.5
298.753	318.5
298.984	287.5
299.214	294.5
299.445	296.5
299.675	285.5
299.905	301.5
300.136	307.5
300.366	289.5
300.597	306.5
300.827	312.5
301.057	290.5
301.288	306.5
301.518	324.5
301.748	308.5
301.979	317.5
302.209	300.5
302.439	334.5
302.669	310.5
302.9	296.5
303.13	317.5
303.36	311.5
303.59	302.5
303.82	328.5
304.051	334.5
304.281	315.5
304.511	323.5
304.741	301.5
304.971	311.5
305.201	319.5
305.431	319.5
305.661	305.5
305.891	300.5
306.121	309.5
306.352	329.5
306.582	326.5
306.812	300.5
307.042	310.5
307.272	311.5
307.502	318.5
307.731	313.5
307.961	319.5
308.191	321.5
308.421	302.5
308.651	321.5
308.881	325.5
309.111	319.5
309.341	328.5
309.571	326.5
309.8	322.5
310.03	334.5
310.26	353.5
310.49	345.5
310.72	363.5
310.949	359.5
311.179	360.5
311.409	356.5
311.639	351.5
311.868	354.5
312.098	357.5
312.328	346.5
312.557	359.5
312.787	369.5
313.017	377.5
313.246	360.5
313.476	343.5
313.706	343.5
313.935	358.5
314.165	355.5
314.394	361.5
314.624	359.5
314.853	353.5
315.083	346.5
315.312	365.5
315.542	351.5
315.771	371.5
316.001	339.5
316.23	347.5
316.46	352.5
316.689	361.5
316.919	364.5
317.148	377.5
317.377	359.5
317.607	365.5
317.836	366.5
318.065	343.5
318.295	352.5
318.524	355.5
318.753	346.5
318.983	370.5
319.212	344.5
319.441	370.5
319.67	357.5
319.9	350.5
320.129	349.5
320.358	378.5
320.587	365.5
320.816	361.5
321.046	380.5
321.275	362.5
321.504	377.5
321.733	385.5
321.962	371.5
322.191	381.5
322.42	403.5
322.649	396.5
322.878	404.5
323.108	404.5
323.337	420.5
323.566	432.5
323.795	444.5
324.024	482.5
324.253	555.5
324.482	804.5
324.71	1181.5
324.939	1609.5
325.168	1358.5
325.397	740.5
325.626	542.5
325.855	483.5
326.084	445.5
326.313	425.5
326.542	433.5
326.77	510.5
326.999	570.5
327.228	733.5
327.457	1025.5
327.686	1162.5
327.914	842.5
328.143	584.5
328.372	502.5
328.6	474.5
328.829	472.5
329.058	498.5
329.287	491.5
329.515	466.5
329.744	451.5
329.972	447.5
330.201	455.5
330.43	469.5
330.658	497.5
330.887	484.5
331.115	477.5
331.344	444.5
331.572	423.5
331.801	439.5
332.03	446.5
332.258	435.5
332.486	410.5
332.715	406.5
332.943	394.5
333.172	412.5
333.4	408.5
333.629	404.5
333.857	423.5
334.085	447.5
334.314	447.5
334.542	449.5
334.771	479.5
334.999	438.5
335.227	428.5
335.455	411.5
335.684	411.5
335.912	403.5
336.14	421.5
336.369	397.5
336.597	423.5
336.825	404.5
337.053	392.5
337.281	376.5
337.51	388.5
337.738	406.5
337.966	411.5
338.194	396.5
338.422	403.5
338.65	412.5
338.878	412.5
339.106	398.5
339.334	400.5
339.562	411.5
339.79	386.5
340.018	373.5
340.246	376.5
340.474	409.5
340.702	384.5
340.93	380.5
341.158	386.5
341.386	383.5
341.614	394.5
341.842	398.5
342.07	379.5
342.298	401.5
342.526	393.5
342.754	372.5
342.981	379.5
343.209	379.5
343.437	378.5
343.665	385.5
343.893	399.5
344.12	385.5
344.348	360.5
344.576	389.5
344.804	393.5
345.031	389.5
345.259	424.5
345.487	389.5
345.714	392.5
345.942	395.5
346.17	378.5
346.397	369.5
346.625	378.5
346.853	377.5
347.08	366.5
347.308	360.5
347.535	377.5
347.763	379.5
347.99	379.5
348.218	382.5
348.445	374.5
348.673	362.5
348.9	373.5
349.128	377.5
349.355	354.5
349.583	374.5
349.81	353.5
350.037	371.5
350.265	355.5
350.492	347.5
350.72	356.5
350.947	369.5
351.174	365.5
351.402	393.5
351.629	372.5
351.856	381.5
352.083	380.5
352.311	373.5
352.538	387.5
352.765	364.5
352.992	391.5
353.22	355.5
353.447	356.5
353.674	366.5
353.901	370.5
354.128	369.5
354.355	372.5
354.583	363.5
354.81	346.5
355.037	334.5
355.264	350.5
355.491	345.5
355.718	356.5
355.945	348.5
356.172	333.5
356.399	336.5
356.626	341.5
356.853	345.5
357.08	344.5
357.307	341.5
357.534	353.5
357.761	338.5
357.988	325.5
358.215	360.5
358.441	350.5
358.668	334.5
358.895	339.5
359.122	342.5
359.349	351.5
359.576	359.5
359.802	356.5
360.029	377.5
360.256	386.5
360.483	377.5
360.709	369.5
360.936	347.5
361.163	373.5
361.39	349.5
361.616	355.5
361.843	346.5
362.07	369.5
362.296	356.5
362.523	359.5
362.749	363.5
362.976	336.5
363.203	365.5
363.429	352.5
363.656	334.5
363.882	353.5
364.109	341.5
364.335	358.5
364.562	340.5
364.788	343.5
365.015	346.5
365.241	354.5
365.468	356.5
365.694	350.5
365.92	355.5
366.147	338.5
366.373	349.5
366.599	340.5
366.826	347.5
367.052	333.5
367.278	349.5
367.505	353.5
367.731	346.5
367.957	348.5
368.184	331.5
368.41	360.5
368.636	357.5
368.862	345.5
369.089	353.5
369.315	343.5
369.541	325.5
369.767	335.5
369.993	344.5
370.219	353.5
370.445	350.5
370.672	343.5
370.898	348.5
371.124	358.5
371.35	334.5
371.576	343.5
371.802	354.5
372.028	339.5
372.254	341.5
372.48	348.5
372.706	336.5
372.932	340.5
373.158	351.5
373.384	349.5
373.61	349.5
373.835	344.5
374.061	347.5
374.287	345.5
374.513	337.5
374.739	362.5
374.965	349.5
375.191	352.5
375.416	374.5
375.642	333.5
375.868	354.5
376.094	361.5
376.319	349.5
376.545	333.5
376.771	331.5
376.997	328.5
377.222	334.5
377.448	353.5
377.674	336.5
377.899	318.5
378.125	326.5
378.35	335.5
378.576	324.5
378.802	319.5
379.027	337.5
379.253	336.5
379.478	353.5
379.704	334.5
379.929	346.5
380.155	350.5
380.38	346.5
380.606	327.5
380.831	325.5
381.057	342.5
381.282	338.5
381.507	338.5
381.733	334.5
381.958	321.5
382.184	334.5
382.409	339.5
382.634	327.5
382.86	343.5
383.085	345.5
383.31	338.5
383.535	354.5
383.761	344.5
383.986	347.5
384.211	351.5
384.436	344.5
384.662	364.5
384.887	348.5
385.112	345.5
385.337	357.5
385.562	364.5
385.787	342.5
386.013	355.5
386.238	358.5
386.463	366.5
386.688	374.5
386.913	361.5
387.138	355.5
387.363	373.5
387.588	362.5
387.813	357.5
388.038	348.5
388.263	360.5
388.488	352.5
388.713	350.5
388.938	364.5
389.163	360.5
389.387	365.5
389.612	351.5
389.837	351.5
390.062	356.5
390.287	354.5
390.512	355.5
390.736	349.5
390.961	340.5
391.186	363.5
391.411	356.5
391.636	355.5
391.86	365.5
392.085	376.5
392.31	354.5
392.534	364.5
392.759	373.5
392.984	358.5
393.208	367.5
393.433	377.5
393.658	364.5
393.882	350.5
394.107	340.5
394.331	364.5
394.556	356.5
394.78	354.5
395.005	364.5
395.229	358.5
395.454	366.5
395.678	359.5
395.903	394.5
396.127	385.5
396.352	394.5
396.576	386.5
396.801	376.5
397.025	372.5
397.249	350.5
397.474	361.5
397.698	375.5
397.922	385.5
398.147	385.5
398.371	412.5
398.595	383.5
398.82	396.5
399.044	392.5
399.268	413.5
399.492	442.5
399.717	450.5
399.941	469.5
400.165	482.5
400.389	471.5
400.613	436.5
400.837	424.5
401.062	407.5
401.286	393.5
401.51	395.5
401.734	413.5
401.958	395.5
402.182	400.5
402.406	408.5
402.63	402.5
402.854	392.5
403.078	406.5
403.302	394.5
403.526	405.5
403.75	413.5
403.974	420.5
404.198	408.5
404.422	420.5
404.645	385.5
404.869	408.5
405.093	460.5
405.317	460.5
405.541	471.5
405.765	449.5
405.988	424.5
406.212	405.5
406.436	430.5
406.66	463.5
406.883	435.5
407.107	443.5
407.331	491.5
407.555	514.5
407.778	540.5
408.002	470.5
408.226	439.5
408.449	449.5
408.673	424.5
408.896	457.5
409.12	478.5
409.344	445.5
409.567	422.5
409.791	430.5
410.014	410.5
410.238	395.5
410.461	413.5
410.685	435.5
410.908	428.5
411.132	464.5
411.355	429.5
411.578	452.5
411.802	425.5
412.025	407.5
412.249	410.5
412.472	414.5
412.695	442.5
412.919	444.5
413.142	412.5
413.365	402.5
413.589	394.5
413.812	387.5
414.035	379.5
414.258	395.5
414.482	373.5
414.705	386.5
414.928	389.5
415.151	397.5
415.374	370.5
415.597	381.5
415.821	392.5
416.044	374.5
416.267	385.5
416.49	376.5
416.713	383.5
416.936	375.5
417.159	383.5
417.382	373.5
417.605	383.5
417.828	405.5
418.051	382.5
418.274	399.5
418.497	383.5
418.72	378.5
418.943	388.5
419.166	401.5
419.389	409.5
419.611	420.5
419.834	386.5
420.057	398.5
420.28	393.5
420.503	412.5
420.726	408.5
420.948	423.5
421.171	430.5
421.394	469.5
421.617	412.5
421.839	410.5
422.062	391.5
422.285	391.5
422.507	462.5
422.73	512.5
422.953	460.5
423.175	416.5
423.398	417.5
423.621	416.5
423.843	423.5
424.066	443.5
424.288	417.5
424.511	425.5
424.733	476.5
424.956	564.5
425.178	511.5
425.401	483.5
425.623	522.5
425.846	452.5
426.068	417.5
426.291	411.5
426.513	417.5
426.735	431.5
426.958	445.5
427.18	523.5
427.402	607.5
427.625	638.5
427.847	574.5
428.069	493.5
428.292	435.5
428.514	410.5
428.736	407.5
428.958	389.5
429.181	385.5
429.403	403.5
429.625	419.5
429.847	411.5
430.069	477.5
430.292	467.5
430.514	402.5
430.736	389.5
430.958	390.5
431.18	375.5
431.402	378.5
431.624	390.5
431.846	363.5
432.068	359.5
432.29	365.5
432.512	379.5
432.734	375.5
432.956	372.5
433.178	382.5
433.4	375.5
433.622	359.5
433.844	379.5
434.066	391.5
434.287	378.5
434.509	369.5
434.731	373.5
434.953	389.5
435.175	391.5
435.397	408.5
435.618	405.5
435.84	429.5
436.062	510.5
436.284	579.5
436.505	465.5
436.727	418.5
436.949	413.5
437.17	411.5
437.392	416.5
437.614	412.5
437.835	404.5
438.057	482.5
438.278	556.5
438.5	568.5
438.721	622.5
438.943	595.5
439.165	477.5
439.386	437.5
439.608	428.5
439.829	435.5
440.05	440.5
440.272	472.5
440.493	462.5
440.715	431.5
440.936	405.5
441.158	393.5
441.379	403.5
441.6	389.5
441.822	417.5
442.043	460.5
442.264	532.5
442.486	522.5
442.707	461.5
442.928	441.5
443.149	437.5
443.371	462.5
443.592	485.5
443.813	547.5
444.034	596.5
444.255	496.5
444.476	458.5
444.698	433.5
444.919	451.5
445.14	566.5
445.361	487.5
445.582	454.5
445.803	497.5
446.024	561.5
446.245	573.5
446.466	538.5
446.687	464.5
446.908	453.5
447.129	412.5
447.35	407.5
447.571	391.5
447.792	387.5
448.013	388.5
448.234	418.5
448.455	463.5
448.675	544.5
448.896	594.5
449.117	507.5
449.338	470.5
449.559	584.5
449.779	630.5
450	503.5
450.221	447.5
450.442	406.5
450.662	377.5
450.883	379.5
451.104	397.5
451.324	398.5
451.545	374.5
451.766	358.5
451.986	351.5
452.207	364.5
452.428	344.5
452.648	352.5
452.869	367.5
453.089	348.5
453.31	384.5
453.53	353.5
453.751	354.5
453.971	335.5
454.192	344.5
454.412	346.5
454.633	343.5
454.853	355.5
455.073	335.5
455.294	345.5
455.514	415.5
455.734	402.5
455.955	349.5
456.175	344.5
456.395	325.5
456.616	309.5
456.836	321.5
457.056	329.5
457.276	329.5
457.497	324.5
457.717	329.5
457.937	329.5
458.157	347.5
458.377	333.5
458.598	353.5
458.818	382.5
459.038	413.5
459.258	449.5
459.478	398.5
459.698	386.5
459.918	383.5
460.138	370.5
460.358	372.5
460.578	379.5
460.798	373.5
461.018	386.5
461.238	372.5
461.458	376.5
461.678	367.5
461.898	381.5
462.118	379.5
462.338	383.5
462.558	391.5
462.777	395.5
462.997	399.5
463.217	382.5
463.437	408.5
463.657	398.5
463.876	384.5
464.096	400.5
464.316	392.5
464.536	391.5
464.755	399.5
464.975	377.5
465.195	397.5
465.414	449.5
465.634	388.5
465.854	373.5
466.073	361.5
466.293	377.5
466.512	375.5
466.732	347.5
466.951	383.5
467.171	349.5
467.391	346.5
467.61	354.5
467.829	373.5
468.049	351.5
468.268	360.5
468.488	347.5
468.707	347.5
468.927	351.5
469.146	357.5
469.365	362.5
469.585	362.5
469.804	355.5
470.023	350.5
470.243	348.5
470.462	361.5
470.681	369.5
470.901	376.5
471.12	358.5
471.339	381.5
471.558	361.5
471.777	363.5
471.997	362.5
472.216	370.5
472.435	356.5
472.654	379.5
472.873	337.5
473.092	345.5
473.311	362.5
473.53	376.5
473.749	381.5
473.968	400.5
474.187	467.5
474.406	486.5
474.625	410.5
474.844	365.5
475.063	369.5
475.282	354.5
475.501	356.5
475.72	375.5
475.939	385.5
476.158	372.5
476.377	371.5
476.596	372.5
476.814	373.5
477.033	367.5
477.252	362.5
477.471	377.5
477.69	385.5
477.908	408.5
478.127	386.5
478.346	402.5
478.564	399.5
478.783	410.5
479.002	385.5
479.22	408.5
479.439	399.5
479.658	432.5
479.876	428.5
480.095	420.5
480.313	444.5
480.532	446.5
480.751	438.5
480.969	422.5
481.188	470.5
481.406	463.5
481.624	452.5
481.843	433.5
482.061	423.5
482.28	422.5
482.498	417.5
482.717	425.5
482.935	394.5
483.153	411.5
483.372	429.5
483.59	428.5
483.808	406.5
484.027	427.5
484.245	406.5
484.463	409.5
484.681	441.5
484.9	398.5
485.118	415.5
485.336	432.5
485.554	413.5
485.772	423.5
485.99	448.5
486.209	410.5
486.427	434.5
486.645	429.5
486.863	440.5
487.081	441.5
487.299	449.5
487.517	431.5
487.735	439.5
487.953	459.5
488.171	459.5
488.389	457.5
488.607	435.5
488.825	441.5
489.043	458.5
489.261	467.5
489.479	467.5
489.696	441.5
489.914	462.5
490.132	465.5
490.35	465.5
490.568	475.5
490.786	497.5
491.003	477.5
491.221	497.5
491.439	505.5
491.657	501.5
491.874	495.5
492.092	520.5
492.31	493.5
492.527	503.5
492.745	510.5
492.963	522.5
493.18	533.5
493.398	549.5
493.615	511.5
493.833	531.5
494.05	524.5
494.268	527.5
494.485	511.5
494.703	517.5
494.92	511.5
495.138	537.5
495.355	537.5
495.573	514.5
495.79	527.5
496.008	545.5
496.225	499.5
496.442	509.5
496.66	529.5
496.877	509.5
497.094	529.5
497.312	532.5
497.529	548.5
497.746	550.5
497.963	562.5
498.181	573.5
498.398	556.5
498.615	568.5
498.832	597.5
499.049	596.5
499.267	587.5
499.484	618.5
499.701	643.5
499.918	653.5
500.135	679.5
500.352	707.5
500.569	698.5
500.786	709.5
501.003	686.5
501.22	689.5
501.437	683.5
501.654	672.5
501.871	648.5
502.088	639.5
502.305	599.5
502.522	587.5
502.739	570.5
502.956	574.5
503.172	562.5
503.389	559.5
503.606	534.5
503.823	527.5
504.04	527.5
504.256	536.5
504.473	530.5
504.69	529.5
504.907	539.5
505.123	503.5
505.34	504.5
505.557	497.5
505.773	493.5
505.99	508.5
506.207	503.5
506.423	502.5
506.64	500.5
506.856	490.5
507.073	493.5
507.289	478.5
507.506	475.5
507.722	466.5
507.939	482.5
508.155	484.5
508.372	460.5
508.588	479.5
508.805	461.5
509.021	460.5
509.238	495.5
509.454	501.5
509.67	471.5
509.887	476.5
510.103	453.5
510.319	477.5
510.536	532.5
510.752	791.5
510.968	639.5
511.184	470.5
511.401	471.5
511.617	460.5
511.833	442.5
512.049	438.5
512.265	451.5
512.481	447.5
512.698	437.5
512.914	410.5
513.13	450.5
513.346	426.5
513.562	439.5
513.778	434.5
513.994	460.5
514.21	453.5
514.426	457.5
514.642	462.5
514.858	486.5
515.074	517.5
515.29	585.5
515.506	790.5
515.721	685.5
515.937	492.5
516.153	464.5
516.369	463.5
516.585	445.5
516.801	459.5
517.016	479.5
517.232	463.5
517.448	455.5
517.664	469.5
517.879	454.5
518.095	458.5
518.311	432.5
518.527	448.5
518.742	449.5
518.958	431.5
519.173	451.5
519.389	446.5
519.605	444.5
519.82	431.5
520.036	455.5
