Data from 1971.PennyLincolnUp.Lamp.En5.5.200Scan.071719.P1._HRD10591_15-19-11-841.txt Node
Date: Thu Jul 18 15:19:11 EDT 2019
User: cochatt
Spectrometer: HR+D1059
Trigger mode: 1
Integration Time (sec): 1.000000E-1
Scans to average: 1
Electric dark correction enabled: true
Nonlinearity correction enabled: false
Boxcar width: 0
XAxis mode: Wavelengths
Number of Pixels in Spectrum: 2048
>>>>>Begin Spectral Data<<<<<
223.165	-9.88
223.4	-9.88
223.635	-9.88
223.869	-18.88
224.104	-12.88
224.338	-0.88
224.573	-4.88
224.808	-27.88
225.042	-7.88
225.277	-13.88
225.511	-1.88
225.746	-1.88
225.98	12.12
226.215	5.12
226.449	10.12
226.683	12.12
226.918	27.12
227.152	34.12
227.387	33.12
227.621	34.12
227.856	52.12
228.09	39.12
228.324	43.12
228.559	66.12
228.793	78.12
229.027	93.12
229.262	114.12
229.496	120.12
229.73	134.12
229.964	144.12
230.199	120.12
230.433	107.12
230.667	112.12
230.901	116.12
231.136	105.12
231.37	117.12
231.604	112.12
231.838	113.12
232.072	109.12
232.306	120.12
232.541	106.12
232.775	128.12
233.009	124.12
233.243	107.12
233.477	108.12
233.711	107.12
233.945	123.12
234.179	101.12
234.413	111.12
234.647	122.12
234.881	117.12
235.115	103.12
235.349	114.12
235.583	116.12
235.817	125.12
236.051	121.12
236.285	130.12
236.519	124.12
236.753	119.12
236.987	126.12
237.221	168.12
237.455	211.12
237.689	171.12
237.922	141.12
238.156	134.12
238.39	144.12
238.624	124.12
238.858	120.12
239.091	138.12
239.325	149.12
239.559	130.12
239.793	134.12
240.027	135.12
240.26	143.12
240.494	142.12
240.728	146.12
240.961	140.12
241.195	138.12
241.429	150.12
241.662	127.12
241.896	134.12
242.13	134.12
242.363	128.12
242.597	115.12
242.83	134.12
243.064	127.12
243.298	138.12
243.531	128.12
243.765	140.12
243.998	140.12
244.232	138.12
244.465	139.12
244.699	138.12
244.932	144.12
245.166	143.12
245.399	151.12
245.633	157.12
245.866	161.12
246.099	148.12
246.333	155.12
246.566	148.12
246.8	145.12
247.033	160.12
247.266	156.12
247.5	153.12
247.733	154.12
247.966	171.12
248.2	182.12
248.433	166.12
248.666	162.12
248.899	181.12
249.133	187.12
249.366	212.12
249.599	211.12
249.832	167.12
250.066	180.12
250.299	189.12
250.532	186.12
250.765	197.12
250.998	222.12
251.231	208.12
251.465	214.12
251.698	213.12
251.931	195.12
252.164	198.12
252.397	189.12
252.63	209.12
252.863	201.12
253.096	222.12
253.329	242.12
253.562	227.12
253.795	238.12
254.028	218.12
254.261	219.12
254.494	222.12
254.727	256.12
254.96	291.12
255.193	256.12
255.426	242.12
255.659	237.12
255.892	228.12
256.124	228.12
256.357	223.12
256.59	250.12
256.823	223.12
257.056	214.12
257.289	198.12
257.521	220.12
257.754	219.12
257.987	218.12
258.22	212.12
258.452	204.12
258.685	204.12
258.918	219.12
259.151	222.12
259.383	205.12
259.616	219.12
259.849	218.12
260.081	227.12
260.314	257.12
260.547	260.12
260.779	241.12
261.012	246.12
261.244	229.12
261.477	210.12
261.71	227.12
261.942	231.12
262.175	243.12
262.407	222.12
262.64	218.12
262.872	204.12
263.105	218.12
263.337	225.12
263.57	214.12
263.802	203.12
264.035	233.12
264.267	208.12
264.499	221.12
264.732	222.12
264.964	216.12
265.197	226.12
265.429	221.12
265.661	219.12
265.894	222.12
266.126	225.12
266.358	224.12
266.591	227.12
266.823	235.12
267.055	230.12
267.287	234.12
267.52	218.12
267.752	210.12
267.984	236.12
268.216	241.12
268.448	237.12
268.681	235.12
268.913	244.12
269.145	254.12
269.377	278.12
269.609	269.12
269.841	274.12
270.073	284.12
270.306	302.12
270.538	342.12
270.77	311.12
271.002	309.12
271.234	297.12
271.466	281.12
271.698	308.12
271.93	306.12
272.162	303.12
272.394	312.12
272.626	306.12
272.858	303.12
273.09	286.12
273.322	276.12
273.553	279.12
273.785	276.12
274.017	280.12
274.249	277.12
274.481	285.12
274.713	267.12
274.945	278.12
275.176	285.12
275.408	266.12
275.64	262.12
275.872	265.12
276.104	283.12
276.335	257.12
276.567	274.12
276.799	277.12
277.031	277.12
277.262	310.12
277.494	317.12
277.726	298.12
277.957	290.12
278.189	279.12
278.421	269.12
278.652	270.12
278.884	279.12
279.115	286.12
279.347	267.12
279.579	267.12
279.81	270.12
280.042	266.12
280.273	277.12
280.505	277.12
280.736	261.12
280.968	276.12
281.199	259.12
281.431	269.12
281.662	288.12
281.894	284.12
282.125	281.12
282.356	292.12
282.588	292.12
282.819	298.12
283.051	288.12
283.282	278.12
283.513	284.12
283.745	270.12
283.976	281.12
284.207	283.12
284.439	291.12
284.67	279.12
284.901	269.12
285.132	292.12
285.364	296.12
285.595	299.12
285.826	291.12
286.057	276.12
286.288	284.12
286.52	284.12
286.751	275.12
286.982	285.12
287.213	279.12
287.444	296.12
287.675	312.12
287.906	278.12
288.138	299.12
288.369	302.12
288.6	304.12
288.831	288.12
289.062	292.12
289.293	281.12
289.524	279.12
289.755	299.12
289.986	315.12
290.217	284.12
290.448	292.12
290.679	295.12
290.91	288.12
291.141	288.12
291.371	297.12
291.602	304.12
291.833	294.12
292.064	268.12
292.295	282.12
292.526	299.12
292.757	282.12
292.987	293.12
293.218	286.12
293.449	300.12
293.68	283.12
293.91	299.12
294.141	294.12
294.372	284.12
294.603	287.12
294.833	293.12
295.064	290.12
295.295	295.12
295.525	292.12
295.756	306.12
295.987	302.12
296.217	325.12
296.448	335.12
296.679	304.12
296.909	288.12
297.14	309.12
297.37	312.12
297.601	306.12
297.831	306.12
298.062	299.12
298.292	302.12
298.523	318.12
298.753	313.12
298.984	299.12
299.214	317.12
299.445	320.12
299.675	300.12
299.905	298.12
300.136	303.12
300.366	314.12
300.597	318.12
300.827	294.12
301.057	324.12
301.288	325.12
301.518	329.12
301.748	302.12
301.979	326.12
302.209	314.12
302.439	315.12
302.669	318.12
302.9	331.12
303.13	314.12
303.36	317.12
303.59	320.12
303.82	330.12
304.051	332.12
304.281	320.12
304.511	332.12
304.741	336.12
304.971	346.12
305.201	315.12
305.431	324.12
305.661	330.12
305.891	307.12
306.121	319.12
306.352	338.12
306.582	330.12
306.812	330.12
307.042	335.12
307.272	316.12
307.502	340.12
307.731	324.12
307.961	342.12
308.191	321.12
308.421	336.12
308.651	358.12
308.881	334.12
309.111	339.12
309.341	332.12
309.571	356.12
309.8	366.12
310.03	375.12
310.26	375.12
310.49	361.12
310.72	396.12
310.949	388.12
311.179	391.12
311.409	374.12
311.639	359.12
311.868	366.12
312.098	375.12
312.328	392.12
312.557	383.12
312.787	395.12
313.017	399.12
313.246	379.12
313.476	370.12
313.706	397.12
313.935	388.12
314.165	395.12
314.394	394.12
314.624	395.12
314.853	368.12
315.083	365.12
315.312	359.12
315.542	357.12
315.771	376.12
316.001	372.12
316.23	367.12
316.46	384.12
316.689	372.12
316.919	387.12
317.148	376.12
317.377	378.12
317.607	392.12
317.836	359.12
318.065	398.12
318.295	380.12
318.524	377.12
318.753	393.12
318.983	359.12
319.212	390.12
319.441	372.12
319.67	383.12
319.9	373.12
320.129	366.12
320.358	378.12
320.587	388.12
320.816	397.12
321.046	404.12
321.275	416.12
321.504	395.12
321.733	404.12
321.962	389.12
322.191	411.12
322.42	435.12
322.649	441.12
322.878	455.12
323.108	443.12
323.337	477.12
323.566	478.12
323.795	516.12
324.024	554.12
324.253	679.12
324.482	944.12
324.71	1359.12
324.939	1868.12
325.168	1592.12
325.397	867.12
325.626	588.12
325.855	540.12
326.084	494.12
326.313	500.12
326.542	512.12
326.77	520.12
326.999	613.12
327.228	858.12
327.457	1199.12
327.686	1362.12
327.914	924.12
328.143	649.12
328.372	572.12
328.6	552.12
328.829	529.12
329.058	552.12
329.287	511.12
329.515	511.12
329.744	499.12
329.972	502.12
330.201	527.12
330.43	513.12
330.658	544.12
330.887	557.12
331.115	548.12
331.344	487.12
331.572	480.12
331.801	476.12
332.03	472.12
332.258	444.12
332.486	431.12
332.715	428.12
332.943	444.12
333.172	460.12
333.4	446.12
333.629	479.12
333.857	477.12
334.085	488.12
334.314	484.12
334.542	501.12
334.771	486.12
334.999	480.12
335.227	447.12
335.455	436.12
335.684	446.12
335.912	420.12
336.14	440.12
336.369	433.12
336.597	421.12
336.825	444.12
337.053	428.12
337.281	424.12
337.51	401.12
337.738	425.12
337.966	424.12
338.194	427.12
338.422	424.12
338.65	426.12
338.878	414.12
339.106	393.12
339.334	408.12
339.562	402.12
339.79	402.12
340.018	402.12
340.246	419.12
340.474	415.12
340.702	424.12
340.93	429.12
341.158	418.12
341.386	397.12
341.614	418.12
341.842	398.12
342.07	415.12
342.298	400.12
342.526	398.12
342.754	404.12
342.981	390.12
343.209	389.12
343.437	420.12
343.665	390.12
343.893	408.12
344.12	408.12
344.348	401.12
344.576	424.12
344.804	410.12
345.031	414.12
345.259	406.12
345.487	422.12
345.714	407.12
345.942	403.12
346.17	415.12
346.397	396.12
346.625	387.12
346.853	389.12
347.08	390.12
347.308	409.12
347.535	399.12
347.763	400.12
347.99	400.12
348.218	411.12
348.445	400.12
348.673	398.12
348.9	395.12
349.128	391.12
349.355	405.12
349.583	396.12
349.81	391.12
350.037	376.12
350.265	384.12
350.492	372.12
350.72	369.12
350.947	372.12
351.174	382.12
351.402	384.12
351.629	394.12
351.856	382.12
352.083	416.12
352.311	402.12
352.538	407.12
352.765	397.12
352.992	399.12
353.22	398.12
353.447	395.12
353.674	408.12
353.901	379.12
354.128	379.12
354.355	376.12
354.583	363.12
354.81	372.12
355.037	361.12
355.264	355.12
355.491	360.12
355.718	351.12
355.945	362.12
356.172	350.12
356.399	356.12
356.626	350.12
356.853	364.12
357.08	356.12
357.307	350.12
357.534	355.12
357.761	354.12
357.988	375.12
358.215	359.12
358.441	370.12
358.668	380.12
358.895	358.12
359.122	328.12
359.349	373.12
359.576	392.12
359.802	397.12
360.029	398.12
360.256	431.12
360.483	412.12
360.709	394.12
360.936	371.12
361.163	376.12
361.39	375.12
361.616	379.12
361.843	380.12
362.07	375.12
362.296	356.12
362.523	381.12
362.749	376.12
362.976	372.12
363.203	371.12
363.429	360.12
363.656	372.12
363.882	381.12
364.109	375.12
364.335	358.12
364.562	374.12
364.788	363.12
365.015	359.12
365.241	343.12
365.468	363.12
365.694	371.12
365.92	363.12
366.147	354.12
366.373	367.12
366.599	346.12
366.826	346.12
367.052	375.12
367.278	368.12
367.505	357.12
367.731	357.12
367.957	370.12
368.184	366.12
368.41	375.12
368.636	378.12
368.862	372.12
369.089	362.12
369.315	360.12
369.541	359.12
369.767	374.12
369.993	367.12
370.219	363.12
370.445	352.12
370.672	357.12
370.898	362.12
371.124	364.12
371.35	350.12
371.576	354.12
371.802	360.12
372.028	360.12
372.254	375.12
372.48	354.12
372.706	342.12
372.932	373.12
373.158	351.12
373.384	348.12
373.61	354.12
373.835	353.12
374.061	352.12
374.287	374.12
374.513	357.12
374.739	364.12
374.965	380.12
375.191	356.12
375.416	358.12
375.642	372.12
375.868	358.12
376.094	354.12
376.319	353.12
376.545	336.12
376.771	336.12
376.997	348.12
377.222	344.12
377.448	360.12
377.674	363.12
377.899	346.12
378.125	339.12
378.35	331.12
378.576	338.12
378.802	342.12
379.027	345.12
379.253	366.12
379.478	350.12
379.704	353.12
379.929	366.12
380.155	341.12
380.38	334.12
380.606	361.12
380.831	334.12
381.057	363.12
381.282	342.12
381.507	367.12
381.733	347.12
381.958	349.12
382.184	336.12
382.409	336.12
382.634	362.12
382.86	350.12
383.085	324.12
383.31	359.12
383.535	334.12
383.761	349.12
383.986	373.12
384.211	347.12
384.436	370.12
384.662	338.12
384.887	353.12
385.112	374.12
385.337	375.12
385.562	354.12
385.787	358.12
386.013	392.12
386.238	374.12
386.463	362.12
386.688	378.12
386.913	366.12
387.138	372.12
387.363	361.12
387.588	364.12
387.813	350.12
388.038	366.12
388.263	374.12
388.488	383.12
388.713	369.12
388.938	354.12
389.163	356.12
389.387	358.12
389.612	370.12
389.837	360.12
390.062	369.12
390.287	397.12
390.512	365.12
390.736	362.12
390.961	377.12
391.186	352.12
391.411	370.12
391.636	373.12
391.86	393.12
392.085	383.12
392.31	362.12
392.534	362.12
392.759	393.12
392.984	370.12
393.208	373.12
393.433	347.12
393.658	363.12
393.882	373.12
394.107	376.12
394.331	377.12
394.556	359.12
394.78	363.12
395.005	383.12
395.229	368.12
395.454	370.12
395.678	382.12
395.903	393.12
396.127	408.12
396.352	416.12
396.576	399.12
396.801	398.12
397.025	381.12
397.249	376.12
397.474	390.12
397.698	398.12
397.922	402.12
398.147	394.12
398.371	407.12
398.595	388.12
398.82	424.12
399.044	410.12
399.268	422.12
399.492	453.12
399.717	478.12
399.941	476.12
400.165	501.12
400.389	510.12
400.613	468.12
400.837	451.12
401.062	420.12
401.286	404.12
401.51	430.12
401.734	409.12
401.958	408.12
402.182	406.12
402.406	418.12
402.63	410.12
402.854	428.12
403.078	396.12
403.302	426.12
403.526	440.12
403.75	405.12
403.974	420.12
404.198	416.12
404.422	407.12
404.645	424.12
404.869	425.12
405.093	428.12
405.317	468.12
405.541	517.12
405.765	455.12
405.988	447.12
406.212	455.12
406.436	460.12
406.66	493.12
406.883	443.12
407.107	475.12
407.331	510.12
407.555	552.12
407.778	538.12
408.002	516.12
408.226	464.12
408.449	458.12
408.673	469.12
408.896	498.12
409.12	505.12
409.344	499.12
409.567	424.12
409.791	442.12
410.014	421.12
410.238	410.12
410.461	412.12
410.685	425.12
410.908	436.12
411.132	461.12
411.355	477.12
411.578	455.12
411.802	429.12
412.025	415.12
412.249	457.12
412.472	422.12
412.695	454.12
412.919	469.12
413.142	414.12
413.365	422.12
413.589	402.12
413.812	393.12
414.035	386.12
414.258	399.12
414.482	395.12
414.705	398.12
414.928	412.12
415.151	390.12
415.374	391.12
415.597	407.12
415.821	386.12
416.044	395.12
416.267	400.12
416.49	402.12
416.713	386.12
416.936	391.12
417.159	401.12
417.382	402.12
417.605	414.12
417.828	422.12
418.051	423.12
418.274	410.12
418.497	415.12
418.72	404.12
418.943	396.12
419.166	389.12
419.389	398.12
419.611	434.12
419.834	424.12
420.057	426.12
420.28	436.12
420.503	414.12
420.726	414.12
420.948	422.12
421.171	472.12
421.394	487.12
421.617	435.12
421.839	430.12
422.062	429.12
422.285	448.12
422.507	464.12
422.73	521.12
422.953	504.12
423.175	452.12
423.398	460.12
423.621	442.12
423.843	473.12
424.066	464.12
424.288	450.12
424.511	460.12
424.733	526.12
424.956	560.12
425.178	537.12
425.401	541.12
425.623	565.12
425.846	476.12
426.068	454.12
426.291	432.12
426.513	446.12
426.735	467.12
426.958	488.12
427.18	569.12
427.402	670.12
427.625	686.12
427.847	625.12
428.069	551.12
428.292	501.12
428.514	448.12
428.736	422.12
428.958	424.12
429.181	408.12
429.403	400.12
429.625	423.12
429.847	461.12
430.069	478.12
430.292	492.12
430.514	426.12
430.736	399.12
430.958	414.12
431.18	394.12
431.402	378.12
431.624	381.12
431.846	395.12
432.068	384.12
432.29	386.12
432.512	390.12
432.734	385.12
432.956	392.12
433.178	397.12
433.4	411.12
433.622	403.12
433.844	375.12
434.066	377.12
434.287	383.12
434.509	387.12
434.731	398.12
434.953	412.12
435.175	416.12
435.397	430.12
435.618	440.12
435.84	476.12
436.062	545.12
436.284	606.12
436.505	518.12
436.727	463.12
436.949	428.12
437.17	405.12
437.392	409.12
437.614	413.12
437.835	458.12
438.057	523.12
438.278	594.12
438.5	619.12
438.721	652.12
438.943	612.12
439.165	503.12
439.386	464.12
439.608	457.12
439.829	452.12
440.05	466.12
440.272	521.12
440.493	487.12
440.715	448.12
440.936	427.12
441.158	410.12
441.379	418.12
441.6	438.12
441.822	455.12
442.043	467.12
442.264	546.12
442.486	564.12
442.707	475.12
442.928	455.12
443.149	460.12
443.371	471.12
443.592	527.12
443.813	587.12
444.034	612.12
444.255	541.12
444.476	459.12
444.698	437.12
444.919	450.12
445.14	582.12
445.361	501.12
445.582	485.12
445.803	524.12
446.024	599.12
446.245	592.12
446.466	550.12
446.687	498.12
446.908	456.12
447.129	425.12
447.35	415.12
447.571	417.12
447.792	415.12
448.013	400.12
448.234	437.12
448.455	458.12
448.675	557.12
448.896	646.12
449.117	561.12
449.338	535.12
449.559	611.12
449.779	682.12
450	535.12
450.221	456.12
450.442	412.12
450.662	399.12
450.883	402.12
451.104	430.12
451.324	408.12
451.545	396.12
451.766	384.12
451.986	372.12
452.207	371.12
452.428	375.12
452.648	391.12
452.869	377.12
453.089	380.12
453.31	384.12
453.53	382.12
453.751	367.12
453.971	386.12
454.192	384.12
454.412	378.12
454.633	350.12
454.853	348.12
455.073	364.12
455.294	383.12
455.514	436.12
455.734	434.12
455.955	352.12
456.175	351.12
456.395	329.12
456.616	337.12
456.836	354.12
457.056	342.12
457.276	344.12
457.497	356.12
457.717	346.12
457.937	345.12
458.157	339.12
458.377	339.12
458.598	375.12
458.818	412.12
459.038	461.12
459.258	454.12
459.478	419.12
459.698	379.12
459.918	381.12
460.138	349.12
460.358	391.12
460.578	390.12
460.798	375.12
461.018	394.12
461.238	387.12
461.458	374.12
461.678	376.12
461.898	395.12
462.118	384.12
462.338	388.12
462.558	402.12
462.777	398.12
462.997	410.12
463.217	401.12
463.437	415.12
463.657	411.12
463.876	398.12
464.096	390.12
464.316	401.12
464.536	430.12
464.755	422.12
464.975	397.12
465.195	429.12
465.414	479.12
465.634	429.12
465.854	411.12
466.073	370.12
466.293	391.12
466.512	390.12
466.732	355.12
466.951	370.12
467.171	374.12
467.391	364.12
467.61	396.12
467.829	408.12
468.049	396.12
468.268	390.12
468.488	359.12
468.707	368.12
468.927	373.12
469.146	351.12
469.365	358.12
469.585	387.12
469.804	365.12
470.023	369.12
470.243	360.12
470.462	383.12
470.681	394.12
470.901	388.12
471.12	374.12
471.339	390.12
471.558	367.12
471.777	393.12
471.997	379.12
472.216	378.12
472.435	388.12
472.654	411.12
472.873	367.12
473.092	366.12
473.311	393.12
473.53	392.12
473.749	390.12
473.968	422.12
474.187	519.12
474.406	532.12
474.625	434.12
474.844	398.12
475.063	414.12
475.282	368.12
475.501	379.12
475.72	378.12
475.939	384.12
476.158	406.12
476.377	385.12
476.596	382.12
476.814	395.12
477.033	384.12
477.252	387.12
477.471	393.12
477.69	400.12
477.908	400.12
478.127	423.12
478.346	395.12
478.564	416.12
478.783	404.12
479.002	427.12
479.22	423.12
479.439	438.12
479.658	428.12
479.876	443.12
480.095	453.12
480.313	473.12
480.532	454.12
480.751	455.12
480.969	461.12
481.188	493.12
481.406	499.12
481.624	463.12
481.843	451.12
482.061	463.12
482.28	444.12
482.498	454.12
482.717	415.12
482.935	439.12
483.153	444.12
483.372	450.12
483.59	444.12
483.808	439.12
484.027	444.12
484.245	432.12
484.463	439.12
484.681	462.12
484.9	447.12
485.118	431.12
485.336	436.12
485.554	451.12
485.772	428.12
485.99	451.12
486.209	441.12
486.427	448.12
486.645	457.12
486.863	466.12
487.081	478.12
487.299	450.12
487.517	461.12
487.735	468.12
487.953	461.12
488.171	464.12
488.389	464.12
488.607	480.12
488.825	469.12
489.043	478.12
489.261	490.12
489.479	470.12
489.696	468.12
489.914	473.12
490.132	470.12
490.35	483.12
490.568	491.12
490.786	504.12
491.003	523.12
491.221	534.12
491.439	522.12
491.657	524.12
491.874	519.12
492.092	536.12
492.31	558.12
492.527	524.12
492.745	536.12
492.963	535.12
493.18	525.12
493.398	539.12
493.615	551.12
493.833	564.12
494.05	550.12
494.268	568.12
494.485	549.12
494.703	543.12
494.92	539.12
495.138	553.12
495.355	564.12
495.573	553.12
495.79	559.12
496.008	555.12
496.225	559.12
496.442	544.12
496.66	539.12
496.877	551.12
497.094	542.12
497.312	555.12
497.529	583.12
497.746	575.12
497.963	585.12
498.181	589.12
498.398	618.12
498.615	596.12
498.832	621.12
499.049	621.12
499.267	640.12
499.484	648.12
499.701	654.12
499.918	662.12
500.135	685.12
500.352	732.12
500.569	724.12
500.786	743.12
501.003	695.12
501.22	708.12
501.437	679.12
501.654	695.12
501.871	664.12
