Data from 1971.PennyLincolnUp.Lamp.En5.5.200Scan.071719.P1.Scan 2. Changed Angle._HRD10591_15-23-42-842.txt Node
Date: Thu Jul 18 15:23:42 EDT 2019
User: cochatt
Spectrometer: HR+D1059
Trigger mode: 1
Integration Time (sec): 1.000000E-1
Scans to average: 1
Electric dark correction enabled: true
Nonlinearity correction enabled: false
Boxcar width: 0
XAxis mode: Wavelengths
Number of Pixels in Spectrum: 2048
>>>>>Begin Spectral Data<<<<<
223.165	-9.88
223.4	-9.88
223.635	-9.88
223.869	-14.88
224.104	-34.88
224.338	-13.88
224.573	-22.88
224.808	7.12
225.042	7.12
225.277	-10.88
225.511	-14.88
225.746	12.12
225.98	10.12
226.215	7.12
226.449	14.12
226.683	7.12
226.918	20.12
227.152	37.12
227.387	41.12
227.621	32.12
227.856	39.12
228.09	42.12
228.324	52.12
228.559	52.12
228.793	59.12
229.027	102.12
229.262	129.12
229.496	126.12
229.73	163.12
229.964	176.12
230.199	143.12
230.433	122.12
230.667	130.12
230.901	128.12
231.136	121.12
231.37	117.12
231.604	113.12
231.838	127.12
232.072	110.12
232.306	111.12
232.541	114.12
232.775	128.12
233.009	126.12
233.243	132.12
233.477	116.12
233.711	129.12
233.945	122.12
234.179	128.12
234.413	129.12
234.647	140.12
234.881	118.12
235.115	116.12
235.349	136.12
235.583	126.12
235.817	132.12
236.051	140.12
236.285	131.12
236.519	156.12
236.753	134.12
236.987	162.12
237.221	214.12
237.455	286.12
237.689	223.12
237.922	160.12
238.156	149.12
238.39	147.12
238.624	131.12
238.858	134.12
239.091	124.12
239.325	127.12
239.559	136.12
239.793	140.12
240.027	141.12
240.26	146.12
240.494	174.12
240.728	151.12
240.961	166.12
241.195	152.12
241.429	152.12
241.662	156.12
241.896	136.12
242.13	148.12
242.363	143.12
242.597	142.12
242.83	139.12
243.064	139.12
243.298	163.12
243.531	141.12
243.765	147.12
243.998	163.12
244.232	153.12
244.465	165.12
244.699	165.12
244.932	145.12
245.166	169.12
245.399	162.12
245.633	157.12
245.866	169.12
246.099	162.12
246.333	149.12
246.566	160.12
246.8	155.12
247.033	164.12
247.266	158.12
247.5	174.12
247.733	177.12
247.966	174.12
248.2	180.12
248.433	198.12
248.666	186.12
248.899	202.12
249.133	222.12
249.366	238.12
249.599	218.12
249.832	209.12
250.066	191.12
250.299	196.12
250.532	235.12
250.765	221.12
250.998	250.12
251.231	248.12
251.465	233.12
251.698	222.12
251.931	205.12
252.164	215.12
252.397	216.12
252.63	226.12
252.863	221.12
253.096	246.12
253.329	262.12
253.562	244.12
253.795	242.12
254.028	237.12
254.261	248.12
254.494	239.12
254.727	271.12
254.96	301.12
255.193	289.12
255.426	277.12
255.659	264.12
255.892	266.12
256.124	253.12
256.357	268.12
256.59	255.12
256.823	241.12
257.056	216.12
257.289	229.12
257.521	229.12
257.754	221.12
257.987	236.12
258.22	215.12
258.452	206.12
258.685	227.12
258.918	222.12
259.151	221.12
259.383	244.12
259.616	246.12
259.849	248.12
260.081	250.12
260.314	261.12
260.547	276.12
260.779	264.12
261.012	258.12
261.244	255.12
261.477	247.12
261.71	233.12
261.942	236.12
262.175	253.12
262.407	254.12
262.64	222.12
262.872	215.12
263.105	231.12
263.337	222.12
263.57	224.12
263.802	223.12
264.035	231.12
264.267	212.12
264.499	214.12
264.732	234.12
264.964	212.12
265.197	218.12
265.429	202.12
265.661	196.12
265.894	218.12
266.126	205.12
266.358	219.12
266.591	229.12
266.823	236.12
267.055	236.12
267.287	232.12
267.52	229.12
267.752	227.12
267.984	252.12
268.216	241.12
268.448	225.12
268.681	235.12
268.913	256.12
269.145	279.12
269.377	274.12
269.609	292.12
269.841	296.12
270.073	300.12
270.306	292.12
270.538	331.12
270.77	336.12
271.002	312.12
271.234	313.12
271.466	319.12
271.698	319.12
271.93	348.12
272.162	348.12
272.394	343.12
272.626	309.12
272.858	295.12
273.09	280.12
273.322	286.12
273.553	269.12
273.785	266.12
274.017	281.12
274.249	264.12
274.481	277.12
274.713	272.12
274.945	267.12
275.176	270.12
275.408	280.12
275.64	276.12
275.872	270.12
276.104	269.12
276.335	286.12
276.567	282.12
276.799	293.12
277.031	316.12
277.262	313.12
277.494	336.12
277.726	300.12
277.957	312.12
278.189	282.12
278.421	280.12
278.652	275.12
278.884	273.12
279.115	267.12
279.347	263.12
279.579	244.12
279.81	251.12
280.042	258.12
280.273	241.12
280.505	245.12
280.736	248.12
280.968	260.12
281.199	268.12
281.431	266.12
281.662	265.12
281.894	267.12
282.125	269.12
282.356	286.12
282.588	326.12
282.819	332.12
283.051	278.12
283.282	262.12
283.513	274.12
283.745	290.12
283.976	270.12
284.207	269.12
284.439	254.12
284.67	280.12
284.901	272.12
285.132	274.12
285.364	263.12
285.595	268.12
285.826	281.12
286.057	272.12
286.288	263.12
286.52	256.12
286.751	264.12
286.982	260.12
287.213	257.12
287.444	278.12
287.675	274.12
287.906	285.12
288.138	282.12
288.369	286.12
288.6	294.12
288.831	269.12
289.062	302.12
289.293	255.12
289.524	281.12
289.755	274.12
289.986	279.12
290.217	271.12
290.448	273.12
290.679	252.12
290.91	258.12
291.141	264.12
291.371	266.12
291.602	273.12
291.833	281.12
292.064	279.12
292.295	288.12
292.526	282.12
292.757	280.12
292.987	277.12
293.218	280.12
293.449	279.12
293.68	277.12
293.91	262.12
294.141	278.12
294.372	274.12
294.603	268.12
294.833	266.12
295.064	283.12
295.295	278.12
295.525	289.12
295.756	294.12
295.987	306.12
296.217	317.12
296.448	325.12
296.679	299.12
296.909	294.12
297.14	275.12
297.37	277.12
297.601	259.12
297.831	265.12
298.062	289.12
298.292	301.12
298.523	298.12
298.753	296.12
298.984	286.12
299.214	287.12
299.445	287.12
299.675	289.12
299.905	320.12
300.136	295.12
300.366	296.12
300.597	296.12
300.827	291.12
301.057	298.12
301.288	312.12
301.518	305.12
301.748	305.12
301.979	301.12
302.209	323.12
302.439	331.12
302.669	290.12
302.9	302.12
303.13	310.12
303.36	322.12
303.59	325.12
303.82	338.12
304.051	326.12
304.281	314.12
304.511	302.12
304.741	321.12
304.971	301.12
305.201	314.12
305.431	304.12
305.661	316.12
305.891	305.12
306.121	314.12
306.352	318.12
306.582	336.12
306.812	332.12
307.042	301.12
307.272	297.12
307.502	305.12
307.731	327.12
307.961	317.12
308.191	302.12
308.421	318.12
308.651	324.12
308.881	329.12
309.111	326.12
309.341	345.12
309.571	374.12
309.8	355.12
310.03	377.12
310.26	382.12
310.49	365.12
310.72	402.12
310.949	388.12
311.179	401.12
311.409	380.12
311.639	381.12
311.868	385.12
312.098	402.12
312.328	393.12
312.557	408.12
312.787	436.12
313.017	431.12
313.246	385.12
313.476	369.12
313.706	370.12
313.935	391.12
314.165	392.12
314.394	424.12
314.624	402.12
314.853	384.12
315.083	380.12
315.312	370.12
315.542	364.12
315.771	378.12
316.001	362.12
316.23	370.12
316.46	353.12
316.689	380.12
316.919	384.12
317.148	382.12
317.377	372.12
317.607	391.12
317.836	390.12
318.065	391.12
318.295	382.12
318.524	379.12
318.753	346.12
318.983	364.12
319.212	365.12
319.441	380.12
319.67	408.12
319.9	395.12
320.129	372.12
320.358	367.12
320.587	376.12
320.816	395.12
321.046	410.12
321.275	388.12
321.504	395.12
321.733	415.12
321.962	411.12
322.191	418.12
322.42	464.12
322.649	459.12
322.878	481.12
323.108	497.12
323.337	509.12
323.566	537.12
323.795	600.12
324.024	652.12
324.253	798.12
324.482	1195.12
324.71	1848.12
324.939	2670.12
325.168	2278.12
325.397	1188.12
325.626	777.12
325.855	650.12
326.084	577.12
326.313	539.12
326.542	558.12
326.77	633.12
326.999	728.12
327.228	1061.12
327.457	1607.12
327.686	1993.12
327.914	1337.12
328.143	864.12
328.372	721.12
328.6	704.12
328.829	644.12
329.058	654.12
329.287	669.12
329.515	610.12
329.744	554.12
329.972	556.12
330.201	588.12
330.43	629.12
330.658	656.12
330.887	674.12
331.115	671.12
331.344	585.12
331.572	536.12
331.801	530.12
332.03	509.12
332.258	470.12
332.486	491.12
332.715	473.12
332.943	460.12
333.172	466.12
333.4	438.12
333.629	480.12
333.857	491.12
334.085	480.12
334.314	502.12
334.542	549.12
334.771	532.12
334.999	512.12
335.227	482.12
335.455	456.12
335.684	464.12
335.912	430.12
336.14	430.12
336.369	453.12
336.597	473.12
336.825	458.12
337.053	440.12
337.281	449.12
337.51	446.12
337.738	428.12
337.966	442.12
338.194	446.12
338.422	431.12
338.65	442.12
338.878	412.12
339.106	421.12
339.334	436.12
339.562	411.12
339.79	427.12
340.018	418.12
340.246	433.12
340.474	452.12
340.702	433.12
340.93	452.12
341.158	406.12
341.386	408.12
341.614	435.12
341.842	444.12
342.07	437.12
342.298	420.12
342.526	430.12
342.754	412.12
342.981	408.12
343.209	400.12
343.437	431.12
343.665	393.12
343.893	407.12
344.12	440.12
344.348	436.12
344.576	443.12
344.804	431.12
345.031	458.12
345.259	462.12
345.487	455.12
345.714	450.12
345.942	410.12
346.17	408.12
346.397	436.12
346.625	408.12
346.853	423.12
347.08	429.12
347.308	425.12
347.535	445.12
347.763	433.12
347.99	436.12
348.218	431.12
348.445	438.12
348.673	448.12
348.9	430.12
349.128	416.12
349.355	407.12
349.583	431.12
349.81	391.12
350.037	409.12
350.265	389.12
350.492	414.12
350.72	403.12
350.947	412.12
351.174	440.12
351.402	453.12
351.629	440.12
351.856	421.12
352.083	439.12
352.311	434.12
352.538	483.12
352.765	471.12
352.992	437.12
353.22	434.12
353.447	412.12
353.674	433.12
353.901	414.12
354.128	408.12
354.355	399.12
354.583	399.12
354.81	383.12
355.037	408.12
355.264	386.12
355.491	382.12
355.718	396.12
355.945	378.12
356.172	392.12
356.399	404.12
356.626	386.12
356.853	384.12
357.08	397.12
357.307	380.12
357.534	406.12
357.761	382.12
357.988	393.12
358.215	388.12
358.441	403.12
358.668	386.12
358.895	416.12
359.122	395.12
359.349	431.12
359.576	418.12
359.802	463.12
360.029	503.12
360.256	510.12
360.483	487.12
360.709	466.12
360.936	428.12
361.163	455.12
361.39	443.12
361.616	451.12
361.843	438.12
362.07	440.12
362.296	443.12
362.523	436.12
362.749	434.12
362.976	416.12
363.203	400.12
363.429	424.12
363.656	415.12
363.882	400.12
364.109	409.12
364.335	388.12
364.562	425.12
364.788	393.12
365.015	426.12
365.241	412.12
365.468	416.12
365.694	416.12
365.92	434.12
366.147	420.12
366.373	396.12
366.599	402.12
366.826	406.12
367.052	384.12
367.278	420.12
367.505	393.12
367.731	401.12
367.957	395.12
368.184	424.12
368.41	437.12
368.636	429.12
368.862	416.12
369.089	438.12
369.315	424.12
369.541	401.12
369.767	411.12
369.993	405.12
370.219	406.12
370.445	416.12
370.672	392.12
370.898	374.12
371.124	396.12
371.35	395.12
371.576	392.12
371.802	396.12
372.028	392.12
372.254	397.12
372.48	405.12
372.706	405.12
372.932	399.12
373.158	397.12
373.384	387.12
373.61	403.12
373.835	400.12
374.061	437.12
374.287	402.12
374.513	398.12
374.739	412.12
374.965	425.12
375.191	412.12
375.416	411.12
375.642	389.12
375.868	405.12
376.094	406.12
376.319	405.12
376.545	402.12
376.771	382.12
376.997	407.12
377.222	411.12
377.448	408.12
377.674	402.12
377.899	400.12
378.125	392.12
378.35	394.12
378.576	407.12
378.802	394.12
379.027	392.12
379.253	393.12
379.478	419.12
379.704	405.12
379.929	412.12
380.155	401.12
380.38	416.12
380.606	396.12
380.831	429.12
381.057	429.12
381.282	385.12
381.507	405.12
381.733	425.12
381.958	398.12
382.184	416.12
382.409	426.12
382.634	422.12
382.86	414.12
383.085	406.12
383.31	423.12
383.535	409.12
383.761	410.12
383.986	420.12
384.211	408.12
384.436	426.12
384.662	421.12
384.887	411.12
385.112	417.12
385.337	440.12
385.562	422.12
385.787	453.12
386.013	449.12
386.238	448.12
386.463	443.12
386.688	454.12
386.913	422.12
387.138	439.12
387.363	456.12
387.588	443.12
387.813	418.12
388.038	412.12
388.263	427.12
388.488	430.12
388.713	448.12
388.938	435.12
389.163	452.12
389.387	427.12
389.612	433.12
389.837	435.12
390.062	428.12
390.287	418.12
390.512	420.12
390.736	417.12
390.961	426.12
391.186	438.12
391.411	435.12
391.636	436.12
391.86	443.12
392.085	440.12
392.31	434.12
392.534	456.12
392.759	451.12
392.984	432.12
393.208	444.12
393.433	446.12
393.658	435.12
393.882	435.12
394.107	448.12
394.331	419.12
394.556	418.12
394.78	428.12
395.005	441.12
395.229	441.12
395.454	457.12
395.678	458.12
395.903	477.12
396.127	486.12
396.352	477.12
396.576	460.12
396.801	453.12
397.025	471.12
397.249	441.12
397.474	464.12
397.698	465.12
397.922	494.12
398.147	487.12
398.371	502.12
398.595	496.12
398.82	480.12
399.044	479.12
399.268	491.12
399.492	519.12
399.717	538.12
399.941	555.12
400.165	604.12
400.389	619.12
400.613	548.12
400.837	538.12
401.062	528.12
401.286	516.12
401.51	485.12
401.734	495.12
401.958	501.12
402.182	489.12
402.406	520.12
402.63	531.12
402.854	490.12
403.078	504.12
403.302	508.12
403.526	532.12
403.75	539.12
403.974	513.12
404.198	515.12
404.422	523.12
404.645	528.12
404.869	561.12
405.093	554.12
405.317	612.12
405.541	636.12
405.765	582.12
405.988	568.12
406.212	573.12
406.436	602.12
406.66	605.12
406.883	600.12
407.107	606.12
407.331	642.12
407.555	708.12
407.778	714.12
408.002	664.12
408.226	590.12
408.449	592.12
408.673	576.12
408.896	634.12
409.12	657.12
409.344	638.12
409.567	595.12
409.791	566.12
410.014	543.12
410.238	521.12
410.461	534.12
410.685	528.12
410.908	558.12
411.132	594.12
411.355	620.12
411.578	602.12
411.802	552.12
412.025	531.12
412.249	555.12
412.472	562.12
412.695	604.12
412.919	593.12
413.142	554.12
413.365	530.12
413.589	531.12
413.812	519.12
414.035	496.12
414.258	506.12
414.482	497.12
414.705	486.12
414.928	504.12
415.151	500.12
415.374	493.12
415.597	505.12
415.821	495.12
416.044	521.12
416.267	518.12
416.49	496.12
416.713	492.12
416.936	515.12
417.159	506.12
417.382	528.12
417.605	529.12
417.828	519.12
418.051	548.12
418.274	522.12
418.497	508.12
418.72	495.12
418.943	497.12
419.166	513.12
419.389	550.12
419.611	519.12
419.834	542.12
420.057	545.12
420.28	554.12
420.503	525.12
420.726	526.12
420.948	564.12
421.171	610.12
421.394	631.12
421.617	580.12
421.839	532.12
422.062	543.12
422.285	557.12
422.507	613.12
422.73	721.12
422.953	701.12
423.175	592.12
423.398	579.12
423.621	564.12
423.843	607.12
424.066	597.12
424.288	594.12
424.511	596.12
424.733	686.12
424.956	785.12
425.178	751.12
425.401	738.12
425.623	751.12
425.846	645.12
426.068	602.12
426.291	609.12
426.513	579.12
426.735	622.12
426.958	680.12
427.18	761.12
427.402	901.12
427.625	1006.12
427.847	902.12
428.069	800.12
428.292	678.12
428.514	615.12
428.736	607.12
428.958	575.12
429.181	546.12
429.403	567.12
429.625	560.12
429.847	613.12
430.069	681.12
430.292	650.12
430.514	585.12
430.736	560.12
430.958	574.12
431.18	543.12
431.402	507.12
431.624	522.12
431.846	515.12
432.068	513.12
432.29	533.12
432.512	532.12
432.734	534.12
432.956	526.12
433.178	544.12
433.4	540.12
433.622	523.12
433.844	523.12
434.066	494.12
434.287	521.12
434.509	532.12
434.731	524.12
434.953	524.12
435.175	567.12
435.397	596.12
435.618	591.12
435.84	655.12
436.062	751.12
436.284	821.12
436.505	713.12
436.727	633.12
436.949	591.12
437.17	570.12
437.392	559.12
437.614	590.12
437.835	651.12
438.057	766.12
438.278	833.12
438.5	879.12
438.721	913.12
438.943	862.12
439.165	704.12
439.386	647.12
439.608	644.12
439.829	651.12
440.05	655.12
440.272	713.12
440.493	656.12
440.715	613.12
440.936	596.12
441.158	567.12
441.379	570.12
441.6	591.12
441.822	625.12
442.043	655.12
442.264	757.12
442.486	788.12
442.707	668.12
442.928	635.12
443.149	638.12
443.371	678.12
443.592	710.12
443.813	810.12
444.034	854.12
444.255	705.12
444.476	627.12
444.698	607.12
444.919	607.12
445.14	698.12
445.361	651.12
445.582	664.12
445.803	729.12
446.024	846.12
446.245	862.12
446.466	783.12
446.687	670.12
446.908	632.12
447.129	575.12
447.35	586.12
447.571	583.12
447.792	564.12
448.013	590.12
448.234	608.12
448.455	641.12
448.675	776.12
448.896	926.12
449.117	746.12
449.338	743.12
449.559	823.12
449.779	908.12
450	759.12
450.221	628.12
450.442	594.12
450.662	564.12
450.883	582.12
451.104	605.12
451.324	598.12
451.545	560.12
451.766	520.12
451.986	521.12
452.207	512.12
452.428	492.12
452.648	505.12
452.869	507.12
453.089	530.12
453.31	536.12
453.53	528.12
453.751	491.12
453.971	537.12
454.192	539.12
454.412	525.12
454.633	521.12
454.853	494.12
455.073	518.12
455.294	540.12
455.514	602.12
455.734	608.12
455.955	493.12
456.175	471.12
456.395	477.12
456.616	477.12
456.836	464.12
457.056	489.12
457.276	457.12
457.497	463.12
457.717	447.12
457.937	452.12
458.157	492.12
458.377	501.12
458.598	520.12
458.818	631.12
459.038	704.12
459.258	695.12
459.478	599.12
459.698	541.12
459.918	526.12
460.138	524.12
460.358	533.12
460.578	518.12
460.798	524.12
461.018	539.12
461.238	531.12
461.458	511.12
461.678	512.12
461.898	532.12
462.118	520.12
462.338	519.12
462.558	534.12
462.777	541.12
462.997	528.12
463.217	533.12
463.437	555.12
463.657	548.12
463.876	540.12
464.096	528.12
464.316	530.12
464.536	545.12
464.755	560.12
464.975	548.12
465.195	656.12
465.414	754.12
465.634	645.12
465.854	607.12
466.073	568.12
466.293	557.12
466.512	530.12
466.732	506.12
466.951	487.12
467.171	528.12
467.391	538.12
467.61	513.12
467.829	523.12
468.049	506.12
468.268	529.12
468.488	509.12
468.707	510.12
468.927	523.12
469.146	491.12
469.365	481.12
469.585	474.12
469.804	509.12
470.023	534.12
470.243	530.12
470.462	558.12
470.681	554.12
470.901	549.12
471.12	530.12
471.339	526.12
471.558	525.12
471.777	504.12
471.997	511.12
472.216	537.12
472.435	569.12
472.654	544.12
472.873	526.12
473.092	508.12
473.311	520.12
473.53	517.12
473.749	544.12
473.968	590.12
474.187	704.12
474.406	733.12
474.625	601.12
474.844	544.12
475.063	550.12
475.282	530.12
475.501	528.12
475.72	538.12
475.939	548.12
476.158	558.12
476.377	551.12
476.596	535.12
476.814	537.12
477.033	545.12
477.252	570.12
477.471	561.12
477.69	569.12
477.908	544.12
478.127	567.12
478.346	565.12
478.564	568.12
478.783	573.12
479.002	566.12
479.22	597.12
479.439	611.12
479.658	617.12
479.876	643.12
480.095	654.12
480.313	670.12
480.532	628.12
480.751	633.12
480.969	655.12
481.188	728.12
481.406	753.12
481.624	687.12
481.843	647.12
482.061	622.12
482.28	630.12
482.498	614.12
482.717	611.12
482.935	612.12
483.153	619.12
483.372	611.12
483.59	622.12
483.808	630.12
484.027	628.12
484.245	622.12
484.463	615.12
484.681	635.12
484.9	630.12
485.118	651.12
485.336	616.12
485.554	626.12
485.772	636.12
485.99	658.12
486.209	651.12
486.427	670.12
486.645	653.12
486.863	682.12
487.081	700.12
487.299	666.12
487.517	681.12
487.735	675.12
487.953	665.12
488.171	680.12
488.389	656.12
488.607	680.12
488.825	659.12
489.043	673.12
489.261	680.12
489.479	703.12
489.696	696.12
489.914	690.12
490.132	697.12
490.35	714.12
490.568	726.12
490.786	714.12
491.003	763.12
491.221	744.12
491.439	768.12
491.657	780.12
491.874	785.12
492.092	786.12
492.31	810.12
492.527	792.12
492.745	815.12
492.963	825.12
493.18	810.12
493.398	821.12
493.615	820.12
493.833	811.12
494.05	817.12
494.268	807.12
494.485	794.12
494.703	832.12
494.92	835.12
495.138	832.12
495.355	819.12
495.573	814.12
495.79	840.12
496.008	821.12
496.225	812.12
496.442	828.12
496.66	816.12
496.877	841.12
497.094	814.12
497.312	828.12
497.529	852.12
497.746	840.12
497.963	841.12
498.181	848.12
498.398	848.12
498.615	900.12
498.832	902.12
499.049	893.12
499.267	915.12
499.484	921.12
499.701	939.12
499.918	932.12
500.135	967.12
500.352	988.12
500.569	962.12
500.786	1002.12
501.003	1013.12
501.22	983.12
501.437	968.12
501.654	968.12
