Data from 1971.PennyLincolnUp.Lamp.En5.5.200Scan.071719.P1._HRD10591_15-17-49-841.txt Node
Date: Thu Jul 18 15:17:49 EDT 2019
User: cochatt
Spectrometer: HR+D1059
Trigger mode: 1
Integration Time (sec): 1.000000E-1
Scans to average: 1
Electric dark correction enabled: true
Nonlinearity correction enabled: false
Boxcar width: 0
XAxis mode: Wavelengths
Number of Pixels in Spectrum: 2048
>>>>>Begin Spectral Data<<<<<
223.165	-24.12
223.4	-24.12
223.635	-24.12
223.869	-19.12
224.104	-25.12
224.338	-11.12
224.573	-11.12
224.808	-24.12
225.042	-17.12
225.277	5.88
225.511	-2.12
225.746	0.88
225.98	15.88
226.215	8.88
226.449	22.88
226.683	16.88
226.918	26.88
227.152	35.88
227.387	31.88
227.621	24.88
227.856	34.88
228.09	27.88
228.324	50.88
228.559	50.88
228.793	65.88
229.027	72.88
229.262	95.88
229.496	78.88
229.73	87.88
229.964	110.88
230.199	96.88
230.433	96.88
230.667	94.88
230.901	85.88
231.136	89.88
231.37	99.88
231.604	86.88
231.838	95.88
232.072	105.88
232.306	109.88
232.541	109.88
232.775	91.88
233.009	94.88
233.243	116.88
233.477	113.88
233.711	120.88
233.945	108.88
234.179	97.88
234.413	116.88
234.647	103.88
234.881	106.88
235.115	111.88
235.349	96.88
235.583	98.88
235.817	99.88
236.051	113.88
236.285	101.88
236.519	102.88
236.753	110.88
236.987	125.88
237.221	126.88
237.455	153.88
237.689	144.88
237.922	112.88
238.156	114.88
238.39	109.88
238.624	95.88
238.858	112.88
239.091	110.88
239.325	118.88
239.559	103.88
239.793	96.88
240.027	106.88
240.26	118.88
240.494	129.88
240.728	128.88
240.961	120.88
241.195	121.88
241.429	114.88
241.662	114.88
241.896	122.88
242.13	116.88
242.363	116.88
242.597	114.88
242.83	119.88
243.064	106.88
243.298	123.88
243.531	122.88
243.765	124.88
243.998	124.88
244.232	131.88
244.465	122.88
244.699	128.88
244.932	122.88
245.166	125.88
245.399	119.88
245.633	118.88
245.866	131.88
246.099	123.88
246.333	129.88
246.566	132.88
246.8	144.88
247.033	130.88
247.266	138.88
247.5	154.88
247.733	136.88
247.966	134.88
248.2	140.88
248.433	149.88
248.666	145.88
248.899	160.88
249.133	164.88
249.366	155.88
249.599	148.88
249.832	146.88
250.066	148.88
250.299	161.88
250.532	158.88
250.765	152.88
250.998	176.88
251.231	178.88
251.465	164.88
251.698	178.88
251.931	179.88
252.164	151.88
252.397	162.88
252.63	172.88
252.863	181.88
253.096	186.88
253.329	185.88
253.562	195.88
253.795	172.88
254.028	190.88
254.261	177.88
254.494	186.88
254.727	202.88
254.96	209.88
255.193	221.88
255.426	213.88
255.659	184.88
255.892	198.88
256.124	169.88
256.357	180.88
256.59	186.88
256.823	180.88
257.056	186.88
257.289	175.88
257.521	188.88
257.754	178.88
257.987	192.88
258.22	193.88
258.452	179.88
258.685	167.88
258.918	166.88
259.151	170.88
259.383	182.88
259.616	192.88
259.849	200.88
260.081	194.88
260.314	200.88
260.547	210.88
260.779	198.88
261.012	185.88
261.244	187.88
261.477	185.88
261.71	189.88
261.942	179.88
262.175	193.88
262.407	185.88
262.64	173.88
262.872	177.88
263.105	210.88
263.337	180.88
263.57	169.88
263.802	180.88
264.035	190.88
264.267	189.88
264.499	183.88
264.732	179.88
264.964	180.88
265.197	194.88
265.429	184.88
265.661	190.88
265.894	189.88
266.126	180.88
266.358	191.88
266.591	200.88
266.823	202.88
267.055	213.88
267.287	193.88
267.52	178.88
267.752	189.88
267.984	206.88
268.216	204.88
268.448	208.88
268.681	184.88
268.913	213.88
269.145	216.88
269.377	222.88
269.609	227.88
269.841	212.88
270.073	216.88
270.306	238.88
270.538	238.88
270.77	257.88
271.002	242.88
271.234	239.88
271.466	246.88
271.698	243.88
271.93	257.88
272.162	250.88
272.394	268.88
272.626	241.88
272.858	231.88
273.09	236.88
273.322	217.88
273.553	235.88
273.785	225.88
274.017	241.88
274.249	220.88
274.481	210.88
274.713	212.88
274.945	218.88
275.176	198.88
275.408	224.88
275.64	219.88
275.872	230.88
276.104	216.88
276.335	211.88
276.567	236.88
276.799	223.88
277.031	252.88
277.262	273.88
277.494	261.88
277.726	244.88
277.957	217.88
278.189	248.88
278.421	229.88
278.652	226.88
278.884	230.88
279.115	230.88
279.347	236.88
279.579	229.88
279.81	227.88
280.042	225.88
280.273	222.88
280.505	226.88
280.736	222.88
280.968	222.88
281.199	241.88
281.431	237.88
281.662	238.88
281.894	231.88
282.125	245.88
282.356	233.88
282.588	249.88
282.819	240.88
283.051	244.88
283.282	220.88
283.513	238.88
283.745	249.88
283.976	242.88
284.207	247.88
284.439	239.88
284.67	231.88
284.901	243.88
285.132	247.88
285.364	237.88
285.595	226.88
285.826	242.88
286.057	230.88
286.288	233.88
286.52	241.88
286.751	246.88
286.982	251.88
287.213	256.88
287.444	237.88
287.675	238.88
287.906	240.88
288.138	236.88
288.369	233.88
288.6	262.88
288.831	265.88
289.062	255.88
289.293	264.88
289.524	243.88
289.755	255.88
289.986	259.88
290.217	247.88
290.448	248.88
290.679	246.88
290.91	259.88
291.141	258.88
291.371	251.88
291.602	259.88
291.833	238.88
292.064	238.88
292.295	252.88
292.526	239.88
292.757	240.88
292.987	256.88
293.218	243.88
293.449	244.88
293.68	250.88
293.91	256.88
294.141	258.88
294.372	256.88
294.603	244.88
294.833	248.88
295.064	253.88
295.295	241.88
295.525	250.88
295.756	236.88
295.987	256.88
296.217	269.88
296.448	263.88
296.679	268.88
296.909	240.88
297.14	258.88
297.37	261.88
297.601	265.88
297.831	248.88
298.062	271.88
298.292	266.88
298.523	260.88
298.753	269.88
298.984	269.88
299.214	270.88
299.445	266.88
299.675	261.88
299.905	266.88
300.136	279.88
300.366	274.88
300.597	270.88
300.827	265.88
301.057	293.88
301.288	280.88
301.518	256.88
301.748	248.88
301.979	270.88
302.209	279.88
302.439	273.88
302.669	272.88
302.9	268.88
303.13	271.88
303.36	303.88
303.59	275.88
303.82	275.88
304.051	288.88
304.281	287.88
304.511	276.88
304.741	290.88
304.971	286.88
305.201	276.88
305.431	300.88
305.661	286.88
305.891	272.88
306.121	272.88
306.352	285.88
306.582	281.88
306.812	277.88
307.042	271.88
307.272	281.88
307.502	288.88
307.731	274.88
307.961	277.88
308.191	276.88
308.421	281.88
308.651	287.88
308.881	289.88
309.111	278.88
309.341	278.88
309.571	306.88
309.8	300.88
310.03	292.88
310.26	289.88
310.49	309.88
310.72	317.88
310.949	304.88
311.179	311.88
311.409	305.88
311.639	311.88
311.868	293.88
312.098	306.88
312.328	316.88
312.557	328.88
312.787	327.88
313.017	302.88
313.246	308.88
313.476	313.88
313.706	292.88
313.935	300.88
314.165	311.88
314.394	324.88
314.624	315.88
314.853	326.88
315.083	312.88
315.312	317.88
315.542	291.88
315.771	319.88
316.001	304.88
316.23	300.88
316.46	289.88
316.689	342.88
316.919	320.88
317.148	316.88
317.377	306.88
317.607	301.88
317.836	317.88
318.065	330.88
318.295	329.88
318.524	296.88
318.753	306.88
318.983	310.88
319.212	320.88
319.441	324.88
319.67	339.88
319.9	312.88
320.129	309.88
320.358	317.88
320.587	305.88
320.816	317.88
321.046	338.88
321.275	329.88
321.504	310.88
321.733	337.88
321.962	326.88
322.191	330.88
322.42	329.88
322.649	348.88
322.878	372.88
323.108	361.88
323.337	372.88
323.566	380.88
323.795	386.88
324.024	407.88
324.253	471.88
324.482	640.88
324.71	925.88
324.939	1225.88
325.168	1048.88
325.397	592.88
325.626	439.88
325.855	386.88
326.084	388.88
326.313	367.88
326.542	346.88
326.77	384.88
326.999	444.88
327.228	586.88
327.457	801.88
327.686	935.88
327.914	654.88
328.143	468.88
328.372	449.88
328.6	417.88
328.829	384.88
329.058	386.88
329.287	384.88
329.515	391.88
329.744	372.88
329.972	392.88
330.201	375.88
330.43	395.88
330.658	424.88
330.887	421.88
331.115	411.88
331.344	388.88
331.572	352.88
331.801	370.88
332.03	373.88
332.258	361.88
332.486	343.88
332.715	355.88
332.943	360.88
333.172	356.88
333.4	357.88
333.629	360.88
333.857	378.88
334.085	367.88
334.314	389.88
334.542	390.88
334.771	393.88
334.999	380.88
335.227	370.88
335.455	386.88
335.684	359.88
335.912	366.88
336.14	355.88
336.369	355.88
336.597	357.88
336.825	383.88
337.053	335.88
337.281	366.88
337.51	357.88
337.738	345.88
337.966	360.88
338.194	377.88
338.422	355.88
338.65	369.88
338.878	348.88
339.106	343.88
339.334	342.88
339.562	336.88
339.79	341.88
340.018	351.88
340.246	356.88
340.474	370.88
340.702	350.88
340.93	342.88
341.158	346.88
341.386	344.88
341.614	333.88
341.842	349.88
342.07	345.88
342.298	334.88
342.526	351.88
342.754	332.88
342.981	345.88
343.209	361.88
343.437	323.88
343.665	364.88
343.893	364.88
344.12	354.88
344.348	341.88
344.576	358.88
344.804	345.88
345.031	339.88
345.259	341.88
345.487	361.88
345.714	355.88
345.942	326.88
346.17	339.88
346.397	325.88
346.625	328.88
346.853	330.88
347.08	317.88
347.308	304.88
347.535	342.88
347.763	329.88
347.99	329.88
348.218	316.88
348.445	336.88
348.673	324.88
348.9	336.88
349.128	330.88
349.355	320.88
349.583	317.88
349.81	316.88
350.037	313.88
350.265	331.88
350.492	321.88
350.72	298.88
350.947	337.88
351.174	329.88
351.402	345.88
351.629	336.88
351.856	330.88
352.083	324.88
352.311	328.88
352.538	336.88
352.765	327.88
352.992	324.88
353.22	324.88
353.447	340.88
353.674	323.88
353.901	311.88
354.128	300.88
354.355	334.88
354.583	301.88
354.81	317.88
355.037	334.88
355.264	311.88
355.491	343.88
355.718	310.88
355.945	314.88
356.172	301.88
356.399	303.88
356.626	318.88
356.853	320.88
357.08	310.88
357.307	295.88
357.534	295.88
357.761	314.88
357.988	314.88
358.215	319.88
358.441	302.88
358.668	304.88
358.895	323.88
359.122	320.88
359.349	335.88
359.576	328.88
359.802	329.88
360.029	329.88
360.256	346.88
360.483	340.88
360.709	318.88
360.936	312.88
361.163	309.88
361.39	323.88
361.616	323.88
361.843	304.88
362.07	317.88
362.296	316.88
362.523	298.88
362.749	308.88
362.976	306.88
363.203	318.88
363.429	310.88
363.656	305.88
363.882	307.88
364.109	293.88
364.335	317.88
364.562	317.88
364.788	290.88
365.015	310.88
365.241	304.88
365.468	306.88
365.694	295.88
365.92	315.88
366.147	304.88
366.373	306.88
366.599	295.88
366.826	286.88
367.052	305.88
367.278	322.88
367.505	339.88
367.731	325.88
367.957	311.88
368.184	302.88
368.41	312.88
368.636	322.88
368.862	320.88
369.089	328.88
369.315	304.88
369.541	296.88
369.767	326.88
369.993	308.88
370.219	293.88
370.445	316.88
370.672	310.88
370.898	304.88
371.124	313.88
371.35	320.88
371.576	318.88
371.802	305.88
372.028	290.88
372.254	318.88
372.48	314.88
372.706	315.88
372.932	325.88
373.158	312.88
373.384	321.88
373.61	307.88
373.835	318.88
374.061	315.88
374.287	316.88
374.513	304.88
374.739	326.88
374.965	321.88
375.191	303.88
375.416	313.88
375.642	327.88
375.868	311.88
376.094	292.88
376.319	301.88
376.545	304.88
376.771	309.88
376.997	326.88
377.222	318.88
377.448	304.88
377.674	306.88
377.899	302.88
378.125	295.88
378.35	303.88
378.576	301.88
378.802	293.88
379.027	302.88
379.253	312.88
379.478	305.88
379.704	316.88
379.929	309.88
380.155	317.88
380.38	296.88
380.606	320.88
380.831	308.88
381.057	312.88
381.282	292.88
381.507	305.88
381.733	298.88
381.958	307.88
382.184	316.88
382.409	305.88
382.634	304.88
382.86	293.88
383.085	321.88
383.31	321.88
383.535	305.88
383.761	315.88
383.986	312.88
384.211	314.88
384.436	318.88
384.662	307.88
384.887	311.88
385.112	312.88
385.337	324.88
385.562	331.88
385.787	318.88
386.013	340.88
386.238	325.88
386.463	333.88
386.688	341.88
386.913	323.88
387.138	309.88
387.363	325.88
387.588	320.88
387.813	308.88
388.038	320.88
388.263	324.88
388.488	330.88
388.713	329.88
388.938	333.88
389.163	311.88
389.387	319.88
389.612	316.88
389.837	310.88
390.062	314.88
390.287	323.88
390.512	334.88
390.736	316.88
390.961	317.88
391.186	342.88
391.411	323.88
391.636	329.88
391.86	341.88
392.085	343.88
392.31	329.88
392.534	343.88
392.759	327.88
392.984	342.88
393.208	338.88
393.433	353.88
393.658	366.88
393.882	328.88
394.107	332.88
394.331	324.88
394.556	329.88
394.78	340.88
395.005	327.88
395.229	330.88
395.454	325.88
395.678	330.88
395.903	345.88
396.127	356.88
396.352	356.88
396.576	317.88
396.801	333.88
397.025	367.88
397.249	343.88
397.474	341.88
397.698	325.88
397.922	341.88
398.147	346.88
398.371	359.88
398.595	381.88
398.82	359.88
399.044	366.88
399.268	358.88
399.492	398.88
399.717	418.88
399.941	435.88
400.165	423.88
400.389	431.88
400.613	404.88
400.837	372.88
401.062	377.88
401.286	363.88
401.51	362.88
401.734	360.88
401.958	366.88
402.182	372.88
402.406	356.88
402.63	358.88
402.854	367.88
403.078	367.88
403.302	359.88
403.526	386.88
403.75	361.88
403.974	375.88
404.198	369.88
404.422	362.88
404.645	358.88
404.869	367.88
405.093	392.88
405.317	408.88
405.541	428.88
405.765	378.88
405.988	368.88
406.212	393.88
406.436	392.88
406.66	394.88
406.883	382.88
407.107	400.88
407.331	408.88
407.555	463.88
407.778	462.88
408.002	432.88
408.226	414.88
408.449	410.88
408.673	395.88
408.896	422.88
409.12	431.88
409.344	406.88
409.567	396.88
409.791	374.88
410.014	377.88
410.238	359.88
410.461	378.88
410.685	364.88
410.908	386.88
411.132	416.88
411.355	426.88
411.578	409.88
411.802	370.88
412.025	348.88
412.249	354.88
412.472	373.88
412.695	390.88
412.919	397.88
413.142	372.88
413.365	353.88
413.589	358.88
413.812	345.88
414.035	353.88
414.258	353.88
414.482	360.88
414.705	336.88
414.928	365.88
415.151	357.88
415.374	342.88
415.597	337.88
415.821	337.88
416.044	357.88
416.267	354.88
416.49	333.88
416.713	347.88
416.936	333.88
417.159	337.88
417.382	352.88
417.605	372.88
417.828	369.88
418.051	340.88
418.274	355.88
418.497	342.88
418.72	342.88
418.943	346.88
419.166	361.88
419.389	345.88
419.611	381.88
419.834	374.88
420.057	349.88
420.28	359.88
420.503	357.88
420.726	359.88
420.948	358.88
421.171	400.88
421.394	396.88
421.617	370.88
421.839	357.88
422.062	354.88
422.285	362.88
422.507	416.88
422.73	444.88
422.953	436.88
423.175	392.88
423.398	365.88
423.621	365.88
423.843	391.88
424.066	375.88
424.288	392.88
424.511	406.88
424.733	432.88
424.956	464.88
425.178	448.88
425.401	440.88
425.623	475.88
425.846	419.88
426.068	388.88
426.291	373.88
426.513	380.88
426.735	382.88
426.958	405.88
427.18	456.88
427.402	528.88
427.625	594.88
427.847	496.88
428.069	424.88
428.292	397.88
428.514	357.88
428.736	357.88
428.958	340.88
429.181	345.88
429.403	349.88
429.625	328.88
429.847	383.88
430.069	429.88
430.292	427.88
430.514	372.88
430.736	360.88
430.958	350.88
431.18	335.88
431.402	313.88
431.624	318.88
431.846	342.88
432.068	334.88
432.29	352.88
432.512	330.88
432.734	355.88
432.956	352.88
433.178	364.88
433.4	338.88
433.622	337.88
433.844	349.88
434.066	353.88
434.287	348.88
434.509	340.88
434.731	349.88
434.953	336.88
435.175	349.88
435.397	344.88
435.618	385.88
435.84	388.88
436.062	448.88
436.284	477.88
436.505	416.88
436.727	374.88
436.949	377.88
437.17	359.88
437.392	345.88
437.614	353.88
437.835	368.88
438.057	417.88
438.278	489.88
438.5	486.88
438.721	530.88
438.943	536.88
439.165	431.88
439.386	380.88
439.608	384.88
439.829	383.88
440.05	373.88
440.272	423.88
440.493	386.88
440.715	366.88
440.936	352.88
441.158	352.88
441.379	368.88
441.6	341.88
441.822	373.88
442.043	402.88
442.264	438.88
442.486	465.88
442.707	405.88
442.928	405.88
443.149	379.88
443.371	412.88
443.592	433.88
443.813	477.88
444.034	529.88
444.255	439.88
444.476	394.88
444.698	390.88
444.919	377.88
445.14	493.88
445.361	425.88
445.582	418.88
445.803	414.88
446.024	490.88
446.245	506.88
446.466	432.88
446.687	410.88
446.908	399.88
447.129	354.88
447.35	342.88
447.571	342.88
447.792	352.88
448.013	369.88
448.234	372.88
448.455	391.88
448.675	453.88
448.896	555.88
449.117	465.88
449.338	453.88
449.559	477.88
449.779	547.88
450	450.88
450.221	367.88
450.442	337.88
450.662	331.88
450.883	334.88
451.104	357.88
451.324	344.88
451.545	325.88
451.766	332.88
451.986	316.88
452.207	309.88
452.428	324.88
452.648	318.88
452.869	302.88
453.089	322.88
453.31	327.88
453.53	325.88
453.751	301.88
453.971	305.88
454.192	285.88
454.412	298.88
454.633	317.88
454.853	317.88
455.073	306.88
455.294	335.88
455.514	361.88
455.734	352.88
455.955	312.88
456.175	307.88
456.395	294.88
456.616	305.88
456.836	302.88
457.056	285.88
457.276	280.88
457.497	297.88
457.717	295.88
457.937	283.88
458.157	304.88
458.377	309.88
458.598	309.88
458.818	326.88
459.038	373.88
459.258	398.88
459.478	337.88
459.698	317.88
459.918	326.88
460.138	332.88
460.358	334.88
460.578	335.88
460.798	346.88
461.018	317.88
461.238	331.88
461.458	342.88
461.678	339.88
461.898	351.88
462.118	343.88
462.338	335.88
462.558	367.88
462.777	350.88
462.997	384.88
463.217	364.88
463.437	340.88
463.657	366.88
463.876	362.88
464.096	362.88
464.316	345.88
464.536	354.88
464.755	352.88
464.975	348.88
465.195	364.88
465.414	376.88
465.634	346.88
465.854	346.88
466.073	335.88
466.293	328.88
466.512	332.88
466.732	310.88
466.951	316.88
467.171	320.88
467.391	324.88
467.61	321.88
467.829	320.88
468.049	332.88
468.268	318.88
468.488	304.88
468.707	306.88
468.927	312.88
469.146	299.88
469.365	321.88
469.585	310.88
469.804	325.88
470.023	329.88
470.243	335.88
470.462	344.88
470.681	345.88
470.901	330.88
471.12	316.88
471.339	327.88
471.558	328.88
471.777	340.88
471.997	297.88
472.216	345.88
472.435	342.88
472.654	330.88
472.873	350.88
473.092	320.88
473.311	317.88
473.53	310.88
473.749	324.88
473.968	366.88
474.187	416.88
474.406	432.88
474.625	348.88
474.844	360.88
475.063	329.88
475.282	333.88
475.501	318.88
475.72	318.88
475.939	320.88
476.158	342.88
476.377	350.88
476.596	337.88
476.814	330.88
477.033	348.88
477.252	327.88
477.471	320.88
477.69	351.88
477.908	351.88
478.127	353.88
478.346	358.88
478.564	368.88
478.783	366.88
479.002	358.88
479.22	373.88
479.439	366.88
479.658	380.88
479.876	378.88
480.095	378.88
480.313	377.88
480.532	384.88
480.751	378.88
480.969	400.88
481.188	395.88
481.406	418.88
481.624	404.88
481.843	372.88
482.061	373.88
482.28	365.88
482.498	364.88
482.717	376.88
482.935	386.88
483.153	381.88
483.372	402.88
483.59	374.88
483.808	377.88
484.027	371.88
484.245	358.88
484.463	372.88
484.681	386.88
484.9	380.88
485.118	381.88
485.336	374.88
485.554	375.88
485.772	369.88
485.99	394.88
486.209	376.88
486.427	381.88
486.645	382.88
486.863	401.88
487.081	402.88
487.299	410.88
487.517	390.88
487.735	405.88
487.953	398.88
488.171	386.88
488.389	399.88
488.607	398.88
488.825	398.88
489.043	400.88
489.261	422.88
489.479	406.88
489.696	393.88
489.914	395.88
490.132	405.88
490.35	405.88
490.568	398.88
490.786	437.88
491.003	444.88
491.221	426.88
491.439	436.88
491.657	445.88
491.874	445.88
492.092	454.88
492.31	466.88
492.527	452.88
492.745	448.88
492.963	440.88
493.18	472.88
493.398	473.88
493.615	463.88
493.833	468.88
494.05	451.88
494.268	464.88
494.485	466.88
494.703	450.88
494.92	454.88
495.138	465.88
495.355	465.88
495.573	451.88
495.79	464.88
496.008	457.88
496.225	461.88
496.442	455.88
496.66	482.88
496.877	478.88
497.094	475.88
497.312	463.88
497.529	482.88
497.746	496.88
497.963	512.88
498.181	521.88
498.398	513.88
498.615	527.88
498.832	556.88
499.049	524.88
499.267	545.88
499.484	562.88
499.701	592.88
499.918	610.88
500.135	630.88
500.352	640.88
500.569	651.88
500.786	628.88
501.003	649.88
501.22	629.88
501.437	611.88
501.654	590.88
501.871	576.88
502.088	564.88
502.305	535.88
