Data from 1971.PennyLincolnUp.Lamp.En5.5.200Scan.071719.P1._HRD10591_15-20-58-842.txt Node
Date: Thu Jul 18 15:20:58 EDT 2019
User: cochatt
Spectrometer: HR+D1059
Trigger mode: 1
Integration Time (sec): 1.000000E-1
Scans to average: 1
Electric dark correction enabled: true
Nonlinearity correction enabled: false
Boxcar width: 0
XAxis mode: Wavelengths
Number of Pixels in Spectrum: 2048
>>>>>Begin Spectral Data<<<<<
223.165	-11.88
223.4	-11.88
223.635	-11.88
223.869	-10.88
224.104	-19.88
224.338	-10.88
224.573	-0.88
224.808	-19.88
225.042	-22.88
225.277	-9.88
225.511	-6.88
225.746	3.12
225.98	6.12
226.215	20.12
226.449	17.12
226.683	16.12
226.918	23.12
227.152	28.12
227.387	34.12
227.621	35.12
227.856	38.12
228.09	36.12
228.324	50.12
228.559	40.12
228.793	68.12
229.027	104.12
229.262	93.12
229.496	106.12
229.73	118.12
229.964	149.12
230.199	122.12
230.433	122.12
230.667	103.12
230.901	97.12
231.136	113.12
231.37	99.12
231.604	117.12
231.838	104.12
232.072	111.12
232.306	116.12
232.541	117.12
232.775	113.12
233.009	100.12
233.243	104.12
233.477	107.12
233.711	116.12
233.945	117.12
234.179	106.12
234.413	123.12
234.647	123.12
234.881	112.12
235.115	119.12
235.349	113.12
235.583	126.12
235.817	105.12
236.051	111.12
236.285	115.12
236.519	118.12
236.753	124.12
236.987	135.12
237.221	183.12
237.455	213.12
237.689	177.12
237.922	128.12
238.156	124.12
238.39	113.12
238.624	129.12
238.858	131.12
239.091	124.12
239.325	124.12
239.559	123.12
239.793	114.12
240.027	119.12
240.26	128.12
240.494	159.12
240.728	141.12
240.961	128.12
241.195	135.12
241.429	147.12
241.662	137.12
241.896	133.12
242.13	119.12
242.363	134.12
242.597	132.12
242.83	123.12
243.064	152.12
243.298	117.12
243.531	117.12
243.765	131.12
243.998	134.12
244.232	139.12
244.465	139.12
244.699	137.12
244.932	154.12
245.166	136.12
245.399	126.12
245.633	133.12
245.866	147.12
246.099	133.12
246.333	149.12
246.566	139.12
246.8	147.12
247.033	165.12
247.266	168.12
247.5	162.12
247.733	175.12
247.966	169.12
248.2	179.12
248.433	177.12
248.666	190.12
248.899	179.12
249.133	192.12
249.366	201.12
249.599	192.12
249.832	192.12
250.066	184.12
250.299	168.12
250.532	199.12
250.765	197.12
250.998	233.12
251.231	213.12
251.465	228.12
251.698	207.12
251.931	207.12
252.164	156.12
252.397	196.12
252.63	216.12
252.863	208.12
253.096	217.12
253.329	227.12
253.562	226.12
253.795	219.12
254.028	201.12
254.261	220.12
254.494	222.12
254.727	265.12
254.96	268.12
255.193	282.12
255.426	242.12
255.659	229.12
255.892	247.12
256.124	225.12
256.357	224.12
256.59	226.12
256.823	201.12
257.056	213.12
257.289	215.12
257.521	234.12
257.754	217.12
257.987	218.12
258.22	218.12
258.452	188.12
258.685	223.12
258.918	205.12
259.151	203.12
259.383	220.12
259.616	216.12
259.849	222.12
260.081	238.12
260.314	267.12
260.547	271.12
260.779	270.12
261.012	235.12
261.244	219.12
261.477	215.12
261.71	217.12
261.942	234.12
262.175	228.12
262.407	226.12
262.64	224.12
262.872	215.12
263.105	213.12
263.337	217.12
263.57	195.12
263.802	210.12
264.035	215.12
264.267	219.12
264.499	235.12
264.732	230.12
264.964	224.12
265.197	212.12
265.429	222.12
265.661	208.12
265.894	216.12
266.126	215.12
266.358	211.12
266.591	228.12
266.823	238.12
267.055	220.12
267.287	249.12
267.52	229.12
267.752	235.12
267.984	235.12
268.216	224.12
268.448	246.12
268.681	239.12
268.913	275.12
269.145	263.12
269.377	289.12
269.609	259.12
269.841	279.12
270.073	273.12
270.306	299.12
270.538	303.12
270.77	306.12
271.002	322.12
271.234	308.12
271.466	291.12
271.698	332.12
271.93	335.12
272.162	329.12
272.394	319.12
272.626	312.12
272.858	301.12
273.09	288.12
273.322	280.12
273.553	274.12
273.785	282.12
274.017	276.12
274.249	276.12
274.481	259.12
274.713	280.12
274.945	270.12
275.176	281.12
275.408	267.12
275.64	264.12
275.872	245.12
276.104	270.12
276.335	268.12
276.567	284.12
276.799	288.12
277.031	306.12
277.262	310.12
277.494	323.12
277.726	321.12
277.957	311.12
278.189	292.12
278.421	288.12
278.652	283.12
278.884	282.12
279.115	283.12
279.347	275.12
279.579	283.12
279.81	292.12
280.042	268.12
280.273	272.12
280.505	268.12
280.736	255.12
280.968	271.12
281.199	283.12
281.431	287.12
281.662	278.12
281.894	271.12
282.125	287.12
282.356	278.12
282.588	307.12
282.819	277.12
283.051	279.12
283.282	272.12
283.513	273.12
283.745	284.12
283.976	295.12
284.207	266.12
284.439	286.12
284.67	283.12
284.901	287.12
285.132	274.12
285.364	274.12
285.595	292.12
285.826	277.12
286.057	265.12
286.288	270.12
286.52	292.12
286.751	281.12
286.982	285.12
287.213	290.12
287.444	291.12
287.675	298.12
287.906	296.12
288.138	301.12
288.369	308.12
288.6	282.12
288.831	295.12
289.062	303.12
289.293	279.12
289.524	306.12
289.755	309.12
289.986	297.12
290.217	282.12
290.448	283.12
290.679	295.12
290.91	279.12
291.141	297.12
291.371	302.12
291.602	299.12
291.833	294.12
292.064	276.12
292.295	266.12
292.526	298.12
292.757	307.12
292.987	298.12
293.218	312.12
293.449	285.12
293.68	307.12
293.91	290.12
294.141	291.12
294.372	291.12
294.603	291.12
294.833	319.12
295.064	299.12
295.295	307.12
295.525	293.12
295.756	300.12
295.987	290.12
296.217	328.12
296.448	323.12
296.679	303.12
296.909	293.12
297.14	277.12
297.37	297.12
297.601	300.12
297.831	291.12
298.062	298.12
298.292	284.12
298.523	317.12
298.753	319.12
298.984	315.12
299.214	299.12
299.445	308.12
299.675	300.12
299.905	321.12
300.136	322.12
300.366	319.12
300.597	311.12
300.827	328.12
301.057	336.12
301.288	331.12
301.518	338.12
301.748	322.12
301.979	326.12
302.209	303.12
302.439	314.12
302.669	310.12
302.9	313.12
303.13	320.12
303.36	328.12
303.59	325.12
303.82	333.12
304.051	353.12
304.281	337.12
304.511	332.12
304.741	337.12
304.971	337.12
305.201	321.12
305.431	337.12
305.661	331.12
305.891	343.12
306.121	335.12
306.352	341.12
306.582	337.12
306.812	360.12
307.042	350.12
307.272	325.12
307.502	318.12
307.731	332.12
307.961	333.12
308.191	321.12
308.421	330.12
308.651	333.12
308.881	342.12
309.111	347.12
309.341	368.12
309.571	356.12
309.8	381.12
310.03	364.12
310.26	381.12
310.49	372.12
310.72	379.12
310.949	395.12
311.179	393.12
311.409	383.12
311.639	367.12
311.868	372.12
312.098	381.12
312.328	385.12
312.557	395.12
312.787	395.12
313.017	420.12
313.246	391.12
313.476	377.12
313.706	387.12
313.935	380.12
314.165	388.12
314.394	387.12
314.624	369.12
314.853	388.12
315.083	361.12
315.312	365.12
315.542	406.12
315.771	369.12
316.001	370.12
316.23	387.12
316.46	374.12
316.689	372.12
316.919	383.12
317.148	381.12
317.377	374.12
317.607	383.12
317.836	379.12
318.065	363.12
318.295	369.12
318.524	364.12
318.753	365.12
318.983	361.12
319.212	378.12
319.441	395.12
319.67	404.12
319.9	379.12
320.129	390.12
320.358	383.12
320.587	389.12
320.816	389.12
321.046	412.12
321.275	403.12
321.504	399.12
321.733	418.12
321.962	418.12
322.191	434.12
322.42	439.12
322.649	451.12
322.878	448.12
323.108	450.12
323.337	460.12
323.566	490.12
323.795	522.12
324.024	585.12
324.253	704.12
324.482	993.12
324.71	1455.12
324.939	2002.12
325.168	1642.12
325.397	906.12
325.626	631.12
325.855	530.12
326.084	496.12
326.313	505.12
326.542	509.12
326.77	543.12
326.999	677.12
327.228	871.12
327.457	1320.12
327.686	1509.12
327.914	1007.12
328.143	697.12
328.372	616.12
328.6	588.12
328.829	555.12
329.058	571.12
329.287	552.12
329.515	514.12
329.744	483.12
329.972	505.12
330.201	515.12
330.43	565.12
330.658	569.12
330.887	585.12
331.115	552.12
331.344	504.12
331.572	471.12
331.801	496.12
332.03	463.12
332.258	471.12
332.486	439.12
332.715	453.12
332.943	450.12
333.172	442.12
333.4	446.12
333.629	443.12
333.857	463.12
334.085	481.12
334.314	503.12
334.542	509.12
334.771	501.12
334.999	488.12
335.227	447.12
335.455	465.12
335.684	448.12
335.912	443.12
336.14	428.12
336.369	423.12
336.597	434.12
336.825	460.12
337.053	422.12
337.281	423.12
337.51	415.12
337.738	435.12
337.966	445.12
338.194	415.12
338.422	433.12
338.65	425.12
338.878	419.12
339.106	399.12
339.334	402.12
339.562	414.12
339.79	422.12
340.018	425.12
340.246	412.12
340.474	420.12
340.702	400.12
340.93	419.12
341.158	420.12
341.386	407.12
341.614	404.12
341.842	412.12
342.07	419.12
342.298	394.12
342.526	411.12
342.754	401.12
342.981	394.12
343.209	423.12
343.437	397.12
343.665	412.12
343.893	426.12
344.12	417.12
344.348	421.12
344.576	413.12
344.804	418.12
345.031	419.12
345.259	407.12
345.487	403.12
345.714	419.12
345.942	392.12
346.17	394.12
346.397	387.12
346.625	402.12
346.853	389.12
347.08	393.12
347.308	404.12
347.535	394.12
347.763	405.12
347.99	425.12
348.218	421.12
348.445	403.12
348.673	414.12
348.9	403.12
349.128	408.12
349.355	380.12
349.583	382.12
349.81	396.12
350.037	380.12
350.265	384.12
350.492	366.12
350.72	389.12
350.947	393.12
351.174	385.12
351.402	407.12
351.629	393.12
351.856	396.12
352.083	415.12
352.311	393.12
352.538	391.12
352.765	382.12
352.992	415.12
353.22	391.12
353.447	385.12
353.674	378.12
353.901	388.12
354.128	402.12
354.355	371.12
354.583	372.12
354.81	362.12
355.037	372.12
355.264	380.12
355.491	353.12
355.718	362.12
355.945	352.12
356.172	345.12
356.399	358.12
356.626	371.12
356.853	345.12
357.08	355.12
357.307	370.12
357.534	346.12
357.761	356.12
357.988	358.12
358.215	359.12
358.441	358.12
358.668	377.12
358.895	349.12
359.122	369.12
359.349	367.12
359.576	377.12
359.802	417.12
360.029	424.12
360.256	403.12
360.483	421.12
360.709	381.12
360.936	393.12
361.163	374.12
361.39	405.12
361.616	391.12
361.843	379.12
362.07	373.12
362.296	375.12
362.523	380.12
362.749	391.12
362.976	379.12
363.203	368.12
363.429	360.12
363.656	368.12
363.882	353.12
364.109	360.12
364.335	332.12
364.562	362.12
364.788	353.12
365.015	374.12
365.241	359.12
365.468	344.12
365.694	376.12
365.92	371.12
366.147	396.12
366.373	356.12
366.599	368.12
366.826	355.12
367.052	348.12
367.278	362.12
367.505	353.12
367.731	360.12
367.957	356.12
368.184	340.12
368.41	370.12
368.636	379.12
368.862	398.12
369.089	365.12
369.315	369.12
369.541	375.12
369.767	349.12
369.993	350.12
370.219	352.12
370.445	349.12
370.672	347.12
370.898	344.12
371.124	349.12
371.35	374.12
371.576	339.12
371.802	351.12
372.028	354.12
372.254	343.12
372.48	348.12
372.706	347.12
372.932	361.12
373.158	369.12
373.384	373.12
373.61	351.12
373.835	367.12
374.061	373.12
374.287	364.12
374.513	351.12
374.739	358.12
374.965	372.12
375.191	360.12
375.416	353.12
375.642	361.12
375.868	356.12
376.094	375.12
376.319	346.12
376.545	358.12
376.771	355.12
376.997	350.12
377.222	346.12
377.448	339.12
377.674	340.12
377.899	347.12
378.125	334.12
378.35	330.12
378.576	339.12
378.802	339.12
379.027	326.12
379.253	344.12
379.478	339.12
379.704	340.12
379.929	352.12
380.155	361.12
380.38	356.12
380.606	339.12
380.831	348.12
381.057	354.12
381.282	367.12
381.507	351.12
381.733	342.12
381.958	340.12
382.184	366.12
382.409	340.12
382.634	341.12
382.86	351.12
383.085	331.12
383.31	351.12
383.535	347.12
383.761	368.12
383.986	360.12
384.211	360.12
384.436	367.12
384.662	361.12
384.887	371.12
385.112	340.12
385.337	374.12
385.562	373.12
385.787	348.12
386.013	391.12
386.238	376.12
386.463	394.12
386.688	371.12
386.913	374.12
387.138	377.12
387.363	365.12
387.588	369.12
387.813	367.12
388.038	384.12
388.263	357.12
388.488	369.12
388.713	345.12
388.938	367.12
389.163	380.12
389.387	387.12
389.612	359.12
389.837	372.12
390.062	352.12
390.287	376.12
390.512	354.12
390.736	372.12
390.961	368.12
391.186	362.12
391.411	383.12
391.636	364.12
391.86	353.12
392.085	371.12
392.31	360.12
392.534	373.12
392.759	349.12
392.984	372.12
393.208	347.12
393.433	378.12
393.658	374.12
393.882	358.12
394.107	381.12
394.331	375.12
394.556	368.12
394.78	360.12
395.005	379.12
395.229	374.12
395.454	344.12
395.678	389.12
395.903	387.12
396.127	409.12
396.352	427.12
396.576	386.12
396.801	357.12
397.025	366.12
397.249	379.12
397.474	406.12
397.698	388.12
397.922	400.12
398.147	394.12
398.371	393.12
398.595	389.12
398.82	392.12
399.044	416.12
399.268	415.12
399.492	441.12
399.717	450.12
399.941	491.12
400.165	471.12
400.389	499.12
400.613	445.12
400.837	430.12
401.062	409.12
401.286	419.12
401.51	402.12
401.734	398.12
401.958	393.12
402.182	411.12
402.406	402.12
402.63	423.12
402.854	417.12
403.078	413.12
403.302	421.12
403.526	411.12
403.75	397.12
403.974	435.12
404.198	401.12
404.422	427.12
404.645	420.12
404.869	429.12
405.093	441.12
405.317	475.12
405.541	506.12
405.765	478.12
405.988	431.12
406.212	467.12
406.436	458.12
406.66	476.12
406.883	457.12
407.107	464.12
407.331	509.12
407.555	552.12
407.778	563.12
408.002	490.12
408.226	454.12
408.449	437.12
408.673	460.12
408.896	489.12
409.12	529.12
409.344	483.12
409.567	450.12
409.791	441.12
410.014	437.12
410.238	422.12
410.461	406.12
410.685	417.12
410.908	408.12
411.132	447.12
411.355	480.12
411.578	476.12
411.802	432.12
412.025	421.12
412.249	435.12
412.472	439.12
412.695	461.12
412.919	473.12
413.142	415.12
413.365	422.12
413.589	399.12
413.812	397.12
414.035	384.12
414.258	401.12
414.482	394.12
414.705	379.12
414.928	403.12
415.151	374.12
415.374	380.12
415.597	380.12
415.821	388.12
416.044	390.12
416.267	417.12
416.49	385.12
416.713	390.12
416.936	403.12
417.159	393.12
417.382	397.12
417.605	396.12
417.828	408.12
418.051	415.12
418.274	408.12
418.497	405.12
418.72	428.12
418.943	386.12
419.166	403.12
419.389	416.12
419.611	404.12
419.834	429.12
420.057	422.12
420.28	414.12
420.503	423.12
420.726	419.12
420.948	417.12
421.171	442.12
421.394	468.12
421.617	434.12
421.839	424.12
422.062	412.12
422.285	433.12
422.507	473.12
422.73	548.12
422.953	510.12
423.175	451.12
423.398	439.12
423.621	433.12
423.843	442.12
424.066	453.12
424.288	426.12
424.511	460.12
424.733	496.12
424.956	557.12
425.178	549.12
425.401	570.12
425.623	559.12
425.846	464.12
426.068	447.12
426.291	433.12
426.513	455.12
426.735	467.12
426.958	488.12
427.18	569.12
427.402	663.12
427.625	707.12
427.847	613.12
428.069	555.12
428.292	492.12
428.514	447.12
428.736	433.12
428.958	434.12
429.181	428.12
429.403	420.12
429.625	404.12
429.847	451.12
430.069	496.12
430.292	491.12
430.514	447.12
430.736	411.12
430.958	392.12
431.18	380.12
431.402	394.12
431.624	391.12
431.846	390.12
432.068	380.12
432.29	362.12
432.512	364.12
432.734	383.12
432.956	381.12
433.178	401.12
433.4	417.12
433.622	381.12
433.844	398.12
434.066	393.12
434.287	404.12
434.509	368.12
434.731	393.12
434.953	380.12
435.175	437.12
435.397	440.12
435.618	446.12
435.84	498.12
436.062	548.12
436.284	601.12
436.505	513.12
436.727	473.12
436.949	434.12
437.17	437.12
437.392	411.12
437.614	431.12
437.835	466.12
438.057	516.12
438.278	563.12
438.5	600.12
438.721	641.12
438.943	634.12
439.165	509.12
439.386	467.12
439.608	465.12
439.829	469.12
440.05	478.12
440.272	519.12
440.493	474.12
440.715	455.12
440.936	423.12
441.158	400.12
441.379	400.12
441.6	436.12
441.822	463.12
442.043	497.12
442.264	546.12
442.486	573.12
442.707	487.12
442.928	464.12
443.149	453.12
443.371	471.12
443.592	521.12
443.813	581.12
444.034	624.12
444.255	522.12
444.476	466.12
444.698	460.12
444.919	434.12
445.14	525.12
445.361	497.12
445.582	491.12
445.803	540.12
446.024	618.12
446.245	651.12
446.466	566.12
446.687	489.12
446.908	455.12
447.129	420.12
447.35	409.12
447.571	417.12
447.792	411.12
448.013	415.12
448.234	436.12
448.455	474.12
448.675	549.12
448.896	661.12
449.117	564.12
449.338	533.12
449.559	611.12
449.779	667.12
450	554.12
450.221	449.12
450.442	423.12
450.662	425.12
450.883	411.12
451.104	407.12
451.324	398.12
451.545	396.12
451.766	383.12
451.986	356.12
452.207	385.12
452.428	370.12
452.648	352.12
452.869	379.12
453.089	378.12
453.31	381.12
453.53	367.12
453.751	380.12
453.971	356.12
454.192	392.12
454.412	355.12
454.633	375.12
454.853	345.12
455.073	363.12
455.294	400.12
455.514	429.12
455.734	425.12
455.955	369.12
456.175	347.12
456.395	342.12
456.616	344.12
456.836	333.12
457.056	351.12
457.276	335.12
457.497	341.12
457.717	355.12
457.937	347.12
458.157	357.12
458.377	345.12
458.598	362.12
458.818	428.12
459.038	483.12
459.258	495.12
459.478	426.12
459.698	387.12
459.918	377.12
460.138	375.12
460.358	364.12
460.578	361.12
460.798	373.12
461.018	388.12
461.238	387.12
461.458	369.12
461.678	371.12
461.898	385.12
462.118	369.12
462.338	366.12
462.558	408.12
462.777	396.12
462.997	395.12
463.217	400.12
463.437	395.12
463.657	426.12
463.876	405.12
464.096	389.12
464.316	408.12
464.536	405.12
464.755	392.12
464.975	414.12
465.195	456.12
465.414	476.12
465.634	421.12
465.854	408.12
466.073	379.12
466.293	377.12
466.512	378.12
466.732	362.12
466.951	367.12
467.171	351.12
467.391	372.12
467.61	365.12
467.829	386.12
468.049	385.12
468.268	375.12
468.488	376.12
468.707	358.12
468.927	364.12
469.146	357.12
469.365	379.12
469.585	372.12
469.804	371.12
470.023	381.12
470.243	385.12
470.462	383.12
470.681	390.12
470.901	392.12
471.12	381.12
471.339	364.12
471.558	377.12
471.777	402.12
471.997	381.12
472.216	357.12
472.435	415.12
472.654	379.12
472.873	363.12
473.092	358.12
473.311	385.12
473.53	397.12
473.749	378.12
473.968	454.12
474.187	488.12
474.406	501.12
474.625	423.12
474.844	372.12
475.063	383.12
475.282	388.12
475.501	374.12
475.72	385.12
475.939	370.12
476.158	379.12
476.377	402.12
476.596	389.12
476.814	382.12
477.033	380.12
477.252	382.12
477.471	383.12
477.69	391.12
477.908	387.12
478.127	432.12
478.346	409.12
478.564	403.12
478.783	413.12
479.002	418.12
479.22	437.12
479.439	421.12
479.658	454.12
479.876	445.12
480.095	449.12
480.313	479.12
480.532	460.12
480.751	460.12
480.969	464.12
481.188	487.12
481.406	492.12
481.624	453.12
481.843	438.12
482.061	421.12
482.28	451.12
482.498	441.12
482.717	432.12
482.935	420.12
483.153	452.12
483.372	434.12
483.59	438.12
483.808	458.12
484.027	445.12
484.245	443.12
484.463	440.12
484.681	449.12
484.9	461.12
485.118	440.12
485.336	427.12
485.554	439.12
485.772	457.12
485.99	453.12
486.209	438.12
486.427	443.12
486.645	463.12
486.863	461.12
487.081	469.12
487.299	461.12
487.517	466.12
487.735	468.12
487.953	473.12
488.171	476.12
488.389	463.12
488.607	479.12
488.825	463.12
489.043	475.12
489.261	459.12
489.479	484.12
489.696	479.12
489.914	452.12
490.132	471.12
490.35	489.12
490.568	500.12
490.786	517.12
491.003	506.12
491.221	521.12
491.439	546.12
491.657	525.12
491.874	567.12
492.092	537.12
492.31	552.12
492.527	562.12
492.745	531.12
492.963	548.12
493.18	559.12
493.398	533.12
493.615	561.12
493.833	551.12
494.05	559.12
494.268	539.12
494.485	562.12
494.703	529.12
494.92	546.12
495.138	557.12
495.355	550.12
495.573	551.12
495.79	561.12
496.008	568.12
496.225	549.12
496.442	560.12
496.66	559.12
496.877	546.12
497.094	574.12
497.312	563.12
497.529	572.12
497.746	564.12
497.963	572.12
498.181	607.12
498.398	601.12
498.615	604.12
498.832	608.12
499.049	624.12
499.267	612.12
499.484	653.12
499.701	674.12
499.918	685.12
500.135	690.12
500.352	737.12
500.569	703.12
500.786	763.12
501.003	736.12
501.22	695.12
501.437	663.12
501.654	679.12
501.871	670.12
