Data from 1971.PennyLincolnUp.Lamp.En5.5.200Scan.071719.P1._HRD10591_15-19-46-843.txt Node
Date: Thu Jul 18 15:19:46 EDT 2019
User: cochatt
Spectrometer: HR+D1059
Trigger mode: 1
Integration Time (sec): 1.000000E-1
Scans to average: 1
Electric dark correction enabled: true
Nonlinearity correction enabled: false
Boxcar width: 0
XAxis mode: Wavelengths
Number of Pixels in Spectrum: 2048
>>>>>Begin Spectral Data<<<<<
223.165	-21.81
223.4	-21.81
223.635	-21.81
223.869	-23.81
224.104	-20.81
224.338	-8.81
224.573	-3.81
224.808	-17.81
225.042	-7.81
225.277	-16.81
225.511	6.19
225.746	10.19
225.98	20.19
226.215	0.19
226.449	10.19
226.683	15.19
226.918	31.19
227.152	28.19
227.387	18.19
227.621	30.19
227.856	37.19
228.09	53.19
228.324	40.19
228.559	59.19
228.793	75.19
229.027	96.19
229.262	102.19
229.496	107.19
229.73	121.19
229.964	135.19
230.199	135.19
230.433	110.19
230.667	103.19
230.901	107.19
231.136	105.19
231.37	102.19
231.604	81.19
231.838	101.19
232.072	111.19
232.306	94.19
232.541	102.19
232.775	109.19
233.009	123.19
233.243	113.19
233.477	120.19
233.711	124.19
233.945	112.19
234.179	110.19
234.413	110.19
234.647	116.19
234.881	119.19
235.115	107.19
235.349	106.19
235.583	137.19
235.817	129.19
236.051	119.19
236.285	117.19
236.519	131.19
236.753	132.19
236.987	145.19
237.221	191.19
237.455	236.19
237.689	173.19
237.922	146.19
238.156	143.19
238.39	137.19
238.624	132.19
238.858	121.19
239.091	127.19
239.325	128.19
239.559	126.19
239.793	117.19
240.027	139.19
240.26	140.19
240.494	172.19
240.728	132.19
240.961	161.19
241.195	148.19
241.429	157.19
241.662	125.19
241.896	134.19
242.13	142.19
242.363	136.19
242.597	130.19
242.83	137.19
243.064	139.19
243.298	135.19
243.531	133.19
243.765	145.19
243.998	134.19
244.232	164.19
244.465	142.19
244.699	157.19
244.932	155.19
245.166	154.19
245.399	159.19
245.633	152.19
245.866	134.19
246.099	143.19
246.333	160.19
246.566	149.19
246.8	141.19
247.033	147.19
247.266	160.19
247.5	168.19
247.733	176.19
247.966	160.19
248.2	169.19
248.433	162.19
248.666	180.19
248.899	168.19
249.133	203.19
249.366	219.19
249.599	190.19
249.832	185.19
250.066	189.19
250.299	173.19
250.532	176.19
250.765	206.19
250.998	212.19
251.231	211.19
251.465	231.19
251.698	208.19
251.931	209.19
252.164	206.19
252.397	204.19
252.63	190.19
252.863	189.19
253.096	214.19
253.329	235.19
253.562	232.19
253.795	217.19
254.028	237.19
254.261	218.19
254.494	238.19
254.727	249.19
254.96	281.19
255.193	279.19
255.426	259.19
255.659	241.19
255.892	243.19
256.124	233.19
256.357	244.19
256.59	222.19
256.823	222.19
257.056	227.19
257.289	232.19
257.521	215.19
257.754	225.19
257.987	209.19
258.22	232.19
258.452	222.19
258.685	209.19
258.918	221.19
259.151	217.19
259.383	212.19
259.616	219.19
259.849	236.19
260.081	248.19
260.314	259.19
260.547	264.19
260.779	240.19
261.012	257.19
261.244	254.19
261.477	246.19
261.71	213.19
261.942	236.19
262.175	230.19
262.407	240.19
262.64	236.19
262.872	220.19
263.105	215.19
263.337	223.19
263.57	229.19
263.802	230.19
264.035	223.19
264.267	215.19
264.499	220.19
264.732	219.19
264.964	214.19
265.197	214.19
265.429	211.19
265.661	229.19
265.894	233.19
266.126	223.19
266.358	238.19
266.591	232.19
266.823	223.19
267.055	244.19
267.287	224.19
267.52	234.19
267.752	229.19
267.984	234.19
268.216	233.19
268.448	232.19
268.681	236.19
268.913	265.19
269.145	283.19
269.377	278.19
269.609	289.19
269.841	268.19
270.073	281.19
270.306	318.19
270.538	326.19
270.77	331.19
271.002	319.19
271.234	270.19
271.466	317.19
271.698	332.19
271.93	329.19
272.162	325.19
272.394	323.19
272.626	304.19
272.858	301.19
273.09	294.19
273.322	275.19
273.553	267.19
273.785	291.19
274.017	292.19
274.249	280.19
274.481	266.19
274.713	279.19
274.945	289.19
275.176	290.19
275.408	275.19
275.64	274.19
275.872	276.19
276.104	279.19
276.335	277.19
276.567	284.19
276.799	285.19
277.031	307.19
277.262	333.19
277.494	332.19
277.726	328.19
277.957	297.19
278.189	297.19
278.421	285.19
278.652	287.19
278.884	285.19
279.115	266.19
279.347	275.19
279.579	278.19
279.81	283.19
280.042	285.19
280.273	282.19
280.505	283.19
280.736	288.19
280.968	280.19
281.199	274.19
281.431	264.19
281.662	286.19
281.894	273.19
282.125	286.19
282.356	286.19
282.588	305.19
282.819	299.19
283.051	284.19
283.282	273.19
283.513	292.19
283.745	288.19
283.976	298.19
284.207	291.19
284.439	292.19
284.67	291.19
284.901	296.19
285.132	294.19
285.364	277.19
285.595	271.19
285.826	299.19
286.057	291.19
286.288	291.19
286.52	279.19
286.751	286.19
286.982	288.19
287.213	291.19
287.444	293.19
287.675	281.19
287.906	319.19
288.138	310.19
288.369	307.19
288.6	307.19
288.831	298.19
289.062	295.19
289.293	295.19
289.524	301.19
289.755	292.19
289.986	295.19
290.217	292.19
290.448	304.19
290.679	307.19
290.91	297.19
291.141	313.19
291.371	313.19
291.602	315.19
291.833	321.19
292.064	308.19
292.295	294.19
292.526	303.19
292.757	304.19
292.987	295.19
293.218	321.19
293.449	309.19
293.68	324.19
293.91	309.19
294.141	303.19
294.372	320.19
294.603	327.19
294.833	298.19
295.064	293.19
295.295	309.19
295.525	312.19
295.756	311.19
295.987	324.19
296.217	340.19
296.448	305.19
296.679	319.19
296.909	305.19
297.14	295.19
297.37	315.19
297.601	309.19
297.831	312.19
298.062	314.19
298.292	309.19
298.523	322.19
298.753	325.19
298.984	320.19
299.214	309.19
299.445	313.19
299.675	321.19
299.905	338.19
300.136	330.19
300.366	308.19
300.597	316.19
300.827	325.19
301.057	334.19
301.288	353.19
301.518	315.19
301.748	325.19
301.979	332.19
302.209	330.19
302.439	342.19
302.669	328.19
302.9	329.19
303.13	333.19
303.36	336.19
303.59	344.19
303.82	344.19
304.051	341.19
304.281	344.19
304.511	333.19
304.741	343.19
304.971	342.19
305.201	350.19
305.431	346.19
305.661	327.19
305.891	343.19
306.121	356.19
306.352	351.19
306.582	350.19
306.812	333.19
307.042	341.19
307.272	348.19
307.502	329.19
307.731	350.19
307.961	332.19
308.191	355.19
308.421	325.19
308.651	352.19
308.881	348.19
309.111	355.19
309.341	360.19
309.571	356.19
309.8	365.19
310.03	384.19
310.26	373.19
310.49	397.19
310.72	367.19
310.949	405.19
311.179	416.19
311.409	387.19
311.639	364.19
311.868	391.19
312.098	377.19
312.328	391.19
312.557	402.19
312.787	400.19
313.017	380.19
313.246	397.19
313.476	358.19
313.706	403.19
313.935	381.19
314.165	405.19
314.394	382.19
314.624	405.19
314.853	372.19
315.083	382.19
315.312	391.19
315.542	388.19
315.771	384.19
316.001	398.19
316.23	359.19
316.46	385.19
316.689	381.19
316.919	393.19
317.148	402.19
317.377	381.19
317.607	381.19
317.836	390.19
318.065	371.19
318.295	375.19
318.524	384.19
318.753	380.19
318.983	375.19
319.212	364.19
319.441	392.19
319.67	398.19
319.9	399.19
320.129	389.19
320.358	391.19
320.587	404.19
320.816	410.19
321.046	407.19
321.275	394.19
321.504	407.19
321.733	415.19
321.962	420.19
322.191	430.19
322.42	422.19
322.649	456.19
322.878	450.19
323.108	459.19
323.337	470.19
323.566	487.19
323.795	536.19
324.024	564.19
324.253	686.19
324.482	962.19
324.71	1405.19
324.939	1939.19
325.168	1632.19
325.397	859.19
325.626	617.19
325.855	533.19
326.084	511.19
326.313	485.19
326.542	505.19
326.77	543.19
326.999	633.19
327.228	863.19
327.457	1228.19
327.686	1447.19
327.914	969.19
328.143	661.19
328.372	600.19
328.6	571.19
328.829	557.19
329.058	536.19
329.287	563.19
329.515	551.19
329.744	486.19
329.972	499.19
330.201	520.19
330.43	538.19
330.658	552.19
330.887	574.19
331.115	529.19
331.344	511.19
331.572	478.19
331.801	466.19
332.03	463.19
332.258	483.19
332.486	454.19
332.715	438.19
332.943	448.19
333.172	465.19
333.4	446.19
333.629	468.19
333.857	474.19
334.085	500.19
334.314	489.19
334.542	512.19
334.771	504.19
334.999	500.19
335.227	449.19
335.455	431.19
335.684	453.19
335.912	429.19
336.14	427.19
336.369	449.19
336.597	447.19
336.825	441.19
337.053	430.19
337.281	435.19
337.51	420.19
337.738	420.19
337.966	437.19
338.194	429.19
338.422	420.19
338.65	428.19
338.878	429.19
339.106	413.19
339.334	414.19
339.562	409.19
339.79	432.19
340.018	417.19
340.246	427.19
340.474	435.19
340.702	415.19
340.93	427.19
341.158	393.19
341.386	428.19
341.614	405.19
341.842	405.19
342.07	433.19
342.298	404.19
342.526	401.19
342.754	401.19
342.981	416.19
343.209	399.19
343.437	413.19
343.665	421.19
343.893	437.19
344.12	407.19
344.348	426.19
344.576	428.19
344.804	440.19
345.031	440.19
345.259	425.19
345.487	443.19
345.714	405.19
345.942	409.19
346.17	402.19
346.397	406.19
346.625	409.19
346.853	400.19
347.08	407.19
347.308	407.19
347.535	425.19
347.763	424.19
347.99	400.19
348.218	417.19
348.445	407.19
348.673	397.19
348.9	404.19
349.128	395.19
349.355	385.19
349.583	402.19
349.81	395.19
350.037	385.19
350.265	397.19
350.492	389.19
350.72	372.19
350.947	386.19
351.174	402.19
351.402	399.19
351.629	400.19
351.856	402.19
352.083	406.19
352.311	412.19
352.538	401.19
352.765	421.19
352.992	406.19
353.22	404.19
353.447	407.19
353.674	401.19
353.901	386.19
354.128	393.19
354.355	358.19
354.583	367.19
354.81	388.19
355.037	373.19
355.264	371.19
355.491	363.19
355.718	368.19
355.945	369.19
356.172	381.19
356.399	379.19
356.626	361.19
356.853	371.19
357.08	336.19
357.307	358.19
357.534	410.19
357.761	355.19
357.988	373.19
358.215	359.19
358.441	346.19
358.668	377.19
358.895	381.19
359.122	375.19
359.349	374.19
359.576	380.19
359.802	403.19
360.029	425.19
360.256	428.19
360.483	405.19
360.709	396.19
360.936	387.19
361.163	379.19
361.39	383.19
361.616	397.19
361.843	385.19
362.07	395.19
362.296	381.19
362.523	381.19
362.749	400.19
362.976	384.19
363.203	389.19
363.429	393.19
363.656	408.19
363.882	380.19
364.109	375.19
364.335	379.19
364.562	364.19
364.788	373.19
365.015	360.19
365.241	361.19
365.468	367.19
365.694	372.19
365.92	405.19
366.147	363.19
366.373	350.19
366.599	368.19
366.826	351.19
367.052	366.19
367.278	371.19
367.505	375.19
367.731	382.19
367.957	361.19
368.184	363.19
368.41	388.19
368.636	369.19
368.862	384.19
369.089	371.19
369.315	378.19
369.541	359.19
369.767	350.19
369.993	377.19
370.219	360.19
370.445	383.19
370.672	372.19
370.898	336.19
371.124	331.19
371.35	356.19
371.576	367.19
371.802	372.19
372.028	352.19
372.254	357.19
372.48	361.19
372.706	366.19
372.932	377.19
373.158	345.19
373.384	374.19
373.61	371.19
373.835	372.19
374.061	379.19
374.287	381.19
374.513	377.19
374.739	377.19
374.965	372.19
375.191	367.19
375.416	385.19
375.642	357.19
375.868	356.19
376.094	371.19
376.319	349.19
376.545	332.19
376.771	368.19
376.997	353.19
377.222	364.19
377.448	379.19
377.674	363.19
377.899	345.19
378.125	361.19
378.35	351.19
378.576	351.19
378.802	345.19
379.027	357.19
379.253	361.19
379.478	337.19
379.704	360.19
379.929	344.19
380.155	342.19
380.38	376.19
380.606	346.19
380.831	347.19
381.057	343.19
381.282	369.19
381.507	348.19
381.733	363.19
381.958	357.19
382.184	360.19
382.409	379.19
382.634	366.19
382.86	357.19
383.085	342.19
383.31	372.19
383.535	347.19
383.761	364.19
383.986	345.19
384.211	353.19
384.436	375.19
384.662	369.19
384.887	377.19
385.112	359.19
385.337	363.19
385.562	378.19
385.787	352.19
386.013	377.19
386.238	388.19
386.463	389.19
386.688	390.19
386.913	372.19
387.138	366.19
387.363	360.19
387.588	363.19
387.813	369.19
388.038	374.19
388.263	381.19
388.488	379.19
388.713	379.19
388.938	390.19
389.163	366.19
389.387	384.19
389.612	378.19
389.837	382.19
390.062	385.19
390.287	388.19
390.512	371.19
390.736	371.19
390.961	382.19
391.186	366.19
391.411	381.19
391.636	395.19
391.86	383.19
392.085	381.19
392.31	388.19
392.534	373.19
392.759	388.19
392.984	363.19
393.208	393.19
393.433	381.19
393.658	379.19
393.882	370.19
394.107	374.19
394.331	371.19
394.556	360.19
394.78	379.19
395.005	364.19
395.229	397.19
395.454	396.19
395.678	374.19
395.903	363.19
396.127	398.19
396.352	427.19
396.576	404.19
396.801	382.19
397.025	381.19
397.249	407.19
397.474	400.19
397.698	409.19
397.922	407.19
398.147	405.19
398.371	405.19
398.595	407.19
398.82	415.19
399.044	411.19
399.268	422.19
399.492	465.19
399.717	443.19
399.941	492.19
400.165	507.19
400.389	508.19
400.613	469.19
400.837	430.19
401.062	431.19
401.286	442.19
401.51	419.19
401.734	413.19
401.958	421.19
402.182	415.19
402.406	425.19
402.63	424.19
402.854	419.19
403.078	418.19
403.302	421.19
403.526	425.19
403.75	436.19
403.974	399.19
404.198	415.19
404.422	415.19
404.645	419.19
404.869	438.19
405.093	473.19
405.317	506.19
405.541	487.19
405.765	470.19
405.988	450.19
406.212	428.19
406.436	460.19
406.66	448.19
406.883	483.19
407.107	497.19
407.331	508.19
407.555	560.19
407.778	538.19
408.002	528.19
408.226	475.19
408.449	459.19
408.673	479.19
408.896	484.19
409.12	528.19
409.344	486.19
409.567	441.19
409.791	434.19
410.014	429.19
410.238	423.19
410.461	431.19
410.685	418.19
410.908	428.19
411.132	466.19
411.355	493.19
411.578	468.19
411.802	444.19
412.025	437.19
412.249	428.19
412.472	446.19
412.695	482.19
412.919	470.19
413.142	438.19
413.365	414.19
413.589	408.19
413.812	403.19
414.035	414.19
414.258	394.19
414.482	396.19
414.705	403.19
414.928	393.19
415.151	397.19
415.374	420.19
415.597	411.19
415.821	403.19
416.044	409.19
416.267	414.19
416.49	407.19
416.713	390.19
416.936	398.19
417.159	402.19
417.382	413.19
417.605	407.19
417.828	419.19
418.051	437.19
418.274	395.19
418.497	404.19
418.72	396.19
418.943	428.19
419.166	429.19
419.389	443.19
419.611	426.19
419.834	412.19
420.057	427.19
420.28	431.19
420.503	417.19
420.726	428.19
420.948	455.19
421.171	465.19
421.394	500.19
421.617	456.19
421.839	446.19
422.062	447.19
422.285	437.19
422.507	479.19
422.73	549.19
422.953	513.19
423.175	451.19
423.398	441.19
423.621	435.19
423.843	466.19
424.066	463.19
424.288	476.19
424.511	475.19
424.733	518.19
424.956	591.19
425.178	572.19
425.401	555.19
425.623	566.19
425.846	508.19
426.068	433.19
426.291	453.19
426.513	453.19
426.735	464.19
426.958	504.19
427.18	592.19
427.402	646.19
427.625	725.19
427.847	624.19
428.069	543.19
428.292	480.19
428.514	445.19
428.736	419.19
428.958	407.19
429.181	401.19
429.403	413.19
429.625	423.19
429.847	448.19
430.069	515.19
430.292	496.19
430.514	417.19
430.736	405.19
430.958	415.19
431.18	401.19
431.402	413.19
431.624	411.19
431.846	388.19
432.068	387.19
432.29	391.19
432.512	396.19
432.734	405.19
432.956	405.19
433.178	391.19
433.4	404.19
433.622	405.19
433.844	400.19
434.066	404.19
434.287	389.19
434.509	385.19
434.731	404.19
434.953	403.19
435.175	454.19
435.397	435.19
435.618	433.19
435.84	470.19
436.062	585.19
436.284	615.19
436.505	519.19
436.727	468.19
436.949	437.19
437.17	415.19
437.392	417.19
437.614	437.19
437.835	458.19
438.057	549.19
438.278	605.19
438.5	618.19
438.721	661.19
438.943	652.19
439.165	519.19
439.386	471.19
439.608	454.19
439.829	471.19
440.05	471.19
440.272	536.19
440.493	472.19
440.715	447.19
440.936	452.19
441.158	443.19
441.379	428.19
441.6	425.19
441.822	457.19
442.043	488.19
442.264	572.19
442.486	592.19
442.707	495.19
442.928	470.19
443.149	470.19
443.371	509.19
443.592	533.19
443.813	605.19
444.034	655.19
444.255	527.19
444.476	473.19
444.698	459.19
444.919	456.19
445.14	558.19
445.361	510.19
445.582	485.19
445.803	552.19
446.024	628.19
446.245	651.19
446.466	577.19
446.687	483.19
446.908	463.19
447.129	445.19
447.35	428.19
447.571	416.19
447.792	416.19
448.013	424.19
448.234	446.19
448.455	503.19
448.675	591.19
448.896	663.19
449.117	563.19
449.338	540.19
449.559	631.19
449.779	667.19
450	570.19
450.221	470.19
450.442	443.19
450.662	409.19
450.883	398.19
451.104	411.19
451.324	423.19
451.545	411.19
451.766	379.19
451.986	362.19
452.207	376.19
452.428	382.19
452.648	374.19
452.869	372.19
453.089	377.19
453.31	396.19
453.53	365.19
453.751	361.19
453.971	389.19
454.192	401.19
454.412	363.19
454.633	367.19
454.853	371.19
455.073	371.19
455.294	403.19
455.514	455.19
455.734	432.19
455.955	387.19
456.175	350.19
456.395	360.19
456.616	348.19
456.836	330.19
457.056	341.19
457.276	348.19
457.497	355.19
457.717	351.19
457.937	357.19
458.157	371.19
458.377	359.19
458.598	391.19
458.818	423.19
459.038	468.19
459.258	486.19
459.478	429.19
459.698	392.19
459.918	379.19
460.138	400.19
460.358	386.19
460.578	390.19
460.798	395.19
461.018	393.19
461.238	405.19
461.458	387.19
461.678	385.19
461.898	391.19
462.118	387.19
462.338	402.19
462.558	386.19
462.777	402.19
462.997	416.19
463.217	435.19
463.437	414.19
463.657	421.19
463.876	407.19
464.096	418.19
464.316	411.19
464.536	430.19
464.755	441.19
464.975	421.19
465.195	457.19
465.414	486.19
465.634	461.19
465.854	407.19
466.073	401.19
466.293	405.19
466.512	391.19
466.732	377.19
466.951	377.19
467.171	369.19
467.391	376.19
467.61	381.19
467.829	413.19
468.049	392.19
468.268	384.19
468.488	379.19
468.707	371.19
468.927	374.19
469.146	373.19
469.365	373.19
469.585	379.19
469.804	374.19
470.023	388.19
470.243	361.19
470.462	408.19
470.681	416.19
470.901	400.19
471.12	384.19
471.339	391.19
471.558	387.19
471.777	362.19
471.997	379.19
472.216	398.19
472.435	419.19
472.654	395.19
472.873	380.19
473.092	373.19
473.311	383.19
473.53	399.19
473.749	396.19
473.968	454.19
474.187	534.19
474.406	526.19
474.625	429.19
474.844	392.19
475.063	405.19
475.282	396.19
475.501	385.19
475.72	393.19
475.939	391.19
476.158	403.19
476.377	391.19
476.596	400.19
476.814	400.19
477.033	407.19
477.252	419.19
477.471	413.19
477.69	408.19
477.908	411.19
478.127	407.19
478.346	395.19
478.564	423.19
478.783	402.19
479.002	427.19
479.22	442.19
479.439	429.19
479.658	465.19
479.876	470.19
480.095	442.19
480.313	461.19
480.532	487.19
480.751	444.19
480.969	453.19
481.188	518.19
481.406	500.19
481.624	491.19
481.843	461.19
482.061	457.19
482.28	446.19
482.498	430.19
482.717	424.19
482.935	448.19
483.153	439.19
483.372	437.19
483.59	432.19
483.808	429.19
484.027	425.19
484.245	437.19
484.463	453.19
484.681	457.19
484.9	456.19
485.118	437.19
485.336	459.19
485.554	445.19
485.772	449.19
485.99	439.19
486.209	454.19
486.427	464.19
486.645	488.19
486.863	475.19
487.081	503.19
487.299	470.19
487.517	475.19
487.735	463.19
487.953	483.19
488.171	465.19
488.389	470.19
488.607	492.19
488.825	455.19
489.043	456.19
489.261	493.19
489.479	471.19
489.696	484.19
489.914	492.19
490.132	502.19
490.35	506.19
490.568	505.19
490.786	503.19
491.003	519.19
491.221	540.19
491.439	557.19
491.657	548.19
491.874	553.19
492.092	558.19
492.31	568.19
492.527	581.19
492.745	557.19
492.963	558.19
493.18	560.19
493.398	561.19
493.615	561.19
493.833	572.19
494.05	560.19
494.268	558.19
494.485	583.19
494.703	567.19
494.92	560.19
495.138	581.19
495.355	579.19
495.573	570.19
495.79	576.19
496.008	576.19
496.225	588.19
496.442	571.19
496.66	592.19
496.877	551.19
497.094	575.19
497.312	577.19
497.529	600.19
497.746	584.19
497.963	600.19
498.181	621.19
498.398	594.19
498.615	629.19
498.832	621.19
499.049	628.19
499.267	641.19
499.484	677.19
499.701	671.19
499.918	673.19
500.135	714.19
500.352	723.19
500.569	729.19
500.786	752.19
501.003	738.19
501.22	697.19
501.437	695.19
501.654	710.19
501.871	679.19
