Data from 1971.PennyLincolnUp.Lamp.En5.5.200Scan.071719.P1.Scan 2. Changed Angle._HRD10591_15-23-17-842.txt Node
Date: Thu Jul 18 15:23:17 EDT 2019
User: cochatt
Spectrometer: HR+D1059
Trigger mode: 1
Integration Time (sec): 1.000000E-1
Scans to average: 1
Electric dark correction enabled: true
Nonlinearity correction enabled: false
Boxcar width: 0
XAxis mode: Wavelengths
Number of Pixels in Spectrum: 2048
>>>>>Begin Spectral Data<<<<<
223.165	-17.56
223.4	-17.56
223.635	-17.56
223.869	-26.56
224.104	-20.56
224.338	-19.56
224.573	-13.56
224.808	-1.56
225.042	2.44
225.277	-21.56
225.511	-15.56
225.746	0.44
225.98	19.44
226.215	17.44
226.449	16.44
226.683	17.44
226.918	23.44
227.152	39.44
227.387	36.44
227.621	46.44
227.856	42.44
228.09	70.44
228.324	49.44
228.559	54.44
228.793	68.44
229.027	103.44
229.262	107.44
229.496	110.44
229.73	154.44
229.964	168.44
230.199	152.44
230.433	133.44
230.667	122.44
230.901	116.44
231.136	121.44
231.37	117.44
231.604	113.44
231.838	120.44
232.072	113.44
232.306	127.44
232.541	112.44
232.775	118.44
233.009	127.44
233.243	117.44
233.477	113.44
233.711	119.44
233.945	111.44
234.179	129.44
234.413	120.44
234.647	120.44
234.881	136.44
235.115	112.44
235.349	123.44
235.583	125.44
235.817	131.44
236.051	136.44
236.285	125.44
236.519	134.44
236.753	145.44
236.987	152.44
237.221	188.44
237.455	266.44
237.689	208.44
237.922	145.44
238.156	150.44
238.39	151.44
238.624	120.44
238.858	128.44
239.091	129.44
239.325	138.44
239.559	128.44
239.793	130.44
240.027	138.44
240.26	158.44
240.494	168.44
240.728	166.44
240.961	162.44
241.195	152.44
241.429	140.44
241.662	156.44
241.896	150.44
242.13	134.44
242.363	144.44
242.597	145.44
242.83	142.44
243.064	159.44
243.298	131.44
243.531	132.44
243.765	135.44
243.998	146.44
244.232	146.44
244.465	138.44
244.699	145.44
244.932	149.44
245.166	164.44
245.399	156.44
245.633	152.44
245.866	160.44
246.099	149.44
246.333	139.44
246.566	143.44
246.8	156.44
247.033	182.44
247.266	172.44
247.5	158.44
247.733	166.44
247.966	183.44
248.2	175.44
248.433	192.44
248.666	190.44
248.899	194.44
249.133	210.44
249.366	219.44
249.599	209.44
249.832	216.44
250.066	193.44
250.299	185.44
250.532	198.44
250.765	199.44
250.998	223.44
251.231	246.44
251.465	232.44
251.698	237.44
251.931	212.44
252.164	216.44
252.397	215.44
252.63	224.44
252.863	232.44
253.096	224.44
253.329	232.44
253.562	247.44
253.795	231.44
254.028	239.44
254.261	246.44
254.494	245.44
254.727	271.44
254.96	295.44
255.193	285.44
255.426	278.44
255.659	247.44
255.892	246.44
256.124	249.44
256.357	233.44
256.59	246.44
256.823	238.44
257.056	223.44
257.289	235.44
257.521	211.44
257.754	221.44
257.987	220.44
258.22	211.44
258.452	207.44
258.685	213.44
258.918	214.44
259.151	232.44
259.383	228.44
259.616	221.44
259.849	223.44
260.081	232.44
260.314	260.44
260.547	276.44
260.779	246.44
261.012	240.44
261.244	238.44
261.477	225.44
261.71	225.44
261.942	240.44
262.175	243.44
262.407	255.44
262.64	234.44
262.872	225.44
263.105	233.44
263.337	242.44
263.57	219.44
263.802	215.44
264.035	216.44
264.267	208.44
264.499	218.44
264.732	205.44
264.964	208.44
265.197	216.44
265.429	200.44
265.661	205.44
265.894	209.44
266.126	218.44
266.358	233.44
266.591	217.44
266.823	227.44
267.055	222.44
267.287	231.44
267.52	222.44
267.752	242.44
267.984	207.44
268.216	202.44
268.448	246.44
268.681	233.44
268.913	236.44
269.145	263.44
269.377	270.44
269.609	269.44
269.841	282.44
270.073	296.44
270.306	289.44
270.538	326.44
270.77	302.44
271.002	313.44
271.234	292.44
271.466	302.44
271.698	314.44
271.93	320.44
272.162	338.44
272.394	343.44
272.626	304.44
272.858	308.44
273.09	286.44
273.322	269.44
273.553	243.44
273.785	273.44
274.017	258.44
274.249	273.44
274.481	277.44
274.713	264.44
274.945	260.44
275.176	264.44
275.408	271.44
275.64	272.44
275.872	263.44
276.104	256.44
276.335	251.44
276.567	265.44
276.799	292.44
277.031	310.44
277.262	310.44
277.494	317.44
277.726	291.44
277.957	284.44
278.189	272.44
278.421	281.44
278.652	282.44
278.884	270.44
279.115	278.44
279.347	260.44
279.579	253.44
279.81	256.44
280.042	255.44
280.273	249.44
280.505	257.44
280.736	254.44
280.968	258.44
281.199	249.44
281.431	255.44
281.662	260.44
281.894	276.44
282.125	254.44
282.356	279.44
282.588	305.44
282.819	293.44
283.051	269.44
283.282	254.44
283.513	262.44
283.745	251.44
283.976	278.44
284.207	271.44
284.439	284.44
284.67	252.44
284.901	283.44
285.132	279.44
285.364	246.44
285.595	268.44
285.826	269.44
286.057	259.44
286.288	270.44
286.52	268.44
286.751	251.44
286.982	282.44
287.213	268.44
287.444	273.44
287.675	279.44
287.906	283.44
288.138	287.44
288.369	299.44
288.6	293.44
288.831	274.44
289.062	288.44
289.293	285.44
289.524	280.44
289.755	272.44
289.986	272.44
290.217	283.44
290.448	273.44
290.679	253.44
290.91	272.44
291.141	266.44
291.371	274.44
291.602	272.44
291.833	285.44
292.064	265.44
292.295	291.44
292.526	283.44
292.757	279.44
292.987	278.44
293.218	263.44
293.449	272.44
293.68	271.44
293.91	280.44
294.141	271.44
294.372	288.44
294.603	274.44
294.833	269.44
295.064	289.44
295.295	274.44
295.525	288.44
295.756	288.44
295.987	285.44
296.217	312.44
296.448	326.44
296.679	295.44
296.909	274.44
297.14	296.44
297.37	283.44
297.601	276.44
297.831	273.44
298.062	268.44
298.292	299.44
298.523	288.44
298.753	274.44
298.984	308.44
299.214	284.44
299.445	296.44
299.675	295.44
299.905	275.44
300.136	281.44
300.366	282.44
300.597	306.44
300.827	289.44
301.057	300.44
301.288	326.44
301.518	304.44
301.748	282.44
301.979	300.44
302.209	303.44
302.439	292.44
302.669	293.44
302.9	307.44
303.13	295.44
303.36	317.44
303.59	324.44
303.82	316.44
304.051	319.44
304.281	319.44
304.511	286.44
304.741	296.44
304.971	296.44
305.201	297.44
305.431	312.44
305.661	309.44
305.891	288.44
306.121	309.44
306.352	317.44
306.582	312.44
306.812	300.44
307.042	306.44
307.272	316.44
307.502	326.44
307.731	325.44
307.961	304.44
308.191	299.44
308.421	317.44
308.651	315.44
308.881	298.44
309.111	345.44
309.341	332.44
309.571	331.44
309.8	365.44
310.03	363.44
310.26	369.44
310.49	356.44
310.72	377.44
310.949	377.44
311.179	389.44
311.409	386.44
311.639	363.44
311.868	378.44
312.098	356.44
312.328	373.44
312.557	372.44
312.787	411.44
313.017	399.44
313.246	388.44
313.476	368.44
313.706	358.44
313.935	376.44
314.165	381.44
314.394	398.44
314.624	388.44
314.853	379.44
315.083	382.44
315.312	380.44
315.542	354.44
315.771	352.44
316.001	346.44
316.23	376.44
316.46	354.44
316.689	346.44
316.919	381.44
317.148	361.44
317.377	380.44
317.607	376.44
317.836	364.44
318.065	365.44
318.295	360.44
318.524	369.44
318.753	364.44
318.983	377.44
319.212	361.44
319.441	376.44
319.67	380.44
319.9	376.44
320.129	383.44
320.358	360.44
320.587	356.44
320.816	376.44
321.046	402.44
321.275	388.44
321.504	418.44
321.733	392.44
321.962	424.44
322.191	437.44
322.42	440.44
322.649	449.44
322.878	460.44
323.108	489.44
323.337	514.44
323.566	512.44
323.795	556.44
324.024	624.44
324.253	776.44
324.482	1086.44
324.71	1712.44
324.939	2476.44
325.168	2120.44
325.397	1097.44
325.626	698.44
325.855	604.44
326.084	552.44
326.313	538.44
326.542	526.44
326.77	583.44
326.999	693.44
327.228	985.44
327.457	1503.44
327.686	1776.44
327.914	1231.44
328.143	786.44
328.372	696.44
328.6	653.44
328.829	595.44
329.058	624.44
329.287	644.44
329.515	592.44
329.744	527.44
329.972	520.44
330.201	541.44
330.43	609.44
330.658	643.44
330.887	680.44
331.115	634.44
331.344	528.44
331.572	506.44
331.801	510.44
332.03	508.44
332.258	480.44
332.486	448.44
332.715	440.44
332.943	425.44
333.172	469.44
333.4	453.44
333.629	439.44
333.857	471.44
334.085	470.44
334.314	480.44
334.542	518.44
334.771	537.44
334.999	457.44
335.227	462.44
335.455	440.44
335.684	458.44
335.912	420.44
336.14	433.44
336.369	413.44
336.597	440.44
336.825	436.44
337.053	421.44
337.281	418.44
337.51	416.44
337.738	423.44
337.966	429.44
338.194	418.44
338.422	443.44
338.65	423.44
338.878	406.44
339.106	436.44
339.334	410.44
339.562	393.44
339.79	402.44
340.018	409.44
340.246	432.44
340.474	444.44
340.702	397.44
340.93	398.44
341.158	394.44
341.386	418.44
341.614	436.44
341.842	420.44
342.07	390.44
342.298	413.44
342.526	401.44
342.754	406.44
342.981	390.44
343.209	400.44
343.437	389.44
343.665	401.44
343.893	429.44
344.12	425.44
344.348	414.44
344.576	410.44
344.804	422.44
345.031	453.44
345.259	452.44
345.487	446.44
345.714	421.44
345.942	422.44
346.17	413.44
346.397	402.44
346.625	419.44
346.853	406.44
347.08	418.44
347.308	411.44
347.535	416.44
347.763	436.44
347.99	426.44
348.218	441.44
348.445	426.44
348.673	436.44
348.9	422.44
349.128	400.44
349.355	393.44
349.583	381.44
349.81	390.44
350.037	390.44
350.265	412.44
350.492	385.44
350.72	404.44
350.947	420.44
351.174	427.44
351.402	420.44
351.629	408.44
351.856	409.44
352.083	429.44
352.311	438.44
352.538	455.44
352.765	428.44
352.992	440.44
353.22	439.44
353.447	413.44
353.674	403.44
353.901	401.44
354.128	408.44
354.355	399.44
354.583	374.44
354.81	396.44
355.037	406.44
355.264	394.44
355.491	376.44
355.718	375.44
355.945	362.44
356.172	395.44
356.399	384.44
356.626	391.44
356.853	386.44
357.08	381.44
357.307	360.44
357.534	384.44
357.761	362.44
357.988	370.44
358.215	374.44
358.441	396.44
358.668	385.44
358.895	392.44
359.122	388.44
359.349	386.44
359.576	428.44
359.802	439.44
360.029	474.44
360.256	493.44
360.483	477.44
360.709	423.44
360.936	423.44
361.163	436.44
361.39	425.44
361.616	425.44
361.843	418.44
362.07	424.44
362.296	431.44
362.523	413.44
362.749	421.44
362.976	415.44
363.203	427.44
363.429	401.44
363.656	414.44
363.882	415.44
364.109	391.44
364.335	392.44
364.562	417.44
364.788	398.44
365.015	404.44
365.241	407.44
365.468	400.44
365.694	414.44
365.92	406.44
366.147	392.44
366.373	410.44
366.599	414.44
366.826	393.44
367.052	421.44
367.278	416.44
367.505	401.44
367.731	382.44
367.957	392.44
368.184	398.44
368.41	410.44
368.636	425.44
368.862	431.44
369.089	404.44
369.315	390.44
369.541	405.44
369.767	402.44
369.993	404.44
370.219	403.44
370.445	408.44
370.672	396.44
370.898	384.44
371.124	401.44
371.35	387.44
371.576	405.44
371.802	394.44
372.028	379.44
372.254	378.44
372.48	398.44
372.706	398.44
372.932	393.44
373.158	383.44
373.384	398.44
373.61	402.44
373.835	393.44
374.061	408.44
374.287	400.44
374.513	408.44
374.739	411.44
374.965	414.44
375.191	402.44
375.416	394.44
375.642	405.44
375.868	391.44
376.094	392.44
376.319	389.44
376.545	405.44
376.771	400.44
376.997	399.44
377.222	400.44
377.448	388.44
377.674	410.44
377.899	395.44
378.125	397.44
378.35	382.44
378.576	412.44
378.802	396.44
379.027	388.44
379.253	413.44
379.478	398.44
379.704	400.44
379.929	417.44
380.155	409.44
380.38	431.44
380.606	406.44
380.831	394.44
381.057	401.44
381.282	386.44
381.507	421.44
381.733	408.44
381.958	420.44
382.184	405.44
382.409	389.44
382.634	431.44
382.86	410.44
383.085	420.44
383.31	406.44
383.535	411.44
383.761	418.44
383.986	412.44
384.211	423.44
384.436	429.44
384.662	410.44
384.887	420.44
385.112	420.44
385.337	401.44
385.562	461.44
385.787	438.44
386.013	422.44
386.238	459.44
386.463	448.44
386.688	421.44
386.913	444.44
387.138	439.44
387.363	429.44
387.588	424.44
387.813	429.44
388.038	433.44
388.263	424.44
388.488	440.44
388.713	422.44
388.938	431.44
389.163	415.44
389.387	428.44
389.612	434.44
389.837	458.44
390.062	417.44
390.287	426.44
390.512	438.44
390.736	446.44
390.961	416.44
391.186	429.44
391.411	450.44
391.636	440.44
391.86	437.44
392.085	434.44
392.31	449.44
392.534	438.44
392.759	433.44
392.984	447.44
393.208	444.44
393.433	444.44
393.658	460.44
393.882	433.44
394.107	448.44
394.331	441.44
394.556	434.44
394.78	430.44
395.005	433.44
395.229	448.44
395.454	436.44
395.678	450.44
395.903	475.44
396.127	480.44
396.352	514.44
396.576	459.44
396.801	449.44
397.025	461.44
397.249	471.44
397.474	462.44
397.698	473.44
397.922	447.44
398.147	490.44
398.371	491.44
398.595	472.44
398.82	509.44
399.044	501.44
399.268	495.44
399.492	520.44
399.717	524.44
399.941	576.44
400.165	584.44
400.389	612.44
400.613	588.44
400.837	532.44
401.062	503.44
401.286	480.44
401.51	497.44
401.734	475.44
401.958	510.44
402.182	505.44
402.406	500.44
402.63	529.44
402.854	515.44
403.078	496.44
403.302	527.44
403.526	529.44
403.75	497.44
403.974	541.44
404.198	510.44
404.422	529.44
404.645	548.44
404.869	532.44
405.093	553.44
405.317	605.44
405.541	630.44
405.765	587.44
405.988	550.44
406.212	579.44
406.436	608.44
406.66	603.44
406.883	581.44
407.107	582.44
407.331	648.44
407.555	705.44
407.778	680.44
408.002	612.44
408.226	581.44
408.449	580.44
408.673	588.44
408.896	625.44
409.12	650.44
409.344	630.44
409.567	534.44
409.791	524.44
410.014	542.44
410.238	522.44
410.461	536.44
410.685	550.44
410.908	557.44
411.132	582.44
411.355	636.44
411.578	583.44
411.802	554.44
412.025	534.44
412.249	558.44
412.472	574.44
412.695	589.44
412.919	584.44
413.142	547.44
413.365	518.44
413.589	521.44
413.812	488.44
414.035	508.44
414.258	489.44
414.482	504.44
414.705	476.44
414.928	477.44
415.151	500.44
415.374	491.44
415.597	497.44
415.821	490.44
416.044	534.44
416.267	522.44
416.49	520.44
416.713	509.44
416.936	518.44
417.159	493.44
417.382	518.44
417.605	524.44
417.828	512.44
418.051	518.44
418.274	511.44
418.497	489.44
418.72	534.44
418.943	520.44
419.166	507.44
419.389	536.44
419.611	532.44
419.834	533.44
420.057	530.44
420.28	545.44
420.503	545.44
420.726	528.44
420.948	572.44
421.171	589.44
421.394	630.44
421.617	568.44
421.839	550.44
422.062	550.44
422.285	569.44
422.507	636.44
422.73	688.44
422.953	673.44
423.175	604.44
423.398	578.44
423.621	563.44
423.843	587.44
424.066	550.44
424.288	593.44
424.511	600.44
424.733	655.44
424.956	740.44
425.178	734.44
425.401	729.44
425.623	740.44
425.846	644.44
426.068	605.44
426.291	596.44
426.513	595.44
426.735	601.44
426.958	633.44
427.18	740.44
427.402	866.44
427.625	939.44
427.847	848.44
428.069	752.44
428.292	664.44
428.514	586.44
428.736	578.44
428.958	572.44
429.181	548.44
429.403	553.44
429.625	578.44
429.847	610.44
430.069	669.44
430.292	682.44
430.514	589.44
430.736	540.44
430.958	550.44
431.18	542.44
431.402	522.44
431.624	515.44
431.846	502.44
432.068	515.44
432.29	506.44
432.512	516.44
432.734	529.44
432.956	529.44
433.178	534.44
433.4	544.44
433.622	526.44
433.844	528.44
434.066	527.44
434.287	509.44
434.509	523.44
434.731	500.44
434.953	525.44
435.175	556.44
435.397	576.44
435.618	603.44
435.84	657.44
436.062	748.44
436.284	792.44
436.505	670.44
436.727	624.44
436.949	604.44
437.17	570.44
437.392	564.44
437.614	571.44
437.835	631.44
438.057	708.44
438.278	823.44
438.5	820.44
438.721	912.44
438.943	863.44
439.165	697.44
439.386	653.44
439.608	621.44
439.829	622.44
440.05	640.44
440.272	700.44
440.493	647.44
440.715	614.44
440.936	572.44
441.158	562.44
441.379	552.44
441.6	567.44
441.822	609.44
442.043	639.44
442.264	728.44
442.486	778.44
442.707	658.44
442.928	635.44
443.149	626.44
443.371	644.44
443.592	700.44
443.813	770.44
444.034	851.44
444.255	699.44
444.476	607.44
444.698	583.44
444.919	578.44
445.14	701.44
445.361	636.44
445.582	645.44
445.803	731.44
446.024	828.44
446.245	827.44
446.466	757.44
446.687	652.44
446.908	607.44
447.129	575.44
447.35	576.44
447.571	581.44
447.792	568.44
448.013	554.44
448.234	588.44
448.455	636.44
448.675	755.44
448.896	853.44
449.117	735.44
449.338	706.44
449.559	806.44
449.779	898.44
450	745.44
450.221	637.44
450.442	602.44
450.662	557.44
450.883	564.44
451.104	578.44
451.324	591.44
451.545	554.44
451.766	520.44
451.986	504.44
452.207	497.44
452.428	490.44
452.648	512.44
452.869	504.44
453.089	514.44
453.31	511.44
453.53	500.44
453.751	522.44
453.971	534.44
454.192	528.44
454.412	525.44
454.633	493.44
454.853	487.44
455.073	513.44
455.294	528.44
455.514	586.44
455.734	561.44
455.955	508.44
456.175	480.44
456.395	470.44
456.616	467.44
456.836	447.44
457.056	463.44
457.276	445.44
457.497	472.44
457.717	472.44
457.937	471.44
458.157	491.44
458.377	502.44
458.598	544.44
458.818	584.44
459.038	673.44
459.258	686.44
459.478	599.44
459.698	536.44
459.918	509.44
460.138	508.44
460.358	481.44
460.578	520.44
460.798	518.44
461.018	524.44
461.238	520.44
461.458	478.44
461.678	481.44
461.898	509.44
462.118	525.44
462.338	510.44
462.558	515.44
462.777	516.44
462.997	537.44
463.217	538.44
463.437	538.44
463.657	546.44
463.876	548.44
464.096	547.44
464.316	529.44
464.536	540.44
464.755	555.44
464.975	549.44
465.195	622.44
465.414	721.44
465.634	624.44
465.854	578.44
466.073	551.44
466.293	522.44
466.512	509.44
466.732	502.44
466.951	511.44
467.171	491.44
467.391	499.44
467.61	529.44
467.829	530.44
468.049	519.44
468.268	510.44
468.488	494.44
468.707	500.44
468.927	489.44
469.146	486.44
469.365	500.44
469.585	462.44
469.804	525.44
470.023	526.44
470.243	526.44
470.462	522.44
470.681	547.44
470.901	529.44
471.12	528.44
471.339	527.44
471.558	500.44
471.777	506.44
471.997	497.44
472.216	529.44
472.435	565.44
472.654	561.44
472.873	526.44
473.092	520.44
473.311	529.44
473.53	498.44
473.749	527.44
473.968	570.44
474.187	694.44
474.406	689.44
474.625	590.44
474.844	537.44
475.063	522.44
475.282	528.44
475.501	511.44
475.72	554.44
475.939	513.44
476.158	546.44
476.377	549.44
476.596	548.44
476.814	538.44
477.033	572.44
477.252	552.44
477.471	554.44
477.69	552.44
477.908	558.44
478.127	541.44
478.346	569.44
478.564	565.44
478.783	592.44
479.002	569.44
479.22	570.44
479.439	598.44
479.658	639.44
479.876	614.44
480.095	623.44
480.313	631.44
480.532	617.44
480.751	635.44
480.969	627.44
481.188	668.44
481.406	738.44
481.624	654.44
481.843	617.44
482.061	634.44
482.28	637.44
482.498	624.44
482.717	602.44
482.935	618.44
483.153	623.44
483.372	607.44
483.59	629.44
483.808	617.44
484.027	609.44
484.245	616.44
484.463	618.44
484.681	629.44
484.9	617.44
485.118	629.44
485.336	612.44
485.554	623.44
485.772	646.44
485.99	614.44
486.209	635.44
486.427	646.44
486.645	642.44
486.863	679.44
487.081	671.44
487.299	648.44
487.517	644.44
487.735	664.44
487.953	664.44
488.171	688.44
488.389	684.44
488.607	666.44
488.825	711.44
489.043	664.44
489.261	656.44
489.479	677.44
489.696	677.44
489.914	688.44
490.132	690.44
490.35	697.44
490.568	704.44
490.786	719.44
491.003	710.44
491.221	750.44
491.439	727.44
491.657	760.44
491.874	766.44
492.092	774.44
492.31	800.44
492.527	769.44
492.745	804.44
492.963	787.44
493.18	768.44
493.398	812.44
493.615	806.44
493.833	799.44
494.05	806.44
494.268	770.44
494.485	802.44
494.703	800.44
494.92	812.44
495.138	821.44
495.355	803.44
495.573	807.44
495.79	813.44
496.008	801.44
496.225	808.44
496.442	802.44
496.66	811.44
496.877	778.44
497.094	780.44
497.312	807.44
497.529	817.44
497.746	812.44
497.963	829.44
498.181	830.44
498.398	814.44
498.615	871.44
498.832	890.44
499.049	856.44
499.267	879.44
499.484	873.44
499.701	910.44
499.918	918.44
500.135	963.44
500.352	977.44
500.569	993.44
500.786	977.44
501.003	978.44
501.22	987.44
501.437	956.44
501.654	976.44
