Data from 1971.PennyLincolnUp.Lamp.En5.5.200Scan.071719.P1._HRD10591_15-20-07-842.txt Node
Date: Thu Jul 18 15:20:07 EDT 2019
User: cochatt
Spectrometer: HR+D1059
Trigger mode: 1
Integration Time (sec): 1.000000E-1
Scans to average: 1
Electric dark correction enabled: true
Nonlinearity correction enabled: false
Boxcar width: 0
XAxis mode: Wavelengths
Number of Pixels in Spectrum: 2048
>>>>>Begin Spectral Data<<<<<
223.165	-17.38
223.4	-17.38
223.635	-17.38
223.869	-26.38
224.104	-10.38
224.338	-7.38
224.573	-2.38
224.808	-13.38
225.042	-6.38
225.277	-0.38
225.511	4.62
225.746	-8.38
225.98	-8.38
226.215	20.62
226.449	7.62
226.683	24.62
226.918	14.62
227.152	28.62
227.387	36.62
227.621	39.62
227.856	37.62
228.09	58.62
228.324	44.62
228.559	45.62
228.793	64.62
229.027	89.62
229.262	97.62
229.496	93.62
229.73	122.62
229.964	151.62
230.199	128.62
230.433	107.62
230.667	109.62
230.901	108.62
231.136	104.62
231.37	111.62
231.604	97.62
231.838	110.62
232.072	101.62
232.306	127.62
232.541	111.62
232.775	126.62
233.009	122.62
233.243	119.62
233.477	110.62
233.711	106.62
233.945	111.62
234.179	116.62
234.413	126.62
234.647	109.62
234.881	118.62
235.115	124.62
235.349	107.62
235.583	107.62
235.817	123.62
236.051	115.62
236.285	127.62
236.519	120.62
236.753	124.62
236.987	142.62
237.221	181.62
237.455	214.62
237.689	178.62
237.922	153.62
238.156	130.62
238.39	135.62
238.624	133.62
238.858	128.62
239.091	132.62
239.325	122.62
239.559	122.62
239.793	123.62
240.027	143.62
240.26	144.62
240.494	174.62
240.728	134.62
240.961	162.62
241.195	148.62
241.429	126.62
241.662	135.62
241.896	142.62
242.13	126.62
242.363	151.62
242.597	146.62
242.83	142.62
243.064	135.62
243.298	136.62
243.531	141.62
243.765	132.62
243.998	139.62
244.232	137.62
244.465	149.62
244.699	143.62
244.932	143.62
245.166	148.62
245.399	133.62
245.633	156.62
245.866	140.62
246.099	147.62
246.333	140.62
246.566	152.62
246.8	153.62
247.033	141.62
247.266	166.62
247.5	154.62
247.733	182.62
247.966	159.62
248.2	184.62
248.433	165.62
248.666	194.62
248.899	178.62
249.133	189.62
249.366	213.62
249.599	203.62
249.832	193.62
250.066	187.62
250.299	194.62
250.532	189.62
250.765	212.62
250.998	236.62
251.231	232.62
251.465	214.62
251.698	201.62
251.931	216.62
252.164	209.62
252.397	202.62
252.63	202.62
252.863	207.62
253.096	227.62
253.329	240.62
253.562	250.62
253.795	232.62
254.028	222.62
254.261	206.62
254.494	236.62
254.727	262.62
254.96	286.62
255.193	306.62
255.426	253.62
255.659	230.62
255.892	246.62
256.124	247.62
256.357	262.62
256.59	232.62
256.823	220.62
257.056	224.62
257.289	232.62
257.521	236.62
257.754	226.62
257.987	225.62
258.22	221.62
258.452	217.62
258.685	204.62
258.918	227.62
259.151	224.62
259.383	231.62
259.616	236.62
259.849	249.62
260.081	235.62
260.314	262.62
260.547	272.62
260.779	258.62
261.012	249.62
261.244	228.62
261.477	226.62
261.71	237.62
261.942	243.62
262.175	238.62
262.407	254.62
262.64	220.62
262.872	212.62
263.105	218.62
263.337	213.62
263.57	226.62
263.802	239.62
264.035	221.62
264.267	226.62
264.499	227.62
264.732	228.62
264.964	229.62
265.197	236.62
265.429	243.62
265.661	233.62
265.894	242.62
266.126	222.62
266.358	227.62
266.591	236.62
266.823	246.62
267.055	242.62
267.287	249.62
267.52	256.62
267.752	242.62
267.984	223.62
268.216	237.62
268.448	230.62
268.681	249.62
268.913	260.62
269.145	263.62
269.377	295.62
269.609	267.62
269.841	268.62
270.073	269.62
270.306	316.62
270.538	341.62
270.77	339.62
271.002	331.62
271.234	315.62
271.466	284.62
271.698	341.62
271.93	314.62
272.162	344.62
272.394	317.62
272.626	310.62
272.858	307.62
273.09	318.62
273.322	295.62
273.553	295.62
273.785	278.62
274.017	273.62
274.249	280.62
274.481	278.62
274.713	293.62
274.945	279.62
275.176	283.62
275.408	284.62
275.64	272.62
275.872	279.62
276.104	279.62
276.335	273.62
276.567	277.62
276.799	299.62
277.031	310.62
277.262	326.62
277.494	343.62
277.726	316.62
277.957	303.62
278.189	296.62
278.421	268.62
278.652	294.62
278.884	290.62
279.115	282.62
279.347	287.62
279.579	274.62
279.81	285.62
280.042	281.62
280.273	287.62
280.505	282.62
280.736	271.62
280.968	277.62
281.199	279.62
281.431	305.62
281.662	293.62
281.894	288.62
282.125	279.62
282.356	292.62
282.588	317.62
282.819	323.62
283.051	295.62
283.282	279.62
283.513	301.62
283.745	297.62
283.976	299.62
284.207	290.62
284.439	299.62
284.67	300.62
284.901	306.62
285.132	310.62
285.364	300.62
285.595	298.62
285.826	294.62
286.057	295.62
286.288	275.62
286.52	301.62
286.751	310.62
286.982	300.62
287.213	293.62
287.444	283.62
287.675	313.62
287.906	302.62
288.138	303.62
288.369	323.62
288.6	314.62
288.831	322.62
289.062	319.62
289.293	306.62
289.524	299.62
289.755	308.62
289.986	295.62
290.217	326.62
290.448	292.62
290.679	308.62
290.91	302.62
291.141	311.62
291.371	307.62
291.602	306.62
291.833	303.62
292.064	287.62
292.295	313.62
292.526	323.62
292.757	306.62
292.987	313.62
293.218	282.62
293.449	307.62
293.68	306.62
293.91	319.62
294.141	311.62
294.372	320.62
294.603	298.62
294.833	303.62
295.064	289.62
295.295	300.62
295.525	315.62
295.756	309.62
295.987	325.62
296.217	338.62
296.448	338.62
296.679	325.62
296.909	295.62
297.14	309.62
297.37	308.62
297.601	315.62
297.831	316.62
298.062	334.62
298.292	315.62
298.523	330.62
298.753	320.62
298.984	312.62
299.214	313.62
299.445	325.62
299.675	306.62
299.905	326.62
300.136	317.62
300.366	335.62
300.597	314.62
300.827	341.62
301.057	337.62
301.288	319.62
301.518	342.62
301.748	316.62
301.979	340.62
302.209	339.62
302.439	331.62
302.669	337.62
302.9	342.62
303.13	343.62
303.36	339.62
303.59	343.62
303.82	347.62
304.051	341.62
304.281	352.62
304.511	326.62
304.741	341.62
304.971	331.62
305.201	335.62
305.431	342.62
305.661	347.62
305.891	335.62
306.121	348.62
306.352	358.62
306.582	357.62
306.812	353.62
307.042	338.62
307.272	339.62
307.502	352.62
307.731	340.62
307.961	349.62
308.191	360.62
308.421	357.62
308.651	339.62
308.881	346.62
309.111	356.62
309.341	367.62
309.571	374.62
309.8	389.62
310.03	374.62
310.26	380.62
310.49	381.62
310.72	397.62
310.949	405.62
311.179	397.62
311.409	387.62
311.639	381.62
311.868	401.62
312.098	396.62
312.328	404.62
312.557	402.62
312.787	422.62
313.017	399.62
313.246	396.62
313.476	408.62
313.706	388.62
313.935	387.62
314.165	414.62
314.394	416.62
314.624	399.62
314.853	411.62
315.083	391.62
315.312	393.62
315.542	393.62
315.771	423.62
316.001	398.62
316.23	404.62
316.46	392.62
316.689	394.62
316.919	397.62
317.148	406.62
317.377	399.62
317.607	400.62
317.836	389.62
318.065	384.62
318.295	371.62
318.524	390.62
318.753	389.62
318.983	392.62
319.212	404.62
319.441	387.62
319.67	419.62
319.9	412.62
320.129	397.62
320.358	386.62
320.587	410.62
320.816	404.62
321.046	412.62
321.275	428.62
321.504	412.62
321.733	410.62
321.962	417.62
322.191	422.62
322.42	450.62
322.649	467.62
322.878	469.62
323.108	486.62
323.337	517.62
323.566	503.62
323.795	540.62
324.024	612.62
324.253	700.62
324.482	995.62
324.71	1523.62
324.939	2019.62
325.168	1725.62
325.397	931.62
325.626	628.62
325.855	552.62
326.084	523.62
326.313	525.62
326.542	497.62
326.77	557.62
326.999	664.62
327.228	883.62
327.457	1298.62
327.686	1500.62
327.914	1030.62
328.143	696.62
328.372	596.62
328.6	578.62
328.829	557.62
329.058	559.62
329.287	550.62
329.515	548.62
329.744	506.62
329.972	518.62
330.201	529.62
330.43	549.62
330.658	563.62
330.887	589.62
331.115	570.62
331.344	540.62
331.572	500.62
331.801	499.62
332.03	504.62
332.258	463.62
332.486	442.62
332.715	455.62
332.943	463.62
333.172	462.62
333.4	462.62
333.629	459.62
333.857	464.62
334.085	480.62
334.314	499.62
334.542	524.62
334.771	518.62
334.999	511.62
335.227	480.62
335.455	462.62
335.684	455.62
335.912	442.62
336.14	439.62
336.369	449.62
336.597	460.62
336.825	467.62
337.053	456.62
337.281	438.62
337.51	451.62
337.738	439.62
337.966	435.62
338.194	429.62
338.422	434.62
338.65	428.62
338.878	442.62
339.106	410.62
339.334	438.62
339.562	407.62
339.79	419.62
340.018	430.62
340.246	428.62
340.474	430.62
340.702	432.62
340.93	437.62
341.158	443.62
341.386	429.62
341.614	429.62
341.842	432.62
342.07	414.62
342.298	422.62
342.526	411.62
342.754	397.62
342.981	406.62
343.209	427.62
343.437	414.62
343.665	416.62
343.893	429.62
344.12	434.62
344.348	436.62
344.576	411.62
344.804	420.62
345.031	429.62
345.259	437.62
345.487	429.62
345.714	422.62
345.942	411.62
346.17	432.62
346.397	413.62
346.625	425.62
346.853	408.62
347.08	404.62
347.308	411.62
347.535	425.62
347.763	415.62
347.99	415.62
348.218	419.62
348.445	417.62
348.673	407.62
348.9	425.62
349.128	401.62
349.355	402.62
349.583	404.62
349.81	392.62
350.037	400.62
350.265	385.62
350.492	398.62
350.72	386.62
350.947	385.62
351.174	411.62
351.402	421.62
351.629	431.62
351.856	414.62
352.083	416.62
352.311	427.62
352.538	415.62
352.765	419.62
352.992	411.62
353.22	382.62
353.447	383.62
353.674	400.62
353.901	382.62
354.128	387.62
354.355	379.62
354.583	369.62
354.81	382.62
355.037	386.62
355.264	373.62
355.491	380.62
355.718	374.62
355.945	357.62
356.172	370.62
356.399	386.62
356.626	385.62
356.853	360.62
357.08	386.62
357.307	376.62
357.534	359.62
357.761	363.62
357.988	390.62
358.215	382.62
358.441	392.62
358.668	386.62
358.895	365.62
359.122	386.62
359.349	388.62
359.576	406.62
359.802	427.62
360.029	443.62
360.256	430.62
360.483	426.62
360.709	390.62
360.936	386.62
361.163	408.62
361.39	391.62
361.616	406.62
361.843	380.62
362.07	386.62
362.296	388.62
362.523	380.62
362.749	375.62
362.976	404.62
363.203	378.62
363.429	382.62
363.656	358.62
363.882	372.62
364.109	372.62
364.335	368.62
364.562	380.62
364.788	378.62
365.015	369.62
365.241	377.62
365.468	380.62
365.694	371.62
365.92	386.62
366.147	365.62
366.373	382.62
366.599	364.62
366.826	394.62
367.052	390.62
367.278	373.62
367.505	353.62
367.731	383.62
367.957	365.62
368.184	379.62
368.41	373.62
368.636	398.62
368.862	386.62
369.089	378.62
369.315	376.62
369.541	375.62
369.767	375.62
369.993	375.62
370.219	365.62
370.445	368.62
370.672	368.62
370.898	379.62
371.124	361.62
371.35	373.62
371.576	378.62
371.802	378.62
372.028	350.62
372.254	366.62
372.48	368.62
372.706	359.62
372.932	361.62
373.158	377.62
373.384	380.62
373.61	390.62
373.835	374.62
374.061	357.62
374.287	366.62
374.513	368.62
374.739	386.62
374.965	376.62
375.191	357.62
375.416	367.62
375.642	363.62
375.868	371.62
376.094	358.62
376.319	359.62
376.545	359.62
376.771	370.62
376.997	360.62
377.222	364.62
377.448	365.62
377.674	388.62
377.899	357.62
378.125	356.62
378.35	347.62
378.576	362.62
378.802	359.62
379.027	362.62
379.253	352.62
379.478	349.62
379.704	354.62
379.929	339.62
380.155	355.62
380.38	350.62
380.606	338.62
380.831	330.62
381.057	349.62
381.282	365.62
381.507	364.62
381.733	356.62
381.958	356.62
382.184	361.62
382.409	378.62
382.634	367.62
382.86	357.62
383.085	363.62
383.31	351.62
383.535	361.62
383.761	370.62
383.986	367.62
384.211	386.62
384.436	371.62
384.662	381.62
384.887	370.62
385.112	380.62
385.337	382.62
385.562	362.62
385.787	380.62
386.013	386.62
386.238	374.62
386.463	382.62
386.688	384.62
386.913	371.62
387.138	374.62
387.363	375.62
387.588	385.62
387.813	376.62
388.038	376.62
388.263	386.62
388.488	380.62
388.713	374.62
388.938	381.62
389.163	390.62
389.387	373.62
389.612	370.62
389.837	365.62
390.062	363.62
390.287	360.62
390.512	382.62
390.736	370.62
390.961	376.62
391.186	379.62
391.411	373.62
391.636	371.62
391.86	374.62
392.085	376.62
392.31	380.62
392.534	383.62
392.759	391.62
392.984	383.62
393.208	376.62
393.433	383.62
393.658	376.62
393.882	371.62
394.107	383.62
394.331	373.62
394.556	388.62
394.78	384.62
395.005	378.62
395.229	383.62
395.454	377.62
395.678	382.62
395.903	392.62
396.127	397.62
396.352	422.62
396.576	396.62
396.801	394.62
397.025	400.62
397.249	391.62
397.474	411.62
397.698	404.62
397.922	410.62
398.147	402.62
398.371	408.62
398.595	416.62
398.82	408.62
399.044	429.62
399.268	432.62
399.492	469.62
399.717	474.62
399.941	517.62
400.165	495.62
400.389	522.62
400.613	469.62
400.837	436.62
401.062	435.62
401.286	432.62
401.51	421.62
401.734	415.62
401.958	423.62
402.182	410.62
402.406	434.62
402.63	431.62
402.854	419.62
403.078	421.62
403.302	434.62
403.526	435.62
403.75	427.62
403.974	436.62
404.198	423.62
404.422	438.62
404.645	452.62
404.869	431.62
405.093	462.62
405.317	508.62
405.541	522.62
405.765	456.62
405.988	464.62
406.212	474.62
406.436	474.62
406.66	490.62
406.883	467.62
407.107	488.62
407.331	520.62
407.555	560.62
407.778	579.62
408.002	514.62
408.226	495.62
408.449	459.62
408.673	474.62
408.896	504.62
409.12	537.62
409.344	491.62
409.567	450.62
409.791	454.62
410.014	446.62
410.238	438.62
410.461	445.62
410.685	430.62
410.908	425.62
411.132	492.62
411.355	518.62
411.578	484.62
411.802	444.62
412.025	442.62
412.249	434.62
412.472	454.62
412.695	461.62
412.919	467.62
413.142	445.62
413.365	446.62
413.589	433.62
413.812	408.62
414.035	405.62
414.258	412.62
414.482	410.62
414.705	408.62
414.928	403.62
415.151	415.62
415.374	402.62
415.597	408.62
415.821	376.62
416.044	406.62
416.267	408.62
416.49	388.62
416.713	401.62
416.936	401.62
417.159	400.62
417.382	406.62
417.605	428.62
417.828	412.62
418.051	427.62
418.274	421.62
418.497	402.62
418.72	424.62
418.943	419.62
419.166	400.62
419.389	446.62
419.611	437.62
419.834	431.62
420.057	419.62
420.28	454.62
420.503	452.62
420.726	417.62
420.948	435.62
421.171	476.62
421.394	486.62
421.617	434.62
421.839	411.62
422.062	426.62
422.285	451.62
422.507	500.62
422.73	552.62
422.953	512.62
423.175	462.62
423.398	461.62
423.621	474.62
423.843	468.62
424.066	463.62
424.288	434.62
424.511	478.62
424.733	524.62
424.956	591.62
425.178	554.62
425.401	560.62
425.623	578.62
425.846	483.62
426.068	461.62
426.291	459.62
426.513	457.62
426.735	479.62
426.958	516.62
427.18	583.62
427.402	678.62
427.625	731.62
427.847	633.62
428.069	558.62
428.292	495.62
428.514	444.62
428.736	444.62
428.958	438.62
429.181	424.62
429.403	414.62
429.625	438.62
429.847	457.62
430.069	518.62
430.292	531.62
430.514	438.62
430.736	425.62
430.958	408.62
431.18	386.62
431.402	411.62
431.624	402.62
431.846	376.62
432.068	384.62
432.29	388.62
432.512	395.62
432.734	416.62
432.956	411.62
433.178	425.62
433.4	431.62
433.622	414.62
433.844	407.62
434.066	387.62
434.287	418.62
434.509	393.62
434.731	424.62
434.953	429.62
435.175	415.62
435.397	445.62
435.618	472.62
435.84	485.62
436.062	594.62
436.284	620.62
436.505	532.62
436.727	464.62
436.949	450.62
437.17	446.62
437.392	459.62
437.614	442.62
437.835	480.62
438.057	538.62
438.278	623.62
438.5	605.62
438.721	670.62
438.943	650.62
439.165	546.62
439.386	471.62
439.608	460.62
439.829	492.62
440.05	477.62
440.272	504.62
440.493	470.62
440.715	432.62
440.936	439.62
441.158	434.62
441.379	445.62
441.6	446.62
441.822	453.62
442.043	495.62
442.264	579.62
442.486	609.62
442.707	509.62
442.928	492.62
443.149	482.62
443.371	496.62
443.592	529.62
443.813	596.62
444.034	637.62
444.255	570.62
444.476	472.62
444.698	461.62
444.919	476.62
445.14	554.62
445.361	501.62
445.582	506.62
445.803	568.62
446.024	624.62
446.245	637.62
446.466	588.62
446.687	500.62
446.908	466.62
447.129	447.62
447.35	406.62
447.571	425.62
447.792	421.62
448.013	440.62
448.234	442.62
448.455	499.62
448.675	596.62
448.896	666.62
449.117	569.62
449.338	546.62
449.559	651.62
449.779	696.62
450	556.62
450.221	468.62
450.442	438.62
450.662	432.62
450.883	429.62
451.104	422.62
451.324	424.62
451.545	391.62
451.766	389.62
451.986	409.62
452.207	390.62
452.428	394.62
452.648	390.62
452.869	395.62
453.089	389.62
453.31	386.62
453.53	381.62
453.751	382.62
453.971	389.62
454.192	386.62
454.412	398.62
454.633	372.62
454.853	370.62
455.073	364.62
455.294	400.62
455.514	455.62
455.734	438.62
455.955	363.62
456.175	371.62
456.395	348.62
456.616	338.62
456.836	347.62
457.056	365.62
457.276	333.62
457.497	348.62
457.717	351.62
457.937	364.62
458.157	339.62
458.377	356.62
458.598	381.62
458.818	424.62
459.038	501.62
459.258	523.62
459.478	436.62
459.698	394.62
459.918	387.62
460.138	384.62
460.358	398.62
460.578	389.62
460.798	407.62
461.018	364.62
461.238	381.62
461.458	381.62
461.678	394.62
461.898	398.62
462.118	399.62
462.338	399.62
462.558	407.62
462.777	388.62
462.997	415.62
463.217	410.62
463.437	444.62
463.657	397.62
463.876	419.62
464.096	394.62
464.316	407.62
464.536	424.62
464.755	427.62
464.975	428.62
465.195	468.62
465.414	508.62
465.634	447.62
465.854	435.62
466.073	424.62
466.293	398.62
466.512	382.62
466.732	376.62
466.951	367.62
467.171	372.62
467.391	377.62
467.61	386.62
467.829	396.62
468.049	402.62
468.268	383.62
468.488	369.62
468.707	391.62
468.927	386.62
469.146	398.62
469.365	371.62
469.585	382.62
469.804	368.62
470.023	380.62
470.243	369.62
470.462	390.62
470.681	403.62
470.901	391.62
471.12	378.62
471.339	381.62
471.558	392.62
471.777	395.62
471.997	397.62
472.216	390.62
472.435	402.62
472.654	394.62
472.873	383.62
473.092	382.62
473.311	397.62
473.53	392.62
473.749	398.62
473.968	458.62
474.187	519.62
474.406	543.62
474.625	429.62
474.844	393.62
475.063	384.62
475.282	408.62
475.501	397.62
475.72	398.62
475.939	404.62
476.158	407.62
476.377	411.62
476.596	386.62
476.814	399.62
477.033	401.62
477.252	399.62
477.471	398.62
477.69	398.62
477.908	427.62
478.127	418.62
478.346	425.62
478.564	410.62
478.783	449.62
479.002	424.62
479.22	452.62
479.439	440.62
479.658	436.62
479.876	437.62
480.095	453.62
480.313	482.62
480.532	498.62
480.751	465.62
480.969	479.62
481.188	498.62
481.406	524.62
481.624	487.62
481.843	472.62
482.061	448.62
482.28	442.62
482.498	456.62
482.717	443.62
482.935	448.62
483.153	451.62
483.372	460.62
483.59	439.62
483.808	429.62
484.027	439.62
484.245	457.62
484.463	434.62
484.681	461.62
484.9	456.62
485.118	455.62
485.336	459.62
485.554	479.62
485.772	471.62
485.99	454.62
486.209	444.62
486.427	468.62
486.645	464.62
486.863	463.62
487.081	491.62
487.299	476.62
487.517	483.62
487.735	480.62
487.953	496.62
488.171	503.62
488.389	485.62
488.607	484.62
488.825	478.62
489.043	490.62
489.261	490.62
489.479	489.62
489.696	478.62
489.914	514.62
490.132	510.62
490.35	502.62
490.568	507.62
490.786	522.62
491.003	516.62
491.221	557.62
491.439	542.62
491.657	552.62
491.874	596.62
492.092	579.62
492.31	571.62
492.527	564.62
492.745	559.62
492.963	556.62
493.18	583.62
493.398	564.62
493.615	568.62
493.833	560.62
494.05	573.62
494.268	580.62
494.485	581.62
494.703	551.62
494.92	591.62
495.138	578.62
495.355	594.62
495.573	573.62
495.79	572.62
496.008	575.62
496.225	572.62
496.442	587.62
496.66	583.62
496.877	571.62
497.094	591.62
497.312	582.62
497.529	587.62
497.746	611.62
497.963	607.62
498.181	613.62
498.398	617.62
498.615	607.62
498.832	626.62
499.049	652.62
499.267	633.62
499.484	662.62
499.701	669.62
499.918	695.62
500.135	720.62
500.352	761.62
500.569	798.62
500.786	754.62
501.003	744.62
501.22	741.62
501.437	738.62
501.654	663.62
501.871	703.62
502.088	662.62
