Data from 1971.PennyLincolnUp.Lamp.En5.5.200Scan.071719.P1._HRD10591_15-17-44-842.txt Node
Date: Thu Jul 18 15:17:44 EDT 2019
User: cochatt
Spectrometer: HR+D1059
Trigger mode: 1
Integration Time (sec): 1.000000E-1
Scans to average: 1
Electric dark correction enabled: true
Nonlinearity correction enabled: false
Boxcar width: 0
XAxis mode: Wavelengths
Number of Pixels in Spectrum: 2048
>>>>>Begin Spectral Data<<<<<
223.165	-26.56
223.4	-26.56
223.635	-26.56
223.869	-18.56
224.104	-17.56
224.338	-6.56
224.573	-9.56
224.808	-5.56
225.042	3.44
225.277	-2.56
225.511	-8.56
225.746	3.44
225.98	9.44
226.215	13.44
226.449	13.44
226.683	15.44
226.918	25.44
227.152	11.44
227.387	32.44
227.621	43.44
227.856	62.44
228.09	48.44
228.324	46.44
228.559	57.44
228.793	60.44
229.027	102.44
229.262	94.44
229.496	107.44
229.73	117.44
229.964	130.44
230.199	132.44
230.433	122.44
230.667	127.44
230.901	109.44
231.136	103.44
231.37	95.44
231.604	114.44
231.838	108.44
232.072	117.44
232.306	113.44
232.541	110.44
232.775	106.44
233.009	111.44
233.243	113.44
233.477	113.44
233.711	104.44
233.945	97.44
234.179	113.44
234.413	112.44
234.647	112.44
234.881	110.44
235.115	120.44
235.349	108.44
235.583	113.44
235.817	113.44
236.051	130.44
236.285	125.44
236.519	116.44
236.753	124.44
236.987	120.44
237.221	173.44
237.455	192.44
237.689	161.44
237.922	133.44
238.156	125.44
238.39	110.44
238.624	134.44
238.858	110.44
239.091	121.44
239.325	113.44
239.559	124.44
239.793	124.44
240.027	138.44
240.26	137.44
240.494	146.44
240.728	139.44
240.961	134.44
241.195	131.44
241.429	136.44
241.662	128.44
241.896	137.44
242.13	138.44
242.363	138.44
242.597	116.44
242.83	136.44
243.064	114.44
243.298	122.44
243.531	126.44
243.765	143.44
243.998	144.44
244.232	156.44
244.465	147.44
244.699	151.44
244.932	134.44
245.166	144.44
245.399	142.44
245.633	147.44
245.866	126.44
246.099	122.44
246.333	146.44
246.566	150.44
246.8	152.44
247.033	163.44
247.266	154.44
247.5	157.44
247.733	143.44
247.966	144.44
248.2	160.44
248.433	158.44
248.666	160.44
248.899	177.44
249.133	184.44
249.366	191.44
249.599	178.44
249.832	172.44
250.066	166.44
250.299	178.44
250.532	175.44
250.765	184.44
250.998	206.44
251.231	215.44
251.465	204.44
251.698	205.44
251.931	183.44
252.164	189.44
252.397	189.44
252.63	194.44
252.863	193.44
253.096	211.44
253.329	228.44
253.562	218.44
253.795	199.44
254.028	206.44
254.261	200.44
254.494	206.44
254.727	224.44
254.96	254.44
255.193	226.44
255.426	232.44
255.659	220.44
255.892	229.44
256.124	198.44
256.357	193.44
256.59	212.44
256.823	208.44
257.056	192.44
257.289	204.44
257.521	182.44
257.754	212.44
257.987	191.44
258.22	200.44
258.452	200.44
258.685	214.44
258.918	204.44
259.151	200.44
259.383	208.44
259.616	214.44
259.849	222.44
260.081	236.44
260.314	224.44
260.547	239.44
260.779	214.44
261.012	231.44
261.244	223.44
261.477	226.44
261.71	216.44
261.942	222.44
262.175	209.44
262.407	223.44
262.64	214.44
262.872	232.44
263.105	216.44
263.337	215.44
263.57	211.44
263.802	214.44
264.035	216.44
264.267	216.44
264.499	207.44
264.732	222.44
264.964	196.44
265.197	214.44
265.429	204.44
265.661	208.44
265.894	205.44
266.126	210.44
266.358	199.44
266.591	219.44
266.823	222.44
267.055	233.44
267.287	215.44
267.52	229.44
267.752	225.44
267.984	207.44
268.216	217.44
268.448	233.44
268.681	216.44
268.913	236.44
269.145	252.44
269.377	246.44
269.609	249.44
269.841	262.44
270.073	252.44
270.306	290.44
270.538	293.44
270.77	294.44
271.002	280.44
271.234	268.44
271.466	281.44
271.698	286.44
271.93	281.44
272.162	301.44
272.394	289.44
272.626	275.44
272.858	282.44
273.09	257.44
273.322	240.44
273.553	255.44
273.785	252.44
274.017	256.44
274.249	279.44
274.481	284.44
274.713	238.44
274.945	258.44
275.176	258.44
275.408	255.44
275.64	257.44
275.872	261.44
276.104	263.44
276.335	264.44
276.567	273.44
276.799	277.44
277.031	291.44
277.262	306.44
277.494	301.44
277.726	286.44
277.957	273.44
278.189	276.44
278.421	270.44
278.652	262.44
278.884	270.44
279.115	284.44
279.347	294.44
279.579	327.44
279.81	326.44
280.042	304.44
280.273	286.44
280.505	293.44
280.736	277.44
280.968	273.44
281.199	279.44
281.431	248.44
281.662	250.44
281.894	270.44
282.125	268.44
282.356	283.44
282.588	290.44
282.819	287.44
283.051	280.44
283.282	269.44
283.513	257.44
283.745	275.44
283.976	274.44
284.207	270.44
284.439	275.44
284.67	287.44
284.901	278.44
285.132	282.44
285.364	280.44
285.595	286.44
285.826	256.44
286.057	271.44
286.288	272.44
286.52	279.44
286.751	273.44
286.982	289.44
287.213	274.44
287.444	279.44
287.675	294.44
287.906	299.44
288.138	284.44
288.369	302.44
288.6	295.44
288.831	290.44
289.062	286.44
289.293	282.44
289.524	282.44
289.755	269.44
289.986	291.44
290.217	284.44
290.448	282.44
290.679	277.44
290.91	287.44
291.141	292.44
291.371	280.44
291.602	284.44
291.833	296.44
292.064	308.44
292.295	306.44
292.526	289.44
292.757	262.44
292.987	283.44
293.218	279.44
293.449	301.44
293.68	289.44
293.91	290.44
294.141	289.44
294.372	281.44
294.603	283.44
294.833	280.44
295.064	296.44
295.295	286.44
295.525	285.44
295.756	281.44
295.987	285.44
296.217	320.44
296.448	312.44
296.679	313.44
296.909	301.44
297.14	288.44
297.37	276.44
297.601	303.44
297.831	292.44
298.062	290.44
298.292	268.44
298.523	312.44
298.753	295.44
298.984	295.44
299.214	286.44
299.445	308.44
299.675	309.44
299.905	313.44
300.136	316.44
300.366	304.44
300.597	305.44
300.827	298.44
301.057	299.44
301.288	320.44
301.518	335.44
301.748	330.44
301.979	320.44
302.209	336.44
302.439	328.44
302.669	323.44
302.9	325.44
303.13	319.44
303.36	327.44
303.59	328.44
303.82	351.44
304.051	325.44
304.281	306.44
304.511	323.44
304.741	322.44
304.971	314.44
305.201	333.44
305.431	318.44
305.661	309.44
305.891	306.44
306.121	328.44
306.352	335.44
306.582	327.44
306.812	305.44
307.042	313.44
307.272	331.44
307.502	329.44
307.731	341.44
307.961	352.44
308.191	320.44
308.421	335.44
308.651	329.44
308.881	335.44
309.111	340.44
309.341	340.44
309.571	355.44
309.8	340.44
310.03	359.44
310.26	370.44
310.49	373.44
310.72	368.44
310.949	374.44
311.179	390.44
311.409	379.44
311.639	360.44
311.868	372.44
312.098	362.44
312.328	385.44
312.557	384.44
312.787	390.44
313.017	388.44
313.246	381.44
313.476	370.44
313.706	363.44
313.935	363.44
314.165	385.44
314.394	384.44
314.624	375.44
314.853	379.44
315.083	373.44
315.312	378.44
315.542	370.44
315.771	375.44
316.001	400.44
316.23	378.44
316.46	359.44
316.689	379.44
316.919	372.44
317.148	383.44
317.377	383.44
317.607	389.44
317.836	406.44
318.065	410.44
318.295	425.44
318.524	395.44
318.753	382.44
318.983	373.44
319.212	361.44
319.441	388.44
319.67	392.44
319.9	378.44
320.129	374.44
320.358	369.44
320.587	373.44
320.816	376.44
321.046	392.44
321.275	394.44
321.504	364.44
321.733	393.44
321.962	392.44
322.191	383.44
322.42	421.44
322.649	423.44
322.878	423.44
323.108	424.44
323.337	456.44
323.566	497.44
323.795	512.44
324.024	560.44
324.253	716.44
324.482	1024.44
324.71	1452.44
324.939	1910.44
325.168	1572.44
325.397	823.44
325.626	605.44
325.855	514.44
326.084	463.44
326.313	490.44
326.542	492.44
326.77	519.44
326.999	635.44
327.228	881.44
327.457	1273.44
327.686	1422.44
327.914	977.44
328.143	688.44
328.372	638.44
328.6	539.44
328.829	536.44
329.058	544.44
329.287	520.44
329.515	509.44
329.744	460.44
329.972	476.44
330.201	466.44
330.43	496.44
330.658	518.44
330.887	538.44
331.115	524.44
331.344	468.44
331.572	476.44
331.801	459.44
332.03	478.44
332.258	454.44
332.486	426.44
332.715	415.44
332.943	425.44
333.172	420.44
333.4	436.44
333.629	425.44
333.857	432.44
334.085	442.44
334.314	446.44
334.542	437.44
334.771	446.44
334.999	441.44
335.227	446.44
335.455	426.44
335.684	428.44
335.912	413.44
336.14	415.44
336.369	413.44
336.597	428.44
336.825	430.44
337.053	421.44
337.281	409.44
337.51	399.44
337.738	399.44
337.966	429.44
338.194	439.44
338.422	445.44
338.65	450.44
338.878	421.44
339.106	404.44
339.334	420.44
339.562	410.44
339.79	396.44
340.018	397.44
340.246	408.44
340.474	406.44
340.702	403.44
340.93	389.44
341.158	399.44
341.386	407.44
341.614	378.44
341.842	389.44
342.07	386.44
342.298	384.44
342.526	385.44
342.754	393.44
342.981	391.44
343.209	382.44
343.437	405.44
343.665	398.44
343.893	413.44
344.12	412.44
344.348	401.44
344.576	424.44
344.804	408.44
345.031	424.44
345.259	413.44
345.487	408.44
345.714	392.44
345.942	372.44
346.17	372.44
346.397	395.44
346.625	394.44
346.853	382.44
347.08	387.44
347.308	386.44
347.535	401.44
347.763	386.44
347.99	380.44
348.218	397.44
348.445	392.44
348.673	390.44
348.9	373.44
349.128	357.44
349.355	385.44
349.583	380.44
349.81	374.44
350.037	382.44
350.265	359.44
350.492	370.44
350.72	373.44
350.947	388.44
351.174	373.44
351.402	405.44
351.629	376.44
351.856	382.44
352.083	398.44
352.311	396.44
352.538	390.44
352.765	382.44
352.992	393.44
353.22	365.44
353.447	356.44
353.674	380.44
353.901	372.44
354.128	360.44
354.355	363.44
354.583	367.44
354.81	368.44
355.037	366.44
355.264	360.44
355.491	351.44
355.718	340.44
355.945	356.44
356.172	348.44
356.399	345.44
356.626	360.44
356.853	343.44
357.08	333.44
357.307	348.44
357.534	335.44
357.761	338.44
357.988	360.44
358.215	364.44
358.441	357.44
358.668	335.44
358.895	360.44
359.122	362.44
359.349	371.44
359.576	365.44
359.802	396.44
360.029	426.44
360.256	409.44
360.483	400.44
360.709	386.44
360.936	381.44
361.163	369.44
361.39	366.44
361.616	358.44
361.843	359.44
362.07	384.44
362.296	388.44
362.523	372.44
362.749	368.44
362.976	367.44
363.203	380.44
363.429	340.44
363.656	367.44
363.882	353.44
364.109	353.44
364.335	367.44
364.562	358.44
364.788	350.44
365.015	351.44
365.241	349.44
365.468	384.44
365.694	353.44
365.92	369.44
366.147	369.44
366.373	349.44
366.599	352.44
366.826	351.44
367.052	317.44
367.278	353.44
367.505	331.44
367.731	353.44
367.957	364.44
368.184	355.44
368.41	341.44
368.636	356.44
368.862	337.44
369.089	370.44
369.315	345.44
369.541	364.44
369.767	342.44
369.993	361.44
370.219	344.44
370.445	354.44
370.672	359.44
370.898	366.44
371.124	344.44
371.35	342.44
371.576	359.44
371.802	329.44
372.028	356.44
372.254	349.44
372.48	340.44
372.706	349.44
372.932	348.44
373.158	351.44
373.384	342.44
373.61	369.44
373.835	361.44
374.061	368.44
374.287	343.44
374.513	364.44
374.739	354.44
374.965	348.44
375.191	364.44
375.416	357.44
375.642	361.44
375.868	352.44
376.094	354.44
376.319	352.44
376.545	353.44
376.771	343.44
376.997	358.44
377.222	338.44
377.448	329.44
377.674	328.44
377.899	331.44
378.125	320.44
378.35	324.44
378.576	350.44
378.802	335.44
379.027	330.44
379.253	337.44
379.478	332.44
379.704	329.44
379.929	335.44
380.155	327.44
380.38	343.44
380.606	343.44
380.831	365.44
381.057	367.44
381.282	353.44
381.507	338.44
381.733	343.44
381.958	364.44
382.184	347.44
382.409	350.44
382.634	349.44
382.86	350.44
383.085	382.44
383.31	354.44
383.535	357.44
383.761	338.44
383.986	351.44
384.211	354.44
384.436	358.44
384.662	370.44
384.887	363.44
385.112	342.44
385.337	350.44
385.562	383.44
385.787	378.44
386.013	392.44
386.238	378.44
386.463	376.44
386.688	376.44
386.913	386.44
387.138	378.44
387.363	381.44
387.588	369.44
387.813	387.44
388.038	372.44
388.263	370.44
388.488	366.44
388.713	355.44
388.938	379.44
389.163	358.44
389.387	356.44
389.612	370.44
389.837	359.44
390.062	367.44
390.287	358.44
390.512	331.44
390.736	353.44
390.961	376.44
391.186	366.44
391.411	350.44
391.636	400.44
391.86	385.44
392.085	389.44
392.31	397.44
392.534	424.44
392.759	436.44
392.984	491.44
393.208	646.44
393.433	850.44
393.658	833.44
393.882	543.44
394.107	429.44
394.331	380.44
394.556	386.44
394.78	399.44
395.005	385.44
395.229	381.44
395.454	392.44
395.678	383.44
395.903	401.44
396.127	407.44
396.352	453.44
396.576	491.44
396.801	615.44
397.025	713.44
397.249	573.44
397.474	445.44
397.698	396.44
397.922	394.44
398.147	404.44
398.371	413.44
398.595	413.44
398.82	396.44
399.044	406.44
399.268	422.44
399.492	444.44
399.717	442.44
399.941	466.44
400.165	493.44
400.389	506.44
400.613	450.44
400.837	424.44
401.062	394.44
401.286	409.44
401.51	405.44
401.734	407.44
401.958	400.44
402.182	400.44
402.406	415.44
402.63	412.44
402.854	411.44
403.078	408.44
403.302	416.44
403.526	388.44
403.75	420.44
403.974	428.44
404.198	410.44
404.422	431.44
404.645	407.44
404.869	397.44
405.093	428.44
405.317	439.44
405.541	481.44
405.765	452.44
405.988	422.44
406.212	437.44
406.436	463.44
406.66	458.44
406.883	441.44
407.107	458.44
407.331	491.44
407.555	530.44
407.778	522.44
408.002	500.44
408.226	449.44
408.449	453.44
408.673	447.44
408.896	466.44
409.12	497.44
409.344	469.44
409.567	440.44
409.791	419.44
410.014	417.44
410.238	412.44
410.461	432.44
410.685	400.44
410.908	415.44
411.132	409.44
411.355	446.44
411.578	420.44
411.802	412.44
412.025	418.44
412.249	405.44
412.472	425.44
412.695	434.44
412.919	412.44
413.142	416.44
413.365	414.44
413.589	393.44
413.812	382.44
414.035	380.44
414.258	380.44
414.482	370.44
414.705	381.44
414.928	375.44
415.151	359.44
415.374	360.44
415.597	386.44
415.821	378.44
416.044	372.44
416.267	386.44
416.49	400.44
416.713	380.44
416.936	380.44
417.159	396.44
417.382	403.44
417.605	376.44
417.828	394.44
418.051	400.44
418.274	400.44
418.497	385.44
418.72	405.44
418.943	388.44
419.166	410.44
419.389	402.44
419.611	393.44
419.834	408.44
420.057	395.44
420.28	409.44
420.503	388.44
420.726	405.44
420.948	396.44
421.171	443.44
421.394	458.44
421.617	408.44
421.839	413.44
422.062	422.44
422.285	410.44
422.507	454.44
422.73	564.44
422.953	571.44
423.175	461.44
423.398	407.44
423.621	408.44
423.843	434.44
424.066	415.44
424.288	409.44
424.511	453.44
424.733	471.44
424.956	549.44
425.178	504.44
425.401	514.44
425.623	522.44
425.846	472.44
426.068	430.44
426.291	414.44
426.513	420.44
426.735	419.44
426.958	457.44
427.18	509.44
427.402	618.44
427.625	694.44
427.847	587.44
428.069	499.44
428.292	454.44
428.514	434.44
428.736	416.44
428.958	412.44
429.181	394.44
429.403	415.44
429.625	396.44
429.847	424.44
430.069	467.44
430.292	472.44
430.514	426.44
430.736	414.44
430.958	402.44
431.18	400.44
431.402	366.44
431.624	372.44
431.846	384.44
432.068	364.44
432.29	371.44
432.512	383.44
432.734	384.44
432.956	376.44
433.178	373.44
433.4	378.44
433.622	391.44
433.844	398.44
434.066	382.44
434.287	366.44
434.509	365.44
434.731	378.44
434.953	419.44
435.175	393.44
435.397	391.44
435.618	420.44
435.84	474.44
436.062	536.44
436.284	573.44
436.505	462.44
436.727	421.44
436.949	410.44
437.17	392.44
437.392	398.44
437.614	412.44
437.835	433.44
438.057	463.44
438.278	564.44
438.5	582.44
438.721	616.44
438.943	601.44
439.165	468.44
439.386	431.44
439.608	445.44
439.829	446.44
440.05	463.44
440.272	486.44
440.493	464.44
440.715	437.44
440.936	407.44
441.158	418.44
441.379	396.44
441.6	409.44
441.822	436.44
442.043	462.44
442.264	499.44
442.486	548.44
442.707	445.44
442.928	423.44
443.149	441.44
443.371	452.44
443.592	502.44
443.813	551.44
444.034	595.44
444.255	496.44
444.476	447.44
444.698	412.44
444.919	421.44
445.14	506.44
445.361	494.44
445.582	463.44
445.803	536.44
446.024	598.44
446.245	576.44
446.466	528.44
446.687	469.44
446.908	448.44
447.129	422.44
447.35	431.44
447.571	420.44
447.792	395.44
448.013	400.44
448.234	410.44
448.455	442.44
448.675	522.44
448.896	619.44
449.117	524.44
449.338	497.44
449.559	581.44
449.779	637.44
450	518.44
450.221	441.44
450.442	408.44
450.662	380.44
450.883	392.44
451.104	414.44
451.324	400.44
451.545	387.44
451.766	370.44
451.986	353.44
452.207	342.44
452.428	353.44
452.648	372.44
452.869	350.44
453.089	386.44
453.31	382.44
453.53	349.44
453.751	380.44
453.971	359.44
454.192	370.44
454.412	393.44
454.633	341.44
454.853	354.44
455.073	361.44
455.294	392.44
455.514	410.44
455.734	415.44
455.955	352.44
456.175	361.44
456.395	325.44
456.616	338.44
456.836	345.44
457.056	341.44
457.276	344.44
457.497	318.44
457.717	346.44
457.937	355.44
458.157	357.44
458.377	346.44
458.598	351.44
458.818	399.44
459.038	458.44
459.258	478.44
459.478	403.44
459.698	386.44
459.918	366.44
460.138	378.44
460.358	372.44
460.578	368.44
460.798	387.44
461.018	384.44
461.238	366.44
461.458	380.44
461.678	386.44
461.898	368.44
462.118	369.44
462.338	385.44
462.558	404.44
462.777	380.44
462.997	395.44
463.217	400.44
463.437	432.44
463.657	397.44
463.876	392.44
464.096	390.44
464.316	405.44
464.536	412.44
464.755	411.44
464.975	423.44
465.195	447.44
465.414	500.44
465.634	450.44
465.854	411.44
466.073	382.44
466.293	368.44
466.512	372.44
466.732	388.44
466.951	376.44
467.171	349.44
467.391	380.44
467.61	366.44
467.829	392.44
468.049	374.44
468.268	383.44
468.488	360.44
468.707	357.44
468.927	351.44
469.146	358.44
469.365	362.44
469.585	371.44
469.804	360.44
470.023	396.44
470.243	374.44
470.462	380.44
470.681	375.44
470.901	372.44
471.12	365.44
471.339	355.44
471.558	369.44
471.777	389.44
471.997	357.44
472.216	368.44
472.435	370.44
472.654	377.44
472.873	362.44
473.092	357.44
473.311	356.44
473.53	372.44
473.749	393.44
473.968	401.44
474.187	466.44
474.406	487.44
474.625	415.44
474.844	376.44
475.063	378.44
475.282	365.44
475.501	358.44
475.72	360.44
475.939	359.44
476.158	399.44
476.377	384.44
476.596	366.44
476.814	388.44
477.033	393.44
477.252	380.44
477.471	398.44
477.69	396.44
477.908	391.44
478.127	416.44
478.346	406.44
478.564	420.44
478.783	417.44
479.002	427.44
479.22	432.44
479.439	449.44
479.658	442.44
479.876	441.44
480.095	454.44
480.313	453.44
480.532	431.44
480.751	443.44
480.969	450.44
481.188	475.44
481.406	452.44
481.624	440.44
481.843	447.44
482.061	429.44
482.28	428.44
482.498	438.44
482.717	426.44
482.935	422.44
483.153	416.44
483.372	401.44
483.59	444.44
483.808	426.44
484.027	438.44
484.245	408.44
484.463	430.44
484.681	443.44
484.9	448.44
485.118	423.44
485.336	429.44
485.554	447.44
485.772	444.44
485.99	430.44
486.209	438.44
486.427	461.44
486.645	454.44
486.863	471.44
487.081	458.44
487.299	488.44
487.517	464.44
487.735	474.44
487.953	464.44
488.171	468.44
488.389	459.44
488.607	483.44
488.825	470.44
489.043	441.44
489.261	440.44
489.479	461.44
489.696	452.44
489.914	463.44
490.132	473.44
490.35	477.44
490.568	472.44
490.786	481.44
491.003	489.44
491.221	486.44
491.439	503.44
491.657	505.44
491.874	514.44
492.092	524.44
492.31	508.44
492.527	516.44
492.745	535.44
492.963	522.44
493.18	525.44
493.398	538.44
493.615	534.44
493.833	536.44
494.05	529.44
494.268	541.44
494.485	530.44
494.703	532.44
494.92	525.44
495.138	527.44
495.355	526.44
495.573	529.44
495.79	520.44
496.008	528.44
496.225	536.44
496.442	519.44
496.66	554.44
496.877	525.44
497.094	526.44
497.312	543.44
497.529	540.44
497.746	552.44
497.963	549.44
498.181	568.44
498.398	586.44
498.615	593.44
498.832	616.44
499.049	604.44
499.267	616.44
499.484	629.44
499.701	646.44
499.918	674.44
500.135	679.44
500.352	717.44
500.569	740.44
500.786	732.44
501.003	731.44
501.22	688.44
501.437	680.44
501.654	654.44
501.871	658.44
502.088	634.44
