Data from 1971.PennyLincolnUp.Lamp.En5.5.200Scan.071719.P1.Scan 2. Changed Angle._HRD10591_15-22-48-842.txt Node
Date: Thu Jul 18 15:22:48 EDT 2019
User: cochatt
Spectrometer: HR+D1059
Trigger mode: 1
Integration Time (sec): 1.000000E-1
Scans to average: 1
Electric dark correction enabled: true
Nonlinearity correction enabled: false
Boxcar width: 0
XAxis mode: Wavelengths
Number of Pixels in Spectrum: 2048
>>>>>Begin Spectral Data<<<<<
223.165	-23.88
223.4	-23.88
223.635	-23.88
223.869	-16.88
224.104	-7.88
224.338	2.12
224.573	-16.88
224.808	-15.88
225.042	-2.88
225.277	-14.88
225.511	-15.88
225.746	-4.88
225.98	7.12
226.215	12.12
226.449	30.12
226.683	20.12
226.918	22.12
227.152	26.12
227.387	26.12
227.621	45.12
227.856	50.12
228.09	31.12
228.324	54.12
228.559	69.12
228.793	86.12
229.027	103.12
229.262	95.12
229.496	114.12
229.73	138.12
229.964	149.12
230.199	130.12
230.433	118.12
230.667	115.12
230.901	102.12
231.136	123.12
231.37	115.12
231.604	110.12
231.838	126.12
232.072	106.12
232.306	116.12
232.541	114.12
232.775	111.12
233.009	107.12
233.243	110.12
233.477	119.12
233.711	112.12
233.945	106.12
234.179	116.12
234.413	102.12
234.647	99.12
234.881	100.12
235.115	111.12
235.349	123.12
235.583	114.12
235.817	114.12
236.051	119.12
236.285	121.12
236.519	114.12
236.753	124.12
236.987	147.12
237.221	186.12
237.455	226.12
237.689	189.12
237.922	137.12
238.156	134.12
238.39	128.12
238.624	120.12
238.858	131.12
239.091	129.12
239.325	118.12
239.559	136.12
239.793	124.12
240.027	120.12
240.26	138.12
240.494	156.12
240.728	136.12
240.961	139.12
241.195	144.12
241.429	135.12
241.662	134.12
241.896	125.12
242.13	126.12
242.363	119.12
242.597	137.12
242.83	138.12
243.064	146.12
243.298	138.12
243.531	131.12
243.765	143.12
243.998	136.12
244.232	148.12
244.465	145.12
244.699	138.12
244.932	141.12
245.166	143.12
245.399	141.12
245.633	131.12
245.866	130.12
246.099	137.12
246.333	124.12
246.566	136.12
246.8	163.12
247.033	149.12
247.266	144.12
247.5	154.12
247.733	152.12
247.966	169.12
248.2	175.12
248.433	180.12
248.666	172.12
248.899	186.12
249.133	196.12
249.366	200.12
249.599	188.12
249.832	174.12
250.066	182.12
250.299	194.12
250.532	176.12
250.765	199.12
250.998	224.12
251.231	216.12
251.465	216.12
251.698	207.12
251.931	192.12
252.164	195.12
252.397	180.12
252.63	189.12
252.863	206.12
253.096	223.12
253.329	223.12
253.562	204.12
253.795	221.12
254.028	208.12
254.261	214.12
254.494	230.12
254.727	244.12
254.96	264.12
255.193	256.12
255.426	252.12
255.659	214.12
255.892	218.12
256.124	224.12
256.357	225.12
256.59	217.12
256.823	197.12
257.056	214.12
257.289	211.12
257.521	206.12
257.754	185.12
257.987	193.12
258.22	202.12
258.452	198.12
258.685	202.12
258.918	197.12
259.151	198.12
259.383	195.12
259.616	209.12
259.849	215.12
260.081	217.12
260.314	242.12
260.547	241.12
260.779	221.12
261.012	229.12
261.244	220.12
261.477	216.12
261.71	202.12
261.942	212.12
262.175	218.12
262.407	210.12
262.64	203.12
262.872	211.12
263.105	204.12
263.337	202.12
263.57	196.12
263.802	216.12
264.035	192.12
264.267	213.12
264.499	184.12
264.732	205.12
264.964	208.12
265.197	208.12
265.429	205.12
265.661	194.12
265.894	200.12
266.126	202.12
266.358	209.12
266.591	207.12
266.823	198.12
267.055	204.12
267.287	218.12
267.52	203.12
267.752	193.12
267.984	211.12
268.216	205.12
268.448	214.12
268.681	205.12
268.913	218.12
269.145	236.12
269.377	238.12
269.609	244.12
269.841	250.12
270.073	237.12
270.306	260.12
270.538	281.12
270.77	288.12
271.002	270.12
271.234	256.12
271.466	273.12
271.698	291.12
271.93	275.12
272.162	287.12
272.394	267.12
272.626	273.12
272.858	256.12
273.09	249.12
273.322	254.12
273.553	224.12
273.785	230.12
274.017	234.12
274.249	231.12
274.481	246.12
274.713	229.12
274.945	227.12
275.176	232.12
275.408	236.12
275.64	249.12
275.872	243.12
276.104	242.12
276.335	244.12
276.567	250.12
276.799	263.12
277.031	270.12
277.262	282.12
277.494	278.12
277.726	285.12
277.957	269.12
278.189	247.12
278.421	247.12
278.652	250.12
278.884	227.12
279.115	234.12
279.347	234.12
279.579	230.12
279.81	221.12
280.042	230.12
280.273	230.12
280.505	237.12
280.736	202.12
280.968	206.12
281.199	234.12
281.431	229.12
281.662	248.12
281.894	230.12
282.125	231.12
282.356	251.12
282.588	280.12
282.819	280.12
283.051	223.12
283.282	216.12
283.513	206.12
283.745	222.12
283.976	232.12
284.207	238.12
284.439	238.12
284.67	247.12
284.901	231.12
285.132	233.12
285.364	231.12
285.595	230.12
285.826	241.12
286.057	229.12
286.288	231.12
286.52	239.12
286.751	232.12
286.982	239.12
287.213	246.12
287.444	239.12
287.675	242.12
287.906	250.12
288.138	251.12
288.369	245.12
288.6	257.12
288.831	248.12
289.062	252.12
289.293	246.12
289.524	236.12
289.755	250.12
289.986	222.12
290.217	225.12
290.448	236.12
290.679	228.12
290.91	243.12
291.141	233.12
291.371	234.12
291.602	242.12
291.833	254.12
292.064	242.12
292.295	253.12
292.526	238.12
292.757	229.12
292.987	226.12
293.218	231.12
293.449	242.12
293.68	240.12
293.91	243.12
294.141	260.12
294.372	252.12
294.603	246.12
294.833	270.12
295.064	236.12
295.295	245.12
295.525	232.12
295.756	246.12
295.987	258.12
296.217	295.12
296.448	283.12
296.679	254.12
296.909	231.12
297.14	254.12
297.37	268.12
297.601	254.12
297.831	236.12
298.062	237.12
298.292	244.12
298.523	263.12
298.753	230.12
298.984	267.12
299.214	263.12
299.445	253.12
299.675	246.12
299.905	262.12
300.136	264.12
300.366	250.12
300.597	248.12
300.827	272.12
301.057	274.12
301.288	272.12
301.518	265.12
301.748	278.12
301.979	271.12
302.209	253.12
302.439	267.12
302.669	258.12
302.9	260.12
303.13	268.12
303.36	284.12
303.59	270.12
303.82	293.12
304.051	281.12
304.281	262.12
304.511	261.12
304.741	282.12
304.971	277.12
305.201	270.12
305.431	261.12
305.661	267.12
305.891	257.12
306.121	274.12
306.352	278.12
306.582	292.12
306.812	292.12
307.042	265.12
307.272	265.12
307.502	267.12
307.731	285.12
307.961	266.12
308.191	261.12
308.421	262.12
308.651	275.12
308.881	286.12
309.111	279.12
309.341	298.12
309.571	296.12
309.8	296.12
310.03	329.12
310.26	314.12
310.49	317.12
310.72	338.12
310.949	336.12
311.179	368.12
311.409	331.12
311.639	327.12
311.868	303.12
312.098	326.12
312.328	307.12
312.557	344.12
312.787	336.12
313.017	341.12
313.246	326.12
313.476	327.12
313.706	313.12
313.935	329.12
314.165	351.12
314.394	363.12
314.624	355.12
314.853	334.12
315.083	315.12
315.312	317.12
315.542	328.12
315.771	298.12
316.001	308.12
316.23	301.12
316.46	302.12
316.689	323.12
316.919	319.12
317.148	334.12
317.377	328.12
317.607	322.12
317.836	314.12
318.065	330.12
318.295	318.12
318.524	314.12
318.753	310.12
318.983	328.12
319.212	332.12
319.441	327.12
319.67	333.12
319.9	317.12
320.129	307.12
320.358	322.12
320.587	330.12
320.816	339.12
321.046	345.12
321.275	342.12
321.504	336.12
321.733	329.12
321.962	351.12
322.191	353.12
322.42	402.12
322.649	388.12
322.878	397.12
323.108	391.12
323.337	412.12
323.566	436.12
323.795	498.12
324.024	524.12
324.253	621.12
324.482	897.12
324.71	1415.12
324.939	2024.12
325.168	1736.12
325.397	943.12
325.626	639.12
325.855	510.12
326.084	440.12
326.313	437.12
326.542	459.12
326.77	529.12
326.999	575.12
327.228	834.12
327.457	1250.12
327.686	1522.12
327.914	1010.12
328.143	690.12
328.372	566.12
328.6	542.12
328.829	503.12
329.058	516.12
329.287	533.12
329.515	514.12
329.744	451.12
329.972	460.12
330.201	471.12
330.43	496.12
330.658	534.12
330.887	559.12
331.115	546.12
331.344	444.12
331.572	429.12
331.801	441.12
332.03	414.12
332.258	413.12
332.486	380.12
332.715	389.12
332.943	384.12
333.172	377.12
333.4	380.12
333.629	389.12
333.857	407.12
334.085	406.12
334.314	421.12
334.542	429.12
334.771	455.12
334.999	410.12
335.227	386.12
335.455	381.12
335.684	376.12
335.912	390.12
336.14	396.12
336.369	388.12
336.597	386.12
336.825	400.12
337.053	378.12
337.281	355.12
337.51	361.12
337.738	375.12
337.966	388.12
338.194	379.12
338.422	384.12
338.65	357.12
338.878	367.12
339.106	365.12
339.334	374.12
339.562	366.12
339.79	358.12
340.018	368.12
340.246	370.12
340.474	370.12
340.702	380.12
340.93	357.12
341.158	363.12
341.386	365.12
341.614	376.12
341.842	382.12
342.07	364.12
342.298	359.12
342.526	350.12
342.754	344.12
342.981	335.12
343.209	348.12
343.437	357.12
343.665	364.12
343.893	363.12
344.12	354.12
344.348	352.12
344.576	380.12
344.804	379.12
345.031	380.12
345.259	400.12
345.487	411.12
345.714	381.12
345.942	366.12
346.17	375.12
346.397	370.12
346.625	359.12
346.853	363.12
347.08	378.12
347.308	372.12
347.535	382.12
347.763	385.12
347.99	374.12
348.218	370.12
348.445	378.12
348.673	380.12
348.9	381.12
349.128	355.12
349.355	336.12
349.583	354.12
349.81	368.12
350.037	365.12
350.265	339.12
350.492	356.12
350.72	355.12
350.947	361.12
351.174	355.12
351.402	402.12
351.629	374.12
351.856	377.12
352.083	382.12
352.311	393.12
352.538	384.12
352.765	388.12
352.992	401.12
353.22	378.12
353.447	368.12
353.674	346.12
353.901	337.12
354.128	358.12
354.355	331.12
354.583	339.12
354.81	343.12
355.037	357.12
355.264	344.12
355.491	346.12
355.718	325.12
355.945	346.12
356.172	328.12
356.399	334.12
356.626	326.12
356.853	347.12
357.08	338.12
357.307	340.12
357.534	328.12
357.761	352.12
357.988	328.12
358.215	331.12
358.441	360.12
358.668	356.12
358.895	329.12
359.122	351.12
359.349	360.12
359.576	366.12
359.802	389.12
360.029	431.12
360.256	429.12
360.483	407.12
360.709	391.12
360.936	370.12
361.163	363.12
361.39	360.12
361.616	394.12
361.843	366.12
362.07	375.12
362.296	393.12
362.523	367.12
362.749	373.12
362.976	365.12
363.203	368.12
363.429	378.12
363.656	363.12
363.882	356.12
364.109	357.12
364.335	340.12
364.562	358.12
364.788	346.12
365.015	366.12
365.241	357.12
365.468	362.12
365.694	358.12
365.92	354.12
366.147	348.12
366.373	359.12
366.599	362.12
366.826	340.12
367.052	374.12
367.278	343.12
367.505	345.12
367.731	351.12
367.957	355.12
368.184	375.12
368.41	374.12
368.636	361.12
368.862	374.12
369.089	388.12
369.315	342.12
369.541	338.12
369.767	341.12
369.993	348.12
370.219	365.12
370.445	364.12
370.672	362.12
370.898	353.12
371.124	348.12
371.35	359.12
371.576	344.12
371.802	344.12
372.028	345.12
372.254	355.12
372.48	339.12
372.706	341.12
372.932	357.12
373.158	365.12
373.384	349.12
373.61	330.12
373.835	345.12
374.061	371.12
374.287	376.12
374.513	359.12
374.739	364.12
374.965	387.12
375.191	368.12
375.416	358.12
375.642	338.12
375.868	367.12
376.094	348.12
376.319	358.12
376.545	365.12
376.771	336.12
376.997	356.12
377.222	365.12
377.448	361.12
377.674	347.12
377.899	340.12
378.125	370.12
378.35	346.12
378.576	344.12
378.802	345.12
379.027	355.12
379.253	350.12
379.478	355.12
379.704	383.12
379.929	356.12
380.155	350.12
380.38	352.12
380.606	355.12
380.831	357.12
381.057	383.12
381.282	377.12
381.507	383.12
381.733	374.12
381.958	370.12
382.184	361.12
382.409	356.12
382.634	374.12
382.86	362.12
383.085	340.12
383.31	370.12
383.535	363.12
383.761	361.12
383.986	367.12
384.211	367.12
384.436	383.12
384.662	363.12
384.887	392.12
385.112	377.12
385.337	388.12
385.562	378.12
385.787	382.12
386.013	396.12
386.238	386.12
386.463	400.12
386.688	394.12
386.913	384.12
387.138	382.12
387.363	382.12
387.588	384.12
387.813	394.12
388.038	405.12
388.263	395.12
388.488	384.12
388.713	367.12
388.938	380.12
389.163	396.12
389.387	380.12
389.612	383.12
389.837	394.12
390.062	406.12
390.287	391.12
390.512	394.12
390.736	392.12
390.961	364.12
391.186	396.12
391.411	386.12
391.636	407.12
391.86	391.12
392.085	388.12
392.31	406.12
392.534	403.12
392.759	392.12
392.984	402.12
393.208	429.12
393.433	409.12
393.658	431.12
393.882	415.12
394.107	397.12
394.331	393.12
394.556	404.12
394.78	402.12
395.005	395.12
395.229	397.12
395.454	401.12
395.678	401.12
395.903	428.12
396.127	423.12
396.352	428.12
396.576	388.12
396.801	407.12
397.025	420.12
397.249	429.12
397.474	412.12
397.698	415.12
397.922	411.12
398.147	451.12
398.371	449.12
398.595	438.12
398.82	406.12
399.044	419.12
399.268	452.12
399.492	460.12
399.717	457.12
399.941	505.12
400.165	530.12
400.389	548.12
400.613	535.12
400.837	464.12
401.062	451.12
401.286	446.12
401.51	446.12
401.734	439.12
401.958	427.12
402.182	440.12
402.406	461.12
402.63	463.12
402.854	451.12
403.078	471.12
403.302	449.12
403.526	460.12
403.75	471.12
403.974	444.12
404.198	442.12
404.422	465.12
404.645	460.12
404.869	483.12
405.093	485.12
405.317	543.12
405.541	534.12
405.765	488.12
405.988	494.12
406.212	503.12
406.436	506.12
406.66	531.12
406.883	516.12
407.107	535.12
407.331	576.12
407.555	610.12
407.778	618.12
408.002	571.12
408.226	524.12
408.449	522.12
408.673	505.12
408.896	546.12
409.12	572.12
409.344	538.12
409.567	511.12
409.791	470.12
410.014	450.12
410.238	467.12
410.461	454.12
410.685	474.12
410.908	484.12
411.132	523.12
411.355	552.12
411.578	520.12
411.802	495.12
412.025	465.12
412.249	487.12
412.472	493.12
412.695	492.12
412.919	500.12
413.142	468.12
413.365	462.12
413.589	458.12
413.812	443.12
414.035	423.12
414.258	449.12
414.482	438.12
414.705	428.12
414.928	451.12
415.151	445.12
415.374	439.12
415.597	442.12
415.821	435.12
416.044	440.12
416.267	443.12
416.49	431.12
416.713	432.12
416.936	440.12
417.159	439.12
417.382	442.12
417.605	464.12
417.828	465.12
418.051	499.12
418.274	457.12
418.497	453.12
418.72	448.12
418.943	455.12
419.166	448.12
419.389	493.12
419.611	450.12
419.834	463.12
420.057	482.12
420.28	474.12
420.503	478.12
420.726	449.12
420.948	475.12
421.171	518.12
421.394	551.12
421.617	476.12
421.839	487.12
422.062	475.12
422.285	506.12
422.507	534.12
422.73	608.12
422.953	582.12
423.175	519.12
423.398	507.12
423.621	508.12
423.843	511.12
424.066	508.12
424.288	501.12
424.511	540.12
424.733	585.12
424.956	660.12
425.178	614.12
425.401	624.12
425.623	647.12
425.846	576.12
426.068	518.12
426.291	518.12
426.513	511.12
426.735	526.12
426.958	570.12
427.18	654.12
427.402	760.12
427.625	830.12
427.847	760.12
428.069	662.12
428.292	566.12
428.514	519.12
428.736	512.12
428.958	503.12
429.181	490.12
429.403	496.12
429.625	520.12
429.847	533.12
430.069	595.12
430.292	587.12
430.514	496.12
430.736	464.12
430.958	470.12
431.18	459.12
431.402	445.12
431.624	436.12
431.846	473.12
432.068	444.12
432.29	452.12
432.512	457.12
432.734	479.12
432.956	470.12
433.178	472.12
433.4	478.12
433.622	478.12
433.844	469.12
434.066	468.12
434.287	471.12
434.509	447.12
434.731	459.12
434.953	471.12
435.175	488.12
435.397	500.12
435.618	514.12
435.84	560.12
436.062	662.12
436.284	698.12
436.505	611.12
436.727	530.12
436.949	504.12
437.17	530.12
437.392	488.12
437.614	517.12
437.835	533.12
438.057	624.12
438.278	723.12
438.5	727.12
438.721	788.12
438.943	752.12
439.165	611.12
439.386	559.12
439.608	550.12
439.829	540.12
440.05	561.12
440.272	611.12
440.493	559.12
440.715	548.12
440.936	528.12
441.158	500.12
441.379	506.12
441.6	496.12
441.822	542.12
442.043	554.12
442.264	645.12
442.486	686.12
442.707	590.12
442.928	564.12
443.149	547.12
443.371	575.12
443.592	619.12
443.813	684.12
444.034	734.12
444.255	621.12
444.476	575.12
444.698	534.12
444.919	498.12
445.14	647.12
445.361	610.12
445.582	578.12
445.803	646.12
446.024	737.12
446.245	722.12
446.466	655.12
446.687	576.12
446.908	540.12
447.129	498.12
447.35	498.12
447.571	491.12
447.792	486.12
448.013	486.12
448.234	508.12
448.455	578.12
448.675	675.12
448.896	761.12
449.117	674.12
449.338	632.12
449.559	738.12
449.779	811.12
450	684.12
450.221	560.12
450.442	516.12
450.662	499.12
450.883	483.12
451.104	517.12
451.324	518.12
451.545	467.12
451.766	452.12
451.986	430.12
452.207	424.12
452.428	447.12
452.648	460.12
452.869	423.12
453.089	451.12
453.31	455.12
453.53	447.12
453.751	428.12
453.971	442.12
454.192	473.12
454.412	441.12
454.633	435.12
454.853	443.12
455.073	450.12
455.294	475.12
455.514	540.12
455.734	511.12
455.955	447.12
456.175	431.12
456.395	408.12
456.616	405.12
456.836	404.12
457.056	404.12
457.276	418.12
457.497	414.12
457.717	409.12
457.937	427.12
458.157	412.12
458.377	420.12
458.598	448.12
458.818	526.12
459.038	583.12
459.258	606.12
459.478	503.12
459.698	470.12
459.918	458.12
460.138	470.12
460.358	439.12
460.578	444.12
460.798	453.12
461.018	465.12
461.238	468.12
461.458	446.12
461.678	430.12
461.898	454.12
462.118	440.12
462.338	464.12
462.558	468.12
462.777	471.12
462.997	466.12
463.217	470.12
463.437	485.12
463.657	467.12
463.876	449.12
464.096	471.12
464.316	482.12
464.536	469.12
464.755	475.12
464.975	480.12
465.195	534.12
465.414	634.12
465.634	540.12
465.854	493.12
466.073	479.12
466.293	446.12
466.512	478.12
466.732	448.12
466.951	454.12
467.171	445.12
467.391	432.12
467.61	463.12
467.829	462.12
468.049	467.12
468.268	459.12
468.488	446.12
468.707	418.12
468.927	454.12
469.146	435.12
469.365	429.12
469.585	436.12
469.804	444.12
470.023	465.12
470.243	464.12
470.462	482.12
470.681	474.12
470.901	465.12
471.12	443.12
471.339	463.12
471.558	464.12
471.777	461.12
471.997	463.12
472.216	462.12
472.435	490.12
472.654	472.12
472.873	431.12
473.092	457.12
473.311	454.12
473.53	459.12
473.749	471.12
473.968	525.12
474.187	596.12
474.406	638.12
474.625	543.12
474.844	474.12
475.063	458.12
475.282	454.12
475.501	451.12
475.72	456.12
475.939	482.12
476.158	494.12
476.377	468.12
476.596	490.12
476.814	476.12
477.033	451.12
477.252	480.12
477.471	482.12
477.69	485.12
477.908	481.12
478.127	516.12
478.346	504.12
478.564	491.12
478.783	523.12
479.002	520.12
479.22	539.12
479.439	532.12
479.658	548.12
479.876	552.12
480.095	583.12
480.313	589.12
480.532	556.12
480.751	559.12
480.969	542.12
481.188	610.12
481.406	662.12
481.624	585.12
481.843	556.12
482.061	548.12
482.28	539.12
482.498	553.12
482.717	545.12
482.935	543.12
483.153	546.12
483.372	510.12
483.59	521.12
483.808	564.12
484.027	553.12
484.245	571.12
484.463	546.12
484.681	552.12
484.9	554.12
485.118	559.12
485.336	569.12
485.554	564.12
485.772	568.12
485.99	534.12
486.209	566.12
486.427	589.12
486.645	582.12
486.863	609.12
487.081	585.12
487.299	566.12
487.517	598.12
487.735	591.12
487.953	583.12
488.171	602.12
488.389	591.12
488.607	596.12
488.825	600.12
489.043	571.12
489.261	612.12
489.479	612.12
489.696	607.12
489.914	611.12
490.132	606.12
490.35	607.12
490.568	632.12
490.786	628.12
491.003	649.12
491.221	658.12
491.439	678.12
491.657	679.12
491.874	690.12
492.092	685.12
492.31	689.12
492.527	715.12
492.745	706.12
492.963	682.12
493.18	704.12
493.398	712.12
493.615	709.12
493.833	702.12
494.05	711.12
494.268	712.12
494.485	715.12
494.703	719.12
494.92	716.12
495.138	700.12
495.355	714.12
495.573	740.12
495.79	713.12
496.008	727.12
496.225	700.12
496.442	721.12
496.66	728.12
496.877	731.12
497.094	720.12
497.312	716.12
497.529	718.12
497.746	731.12
497.963	774.12
498.181	739.12
498.398	730.12
498.615	763.12
498.832	755.12
499.049	758.12
499.267	779.12
499.484	792.12
499.701	824.12
499.918	822.12
500.135	867.12
500.352	874.12
500.569	897.12
500.786	920.12
501.003	860.12
501.22	869.12
501.437	860.12
501.654	866.12
