Data from 1971.PennyLincolnUp.Lamp.En5.5.200Scan.071719.P1._HRD10591_15-20-30-841.txt Node
Date: Thu Jul 18 15:20:30 EDT 2019
User: cochatt
Spectrometer: HR+D1059
Trigger mode: 1
Integration Time (sec): 1.000000E-1
Scans to average: 1
Electric dark correction enabled: true
Nonlinearity correction enabled: false
Boxcar width: 0
XAxis mode: Wavelengths
Number of Pixels in Spectrum: 2048
>>>>>Begin Spectral Data<<<<<
223.165	-12.56
223.4	-12.56
223.635	-12.56
223.869	-11.56
224.104	-18.56
224.338	-15.56
224.573	-2.56
224.808	-18.56
225.042	-7.56
225.277	-1.56
225.511	-5.56
225.746	10.44
225.98	11.44
226.215	7.44
226.449	2.44
226.683	15.44
226.918	24.44
227.152	22.44
227.387	34.44
227.621	46.44
227.856	48.44
228.09	56.44
228.324	49.44
228.559	46.44
228.793	66.44
229.027	99.44
229.262	104.44
229.496	123.44
229.73	131.44
229.964	156.44
230.199	119.44
230.433	117.44
230.667	116.44
230.901	92.44
231.136	114.44
231.37	114.44
231.604	120.44
231.838	118.44
232.072	133.44
232.306	121.44
232.541	117.44
232.775	108.44
233.009	105.44
233.243	105.44
233.477	123.44
233.711	125.44
233.945	111.44
234.179	133.44
234.413	114.44
234.647	114.44
234.881	129.44
235.115	114.44
235.349	122.44
235.583	117.44
235.817	126.44
236.051	137.44
236.285	123.44
236.519	119.44
236.753	123.44
236.987	156.44
237.221	178.44
237.455	222.44
237.689	165.44
237.922	142.44
238.156	137.44
238.39	128.44
238.624	143.44
238.858	129.44
239.091	127.44
239.325	123.44
239.559	131.44
239.793	149.44
240.027	139.44
240.26	141.44
240.494	144.44
240.728	147.44
240.961	145.44
241.195	147.44
241.429	145.44
241.662	126.44
241.896	137.44
242.13	143.44
242.363	142.44
242.597	134.44
242.83	151.44
243.064	144.44
243.298	148.44
243.531	141.44
243.765	144.44
243.998	157.44
244.232	153.44
244.465	137.44
244.699	155.44
244.932	175.44
245.166	153.44
245.399	148.44
245.633	160.44
245.866	151.44
246.099	157.44
246.333	165.44
246.566	155.44
246.8	153.44
247.033	152.44
247.266	157.44
247.5	168.44
247.733	181.44
247.966	168.44
248.2	181.44
248.433	181.44
248.666	179.44
248.899	193.44
249.133	209.44
249.366	214.44
249.599	197.44
249.832	188.44
250.066	202.44
250.299	203.44
250.532	203.44
250.765	215.44
250.998	224.44
251.231	252.44
251.465	223.44
251.698	203.44
251.931	207.44
252.164	205.44
252.397	215.44
252.63	202.44
252.863	230.44
253.096	234.44
253.329	229.44
253.562	222.44
253.795	229.44
254.028	219.44
254.261	234.44
254.494	247.44
254.727	257.44
254.96	279.44
255.193	270.44
255.426	258.44
255.659	248.44
255.892	229.44
256.124	232.44
256.357	263.44
256.59	231.44
256.823	224.44
257.056	245.44
257.289	226.44
257.521	204.44
257.754	227.44
257.987	205.44
258.22	238.44
258.452	222.44
258.685	218.44
258.918	214.44
259.151	228.44
259.383	223.44
259.616	235.44
259.849	215.44
260.081	264.44
260.314	273.44
260.547	264.44
260.779	261.44
261.012	245.44
261.244	222.44
261.477	239.44
261.71	227.44
261.942	238.44
262.175	249.44
262.407	228.44
262.64	236.44
262.872	218.44
263.105	209.44
263.337	238.44
263.57	215.44
263.802	221.44
264.035	203.44
264.267	232.44
264.499	221.44
264.732	234.44
264.964	218.44
265.197	225.44
265.429	237.44
265.661	232.44
265.894	235.44
266.126	225.44
266.358	227.44
266.591	215.44
266.823	249.44
267.055	234.44
267.287	228.44
267.52	232.44
267.752	254.44
267.984	233.44
268.216	250.44
268.448	243.44
268.681	256.44
268.913	285.44
269.145	269.44
269.377	281.44
269.609	277.44
269.841	292.44
270.073	275.44
270.306	313.44
270.538	306.44
270.77	339.44
271.002	307.44
271.234	299.44
271.466	298.44
271.698	321.44
271.93	320.44
272.162	352.44
272.394	338.44
272.626	325.44
272.858	315.44
273.09	289.44
273.322	301.44
273.553	288.44
273.785	293.44
274.017	275.44
274.249	278.44
274.481	267.44
274.713	303.44
274.945	291.44
275.176	259.44
275.408	283.44
275.64	286.44
275.872	293.44
276.104	281.44
276.335	290.44
276.567	289.44
276.799	301.44
277.031	311.44
277.262	321.44
277.494	327.44
277.726	323.44
277.957	299.44
278.189	282.44
278.421	282.44
278.652	280.44
278.884	293.44
279.115	295.44
279.347	264.44
279.579	286.44
279.81	258.44
280.042	285.44
280.273	287.44
280.505	276.44
280.736	285.44
280.968	282.44
281.199	281.44
281.431	269.44
281.662	290.44
281.894	285.44
282.125	286.44
282.356	317.44
282.588	307.44
282.819	315.44
283.051	281.44
283.282	289.44
283.513	272.44
283.745	284.44
283.976	294.44
284.207	263.44
284.439	288.44
284.67	286.44
284.901	285.44
285.132	289.44
285.364	299.44
285.595	290.44
285.826	280.44
286.057	301.44
286.288	299.44
286.52	307.44
286.751	311.44
286.982	279.44
287.213	302.44
287.444	296.44
287.675	303.44
287.906	294.44
288.138	311.44
288.369	341.44
288.6	328.44
288.831	313.44
289.062	321.44
289.293	300.44
289.524	304.44
289.755	312.44
289.986	304.44
290.217	302.44
290.448	308.44
290.679	311.44
290.91	312.44
291.141	293.44
291.371	304.44
291.602	301.44
291.833	273.44
292.064	301.44
292.295	293.44
292.526	295.44
292.757	304.44
292.987	289.44
293.218	298.44
293.449	312.44
293.68	300.44
293.91	277.44
294.141	294.44
294.372	309.44
294.603	304.44
294.833	300.44
295.064	302.44
295.295	306.44
295.525	289.44
295.756	298.44
295.987	307.44
296.217	318.44
296.448	329.44
296.679	320.44
296.909	319.44
297.14	308.44
297.37	304.44
297.601	315.44
297.831	305.44
298.062	308.44
298.292	311.44
298.523	294.44
298.753	312.44
298.984	335.44
299.214	337.44
299.445	306.44
299.675	316.44
299.905	312.44
300.136	304.44
300.366	327.44
300.597	304.44
300.827	319.44
301.057	338.44
301.288	315.44
301.518	337.44
301.748	322.44
301.979	331.44
302.209	323.44
302.439	348.44
302.669	338.44
302.9	336.44
303.13	338.44
303.36	333.44
303.59	337.44
303.82	340.44
304.051	347.44
304.281	315.44
304.511	326.44
304.741	326.44
304.971	336.44
305.201	342.44
305.431	345.44
305.661	334.44
305.891	341.44
306.121	333.44
306.352	357.44
306.582	359.44
306.812	337.44
307.042	327.44
307.272	346.44
307.502	353.44
307.731	343.44
307.961	353.44
308.191	344.44
308.421	344.44
308.651	359.44
308.881	351.44
309.111	367.44
309.341	362.44
309.571	380.44
309.8	373.44
310.03	374.44
310.26	391.44
310.49	374.44
310.72	393.44
310.949	389.44
311.179	418.44
311.409	374.44
311.639	395.44
311.868	380.44
312.098	389.44
312.328	394.44
312.557	394.44
312.787	427.44
313.017	409.44
313.246	398.44
313.476	383.44
313.706	387.44
313.935	382.44
314.165	415.44
314.394	406.44
314.624	409.44
314.853	399.44
315.083	386.44
315.312	391.44
315.542	384.44
315.771	383.44
316.001	375.44
316.23	388.44
316.46	367.44
316.689	370.44
316.919	373.44
317.148	411.44
317.377	387.44
317.607	375.44
317.836	403.44
318.065	369.44
318.295	393.44
318.524	381.44
318.753	392.44
318.983	400.44
319.212	388.44
319.441	390.44
319.67	386.44
319.9	384.44
320.129	383.44
320.358	382.44
320.587	400.44
320.816	393.44
321.046	409.44
321.275	421.44
321.504	407.44
321.733	382.44
321.962	434.44
322.191	424.44
322.42	431.44
322.649	448.44
322.878	443.44
323.108	460.44
323.337	483.44
323.566	487.44
323.795	545.44
324.024	591.44
324.253	690.44
324.482	988.44
324.71	1465.44
324.939	1993.44
325.168	1707.44
325.397	898.44
325.626	600.44
325.855	539.44
326.084	534.44
326.313	524.44
326.542	492.44
326.77	586.44
326.999	665.44
327.228	875.44
327.457	1305.44
327.686	1529.44
327.914	1022.44
328.143	708.44
328.372	609.44
328.6	585.44
328.829	585.44
329.058	565.44
329.287	571.44
329.515	518.44
329.744	503.44
329.972	505.44
330.201	526.44
330.43	545.44
330.658	569.44
330.887	583.44
331.115	586.44
331.344	523.44
331.572	480.44
331.801	497.44
332.03	489.44
332.258	457.44
332.486	462.44
332.715	443.44
332.943	442.44
333.172	458.44
333.4	473.44
333.629	457.44
333.857	463.44
334.085	489.44
334.314	485.44
334.542	504.44
334.771	502.44
334.999	480.44
335.227	477.44
335.455	442.44
335.684	445.44
335.912	443.44
336.14	415.44
336.369	462.44
336.597	442.44
336.825	464.44
337.053	445.44
337.281	427.44
337.51	417.44
337.738	416.44
337.966	426.44
338.194	430.44
338.422	430.44
338.65	432.44
338.878	424.44
339.106	415.44
339.334	410.44
339.562	429.44
339.79	419.44
340.018	416.44
340.246	411.44
340.474	421.44
340.702	425.44
340.93	422.44
341.158	417.44
341.386	415.44
341.614	419.44
341.842	442.44
342.07	399.44
342.298	435.44
342.526	410.44
342.754	415.44
342.981	392.44
343.209	409.44
343.437	408.44
343.665	438.44
343.893	411.44
344.12	438.44
344.348	427.44
344.576	435.44
344.804	432.44
345.031	431.44
345.259	425.44
345.487	432.44
345.714	420.44
345.942	430.44
346.17	399.44
346.397	405.44
346.625	414.44
346.853	416.44
347.08	411.44
347.308	397.44
347.535	403.44
347.763	412.44
347.99	421.44
348.218	413.44
348.445	419.44
348.673	423.44
348.9	391.44
349.128	385.44
349.355	384.44
349.583	389.44
349.81	377.44
350.037	407.44
350.265	385.44
350.492	380.44
350.72	390.44
350.947	388.44
351.174	408.44
351.402	407.44
351.629	391.44
351.856	393.44
352.083	389.44
352.311	400.44
352.538	417.44
352.765	398.44
352.992	409.44
353.22	375.44
353.447	396.44
353.674	395.44
353.901	389.44
354.128	391.44
354.355	373.44
354.583	381.44
354.81	375.44
355.037	376.44
355.264	361.44
355.491	367.44
355.718	367.44
355.945	370.44
356.172	354.44
356.399	377.44
356.626	373.44
356.853	362.44
357.08	374.44
357.307	391.44
357.534	361.44
357.761	378.44
357.988	369.44
358.215	378.44
358.441	383.44
358.668	375.44
358.895	356.44
359.122	370.44
359.349	381.44
359.576	401.44
359.802	401.44
360.029	432.44
360.256	414.44
360.483	417.44
360.709	387.44
360.936	373.44
361.163	387.44
361.39	390.44
361.616	378.44
361.843	385.44
362.07	398.44
362.296	394.44
362.523	384.44
362.749	405.44
362.976	373.44
363.203	381.44
363.429	377.44
363.656	371.44
363.882	381.44
364.109	384.44
364.335	380.44
364.562	367.44
364.788	362.44
365.015	376.44
365.241	373.44
365.468	387.44
365.694	375.44
365.92	381.44
366.147	365.44
366.373	363.44
366.599	371.44
366.826	349.44
367.052	367.44
367.278	358.44
367.505	358.44
367.731	376.44
367.957	377.44
368.184	368.44
368.41	373.44
368.636	373.44
368.862	374.44
369.089	381.44
369.315	366.44
369.541	365.44
369.767	370.44
369.993	350.44
370.219	375.44
370.445	373.44
370.672	346.44
370.898	363.44
371.124	364.44
371.35	352.44
371.576	367.44
371.802	380.44
372.028	366.44
372.254	363.44
372.48	361.44
372.706	363.44
372.932	367.44
373.158	355.44
373.384	371.44
373.61	370.44
373.835	376.44
374.061	372.44
374.287	364.44
374.513	352.44
374.739	369.44
374.965	359.44
375.191	354.44
375.416	359.44
375.642	358.44
375.868	356.44
376.094	370.44
376.319	368.44
376.545	338.44
376.771	356.44
376.997	347.44
377.222	353.44
377.448	342.44
377.674	345.44
377.899	342.44
378.125	356.44
378.35	360.44
378.576	369.44
378.802	351.44
379.027	356.44
379.253	334.44
379.478	326.44
379.704	356.44
379.929	352.44
380.155	351.44
380.38	339.44
380.606	335.44
380.831	374.44
381.057	340.44
381.282	367.44
381.507	339.44
381.733	369.44
381.958	357.44
382.184	359.44
382.409	357.44
382.634	350.44
382.86	353.44
383.085	374.44
383.31	347.44
383.535	357.44
383.761	352.44
383.986	352.44
384.211	343.44
384.436	362.44
384.662	376.44
384.887	389.44
385.112	380.44
385.337	361.44
385.562	373.44
385.787	385.44
386.013	375.44
386.238	380.44
386.463	385.44
386.688	370.44
386.913	366.44
387.138	381.44
387.363	363.44
387.588	381.44
387.813	366.44
388.038	356.44
388.263	383.44
388.488	371.44
388.713	375.44
388.938	383.44
389.163	387.44
389.387	368.44
389.612	377.44
389.837	381.44
390.062	361.44
390.287	370.44
390.512	383.44
390.736	355.44
390.961	369.44
391.186	376.44
391.411	379.44
391.636	379.44
391.86	390.44
392.085	389.44
392.31	371.44
392.534	363.44
392.759	394.44
392.984	377.44
393.208	375.44
393.433	377.44
393.658	364.44
393.882	366.44
394.107	368.44
394.331	373.44
394.556	357.44
394.78	369.44
395.005	373.44
395.229	363.44
395.454	373.44
395.678	370.44
395.903	377.44
396.127	421.44
396.352	421.44
396.576	391.44
396.801	385.44
397.025	397.44
397.249	400.44
397.474	401.44
397.698	402.44
397.922	406.44
398.147	407.44
398.371	395.44
398.595	415.44
398.82	399.44
399.044	404.44
399.268	423.44
399.492	450.44
399.717	448.44
399.941	482.44
400.165	504.44
400.389	501.44
400.613	490.44
400.837	433.44
401.062	415.44
401.286	418.44
401.51	406.44
401.734	426.44
401.958	410.44
402.182	396.44
402.406	426.44
402.63	426.44
402.854	410.44
403.078	412.44
403.302	436.44
403.526	417.44
403.75	443.44
403.974	446.44
404.198	420.44
404.422	433.44
404.645	448.44
404.869	442.44
405.093	439.44
405.317	480.44
405.541	499.44
405.765	469.44
405.988	440.44
406.212	459.44
406.436	470.44
406.66	482.44
406.883	468.44
407.107	485.44
407.331	512.44
407.555	562.44
407.778	553.44
408.002	505.44
408.226	481.44
408.449	446.44
408.673	475.44
408.896	482.44
409.12	518.44
409.344	486.44
409.567	457.44
409.791	421.44
410.014	413.44
410.238	423.44
410.461	443.44
410.685	438.44
410.908	441.44
411.132	453.44
411.355	496.44
411.578	473.44
411.802	433.44
412.025	422.44
412.249	434.44
412.472	442.44
412.695	490.44
412.919	469.44
413.142	439.44
413.365	444.44
413.589	415.44
413.812	406.44
414.035	399.44
414.258	402.44
414.482	375.44
414.705	394.44
414.928	414.44
415.151	396.44
415.374	405.44
415.597	392.44
415.821	387.44
416.044	403.44
416.267	412.44
416.49	391.44
416.713	385.44
416.936	403.44
417.159	384.44
417.382	402.44
417.605	405.44
417.828	412.44
418.051	430.44
418.274	397.44
418.497	406.44
418.72	414.44
418.943	378.44
419.166	390.44
419.389	420.44
419.611	433.44
419.834	402.44
420.057	426.44
420.28	417.44
420.503	414.44
420.726	418.44
420.948	409.44
421.171	467.44
421.394	490.44
421.617	449.44
421.839	425.44
422.062	431.44
422.285	442.44
422.507	467.44
422.73	545.44
422.953	513.44
423.175	445.44
423.398	462.44
423.621	449.44
423.843	453.44
424.066	464.44
424.288	453.44
424.511	485.44
424.733	516.44
424.956	595.44
425.178	558.44
425.401	554.44
425.623	566.44
425.846	494.44
426.068	444.44
426.291	450.44
426.513	470.44
426.735	461.44
426.958	523.44
427.18	568.44
427.402	641.44
427.625	731.44
427.847	632.44
428.069	551.44
428.292	495.44
428.514	454.44
428.736	457.44
428.958	441.44
429.181	418.44
429.403	426.44
429.625	413.44
429.847	465.44
430.069	506.44
430.292	498.44
430.514	424.44
430.736	414.44
430.958	408.44
431.18	401.44
431.402	422.44
431.624	383.44
431.846	376.44
432.068	375.44
432.29	393.44
432.512	376.44
432.734	414.44
432.956	404.44
433.178	389.44
433.4	416.44
433.622	397.44
433.844	411.44
434.066	394.44
434.287	390.44
434.509	400.44
434.731	394.44
434.953	409.44
435.175	423.44
435.397	450.44
435.618	453.44
435.84	507.44
436.062	590.44
436.284	598.44
436.505	514.44
436.727	460.44
436.949	455.44
437.17	426.44
437.392	414.44
437.614	419.44
437.835	428.44
438.057	551.44
438.278	622.44
438.5	610.44
438.721	657.44
438.943	657.44
439.165	527.44
439.386	460.44
439.608	475.44
439.829	460.44
440.05	490.44
440.272	526.44
440.493	486.44
440.715	464.44
440.936	427.44
441.158	421.44
441.379	428.44
441.6	427.44
441.822	462.44
442.043	494.44
442.264	581.44
442.486	565.44
442.707	481.44
442.928	481.44
443.149	468.44
443.371	487.44
443.592	513.44
443.813	589.44
444.034	643.44
444.255	557.44
444.476	482.44
444.698	459.44
444.919	460.44
445.14	542.44
445.361	501.44
445.582	492.44
445.803	549.44
446.024	637.44
446.245	649.44
446.466	571.44
446.687	497.44
446.908	439.44
447.129	446.44
447.35	432.44
447.571	419.44
447.792	417.44
448.013	422.44
448.234	457.44
448.455	496.44
448.675	605.44
448.896	644.44
449.117	555.44
449.338	523.44
449.559	632.44
449.779	697.44
450	566.44
450.221	479.44
450.442	431.44
450.662	426.44
450.883	423.44
451.104	425.44
451.324	419.44
451.545	402.44
451.766	393.44
451.986	381.44
452.207	360.44
452.428	351.44
452.648	369.44
452.869	394.44
453.089	384.44
453.31	384.44
453.53	397.44
453.751	376.44
453.971	383.44
454.192	389.44
454.412	372.44
454.633	375.44
454.853	362.44
455.073	375.44
455.294	411.44
455.514	462.44
455.734	434.44
455.955	374.44
456.175	364.44
456.395	348.44
456.616	325.44
456.836	368.44
457.056	339.44
457.276	315.44
457.497	339.44
457.717	361.44
457.937	375.44
458.157	343.44
458.377	361.44
458.598	387.44
458.818	421.44
459.038	483.44
459.258	477.44
459.478	418.44
459.698	385.44
459.918	366.44
460.138	403.44
460.358	389.44
460.578	397.44
460.798	413.44
461.018	412.44
461.238	385.44
461.458	388.44
461.678	363.44
461.898	385.44
462.118	375.44
462.338	409.44
462.558	408.44
462.777	404.44
462.997	409.44
463.217	409.44
463.437	398.44
463.657	423.44
463.876	407.44
464.096	400.44
464.316	407.44
464.536	407.44
464.755	412.44
464.975	397.44
465.195	456.44
465.414	487.44
465.634	439.44
465.854	426.44
466.073	395.44
466.293	370.44
466.512	365.44
466.732	390.44
466.951	363.44
467.171	381.44
467.391	384.44
467.61	386.44
467.829	382.44
468.049	392.44
468.268	368.44
468.488	363.44
468.707	354.44
468.927	366.44
469.146	362.44
469.365	358.44
469.585	368.44
469.804	351.44
470.023	385.44
470.243	401.44
470.462	384.44
470.681	403.44
470.901	411.44
471.12	402.44
471.339	404.44
471.558	383.44
471.777	382.44
471.997	379.44
472.216	366.44
472.435	395.44
472.654	399.44
472.873	393.44
473.092	402.44
473.311	381.44
473.53	376.44
473.749	381.44
473.968	425.44
474.187	502.44
474.406	532.44
474.625	455.44
474.844	403.44
475.063	395.44
475.282	386.44
475.501	387.44
475.72	384.44
475.939	396.44
476.158	381.44
476.377	383.44
476.596	394.44
476.814	413.44
477.033	399.44
477.252	398.44
477.471	387.44
477.69	391.44
477.908	381.44
478.127	391.44
478.346	425.44
478.564	452.44
478.783	440.44
479.002	410.44
479.22	416.44
479.439	445.44
479.658	473.44
479.876	451.44
480.095	456.44
480.313	479.44
480.532	470.44
480.751	464.44
480.969	465.44
481.188	511.44
481.406	537.44
481.624	494.44
481.843	445.44
482.061	451.44
482.28	445.44
482.498	431.44
482.717	429.44
482.935	442.44
483.153	450.44
483.372	426.44
483.59	447.44
483.808	446.44
484.027	425.44
484.245	437.44
484.463	449.44
484.681	448.44
484.9	440.44
485.118	456.44
485.336	454.44
485.554	458.44
485.772	448.44
485.99	449.44
486.209	463.44
486.427	463.44
486.645	472.44
486.863	485.44
487.081	484.44
487.299	482.44
487.517	496.44
487.735	474.44
487.953	495.44
488.171	472.44
488.389	496.44
488.607	490.44
488.825	494.44
489.043	473.44
489.261	484.44
489.479	489.44
489.696	484.44
489.914	466.44
490.132	505.44
490.35	484.44
490.568	506.44
490.786	498.44
491.003	500.44
491.221	524.44
491.439	540.44
491.657	528.44
491.874	543.44
492.092	565.44
492.31	567.44
492.527	553.44
492.745	573.44
492.963	549.44
493.18	563.44
493.398	583.44
493.615	570.44
493.833	565.44
494.05	548.44
494.268	544.44
494.485	579.44
494.703	556.44
494.92	572.44
495.138	550.44
495.355	571.44
495.573	572.44
495.79	575.44
496.008	562.44
496.225	569.44
496.442	569.44
496.66	576.44
496.877	553.44
497.094	555.44
497.312	583.44
497.529	589.44
497.746	582.44
497.963	596.44
498.181	608.44
498.398	601.44
498.615	599.44
498.832	633.44
499.049	623.44
499.267	618.44
499.484	663.44
499.701	688.44
499.918	688.44
500.135	698.44
500.352	709.44
500.569	742.44
500.786	710.44
501.003	726.44
501.22	706.44
501.437	697.44
501.654	662.44
501.871	673.44
