Data from 1971.PennyLincolnUp.Lamp.En5.5.200Scan.071719.P1.Scan 2. Changed Angle._HRD10591_15-24-20-842.txt Node
Date: Thu Jul 18 15:24:20 EDT 2019
User: cochatt
Spectrometer: HR+D1059
Trigger mode: 1
Integration Time (sec): 1.000000E-1
Scans to average: 1
Electric dark correction enabled: true
Nonlinearity correction enabled: false
Boxcar width: 0
XAxis mode: Wavelengths
Number of Pixels in Spectrum: 2048
>>>>>Begin Spectral Data<<<<<
223.165	-8.56
223.4	-8.56
223.635	-8.56
223.869	-21.56
224.104	-29.56
224.338	-17.56
224.573	-13.56
224.808	-12.56
225.042	-26.56
225.277	-5.56
225.511	3.44
225.746	8.44
225.98	5.44
226.215	18.44
226.449	7.44
226.683	33.44
226.918	25.44
227.152	33.44
227.387	28.44
227.621	30.44
227.856	38.44
228.09	43.44
228.324	56.44
228.559	52.44
228.793	63.44
229.027	118.44
229.262	118.44
229.496	122.44
229.73	140.44
229.964	187.44
230.199	145.44
230.433	128.44
230.667	127.44
230.901	113.44
231.136	117.44
231.37	107.44
231.604	127.44
231.838	119.44
232.072	118.44
232.306	110.44
232.541	118.44
232.775	123.44
233.009	114.44
233.243	124.44
233.477	122.44
233.711	123.44
233.945	115.44
234.179	126.44
234.413	112.44
234.647	123.44
234.881	121.44
235.115	118.44
235.349	131.44
235.583	131.44
235.817	131.44
236.051	133.44
236.285	127.44
236.519	135.44
236.753	145.44
236.987	171.44
237.221	225.44
237.455	259.44
237.689	220.44
237.922	155.44
238.156	150.44
238.39	145.44
238.624	137.44
238.858	132.44
239.091	134.44
239.325	123.44
239.559	123.44
239.793	150.44
240.027	138.44
240.26	159.44
240.494	175.44
240.728	176.44
240.961	161.44
241.195	146.44
241.429	152.44
241.662	148.44
241.896	149.44
242.13	149.44
242.363	151.44
242.597	157.44
242.83	144.44
243.064	151.44
243.298	146.44
243.531	139.44
243.765	177.44
243.998	141.44
244.232	153.44
244.465	159.44
244.699	153.44
244.932	152.44
245.166	147.44
245.399	153.44
245.633	149.44
245.866	151.44
246.099	153.44
246.333	168.44
246.566	166.44
246.8	147.44
247.033	157.44
247.266	157.44
247.5	148.44
247.733	165.44
247.966	189.44
248.2	198.44
248.433	188.44
248.666	194.44
248.899	205.44
249.133	230.44
249.366	234.44
249.599	230.44
249.832	211.44
250.066	198.44
250.299	195.44
250.532	198.44
250.765	233.44
250.998	245.44
251.231	246.44
251.465	246.44
251.698	214.44
251.931	221.44
252.164	221.44
252.397	216.44
252.63	222.44
252.863	222.44
253.096	230.44
253.329	277.44
253.562	262.44
253.795	267.44
254.028	231.44
254.261	227.44
254.494	250.44
254.727	281.44
254.96	299.44
255.193	303.44
255.426	268.44
255.659	260.44
255.892	253.44
256.124	263.44
256.357	260.44
256.59	248.44
256.823	239.44
257.056	222.44
257.289	207.44
257.521	229.44
257.754	231.44
257.987	225.44
258.22	223.44
258.452	209.44
258.685	210.44
258.918	217.44
259.151	218.44
259.383	223.44
259.616	241.44
259.849	261.44
260.081	253.44
260.314	271.44
260.547	287.44
260.779	260.44
261.012	249.44
261.244	230.44
261.477	247.44
261.71	242.44
261.942	249.44
262.175	259.44
262.407	248.44
262.64	236.44
262.872	239.44
263.105	224.44
263.337	212.44
263.57	205.44
263.802	218.44
264.035	240.44
264.267	231.44
264.499	213.44
264.732	217.44
264.964	213.44
265.197	223.44
265.429	214.44
265.661	205.44
265.894	224.44
266.126	219.44
266.358	214.44
266.591	244.44
266.823	213.44
267.055	235.44
267.287	221.44
267.52	221.44
267.752	229.44
267.984	246.44
268.216	229.44
268.448	236.44
268.681	245.44
268.913	266.44
269.145	276.44
269.377	302.44
269.609	282.44
269.841	287.44
270.073	302.44
270.306	302.44
270.538	366.44
270.77	350.44
271.002	334.44
271.234	325.44
271.466	319.44
271.698	345.44
271.93	322.44
272.162	363.44
272.394	337.44
272.626	328.44
272.858	312.44
273.09	310.44
273.322	281.44
273.553	289.44
273.785	282.44
274.017	269.44
274.249	284.44
274.481	294.44
274.713	284.44
274.945	293.44
275.176	279.44
275.408	275.44
275.64	290.44
275.872	279.44
276.104	281.44
276.335	266.44
276.567	274.44
276.799	305.44
277.031	318.44
277.262	330.44
277.494	344.44
277.726	331.44
277.957	317.44
278.189	280.44
278.421	300.44
278.652	277.44
278.884	273.44
279.115	286.44
279.347	274.44
279.579	265.44
279.81	267.44
280.042	270.44
280.273	265.44
280.505	277.44
280.736	261.44
280.968	263.44
281.199	275.44
281.431	273.44
281.662	258.44
281.894	278.44
282.125	277.44
282.356	302.44
282.588	309.44
282.819	329.44
283.051	293.44
283.282	294.44
283.513	276.44
283.745	279.44
283.976	253.44
284.207	279.44
284.439	280.44
284.67	286.44
284.901	277.44
285.132	290.44
285.364	278.44
285.595	282.44
285.826	275.44
286.057	258.44
286.288	270.44
286.52	289.44
286.751	261.44
286.982	266.44
287.213	270.44
287.444	277.44
287.675	314.44
287.906	293.44
288.138	290.44
288.369	297.44
288.6	285.44
288.831	292.44
289.062	272.44
289.293	287.44
289.524	303.44
289.755	284.44
289.986	289.44
290.217	276.44
290.448	287.44
290.679	270.44
290.91	289.44
291.141	285.44
291.371	265.44
291.602	264.44
291.833	275.44
292.064	274.44
292.295	269.44
292.526	299.44
292.757	267.44
292.987	282.44
293.218	269.44
293.449	290.44
293.68	290.44
293.91	291.44
294.141	301.44
294.372	289.44
294.603	293.44
294.833	277.44
295.064	304.44
295.295	277.44
295.525	285.44
295.756	305.44
295.987	324.44
296.217	332.44
296.448	327.44
296.679	315.44
296.909	290.44
297.14	301.44
297.37	308.44
297.601	282.44
297.831	282.44
298.062	293.44
298.292	297.44
298.523	306.44
298.753	291.44
298.984	292.44
299.214	300.44
299.445	305.44
299.675	285.44
299.905	306.44
300.136	333.44
300.366	311.44
300.597	317.44
300.827	311.44
301.057	326.44
301.288	310.44
301.518	324.44
301.748	308.44
301.979	321.44
302.209	309.44
302.439	310.44
302.669	297.44
302.9	320.44
303.13	298.44
303.36	311.44
303.59	323.44
303.82	322.44
304.051	344.44
304.281	336.44
304.511	311.44
304.741	315.44
304.971	337.44
305.201	333.44
305.431	309.44
305.661	315.44
305.891	318.44
306.121	314.44
306.352	328.44
306.582	344.44
306.812	338.44
307.042	349.44
307.272	326.44
307.502	335.44
307.731	336.44
307.961	333.44
308.191	324.44
308.421	351.44
308.651	323.44
308.881	339.44
309.111	355.44
309.341	351.44
309.571	362.44
309.8	378.44
310.03	355.44
310.26	396.44
310.49	399.44
310.72	389.44
310.949	429.44
311.179	426.44
311.409	392.44
311.639	383.44
311.868	389.44
312.098	385.44
312.328	425.44
312.557	419.44
312.787	426.44
313.017	419.44
313.246	395.44
313.476	384.44
313.706	389.44
313.935	379.44
314.165	402.44
314.394	411.44
314.624	412.44
314.853	407.44
315.083	412.44
315.312	395.44
315.542	375.44
315.771	364.44
316.001	358.44
316.23	367.44
316.46	373.44
316.689	383.44
316.919	382.44
317.148	395.44
317.377	400.44
317.607	405.44
317.836	381.44
318.065	381.44
318.295	378.44
318.524	382.44
318.753	395.44
318.983	369.44
319.212	375.44
319.441	406.44
319.67	409.44
319.9	384.44
320.129	391.44
320.358	391.44
320.587	378.44
320.816	402.44
321.046	425.44
321.275	429.44
321.504	415.44
321.733	432.44
321.962	419.44
322.191	453.44
322.42	469.44
322.649	485.44
322.878	495.44
323.108	485.44
323.337	538.44
323.566	559.44
323.795	613.44
324.024	656.44
324.253	845.44
324.482	1228.44
324.71	1897.44
324.939	2718.44
325.168	2368.44
325.397	1218.44
325.626	810.44
325.855	660.44
326.084	606.44
326.313	579.44
326.542	584.44
326.77	632.44
326.999	780.44
327.228	1091.44
327.457	1673.44
327.686	2035.44
327.914	1363.44
328.143	908.44
328.372	747.44
328.6	701.44
328.829	637.44
329.058	672.44
329.287	687.44
329.515	643.44
329.744	593.44
329.972	590.44
330.201	586.44
330.43	649.44
330.658	688.44
330.887	712.44
331.115	693.44
331.344	590.44
331.572	535.44
331.801	527.44
332.03	544.44
332.258	517.44
332.486	481.44
332.715	461.44
332.943	457.44
333.172	467.44
333.4	470.44
333.629	483.44
333.857	479.44
334.085	505.44
334.314	527.44
334.542	587.44
334.771	595.44
334.999	537.44
335.227	522.44
335.455	485.44
335.684	458.44
335.912	454.44
336.14	457.44
336.369	445.44
336.597	454.44
336.825	457.44
337.053	463.44
337.281	434.44
337.51	461.44
337.738	464.44
337.966	439.44
338.194	446.44
338.422	485.44
338.65	445.44
338.878	445.44
339.106	450.44
339.334	439.44
339.562	451.44
339.79	441.44
340.018	437.44
340.246	446.44
340.474	469.44
340.702	447.44
340.93	452.44
341.158	439.44
341.386	437.44
341.614	477.44
341.842	438.44
342.07	446.44
342.298	442.44
342.526	436.44
342.754	422.44
342.981	427.44
343.209	411.44
343.437	416.44
343.665	429.44
343.893	416.44
344.12	442.44
344.348	428.44
344.576	442.44
344.804	456.44
345.031	471.44
345.259	463.44
345.487	456.44
345.714	434.44
345.942	439.44
346.17	426.44
346.397	422.44
346.625	444.44
346.853	443.44
347.08	421.44
347.308	425.44
347.535	458.44
347.763	447.44
347.99	463.44
348.218	465.44
348.445	468.44
348.673	464.44
348.9	434.44
349.128	410.44
349.355	427.44
349.583	440.44
349.81	421.44
350.037	423.44
350.265	422.44
350.492	437.44
350.72	431.44
350.947	447.44
351.174	424.44
351.402	457.44
351.629	471.44
351.856	437.44
352.083	451.44
352.311	477.44
352.538	445.44
352.765	472.44
352.992	475.44
353.22	438.44
353.447	426.44
353.674	444.44
353.901	423.44
354.128	407.44
354.355	423.44
354.583	402.44
354.81	400.44
355.037	403.44
355.264	418.44
355.491	382.44
355.718	403.44
355.945	398.44
356.172	376.44
356.399	383.44
356.626	396.44
356.853	402.44
357.08	396.44
357.307	388.44
357.534	399.44
357.761	390.44
357.988	394.44
358.215	383.44
358.441	402.44
358.668	386.44
358.895	423.44
359.122	417.44
359.349	415.44
359.576	457.44
359.802	476.44
360.029	514.44
360.256	541.44
360.483	510.44
360.709	463.44
360.936	448.44
361.163	440.44
361.39	447.44
361.616	449.44
361.843	435.44
362.07	451.44
362.296	447.44
362.523	461.44
362.749	470.44
362.976	456.44
363.203	445.44
363.429	422.44
363.656	411.44
363.882	437.44
364.109	426.44
364.335	435.44
364.562	409.44
364.788	417.44
365.015	430.44
365.241	393.44
365.468	411.44
365.694	428.44
365.92	447.44
366.147	428.44
366.373	423.44
366.599	421.44
366.826	410.44
367.052	410.44
367.278	425.44
367.505	416.44
367.731	415.44
367.957	421.44
368.184	418.44
368.41	427.44
368.636	431.44
368.862	449.44
369.089	431.44
369.315	411.44
369.541	422.44
369.767	424.44
369.993	418.44
370.219	417.44
370.445	421.44
370.672	409.44
370.898	407.44
371.124	408.44
371.35	418.44
371.576	430.44
371.802	413.44
372.028	421.44
372.254	412.44
372.48	391.44
372.706	406.44
372.932	409.44
373.158	399.44
373.384	419.44
373.61	439.44
373.835	407.44
374.061	417.44
374.287	425.44
374.513	408.44
374.739	405.44
374.965	424.44
375.191	412.44
375.416	435.44
375.642	421.44
375.868	429.44
376.094	443.44
376.319	441.44
376.545	412.44
376.771	405.44
376.997	417.44
377.222	419.44
377.448	431.44
377.674	402.44
377.899	392.44
378.125	419.44
378.35	417.44
378.576	399.44
378.802	390.44
379.027	405.44
379.253	415.44
379.478	422.44
379.704	398.44
379.929	430.44
380.155	403.44
380.38	409.44
380.606	410.44
380.831	421.44
381.057	422.44
381.282	428.44
381.507	404.44
381.733	418.44
381.958	412.44
382.184	417.44
382.409	404.44
382.634	413.44
382.86	438.44
383.085	407.44
383.31	426.44
383.535	436.44
383.761	448.44
383.986	427.44
384.211	447.44
384.436	406.44
384.662	452.44
384.887	453.44
385.112	438.44
385.337	449.44
385.562	431.44
385.787	428.44
386.013	469.44
386.238	454.44
386.463	448.44
386.688	433.44
386.913	425.44
387.138	424.44
387.363	454.44
387.588	419.44
387.813	445.44
388.038	435.44
388.263	437.44
388.488	444.44
388.713	456.44
388.938	465.44
389.163	452.44
389.387	451.44
389.612	440.44
389.837	445.44
390.062	426.44
390.287	457.44
390.512	443.44
390.736	440.44
390.961	437.44
391.186	439.44
391.411	452.44
391.636	433.44
391.86	457.44
392.085	462.44
392.31	466.44
392.534	458.44
392.759	463.44
392.984	447.44
393.208	456.44
393.433	466.44
393.658	466.44
393.882	447.44
394.107	468.44
394.331	467.44
394.556	442.44
394.78	448.44
395.005	466.44
395.229	467.44
395.454	483.44
395.678	469.44
395.903	471.44
396.127	507.44
396.352	489.44
396.576	491.44
396.801	475.44
397.025	492.44
397.249	469.44
397.474	471.44
397.698	486.44
397.922	492.44
398.147	506.44
398.371	538.44
398.595	507.44
398.82	505.44
399.044	497.44
399.268	524.44
399.492	525.44
399.717	567.44
399.941	589.44
400.165	639.44
400.389	653.44
400.613	609.44
400.837	542.44
401.062	542.44
401.286	522.44
401.51	520.44
401.734	512.44
401.958	510.44
402.182	542.44
402.406	535.44
402.63	538.44
402.854	527.44
403.078	539.44
403.302	542.44
403.526	549.44
403.75	545.44
403.974	547.44
404.198	525.44
404.422	565.44
404.645	549.44
404.869	556.44
405.093	594.44
405.317	647.44
405.541	672.44
405.765	635.44
405.988	583.44
406.212	577.44
406.436	641.44
406.66	619.44
406.883	589.44
407.107	633.44
407.331	660.44
407.555	723.44
407.778	718.44
408.002	650.44
408.226	591.44
408.449	611.44
408.673	617.44
408.896	644.44
409.12	701.44
409.344	658.44
409.567	572.44
409.791	558.44
410.014	537.44
410.238	567.44
410.461	564.44
410.685	536.44
410.908	578.44
411.132	627.44
411.355	639.44
411.578	625.44
411.802	570.44
412.025	577.44
412.249	567.44
412.472	600.44
412.695	611.44
412.919	627.44
413.142	559.44
413.365	555.44
413.589	523.44
413.812	514.44
414.035	528.44
414.258	520.44
414.482	526.44
414.705	488.44
414.928	506.44
415.151	511.44
415.374	485.44
415.597	489.44
415.821	525.44
416.044	515.44
416.267	525.44
416.49	533.44
416.713	512.44
416.936	521.44
417.159	499.44
417.382	538.44
417.605	523.44
417.828	575.44
418.051	568.44
418.274	553.44
418.497	533.44
418.72	550.44
418.943	530.44
419.166	553.44
419.389	556.44
419.611	575.44
419.834	561.44
420.057	554.44
420.28	569.44
420.503	585.44
420.726	548.44
420.948	560.44
421.171	638.44
421.394	647.44
421.617	585.44
421.839	555.44
422.062	561.44
422.285	585.44
422.507	635.44
422.73	704.44
422.953	693.44
423.175	623.44
423.398	614.44
423.621	583.44
423.843	591.44
424.066	608.44
424.288	623.44
424.511	649.44
424.733	705.44
424.956	823.44
425.178	732.44
425.401	761.44
425.623	793.44
425.846	630.44
426.068	625.44
426.291	602.44
426.513	617.44
426.735	627.44
426.958	659.44
427.18	785.44
427.402	923.44
427.625	1022.44
427.847	932.44
428.069	801.44
428.292	708.44
428.514	631.44
428.736	616.44
428.958	585.44
429.181	556.44
429.403	557.44
429.625	591.44
429.847	639.44
430.069	718.44
430.292	706.44
430.514	601.44
430.736	595.44
430.958	561.44
431.18	552.44
431.402	545.44
431.624	535.44
431.846	529.44
432.068	519.44
432.29	520.44
432.512	549.44
432.734	562.44
432.956	546.44
433.178	549.44
433.4	572.44
433.622	538.44
433.844	558.44
434.066	526.44
434.287	535.44
434.509	516.44
434.731	556.44
434.953	548.44
435.175	582.44
435.397	577.44
435.618	628.44
435.84	687.44
436.062	791.44
436.284	854.44
436.505	721.44
436.727	638.44
436.949	606.44
437.17	586.44
437.392	583.44
437.614	587.44
437.835	643.44
438.057	773.44
438.278	901.44
438.5	869.44
438.721	959.44
438.943	901.44
439.165	727.44
439.386	674.44
439.608	661.44
439.829	654.44
440.05	697.44
440.272	759.44
440.493	671.44
440.715	638.44
440.936	595.44
441.158	592.44
441.379	585.44
441.6	606.44
441.822	631.44
442.043	674.44
442.264	775.44
442.486	834.44
442.707	698.44
442.928	653.44
443.149	651.44
443.371	655.44
443.592	730.44
443.813	828.44
444.034	858.44
444.255	719.44
444.476	655.44
444.698	627.44
444.919	607.44
445.14	713.44
445.361	674.44
445.582	675.44
445.803	753.44
446.024	878.44
446.245	881.44
446.466	811.44
446.687	691.44
446.908	650.44
447.129	602.44
447.35	598.44
447.571	598.44
447.792	554.44
448.013	603.44
448.234	628.44
448.455	675.44
448.675	821.44
448.896	907.44
449.117	755.44
449.338	738.44
449.559	853.44
449.779	917.44
450	788.44
450.221	665.44
450.442	607.44
450.662	602.44
450.883	578.44
451.104	611.44
451.324	603.44
451.545	562.44
451.766	547.44
451.986	518.44
452.207	532.44
452.428	509.44
452.648	521.44
452.869	543.44
453.089	543.44
453.31	554.44
453.53	535.44
453.751	529.44
453.971	526.44
454.192	569.44
454.412	535.44
454.633	521.44
454.853	537.44
455.073	505.44
455.294	537.44
455.514	643.44
455.734	613.44
455.955	503.44
456.175	503.44
456.395	491.44
456.616	488.44
456.836	469.44
457.056	481.44
457.276	486.44
457.497	477.44
457.717	495.44
457.937	479.44
458.157	511.44
458.377	513.44
458.598	562.44
458.818	619.44
459.038	733.44
459.258	725.44
459.478	627.44
459.698	551.44
459.918	521.44
460.138	542.44
460.358	519.44
460.578	537.44
460.798	551.44
461.018	539.44
461.238	517.44
461.458	520.44
461.678	523.44
461.898	539.44
462.118	527.44
462.338	525.44
462.558	533.44
462.777	538.44
462.997	558.44
463.217	574.44
463.437	552.44
463.657	542.44
463.876	556.44
464.096	542.44
464.316	564.44
464.536	561.44
464.755	591.44
464.975	590.44
465.195	677.44
465.414	775.44
465.634	702.44
465.854	597.44
466.073	566.44
466.293	542.44
466.512	553.44
466.732	525.44
466.951	518.44
467.171	515.44
467.391	544.44
467.61	539.44
467.829	542.44
468.049	537.44
468.268	574.44
468.488	536.44
468.707	516.44
468.927	509.44
469.146	515.44
469.365	505.44
469.585	519.44
469.804	506.44
470.023	537.44
470.243	527.44
470.462	530.44
470.681	549.44
470.901	558.44
471.12	534.44
471.339	547.44
471.558	562.44
471.777	563.44
471.997	562.44
472.216	549.44
472.435	614.44
472.654	566.44
472.873	541.44
473.092	527.44
473.311	548.44
473.53	538.44
473.749	534.44
473.968	597.44
474.187	725.44
474.406	747.44
474.625	625.44
474.844	574.44
475.063	548.44
475.282	544.44
475.501	547.44
475.72	544.44
475.939	561.44
476.158	541.44
476.377	577.44
476.596	565.44
476.814	564.44
477.033	573.44
477.252	570.44
477.471	569.44
477.69	580.44
477.908	567.44
478.127	574.44
478.346	601.44
478.564	574.44
478.783	606.44
479.002	632.44
479.22	609.44
479.439	633.44
479.658	661.44
479.876	649.44
480.095	643.44
480.313	666.44
480.532	677.44
480.751	633.44
480.969	665.44
481.188	737.44
481.406	802.44
481.624	723.44
481.843	681.44
482.061	682.44
482.28	645.44
482.498	637.44
482.717	651.44
482.935	657.44
483.153	621.44
483.372	643.44
483.59	679.44
483.808	641.44
484.027	631.44
484.245	643.44
484.463	641.44
484.681	648.44
484.9	638.44
485.118	657.44
485.336	659.44
485.554	651.44
485.772	652.44
485.99	667.44
486.209	661.44
486.427	685.44
486.645	671.44
486.863	702.44
487.081	729.44
487.299	715.44
487.517	680.44
487.735	693.44
487.953	707.44
488.171	717.44
488.389	684.44
488.607	690.44
488.825	683.44
489.043	719.44
489.261	713.44
489.479	686.44
489.696	737.44
489.914	735.44
490.132	703.44
490.35	714.44
490.568	759.44
490.786	749.44
491.003	744.44
491.221	789.44
491.439	814.44
491.657	771.44
491.874	823.44
492.092	823.44
492.31	830.44
492.527	817.44
492.745	850.44
492.963	823.44
493.18	853.44
493.398	846.44
493.615	840.44
493.833	841.44
494.05	833.44
494.268	861.44
494.485	825.44
494.703	847.44
494.92	840.44
495.138	850.44
495.355	838.44
495.573	816.44
495.79	822.44
496.008	833.44
496.225	838.44
496.442	848.44
496.66	838.44
496.877	845.44
497.094	838.44
497.312	851.44
497.529	855.44
497.746	853.44
497.963	873.44
498.181	885.44
498.398	893.44
498.615	903.44
498.832	914.44
499.049	921.44
499.267	939.44
499.484	954.44
499.701	973.44
499.918	974.44
500.135	993.44
500.352	1024.44
500.569	1044.44
500.786	1038.44
501.003	1046.44
501.22	1012.44
501.437	1003.44
