Data from 1971.PennyLincolnUp.Lamp.En5.5.200Scan.071719.P1.Scan 2. Changed Angle._HRD10591_15-25-20-843.txt Node
Date: Thu Jul 18 15:25:20 EDT 2019
User: cochatt
Spectrometer: HR+D1059
Trigger mode: 1
Integration Time (sec): 1.000000E-1
Scans to average: 1
Electric dark correction enabled: true
Nonlinearity correction enabled: false
Boxcar width: 0
XAxis mode: Wavelengths
Number of Pixels in Spectrum: 2048
>>>>>Begin Spectral Data<<<<<
223.165	-20.88
223.4	-20.88
223.635	-20.88
223.869	-6.88
224.104	-23.88
224.338	-6.88
224.573	-3.88
224.808	-10.88
225.042	-7.88
225.277	0.12
225.511	-3.88
225.746	2.12
225.98	-4.88
226.215	8.12
226.449	12.12
226.683	16.12
226.918	22.12
227.152	29.12
227.387	39.12
227.621	30.12
227.856	40.12
228.09	49.12
228.324	48.12
228.559	58.12
228.793	71.12
229.027	117.12
229.262	125.12
229.496	116.12
229.73	137.12
229.964	162.12
230.199	166.12
230.433	127.12
230.667	139.12
230.901	122.12
231.136	132.12
231.37	117.12
231.604	122.12
231.838	129.12
232.072	136.12
232.306	124.12
232.541	130.12
232.775	118.12
233.009	125.12
233.243	134.12
233.477	109.12
233.711	130.12
233.945	138.12
234.179	125.12
234.413	133.12
234.647	127.12
234.881	130.12
235.115	128.12
235.349	132.12
235.583	130.12
235.817	143.12
236.051	146.12
236.285	145.12
236.519	138.12
236.753	154.12
236.987	159.12
237.221	211.12
237.455	296.12
237.689	223.12
237.922	180.12
238.156	158.12
238.39	134.12
238.624	136.12
238.858	134.12
239.091	132.12
239.325	136.12
239.559	130.12
239.793	132.12
240.027	143.12
240.26	163.12
240.494	175.12
240.728	175.12
240.961	183.12
241.195	161.12
241.429	146.12
241.662	152.12
241.896	158.12
242.13	159.12
242.363	137.12
242.597	146.12
242.83	141.12
243.064	158.12
243.298	168.12
243.531	151.12
243.765	153.12
243.998	156.12
244.232	147.12
244.465	169.12
244.699	165.12
244.932	156.12
245.166	156.12
245.399	162.12
245.633	159.12
245.866	164.12
246.099	162.12
246.333	150.12
246.566	178.12
246.8	163.12
247.033	180.12
247.266	172.12
247.5	194.12
247.733	190.12
247.966	197.12
248.2	182.12
248.433	187.12
248.666	169.12
248.899	203.12
249.133	237.12
249.366	237.12
249.599	233.12
249.832	215.12
250.066	217.12
250.299	196.12
250.532	207.12
250.765	238.12
250.998	251.12
251.231	262.12
251.465	245.12
251.698	214.12
251.931	224.12
252.164	207.12
252.397	217.12
252.63	239.12
252.863	236.12
253.096	243.12
253.329	268.12
253.562	269.12
253.795	264.12
254.028	272.12
254.261	239.12
254.494	256.12
254.727	308.12
254.96	326.12
255.193	316.12
255.426	294.12
255.659	266.12
255.892	282.12
256.124	266.12
256.357	260.12
256.59	263.12
256.823	238.12
257.056	221.12
257.289	246.12
257.521	240.12
257.754	245.12
257.987	250.12
258.22	239.12
258.452	225.12
258.685	231.12
258.918	239.12
259.151	236.12
259.383	226.12
259.616	246.12
259.849	242.12
260.081	253.12
260.314	288.12
260.547	281.12
260.779	268.12
261.012	273.12
261.244	250.12
261.477	242.12
261.71	245.12
261.942	254.12
262.175	279.12
262.407	264.12
262.64	246.12
262.872	252.12
263.105	218.12
263.337	226.12
263.57	223.12
263.802	222.12
264.035	209.12
264.267	207.12
264.499	232.12
264.732	223.12
264.964	229.12
265.197	216.12
265.429	238.12
265.661	228.12
265.894	228.12
266.126	222.12
266.358	217.12
266.591	233.12
266.823	237.12
267.055	246.12
267.287	253.12
267.52	240.12
267.752	237.12
267.984	244.12
268.216	244.12
268.448	244.12
268.681	273.12
268.913	264.12
269.145	286.12
269.377	307.12
269.609	310.12
269.841	300.12
270.073	305.12
270.306	319.12
270.538	373.12
270.77	351.12
271.002	348.12
271.234	323.12
271.466	325.12
271.698	343.12
271.93	382.12
272.162	361.12
272.394	344.12
272.626	351.12
272.858	316.12
273.09	305.12
273.322	297.12
273.553	290.12
273.785	292.12
274.017	280.12
274.249	299.12
274.481	288.12
274.713	282.12
274.945	289.12
275.176	280.12
275.408	270.12
275.64	277.12
275.872	290.12
276.104	301.12
276.335	302.12
276.567	301.12
276.799	287.12
277.031	334.12
277.262	353.12
277.494	342.12
277.726	352.12
277.957	283.12
278.189	285.12
278.421	288.12
278.652	297.12
278.884	294.12
279.115	298.12
279.347	276.12
279.579	281.12
279.81	261.12
280.042	276.12
280.273	268.12
280.505	278.12
280.736	273.12
280.968	268.12
281.199	276.12
281.431	252.12
281.662	271.12
281.894	256.12
282.125	266.12
282.356	294.12
282.588	331.12
282.819	341.12
283.051	298.12
283.282	265.12
283.513	294.12
283.745	276.12
283.976	284.12
284.207	300.12
284.439	289.12
284.67	278.12
284.901	278.12
285.132	308.12
285.364	288.12
285.595	263.12
285.826	289.12
286.057	280.12
286.288	276.12
286.52	294.12
286.751	274.12
286.982	287.12
287.213	290.12
287.444	283.12
287.675	298.12
287.906	321.12
288.138	296.12
288.369	312.12
288.6	303.12
288.831	303.12
289.062	313.12
289.293	296.12
289.524	308.12
289.755	269.12
289.986	272.12
290.217	304.12
290.448	319.12
290.679	288.12
290.91	278.12
291.141	296.12
291.371	282.12
291.602	288.12
291.833	291.12
292.064	296.12
292.295	304.12
292.526	304.12
292.757	306.12
292.987	279.12
293.218	301.12
293.449	292.12
293.68	314.12
293.91	300.12
294.141	299.12
294.372	297.12
294.603	290.12
294.833	292.12
295.064	303.12
295.295	289.12
295.525	285.12
295.756	320.12
295.987	308.12
296.217	332.12
296.448	354.12
296.679	310.12
296.909	298.12
297.14	276.12
297.37	293.12
297.601	301.12
297.831	300.12
298.062	301.12
298.292	315.12
298.523	304.12
298.753	305.12
298.984	303.12
299.214	322.12
299.445	305.12
299.675	326.12
299.905	318.12
300.136	312.12
300.366	319.12
300.597	321.12
300.827	315.12
301.057	320.12
301.288	327.12
301.518	316.12
301.748	331.12
301.979	332.12
302.209	322.12
302.439	344.12
302.669	317.12
302.9	335.12
303.13	338.12
303.36	340.12
303.59	328.12
303.82	347.12
304.051	332.12
304.281	321.12
304.511	322.12
304.741	332.12
304.971	320.12
305.201	335.12
305.431	333.12
305.661	345.12
305.891	348.12
306.121	336.12
306.352	326.12
306.582	340.12
306.812	348.12
307.042	330.12
307.272	343.12
307.502	365.12
307.731	356.12
307.961	346.12
308.191	344.12
308.421	329.12
308.651	359.12
308.881	351.12
309.111	350.12
309.341	351.12
309.571	365.12
309.8	369.12
310.03	395.12
310.26	395.12
310.49	403.12
310.72	404.12
310.949	446.12
311.179	446.12
311.409	404.12
311.639	420.12
311.868	407.12
312.098	410.12
312.328	424.12
312.557	431.12
312.787	440.12
313.017	452.12
313.246	419.12
313.476	386.12
313.706	390.12
313.935	422.12
314.165	415.12
314.394	433.12
314.624	413.12
314.853	428.12
315.083	389.12
315.312	395.12
315.542	392.12
315.771	394.12
316.001	369.12
316.23	377.12
316.46	388.12
316.689	399.12
316.919	384.12
317.148	405.12
317.377	414.12
317.607	400.12
317.836	399.12
318.065	417.12
318.295	386.12
318.524	381.12
318.753	391.12
318.983	400.12
319.212	383.12
319.441	399.12
319.67	431.12
319.9	421.12
320.129	398.12
320.358	393.12
320.587	401.12
320.816	410.12
321.046	433.12
321.275	458.12
321.504	434.12
321.733	450.12
321.962	440.12
322.191	459.12
322.42	481.12
322.649	497.12
322.878	497.12
323.108	504.12
323.337	556.12
323.566	584.12
323.795	631.12
324.024	707.12
324.253	862.12
324.482	1249.12
324.71	2002.12
324.939	2864.12
325.168	2488.12
325.397	1267.12
325.626	844.12
325.855	656.12
326.084	617.12
326.313	580.12
326.542	592.12
326.77	647.12
326.999	817.12
327.228	1133.12
327.457	1735.12
327.686	2132.12
327.914	1452.12
328.143	911.12
328.372	764.12
328.6	712.12
328.829	660.12
329.058	695.12
329.287	706.12
329.515	653.12
329.744	587.12
329.972	605.12
330.201	623.12
330.43	686.12
330.658	723.12
330.887	738.12
331.115	730.12
331.344	626.12
331.572	551.12
331.801	547.12
332.03	544.12
332.258	527.12
332.486	509.12
332.715	488.12
332.943	473.12
333.172	493.12
333.4	502.12
333.629	485.12
333.857	516.12
334.085	522.12
334.314	542.12
334.542	596.12
334.771	616.12
334.999	556.12
335.227	536.12
335.455	489.12
335.684	490.12
335.912	465.12
336.14	481.12
336.369	469.12
336.597	490.12
336.825	497.12
337.053	449.12
337.281	450.12
337.51	461.12
337.738	458.12
337.966	464.12
338.194	461.12
338.422	475.12
338.65	466.12
338.878	465.12
339.106	457.12
339.334	456.12
339.562	436.12
339.79	466.12
340.018	455.12
340.246	462.12
340.474	476.12
340.702	478.12
340.93	450.12
341.158	446.12
341.386	450.12
341.614	458.12
341.842	459.12
342.07	436.12
342.298	455.12
342.526	449.12
342.754	441.12
342.981	421.12
343.209	433.12
343.437	439.12
343.665	438.12
343.893	450.12
344.12	457.12
344.348	452.12
344.576	437.12
344.804	468.12
345.031	480.12
345.259	484.12
345.487	488.12
345.714	443.12
345.942	442.12
346.17	470.12
346.397	456.12
346.625	456.12
346.853	446.12
347.08	452.12
347.308	450.12
347.535	460.12
347.763	478.12
347.99	465.12
348.218	447.12
348.445	485.12
348.673	487.12
348.9	473.12
349.128	432.12
349.355	444.12
349.583	442.12
349.81	414.12
350.037	432.12
350.265	427.12
350.492	419.12
350.72	421.12
350.947	428.12
351.174	463.12
351.402	457.12
351.629	452.12
351.856	454.12
352.083	470.12
352.311	484.12
352.538	478.12
352.765	516.12
352.992	479.12
353.22	460.12
353.447	428.12
353.674	440.12
353.901	421.12
354.128	428.12
354.355	429.12
354.583	425.12
354.81	413.12
355.037	415.12
355.264	410.12
355.491	383.12
355.718	387.12
355.945	397.12
356.172	403.12
356.399	406.12
356.626	400.12
356.853	407.12
357.08	414.12
357.307	405.12
357.534	400.12
357.761	424.12
357.988	423.12
358.215	415.12
358.441	424.12
358.668	428.12
358.895	428.12
359.122	400.12
359.349	437.12
359.576	465.12
359.802	488.12
360.029	528.12
360.256	557.12
360.483	528.12
360.709	488.12
360.936	468.12
361.163	460.12
361.39	474.12
361.616	454.12
361.843	464.12
362.07	454.12
362.296	457.12
362.523	453.12
362.749	459.12
362.976	458.12
363.203	445.12
363.429	433.12
363.656	456.12
363.882	432.12
364.109	436.12
364.335	445.12
364.562	427.12
364.788	433.12
365.015	439.12
365.241	432.12
365.468	428.12
365.694	446.12
365.92	438.12
366.147	429.12
366.373	429.12
366.599	438.12
366.826	424.12
367.052	423.12
367.278	445.12
367.505	427.12
367.731	425.12
367.957	423.12
368.184	423.12
368.41	443.12
368.636	446.12
368.862	457.12
369.089	448.12
369.315	422.12
369.541	410.12
369.767	442.12
369.993	441.12
370.219	415.12
370.445	442.12
370.672	436.12
370.898	422.12
371.124	425.12
371.35	413.12
371.576	407.12
371.802	426.12
372.028	413.12
372.254	412.12
372.48	431.12
372.706	433.12
372.932	406.12
373.158	427.12
373.384	423.12
373.61	413.12
373.835	420.12
374.061	426.12
374.287	411.12
374.513	428.12
374.739	428.12
374.965	431.12
375.191	438.12
375.416	400.12
375.642	425.12
375.868	439.12
376.094	424.12
376.319	420.12
376.545	437.12
376.771	449.12
376.997	412.12
377.222	421.12
377.448	410.12
377.674	403.12
377.899	420.12
378.125	436.12
378.35	425.12
378.576	417.12
378.802	421.12
379.027	430.12
379.253	413.12
379.478	441.12
379.704	420.12
379.929	432.12
380.155	419.12
380.38	424.12
380.606	417.12
380.831	402.12
381.057	427.12
381.282	436.12
381.507	425.12
381.733	434.12
381.958	432.12
382.184	443.12
382.409	426.12
382.634	427.12
382.86	437.12
383.085	440.12
383.31	442.12
383.535	448.12
383.761	433.12
383.986	453.12
384.211	458.12
384.436	436.12
384.662	447.12
384.887	434.12
385.112	448.12
385.337	468.12
385.562	466.12
385.787	450.12
386.013	440.12
386.238	474.12
386.463	473.12
386.688	463.12
386.913	448.12
387.138	446.12
387.363	464.12
387.588	477.12
387.813	453.12
388.038	460.12
388.263	465.12
388.488	465.12
388.713	461.12
388.938	470.12
389.163	460.12
389.387	463.12
389.612	452.12
389.837	463.12
390.062	472.12
390.287	481.12
390.512	451.12
390.736	460.12
390.961	469.12
391.186	435.12
391.411	469.12
391.636	449.12
391.86	465.12
392.085	472.12
392.31	474.12
392.534	477.12
392.759	448.12
392.984	464.12
393.208	476.12
393.433	481.12
393.658	453.12
393.882	457.12
394.107	456.12
394.331	462.12
394.556	469.12
394.78	449.12
395.005	455.12
395.229	474.12
395.454	465.12
395.678	490.12
395.903	483.12
396.127	530.12
396.352	498.12
396.576	469.12
396.801	471.12
397.025	492.12
397.249	493.12
397.474	486.12
397.698	503.12
397.922	521.12
398.147	496.12
398.371	524.12
398.595	512.12
398.82	516.12
399.044	553.12
399.268	533.12
399.492	524.12
399.717	546.12
399.941	596.12
400.165	628.12
400.389	637.12
400.613	628.12
400.837	556.12
401.062	564.12
401.286	543.12
401.51	544.12
401.734	537.12
401.958	539.12
402.182	526.12
402.406	561.12
402.63	557.12
402.854	543.12
403.078	550.12
403.302	534.12
403.526	549.12
403.75	560.12
403.974	566.12
404.198	548.12
404.422	561.12
404.645	566.12
404.869	568.12
405.093	604.12
405.317	656.12
405.541	695.12
405.765	634.12
405.988	614.12
406.212	617.12
406.436	620.12
406.66	646.12
406.883	612.12
407.107	631.12
407.331	683.12
407.555	729.12
407.778	747.12
408.002	674.12
408.226	638.12
408.449	646.12
408.673	620.12
408.896	656.12
409.12	714.12
409.344	669.12
409.567	611.12
409.791	576.12
410.014	575.12
410.238	559.12
410.461	555.12
410.685	576.12
410.908	610.12
411.132	630.12
411.355	662.12
411.578	637.12
411.802	596.12
412.025	575.12
412.249	571.12
412.472	598.12
412.695	653.12
412.919	646.12
413.142	600.12
413.365	561.12
413.589	554.12
413.812	575.12
414.035	543.12
414.258	544.12
414.482	528.12
414.705	535.12
414.928	526.12
415.151	503.12
415.374	517.12
415.597	538.12
415.821	539.12
416.044	531.12
416.267	548.12
416.49	513.12
416.713	540.12
416.936	519.12
417.159	538.12
417.382	554.12
417.605	572.12
417.828	553.12
418.051	587.12
418.274	568.12
418.497	554.12
418.72	545.12
418.943	531.12
419.166	539.12
419.389	572.12
419.611	576.12
419.834	581.12
420.057	568.12
420.28	596.12
420.503	578.12
420.726	560.12
420.948	570.12
421.171	615.12
421.394	701.12
421.617	600.12
421.839	570.12
422.062	566.12
422.285	592.12
422.507	652.12
422.73	763.12
422.953	735.12
423.175	630.12
423.398	606.12
423.621	606.12
423.843	621.12
424.066	643.12
424.288	620.12
424.511	660.12
424.733	714.12
424.956	800.12
425.178	769.12
425.401	758.12
425.623	804.12
425.846	688.12
426.068	647.12
426.291	648.12
426.513	637.12
426.735	639.12
426.958	678.12
427.18	794.12
427.402	933.12
427.625	1041.12
427.847	950.12
428.069	840.12
428.292	711.12
428.514	668.12
428.736	621.12
428.958	605.12
429.181	572.12
429.403	614.12
429.625	592.12
429.847	638.12
430.069	731.12
430.292	722.12
430.514	629.12
430.736	560.12
430.958	585.12
431.18	582.12
431.402	546.12
431.624	546.12
431.846	545.12
432.068	541.12
432.29	560.12
432.512	533.12
432.734	567.12
432.956	573.12
433.178	568.12
433.4	580.12
433.622	547.12
433.844	555.12
434.066	546.12
434.287	560.12
434.509	565.12
434.731	564.12
434.953	558.12
435.175	593.12
435.397	624.12
435.618	639.12
435.84	680.12
436.062	832.12
436.284	865.12
436.505	743.12
436.727	656.12
436.949	615.12
437.17	600.12
437.392	591.12
437.614	604.12
437.835	662.12
438.057	790.12
438.278	886.12
438.5	888.12
438.721	989.12
438.943	914.12
439.165	736.12
439.386	660.12
439.608	701.12
439.829	704.12
440.05	660.12
440.272	772.12
440.493	696.12
440.715	654.12
440.936	620.12
441.158	608.12
441.379	605.12
441.6	615.12
441.822	636.12
442.043	681.12
442.264	802.12
442.486	845.12
442.707	710.12
442.928	685.12
443.149	689.12
443.371	701.12
443.592	737.12
443.813	850.12
444.034	914.12
444.255	756.12
444.476	689.12
444.698	636.12
444.919	636.12
445.14	745.12
445.361	704.12
445.582	712.12
445.803	785.12
446.024	915.12
446.245	914.12
446.466	837.12
446.687	705.12
446.908	677.12
447.129	636.12
447.35	601.12
447.571	596.12
447.792	593.12
448.013	594.12
448.234	633.12
448.455	704.12
448.675	859.12
448.896	912.12
449.117	816.12
449.338	786.12
449.559	907.12
449.779	992.12
450	804.12
450.221	668.12
450.442	623.12
450.662	600.12
450.883	611.12
451.104	620.12
451.324	617.12
451.545	589.12
451.766	558.12
451.986	551.12
452.207	536.12
452.428	521.12
452.648	542.12
452.869	546.12
453.089	540.12
453.31	567.12
453.53	536.12
453.751	540.12
453.971	557.12
454.192	585.12
454.412	548.12
454.633	547.12
454.853	538.12
455.073	538.12
455.294	573.12
455.514	648.12
455.734	636.12
455.955	537.12
456.175	512.12
456.395	493.12
456.616	512.12
456.836	502.12
457.056	493.12
457.276	474.12
457.497	487.12
457.717	486.12
457.937	505.12
458.157	516.12
458.377	526.12
458.598	544.12
458.818	619.12
459.038	730.12
459.258	748.12
459.478	622.12
459.698	578.12
459.918	559.12
460.138	527.12
460.358	558.12
460.578	547.12
460.798	540.12
461.018	545.12
461.238	533.12
461.458	540.12
461.678	547.12
461.898	541.12
462.118	526.12
462.338	523.12
462.558	558.12
462.777	558.12
462.997	574.12
463.217	578.12
463.437	574.12
463.657	578.12
463.876	564.12
464.096	581.12
464.316	577.12
464.536	581.12
464.755	583.12
464.975	605.12
465.195	664.12
465.414	753.12
465.634	670.12
465.854	615.12
466.073	589.12
466.293	561.12
466.512	556.12
466.732	549.12
466.951	558.12
467.171	545.12
467.391	538.12
467.61	559.12
467.829	570.12
468.049	546.12
468.268	559.12
468.488	540.12
468.707	530.12
468.927	541.12
469.146	525.12
469.365	533.12
469.585	539.12
469.804	544.12
470.023	561.12
470.243	558.12
470.462	565.12
470.681	595.12
470.901	581.12
471.12	577.12
471.339	559.12
471.558	562.12
471.777	560.12
471.997	530.12
472.216	561.12
472.435	598.12
472.654	590.12
472.873	548.12
473.092	554.12
473.311	538.12
473.53	554.12
473.749	557.12
473.968	606.12
474.187	736.12
474.406	774.12
474.625	639.12
474.844	582.12
475.063	558.12
475.282	558.12
475.501	551.12
475.72	562.12
475.939	588.12
476.158	566.12
476.377	576.12
476.596	555.12
476.814	579.12
477.033	583.12
477.252	585.12
477.471	591.12
477.69	605.12
477.908	595.12
478.127	613.12
478.346	619.12
478.564	602.12
478.783	605.12
479.002	609.12
479.22	618.12
479.439	630.12
479.658	666.12
479.876	680.12
480.095	670.12
480.313	692.12
480.532	676.12
480.751	672.12
480.969	688.12
481.188	777.12
481.406	827.12
481.624	720.12
481.843	712.12
482.061	677.12
482.28	664.12
482.498	676.12
482.717	664.12
482.935	649.12
483.153	645.12
483.372	655.12
483.59	640.12
483.808	650.12
484.027	661.12
484.245	644.12
484.463	672.12
484.681	673.12
484.9	650.12
485.118	686.12
485.336	664.12
485.554	673.12
485.772	672.12
485.99	680.12
486.209	692.12
486.427	705.12
486.645	702.12
486.863	728.12
487.081	695.12
487.299	716.12
487.517	714.12
487.735	696.12
487.953	706.12
488.171	714.12
488.389	710.12
488.607	713.12
488.825	743.12
489.043	728.12
489.261	733.12
489.479	731.12
489.696	739.12
489.914	735.12
490.132	733.12
490.35	754.12
490.568	749.12
490.786	782.12
491.003	802.12
491.221	793.12
491.439	828.12
491.657	830.12
491.874	824.12
492.092	831.12
492.31	850.12
492.527	860.12
492.745	854.12
492.963	857.12
493.18	836.12
493.398	875.12
493.615	851.12
493.833	862.12
494.05	868.12
494.268	862.12
494.485	868.12
494.703	877.12
494.92	874.12
495.138	846.12
495.355	865.12
495.573	875.12
495.79	897.12
496.008	883.12
496.225	861.12
496.442	873.12
496.66	876.12
496.877	870.12
497.094	877.12
497.312	866.12
497.529	877.12
497.746	890.12
497.963	887.12
498.181	914.12
498.398	913.12
498.615	920.12
498.832	941.12
499.049	919.12
499.267	932.12
499.484	972.12
499.701	982.12
499.918	988.12
500.135	991.12
500.352	1040.12
500.569	1056.12
500.786	1079.12
501.003	1050.12
501.22	1046.12
501.437	1046.12
