Data from 1971.PennyLincolnUp.Lamp.En5.5.200Scan.071719.P1.Scan 2. Changed Angle._HRD10591_15-25-02-843.txt Node
Date: Thu Jul 18 15:25:02 EDT 2019
User: cochatt
Spectrometer: HR+D1059
Trigger mode: 1
Integration Time (sec): 1.000000E-1
Scans to average: 1
Electric dark correction enabled: true
Nonlinearity correction enabled: false
Boxcar width: 0
XAxis mode: Wavelengths
Number of Pixels in Spectrum: 2048
>>>>>Begin Spectral Data<<<<<
223.165	-11.38
223.4	-11.38
223.635	-11.38
223.869	-1.38
224.104	-31.38
224.338	-6.38
224.573	-4.38
224.808	-29.38
225.042	-10.38
225.277	2.62
225.511	-10.38
225.746	0.62
225.98	5.62
226.215	16.62
226.449	14.62
226.683	29.62
226.918	13.62
227.152	21.62
227.387	29.62
227.621	23.62
227.856	36.62
228.09	45.62
228.324	41.62
228.559	61.62
228.793	71.62
229.027	124.62
229.262	110.62
229.496	126.62
229.73	139.62
229.964	167.62
230.199	149.62
230.433	126.62
230.667	116.62
230.901	114.62
231.136	125.62
231.37	120.62
231.604	103.62
231.838	117.62
232.072	114.62
232.306	114.62
232.541	114.62
232.775	113.62
233.009	128.62
233.243	118.62
233.477	116.62
233.711	114.62
233.945	140.62
234.179	133.62
234.413	119.62
234.647	124.62
234.881	124.62
235.115	139.62
235.349	122.62
235.583	125.62
235.817	126.62
236.051	122.62
236.285	131.62
236.519	126.62
236.753	138.62
236.987	151.62
237.221	195.62
237.455	271.62
237.689	221.62
237.922	161.62
238.156	137.62
238.39	145.62
238.624	120.62
238.858	121.62
239.091	124.62
239.325	120.62
239.559	138.62
239.793	142.62
240.027	162.62
240.26	149.62
240.494	172.62
240.728	158.62
240.961	160.62
241.195	153.62
241.429	150.62
241.662	156.62
241.896	142.62
242.13	130.62
242.363	150.62
242.597	152.62
242.83	148.62
243.064	158.62
243.298	148.62
243.531	138.62
243.765	146.62
243.998	150.62
244.232	150.62
244.465	148.62
244.699	153.62
244.932	160.62
245.166	140.62
245.399	152.62
245.633	148.62
245.866	161.62
246.099	162.62
246.333	154.62
246.566	160.62
246.8	163.62
247.033	169.62
247.266	178.62
247.5	158.62
247.733	194.62
247.966	192.62
248.2	188.62
248.433	175.62
248.666	172.62
248.899	207.62
249.133	227.62
249.366	241.62
249.599	216.62
249.832	198.62
250.066	193.62
250.299	197.62
250.532	212.62
250.765	227.62
250.998	244.62
251.231	270.62
251.465	237.62
251.698	222.62
251.931	237.62
252.164	217.62
252.397	216.62
252.63	211.62
252.863	225.62
253.096	238.62
253.329	244.62
253.562	251.62
253.795	222.62
254.028	238.62
254.261	249.62
254.494	248.62
254.727	299.62
254.96	304.62
255.193	298.62
255.426	291.62
255.659	275.62
255.892	263.62
256.124	264.62
256.357	242.62
256.59	249.62
256.823	226.62
257.056	242.62
257.289	230.62
257.521	229.62
257.754	231.62
257.987	225.62
258.22	232.62
258.452	206.62
258.685	227.62
258.918	221.62
259.151	226.62
259.383	244.62
259.616	242.62
259.849	235.62
260.081	276.62
260.314	270.62
260.547	282.62
260.779	262.62
261.012	266.62
261.244	264.62
261.477	225.62
261.71	229.62
261.942	251.62
262.175	258.62
262.407	251.62
262.64	234.62
262.872	235.62
263.105	209.62
263.337	233.62
263.57	226.62
263.802	232.62
264.035	227.62
264.267	223.62
264.499	221.62
264.732	218.62
264.964	227.62
265.197	224.62
265.429	226.62
265.661	218.62
265.894	232.62
266.126	224.62
266.358	211.62
266.591	218.62
266.823	227.62
267.055	240.62
267.287	237.62
267.52	249.62
267.752	229.62
267.984	231.62
268.216	226.62
268.448	229.62
268.681	228.62
268.913	240.62
269.145	281.62
269.377	289.62
269.609	294.62
269.841	295.62
270.073	297.62
270.306	306.62
270.538	338.62
270.77	363.62
271.002	326.62
271.234	320.62
271.466	321.62
271.698	340.62
271.93	330.62
272.162	349.62
272.394	330.62
272.626	333.62
272.858	310.62
273.09	301.62
273.322	300.62
273.553	274.62
273.785	279.62
274.017	262.62
274.249	276.62
274.481	276.62
274.713	276.62
274.945	285.62
275.176	270.62
275.408	289.62
275.64	269.62
275.872	296.62
276.104	280.62
276.335	267.62
276.567	287.62
276.799	304.62
277.031	331.62
277.262	353.62
277.494	336.62
277.726	321.62
277.957	324.62
278.189	312.62
278.421	278.62
278.652	286.62
278.884	274.62
279.115	285.62
279.347	284.62
279.579	276.62
279.81	284.62
280.042	261.62
280.273	266.62
280.505	271.62
280.736	264.62
280.968	267.62
281.199	274.62
281.431	267.62
281.662	262.62
281.894	274.62
282.125	267.62
282.356	300.62
282.588	306.62
282.819	301.62
283.051	288.62
283.282	284.62
283.513	269.62
283.745	281.62
283.976	276.62
284.207	282.62
284.439	281.62
284.67	292.62
284.901	277.62
285.132	276.62
285.364	276.62
285.595	282.62
285.826	294.62
286.057	280.62
286.288	297.62
286.52	279.62
286.751	262.62
286.982	272.62
287.213	276.62
287.444	284.62
287.675	289.62
287.906	289.62
288.138	293.62
288.369	288.62
288.6	295.62
288.831	300.62
289.062	294.62
289.293	273.62
289.524	279.62
289.755	282.62
289.986	292.62
290.217	280.62
290.448	267.62
290.679	278.62
290.91	298.62
291.141	284.62
291.371	290.62
291.602	291.62
291.833	287.62
292.064	288.62
292.295	280.62
292.526	285.62
292.757	268.62
292.987	296.62
293.218	285.62
293.449	282.62
293.68	307.62
293.91	285.62
294.141	283.62
294.372	292.62
294.603	310.62
294.833	291.62
295.064	293.62
295.295	301.62
295.525	299.62
295.756	297.62
295.987	309.62
296.217	315.62
296.448	340.62
296.679	320.62
296.909	300.62
297.14	276.62
297.37	275.62
297.601	285.62
297.831	293.62
298.062	316.62
298.292	308.62
298.523	294.62
298.753	292.62
298.984	283.62
299.214	293.62
299.445	293.62
299.675	314.62
299.905	314.62
300.136	286.62
300.366	298.62
300.597	325.62
300.827	301.62
301.057	321.62
301.288	321.62
301.518	309.62
301.748	317.62
301.979	335.62
302.209	317.62
302.439	308.62
302.669	325.62
302.9	317.62
303.13	315.62
303.36	316.62
303.59	328.62
303.82	325.62
304.051	330.62
304.281	322.62
304.511	318.62
304.741	319.62
304.971	307.62
305.201	307.62
305.431	317.62
305.661	308.62
305.891	316.62
306.121	325.62
306.352	358.62
306.582	341.62
306.812	325.62
307.042	331.62
307.272	324.62
307.502	329.62
307.731	338.62
307.961	316.62
308.191	334.62
308.421	326.62
308.651	342.62
308.881	349.62
309.111	334.62
309.341	331.62
309.571	348.62
309.8	378.62
310.03	384.62
310.26	387.62
310.49	380.62
310.72	400.62
310.949	402.62
311.179	417.62
311.409	401.62
311.639	409.62
311.868	386.62
312.098	384.62
312.328	404.62
312.557	415.62
312.787	426.62
313.017	440.62
313.246	412.62
313.476	386.62
313.706	392.62
313.935	403.62
314.165	400.62
314.394	417.62
314.624	422.62
314.853	401.62
315.083	386.62
315.312	378.62
315.542	394.62
315.771	377.62
316.001	377.62
316.23	378.62
316.46	372.62
316.689	399.62
316.919	388.62
317.148	408.62
317.377	389.62
317.607	384.62
317.836	362.62
318.065	375.62
318.295	386.62
318.524	395.62
318.753	390.62
318.983	386.62
319.212	384.62
319.441	384.62
319.67	425.62
319.9	402.62
320.129	383.62
320.358	381.62
320.587	381.62
320.816	402.62
321.046	411.62
321.275	419.62
321.504	420.62
321.733	420.62
321.962	414.62
322.191	445.62
322.42	429.62
322.649	484.62
322.878	482.62
323.108	497.62
323.337	540.62
323.566	576.62
323.795	613.62
324.024	644.62
324.253	823.62
324.482	1175.62
324.71	1906.62
324.939	2700.62
325.168	2301.62
325.397	1219.62
325.626	788.62
325.855	635.62
326.084	579.62
326.313	579.62
326.542	550.62
326.77	620.62
326.999	773.62
327.228	1055.62
327.457	1651.62
327.686	2048.62
327.914	1380.62
328.143	865.62
328.372	770.62
328.6	673.62
328.829	647.62
329.058	673.62
329.287	676.62
329.515	618.62
329.744	590.62
329.972	599.62
330.201	594.62
330.43	654.62
330.658	671.62
330.887	718.62
331.115	672.62
331.344	576.62
331.572	542.62
331.801	544.62
332.03	539.62
332.258	498.62
332.486	470.62
332.715	465.62
332.943	462.62
333.172	462.62
333.4	426.62
333.629	498.62
333.857	501.62
334.085	514.62
334.314	553.62
334.542	581.62
334.771	587.62
334.999	521.62
335.227	492.62
335.455	467.62
335.684	458.62
335.912	435.62
336.14	468.62
336.369	439.62
336.597	454.62
336.825	436.62
337.053	462.62
337.281	453.62
337.51	448.62
337.738	465.62
337.966	453.62
338.194	462.62
338.422	467.62
338.65	461.62
338.878	455.62
339.106	446.62
339.334	439.62
339.562	448.62
339.79	440.62
340.018	436.62
340.246	457.62
340.474	430.62
340.702	454.62
340.93	436.62
341.158	438.62
341.386	438.62
341.614	453.62
341.842	444.62
342.07	418.62
342.298	438.62
342.526	431.62
342.754	423.62
342.981	417.62
343.209	409.62
343.437	419.62
343.665	414.62
343.893	434.62
344.12	429.62
344.348	428.62
344.576	428.62
344.804	449.62
345.031	466.62
345.259	482.62
345.487	460.62
345.714	462.62
345.942	433.62
346.17	434.62
346.397	440.62
346.625	451.62
346.853	450.62
347.08	424.62
347.308	445.62
347.535	417.62
347.763	484.62
347.99	458.62
348.218	451.62
348.445	460.62
348.673	433.62
348.9	449.62
349.128	436.62
349.355	454.62
349.583	425.62
349.81	442.62
350.037	408.62
350.265	412.62
350.492	435.62
350.72	426.62
350.947	438.62
351.174	446.62
351.402	449.62
351.629	451.62
351.856	443.62
352.083	442.62
352.311	486.62
352.538	455.62
352.765	461.62
352.992	451.62
353.22	456.62
353.447	446.62
353.674	448.62
353.901	436.62
354.128	411.62
354.355	417.62
354.583	413.62
354.81	405.62
355.037	387.62
355.264	390.62
355.491	397.62
355.718	401.62
355.945	398.62
356.172	390.62
356.399	405.62
356.626	396.62
356.853	400.62
357.08	380.62
357.307	400.62
357.534	392.62
357.761	382.62
357.988	411.62
358.215	414.62
358.441	407.62
358.668	399.62
358.895	419.62
359.122	416.62
359.349	438.62
359.576	436.62
359.802	475.62
360.029	515.62
360.256	523.62
360.483	504.62
360.709	480.62
360.936	436.62
361.163	460.62
361.39	464.62
361.616	451.62
361.843	442.62
362.07	450.62
362.296	468.62
362.523	458.62
362.749	449.62
362.976	422.62
363.203	430.62
363.429	444.62
363.656	448.62
363.882	429.62
364.109	424.62
364.335	410.62
364.562	435.62
364.788	427.62
365.015	423.62
365.241	418.62
365.468	441.62
365.694	427.62
365.92	429.62
366.147	426.62
366.373	409.62
366.599	442.62
366.826	403.62
367.052	413.62
367.278	419.62
367.505	422.62
367.731	435.62
367.957	421.62
368.184	423.62
368.41	420.62
368.636	425.62
368.862	434.62
369.089	434.62
369.315	412.62
369.541	420.62
369.767	395.62
369.993	414.62
370.219	423.62
370.445	426.62
370.672	399.62
370.898	388.62
371.124	419.62
371.35	395.62
371.576	406.62
371.802	435.62
372.028	415.62
372.254	397.62
372.48	401.62
372.706	411.62
372.932	403.62
373.158	401.62
373.384	417.62
373.61	422.62
373.835	409.62
374.061	409.62
374.287	427.62
374.513	402.62
374.739	429.62
374.965	421.62
375.191	429.62
375.416	412.62
375.642	413.62
375.868	436.62
376.094	414.62
376.319	422.62
376.545	402.62
376.771	410.62
376.997	418.62
377.222	405.62
377.448	416.62
377.674	425.62
377.899	412.62
378.125	423.62
378.35	402.62
378.576	412.62
378.802	416.62
379.027	408.62
379.253	430.62
379.478	399.62
379.704	410.62
379.929	406.62
380.155	404.62
380.38	412.62
380.606	408.62
380.831	409.62
381.057	419.62
381.282	418.62
381.507	411.62
381.733	416.62
381.958	424.62
382.184	420.62
382.409	429.62
382.634	432.62
382.86	434.62
383.085	426.62
383.31	422.62
383.535	430.62
383.761	440.62
383.986	440.62
384.211	416.62
384.436	450.62
384.662	433.62
384.887	446.62
385.112	448.62
385.337	438.62
385.562	432.62
385.787	444.62
386.013	441.62
386.238	442.62
386.463	459.62
386.688	446.62
386.913	438.62
387.138	439.62
387.363	426.62
387.588	445.62
387.813	440.62
388.038	443.62
388.263	444.62
388.488	448.62
388.713	441.62
388.938	458.62
389.163	431.62
389.387	459.62
389.612	445.62
389.837	429.62
390.062	448.62
390.287	446.62
390.512	441.62
390.736	440.62
390.961	448.62
391.186	432.62
391.411	438.62
391.636	433.62
391.86	461.62
392.085	490.62
392.31	464.62
392.534	460.62
392.759	460.62
392.984	469.62
393.208	442.62
393.433	455.62
393.658	453.62
393.882	463.62
394.107	456.62
394.331	450.62
394.556	459.62
394.78	444.62
395.005	438.62
395.229	437.62
395.454	453.62
395.678	471.62
395.903	483.62
396.127	503.62
396.352	516.62
396.576	490.62
396.801	470.62
397.025	478.62
397.249	469.62
397.474	485.62
397.698	467.62
397.922	506.62
398.147	544.62
398.371	508.62
398.595	520.62
398.82	527.62
399.044	521.62
399.268	527.62
399.492	517.62
399.717	561.62
399.941	595.62
400.165	617.62
400.389	640.62
400.613	560.62
400.837	532.62
401.062	518.62
401.286	512.62
401.51	502.62
401.734	508.62
401.958	538.62
402.182	530.62
402.406	548.62
402.63	550.62
402.854	527.62
403.078	522.62
403.302	545.62
403.526	548.62
403.75	540.62
403.974	545.62
404.198	542.62
404.422	528.62
404.645	580.62
404.869	549.62
405.093	588.62
405.317	641.62
405.541	662.62
405.765	599.62
405.988	588.62
406.212	604.62
406.436	641.62
406.66	618.62
406.883	603.62
407.107	631.62
407.331	658.62
407.555	719.62
407.778	714.62
408.002	644.62
408.226	617.62
408.449	621.62
408.673	594.62
408.896	617.62
409.12	694.62
409.344	658.62
409.567	584.62
409.791	560.62
410.014	569.62
410.238	555.62
410.461	539.62
410.685	546.62
410.908	553.62
411.132	629.62
411.355	636.62
411.578	619.62
411.802	580.62
412.025	554.62
412.249	576.62
412.472	588.62
412.695	626.62
412.919	636.62
413.142	571.62
413.365	532.62
413.589	535.62
413.812	541.62
414.035	524.62
414.258	522.62
414.482	521.62
414.705	512.62
414.928	518.62
415.151	519.62
415.374	520.62
415.597	523.62
415.821	507.62
416.044	502.62
416.267	536.62
416.49	529.62
416.713	508.62
416.936	527.62
417.159	520.62
417.382	524.62
417.605	540.62
417.828	546.62
418.051	558.62
418.274	568.62
418.497	497.62
418.72	517.62
418.943	532.62
419.166	552.62
419.389	535.62
419.611	558.62
419.834	554.62
420.057	561.62
420.28	548.62
420.503	552.62
420.726	561.62
420.948	592.62
421.171	616.62
421.394	679.62
421.617	589.62
421.839	544.62
422.062	562.62
422.285	603.62
422.507	642.62
422.73	730.62
422.953	699.62
423.175	604.62
423.398	593.62
423.621	562.62
423.843	590.62
424.066	613.62
424.288	618.62
424.511	631.62
424.733	681.62
424.956	796.62
425.178	786.62
425.401	769.62
425.623	767.62
425.846	672.62
426.068	620.62
426.291	611.62
426.513	618.62
426.735	644.62
426.958	668.62
427.18	766.62
427.402	870.62
427.625	1031.62
427.847	907.62
428.069	800.62
428.292	716.62
428.514	650.62
428.736	599.62
428.958	588.62
429.181	581.62
429.403	573.62
429.625	587.62
429.847	634.62
430.069	713.62
430.292	714.62
430.514	603.62
430.736	580.62
430.958	570.62
431.18	520.62
431.402	517.62
431.624	540.62
431.846	528.62
432.068	524.62
432.29	562.62
432.512	544.62
432.734	553.62
432.956	547.62
433.178	551.62
433.4	567.62
433.622	549.62
433.844	536.62
434.066	537.62
434.287	544.62
434.509	525.62
434.731	534.62
434.953	557.62
435.175	583.62
435.397	634.62
435.618	640.62
435.84	701.62
436.062	807.62
436.284	853.62
436.505	712.62
436.727	626.62
436.949	586.62
437.17	582.62
437.392	576.62
437.614	607.62
437.835	652.62
438.057	772.62
438.278	880.62
438.5	861.62
438.721	948.62
438.943	868.62
439.165	729.62
439.386	667.62
439.608	680.62
439.829	669.62
440.05	688.62
440.272	748.62
440.493	692.62
440.715	638.62
440.936	612.62
441.158	594.62
441.379	583.62
441.6	600.62
441.822	620.62
442.043	654.62
442.264	785.62
442.486	806.62
442.707	717.62
442.928	640.62
443.149	648.62
443.371	687.62
443.592	709.62
443.813	809.62
444.034	888.62
444.255	749.62
444.476	635.62
444.698	622.62
444.919	624.62
445.14	762.62
445.361	705.62
445.582	699.62
445.803	781.62
446.024	887.62
446.245	890.62
446.466	801.62
446.687	702.62
446.908	638.62
447.129	610.62
447.35	592.62
447.571	589.62
447.792	584.62
448.013	596.62
448.234	613.62
448.455	658.62
448.675	799.62
448.896	894.62
449.117	780.62
449.338	757.62
449.559	837.62
449.779	959.62
450	803.62
450.221	642.62
450.442	584.62
450.662	585.62
450.883	580.62
451.104	630.62
451.324	617.62
451.545	573.62
451.766	534.62
451.986	533.62
452.207	529.62
452.428	525.62
452.648	517.62
452.869	517.62
453.089	533.62
453.31	558.62
453.53	547.62
453.751	529.62
453.971	529.62
454.192	569.62
454.412	548.62
454.633	524.62
454.853	509.62
455.073	519.62
455.294	556.62
455.514	657.62
455.734	630.62
455.955	537.62
456.175	529.62
456.395	492.62
456.616	474.62
456.836	473.62
457.056	453.62
457.276	473.62
457.497	512.62
457.717	512.62
457.937	479.62
458.157	479.62
458.377	524.62
458.598	549.62
458.818	591.62
459.038	722.62
459.258	746.62
459.478	613.62
459.698	555.62
459.918	550.62
460.138	524.62
460.358	554.62
460.578	546.62
460.798	558.62
461.018	514.62
461.238	541.62
461.458	513.62
461.678	534.62
461.898	520.62
462.118	508.62
462.338	504.62
462.558	533.62
462.777	524.62
462.997	554.62
463.217	526.62
463.437	558.62
463.657	532.62
463.876	564.62
464.096	563.62
464.316	562.62
464.536	557.62
464.755	570.62
464.975	585.62
465.195	616.62
465.414	756.62
465.634	645.62
465.854	590.62
466.073	576.62
466.293	562.62
466.512	535.62
466.732	534.62
466.951	509.62
467.171	519.62
467.391	521.62
467.61	549.62
467.829	549.62
468.049	561.62
468.268	533.62
468.488	529.62
468.707	521.62
468.927	503.62
469.146	525.62
469.365	512.62
469.585	544.62
469.804	510.62
470.023	549.62
470.243	560.62
470.462	530.62
470.681	557.62
470.901	566.62
471.12	532.62
471.339	549.62
471.558	561.62
471.777	523.62
471.997	526.62
472.216	562.62
472.435	622.62
472.654	570.62
472.873	545.62
473.092	520.62
473.311	530.62
473.53	544.62
473.749	554.62
473.968	597.62
474.187	736.62
474.406	718.62
474.625	615.62
474.844	571.62
475.063	544.62
475.282	574.62
475.501	560.62
475.72	556.62
475.939	548.62
476.158	565.62
476.377	552.62
476.596	554.62
476.814	566.62
477.033	575.62
477.252	592.62
477.471	579.62
477.69	579.62
477.908	579.62
478.127	583.62
478.346	591.62
478.564	589.62
478.783	587.62
479.002	600.62
479.22	597.62
479.439	625.62
479.658	647.62
479.876	638.62
480.095	642.62
480.313	692.62
480.532	672.62
480.751	680.62
480.969	673.62
481.188	762.62
481.406	825.62
481.624	718.62
481.843	677.62
482.061	678.62
482.28	642.62
482.498	658.62
482.717	638.62
482.935	636.62
483.153	624.62
483.372	651.62
483.59	632.62
483.808	637.62
484.027	630.62
484.245	648.62
484.463	648.62
484.681	653.62
484.9	646.62
485.118	666.62
485.336	664.62
485.554	663.62
485.772	664.62
485.99	653.62
486.209	658.62
486.427	678.62
486.645	703.62
486.863	703.62
487.081	719.62
487.299	718.62
487.517	710.62
487.735	703.62
487.953	684.62
488.171	694.62
488.389	713.62
488.607	718.62
488.825	711.62
489.043	728.62
489.261	702.62
489.479	696.62
489.696	707.62
489.914	710.62
490.132	727.62
490.35	722.62
490.568	732.62
490.786	768.62
491.003	784.62
491.221	758.62
491.439	797.62
491.657	802.62
491.874	836.62
492.092	824.62
492.31	809.62
492.527	833.62
492.745	825.62
492.963	817.62
493.18	848.62
493.398	873.62
493.615	840.62
493.833	862.62
494.05	820.62
494.268	852.62
494.485	852.62
494.703	856.62
494.92	850.62
495.138	826.62
495.355	847.62
495.573	841.62
495.79	843.62
496.008	835.62
496.225	841.62
496.442	841.62
496.66	845.62
496.877	836.62
497.094	861.62
497.312	865.62
497.529	876.62
497.746	856.62
497.963	864.62
498.181	896.62
498.398	905.62
498.615	940.62
498.832	911.62
499.049	896.62
499.267	923.62
499.484	924.62
499.701	984.62
499.918	944.62
500.135	999.62
500.352	1033.62
500.569	1054.62
500.786	1021.62
501.003	1016.62
501.22	1028.62
501.437	1014.62
