Data from 1971.PennyLincolnUp.Lamp.En5.5.200Scan.071719.P1._HRD10591_15-17-57-841.txt Node
Date: Thu Jul 18 15:17:57 EDT 2019
User: cochatt
Spectrometer: HR+D1059
Trigger mode: 1
Integration Time (sec): 1.000000E-1
Scans to average: 1
Electric dark correction enabled: true
Nonlinearity correction enabled: false
Boxcar width: 0
XAxis mode: Wavelengths
Number of Pixels in Spectrum: 2048
>>>>>Begin Spectral Data<<<<<
223.165	-27.12
223.4	-27.12
223.635	-27.12
223.869	-17.12
224.104	-14.12
224.338	-5.12
224.573	4.88
224.808	-8.12
225.042	-19.12
225.277	-7.12
225.511	3.88
225.746	-2.12
225.98	16.88
226.215	9.88
226.449	15.88
226.683	17.88
226.918	17.88
227.152	12.88
227.387	7.88
227.621	26.88
227.856	34.88
228.09	42.88
228.324	54.88
228.559	47.88
228.793	67.88
229.027	92.88
229.262	92.88
229.496	80.88
229.73	108.88
229.964	98.88
230.199	98.88
230.433	101.88
230.667	101.88
230.901	92.88
231.136	98.88
231.37	85.88
231.604	107.88
231.838	104.88
232.072	93.88
232.306	102.88
232.541	115.88
232.775	109.88
233.009	117.88
233.243	109.88
233.477	94.88
233.711	114.88
233.945	115.88
234.179	97.88
234.413	105.88
234.647	121.88
234.881	101.88
235.115	108.88
235.349	115.88
235.583	113.88
235.817	104.88
236.051	109.88
236.285	108.88
236.519	111.88
236.753	99.88
236.987	127.88
237.221	139.88
237.455	191.88
237.689	159.88
237.922	99.88
238.156	117.88
238.39	117.88
238.624	107.88
238.858	113.88
239.091	111.88
239.325	102.88
239.559	106.88
239.793	111.88
240.027	118.88
240.26	133.88
240.494	129.88
240.728	131.88
240.961	121.88
241.195	118.88
241.429	117.88
241.662	116.88
241.896	117.88
242.13	111.88
242.363	128.88
242.597	129.88
242.83	127.88
243.064	131.88
243.298	135.88
243.531	125.88
243.765	128.88
243.998	131.88
244.232	120.88
244.465	147.88
244.699	123.88
244.932	131.88
245.166	131.88
245.399	132.88
245.633	141.88
245.866	125.88
246.099	133.88
246.333	128.88
246.566	127.88
246.8	145.88
247.033	129.88
247.266	144.88
247.5	151.88
247.733	144.88
247.966	156.88
248.2	144.88
248.433	148.88
248.666	167.88
248.899	159.88
249.133	187.88
249.366	169.88
249.599	168.88
249.832	163.88
250.066	159.88
250.299	160.88
250.532	171.88
250.765	165.88
250.998	177.88
251.231	200.88
251.465	187.88
251.698	176.88
251.931	173.88
252.164	165.88
252.397	171.88
252.63	177.88
252.863	171.88
253.096	170.88
253.329	169.88
253.562	189.88
253.795	204.88
254.028	189.88
254.261	200.88
254.494	198.88
254.727	219.88
254.96	227.88
255.193	219.88
255.426	205.88
255.659	190.88
255.892	181.88
256.124	202.88
256.357	200.88
256.59	211.88
256.823	183.88
257.056	200.88
257.289	173.88
257.521	181.88
257.754	172.88
257.987	179.88
258.22	175.88
258.452	189.88
258.685	189.88
258.918	179.88
259.151	188.88
259.383	199.88
259.616	194.88
259.849	194.88
260.081	187.88
260.314	208.88
260.547	208.88
260.779	190.88
261.012	225.88
261.244	191.88
261.477	204.88
261.71	200.88
261.942	196.88
262.175	208.88
262.407	197.88
262.64	169.88
262.872	194.88
263.105	193.88
263.337	194.88
263.57	196.88
263.802	194.88
264.035	195.88
264.267	188.88
264.499	190.88
264.732	196.88
264.964	195.88
265.197	189.88
265.429	194.88
265.661	204.88
265.894	191.88
266.126	184.88
266.358	197.88
266.591	200.88
266.823	205.88
267.055	190.88
267.287	205.88
267.52	182.88
267.752	202.88
267.984	209.88
268.216	185.88
268.448	201.88
268.681	208.88
268.913	205.88
269.145	236.88
269.377	226.88
269.609	224.88
269.841	245.88
270.073	225.88
270.306	255.88
270.538	247.88
270.77	268.88
271.002	247.88
271.234	246.88
271.466	257.88
271.698	268.88
271.93	270.88
272.162	259.88
272.394	266.88
272.626	252.88
272.858	260.88
273.09	244.88
273.322	261.88
273.553	245.88
273.785	232.88
274.017	234.88
274.249	239.88
274.481	233.88
274.713	233.88
274.945	245.88
275.176	223.88
275.408	236.88
275.64	227.88
275.872	249.88
276.104	229.88
276.335	232.88
276.567	237.88
276.799	228.88
277.031	248.88
277.262	275.88
277.494	267.88
277.726	269.88
277.957	256.88
278.189	257.88
278.421	232.88
278.652	252.88
278.884	244.88
279.115	258.88
279.347	239.88
279.579	240.88
279.81	237.88
280.042	249.88
280.273	223.88
280.505	235.88
280.736	232.88
280.968	218.88
281.199	233.88
281.431	223.88
281.662	241.88
281.894	245.88
282.125	245.88
282.356	235.88
282.588	263.88
282.819	247.88
283.051	254.88
283.282	244.88
283.513	241.88
283.745	231.88
283.976	231.88
284.207	256.88
284.439	232.88
284.67	244.88
284.901	242.88
285.132	239.88
285.364	222.88
285.595	240.88
285.826	253.88
286.057	242.88
286.288	242.88
286.52	249.88
286.751	233.88
286.982	250.88
287.213	236.88
287.444	261.88
287.675	260.88
287.906	263.88
288.138	258.88
288.369	250.88
288.6	258.88
288.831	244.88
289.062	266.88
289.293	248.88
289.524	253.88
289.755	234.88
289.986	255.88
290.217	261.88
290.448	269.88
290.679	276.88
290.91	264.88
291.141	264.88
291.371	271.88
291.602	267.88
291.833	257.88
292.064	261.88
292.295	261.88
292.526	243.88
292.757	253.88
292.987	245.88
293.218	252.88
293.449	259.88
293.68	259.88
293.91	260.88
294.141	246.88
294.372	244.88
294.603	258.88
294.833	257.88
295.064	269.88
295.295	258.88
295.525	262.88
295.756	268.88
295.987	261.88
296.217	293.88
296.448	282.88
296.679	275.88
296.909	259.88
297.14	278.88
297.37	248.88
297.601	265.88
297.831	270.88
298.062	275.88
298.292	276.88
298.523	269.88
298.753	241.88
298.984	259.88
299.214	282.88
299.445	266.88
299.675	269.88
299.905	287.88
300.136	278.88
300.366	279.88
300.597	292.88
300.827	293.88
301.057	265.88
301.288	298.88
301.518	283.88
301.748	277.88
301.979	295.88
302.209	270.88
302.439	284.88
302.669	267.88
302.9	287.88
303.13	285.88
303.36	267.88
303.59	264.88
303.82	290.88
304.051	294.88
304.281	284.88
304.511	283.88
304.741	273.88
304.971	288.88
305.201	269.88
305.431	290.88
305.661	284.88
305.891	294.88
306.121	277.88
306.352	291.88
306.582	299.88
306.812	283.88
307.042	291.88
307.272	280.88
307.502	273.88
307.731	284.88
307.961	301.88
308.191	268.88
308.421	287.88
308.651	295.88
308.881	297.88
309.111	307.88
309.341	284.88
309.571	315.88
309.8	298.88
310.03	297.88
310.26	313.88
310.49	315.88
310.72	312.88
310.949	311.88
311.179	308.88
311.409	332.88
311.639	317.88
311.868	317.88
312.098	323.88
312.328	326.88
312.557	340.88
312.787	337.88
313.017	329.88
313.246	311.88
313.476	324.88
313.706	327.88
313.935	326.88
314.165	334.88
314.394	329.88
314.624	329.88
314.853	309.88
315.083	331.88
315.312	325.88
315.542	326.88
315.771	318.88
316.001	317.88
316.23	323.88
316.46	312.88
316.689	338.88
316.919	330.88
317.148	334.88
317.377	337.88
317.607	327.88
317.836	337.88
318.065	305.88
318.295	336.88
318.524	337.88
318.753	295.88
318.983	308.88
319.212	330.88
319.441	323.88
319.67	329.88
319.9	347.88
320.129	335.88
320.358	335.88
320.587	331.88
320.816	348.88
321.046	335.88
321.275	341.88
321.504	320.88
321.733	331.88
321.962	356.88
322.191	352.88
322.42	349.88
322.649	360.88
322.878	372.88
323.108	377.88
323.337	392.88
323.566	383.88
323.795	387.88
324.024	450.88
324.253	498.88
324.482	697.88
324.71	1009.88
324.939	1392.88
325.168	1197.88
325.397	641.88
325.626	468.88
325.855	424.88
326.084	396.88
326.313	387.88
326.542	396.88
326.77	421.88
326.999	488.88
327.228	644.88
327.457	915.88
327.686	1029.88
327.914	725.88
328.143	496.88
328.372	455.88
328.6	431.88
328.829	433.88
329.058	428.88
329.287	441.88
329.515	407.88
329.744	395.88
329.972	402.88
330.201	411.88
330.43	424.88
330.658	433.88
330.887	439.88
331.115	447.88
331.344	420.88
331.572	387.88
331.801	390.88
332.03	382.88
332.258	377.88
332.486	380.88
332.715	371.88
332.943	358.88
333.172	370.88
333.4	377.88
333.629	387.88
333.857	398.88
334.085	379.88
334.314	387.88
334.542	402.88
334.771	413.88
334.999	410.88
335.227	377.88
335.455	387.88
335.684	379.88
335.912	380.88
336.14	369.88
336.369	376.88
336.597	361.88
336.825	381.88
337.053	347.88
337.281	362.88
337.51	362.88
337.738	373.88
337.966	369.88
338.194	367.88
338.422	349.88
338.65	363.88
338.878	349.88
339.106	367.88
339.334	362.88
339.562	328.88
339.79	356.88
340.018	347.88
340.246	355.88
340.474	354.88
340.702	359.88
340.93	355.88
341.158	355.88
341.386	350.88
341.614	343.88
341.842	361.88
342.07	348.88
342.298	358.88
342.526	334.88
342.754	355.88
342.981	344.88
343.209	357.88
343.437	346.88
343.665	361.88
343.893	341.88
344.12	375.88
344.348	373.88
344.576	370.88
344.804	354.88
345.031	368.88
345.259	375.88
345.487	341.88
345.714	362.88
345.942	344.88
346.17	339.88
346.397	339.88
346.625	331.88
346.853	332.88
347.08	343.88
347.308	343.88
347.535	339.88
347.763	373.88
347.99	355.88
348.218	325.88
348.445	335.88
348.673	328.88
348.9	355.88
349.128	337.88
349.355	325.88
349.583	350.88
349.81	333.88
350.037	297.88
350.265	327.88
350.492	328.88
350.72	334.88
350.947	353.88
351.174	339.88
351.402	351.88
351.629	323.88
351.856	331.88
352.083	351.88
352.311	343.88
352.538	318.88
352.765	340.88
352.992	332.88
353.22	324.88
353.447	338.88
353.674	323.88
353.901	326.88
354.128	323.88
354.355	314.88
354.583	326.88
354.81	330.88
355.037	325.88
355.264	312.88
355.491	325.88
355.718	305.88
355.945	307.88
356.172	320.88
356.399	316.88
356.626	293.88
356.853	310.88
357.08	324.88
357.307	331.88
357.534	314.88
357.761	320.88
357.988	311.88
358.215	319.88
358.441	331.88
358.668	315.88
358.895	322.88
359.122	336.88
359.349	336.88
359.576	333.88
359.802	358.88
360.029	360.88
360.256	345.88
360.483	354.88
360.709	345.88
360.936	335.88
361.163	337.88
361.39	325.88
361.616	325.88
361.843	314.88
362.07	327.88
362.296	324.88
362.523	332.88
362.749	349.88
362.976	332.88
363.203	328.88
363.429	325.88
363.656	331.88
363.882	320.88
364.109	312.88
364.335	316.88
364.562	308.88
364.788	311.88
365.015	318.88
365.241	305.88
365.468	315.88
365.694	305.88
365.92	325.88
366.147	321.88
366.373	314.88
366.599	315.88
366.826	320.88
367.052	309.88
367.278	300.88
367.505	303.88
367.731	315.88
367.957	330.88
368.184	323.88
368.41	300.88
368.636	313.88
368.862	346.88
369.089	319.88
369.315	309.88
369.541	317.88
369.767	324.88
369.993	299.88
370.219	332.88
370.445	332.88
370.672	299.88
370.898	316.88
371.124	319.88
371.35	300.88
371.576	336.88
371.802	326.88
372.028	297.88
372.254	308.88
372.48	317.88
372.706	312.88
372.932	298.88
373.158	333.88
373.384	295.88
373.61	305.88
373.835	321.88
374.061	330.88
374.287	321.88
374.513	315.88
374.739	315.88
374.965	322.88
375.191	312.88
375.416	324.88
375.642	316.88
375.868	313.88
376.094	324.88
376.319	314.88
376.545	300.88
376.771	307.88
376.997	316.88
377.222	302.88
377.448	312.88
377.674	300.88
377.899	329.88
378.125	319.88
378.35	313.88
378.576	316.88
378.802	315.88
379.027	288.88
379.253	319.88
379.478	304.88
379.704	301.88
379.929	321.88
380.155	298.88
380.38	311.88
380.606	312.88
380.831	313.88
381.057	308.88
381.282	296.88
381.507	310.88
381.733	330.88
381.958	296.88
382.184	312.88
382.409	338.88
382.634	315.88
382.86	305.88
383.085	324.88
383.31	321.88
383.535	315.88
383.761	310.88
383.986	315.88
384.211	310.88
384.436	315.88
384.662	331.88
384.887	333.88
385.112	326.88
385.337	329.88
385.562	320.88
385.787	340.88
386.013	343.88
386.238	330.88
386.463	321.88
386.688	324.88
386.913	319.88
387.138	335.88
387.363	330.88
387.588	327.88
387.813	322.88
388.038	341.88
388.263	312.88
388.488	320.88
388.713	333.88
388.938	297.88
389.163	337.88
389.387	328.88
389.612	351.88
389.837	338.88
390.062	331.88
390.287	353.88
390.512	328.88
390.736	331.88
390.961	332.88
391.186	327.88
391.411	327.88
391.636	337.88
391.86	333.88
392.085	337.88
392.31	324.88
392.534	325.88
392.759	333.88
392.984	339.88
393.208	351.88
393.433	337.88
393.658	349.88
393.882	337.88
394.107	336.88
394.331	337.88
394.556	337.88
394.78	327.88
395.005	352.88
395.229	330.88
395.454	349.88
395.678	340.88
395.903	350.88
396.127	361.88
396.352	354.88
396.576	340.88
396.801	342.88
397.025	359.88
397.249	350.88
397.474	365.88
397.698	346.88
397.922	356.88
398.147	356.88
398.371	363.88
398.595	365.88
398.82	374.88
399.044	360.88
399.268	380.88
399.492	421.88
399.717	433.88
399.941	433.88
400.165	442.88
400.389	433.88
400.613	409.88
400.837	373.88
401.062	377.88
401.286	373.88
401.51	376.88
401.734	347.88
401.958	358.88
402.182	347.88
402.406	368.88
402.63	367.88
402.854	378.88
403.078	361.88
403.302	370.88
403.526	371.88
403.75	392.88
403.974	387.88
404.198	384.88
404.422	377.88
404.645	376.88
404.869	370.88
405.093	392.88
405.317	431.88
405.541	428.88
405.765	429.88
405.988	402.88
406.212	393.88
406.436	395.88
406.66	399.88
406.883	369.88
407.107	388.88
407.331	428.88
407.555	473.88
407.778	481.88
408.002	451.88
408.226	412.88
408.449	403.88
408.673	421.88
408.896	425.88
409.12	440.88
409.344	427.88
409.567	397.88
409.791	386.88
410.014	391.88
410.238	376.88
410.461	393.88
410.685	384.88
410.908	375.88
411.132	413.88
411.355	430.88
411.578	403.88
411.802	389.88
412.025	379.88
412.249	356.88
412.472	393.88
412.695	387.88
412.919	402.88
413.142	371.88
413.365	356.88
413.589	385.88
413.812	372.88
414.035	366.88
414.258	353.88
414.482	363.88
414.705	360.88
414.928	348.88
415.151	341.88
415.374	363.88
415.597	332.88
415.821	340.88
416.044	348.88
416.267	353.88
416.49	356.88
416.713	343.88
416.936	355.88
417.159	345.88
417.382	370.88
417.605	341.88
417.828	354.88
418.051	363.88
418.274	371.88
418.497	351.88
418.72	359.88
418.943	361.88
419.166	361.88
419.389	385.88
419.611	378.88
419.834	361.88
420.057	365.88
420.28	388.88
420.503	347.88
420.726	377.88
420.948	377.88
421.171	414.88
421.394	421.88
421.617	385.88
421.839	383.88
422.062	374.88
422.285	367.88
422.507	393.88
422.73	439.88
422.953	412.88
423.175	412.88
423.398	384.88
423.621	372.88
423.843	389.88
424.066	391.88
424.288	381.88
424.511	422.88
424.733	445.88
424.956	482.88
425.178	467.88
425.401	465.88
425.623	472.88
425.846	420.88
426.068	406.88
426.291	373.88
426.513	391.88
426.735	388.88
426.958	414.88
427.18	473.88
427.402	550.88
427.625	616.88
427.847	531.88
428.069	463.88
428.292	412.88
428.514	383.88
428.736	375.88
428.958	370.88
429.181	367.88
429.403	361.88
429.625	370.88
429.847	402.88
430.069	430.88
430.292	433.88
430.514	366.88
430.736	362.88
430.958	352.88
431.18	360.88
431.402	337.88
431.624	341.88
431.846	329.88
432.068	329.88
432.29	372.88
432.512	343.88
432.734	339.88
432.956	345.88
433.178	344.88
433.4	361.88
433.622	360.88
433.844	339.88
434.066	345.88
434.287	342.88
434.509	340.88
434.731	355.88
434.953	347.88
435.175	363.88
435.397	383.88
435.618	396.88
435.84	429.88
436.062	458.88
436.284	501.88
436.505	425.88
436.727	380.88
436.949	388.88
437.17	353.88
437.392	357.88
437.614	362.88
437.835	385.88
438.057	451.88
438.278	490.88
438.5	514.88
438.721	545.88
438.943	525.88
439.165	435.88
439.386	403.88
439.608	400.88
439.829	385.88
440.05	401.88
440.272	438.88
440.493	412.88
440.715	380.88
440.936	361.88
441.158	364.88
441.379	374.88
441.6	358.88
441.822	368.88
442.043	387.88
442.264	480.88
442.486	488.88
442.707	420.88
442.928	377.88
443.149	397.88
443.371	405.88
443.592	412.88
443.813	485.88
444.034	526.88
444.255	461.88
444.476	398.88
444.698	411.88
444.919	389.88
445.14	552.88
445.361	471.88
445.582	440.88
445.803	453.88
446.024	513.88
446.245	543.88
446.466	456.88
446.687	393.88
446.908	384.88
447.129	369.88
447.35	364.88
447.571	339.88
447.792	356.88
448.013	347.88
448.234	374.88
448.455	406.88
448.675	470.88
448.896	556.88
449.117	460.88
449.338	466.88
449.559	535.88
449.779	570.88
450	473.88
450.221	376.88
450.442	357.88
450.662	365.88
450.883	354.88
451.104	364.88
451.324	336.88
451.545	334.88
451.766	342.88
451.986	308.88
452.207	325.88
452.428	307.88
452.648	328.88
452.869	317.88
453.089	331.88
453.31	316.88
453.53	331.88
453.751	335.88
453.971	324.88
454.192	321.88
454.412	309.88
454.633	304.88
454.853	318.88
455.073	316.88
455.294	336.88
455.514	371.88
455.734	372.88
455.955	306.88
456.175	298.88
456.395	310.88
456.616	286.88
456.836	331.88
457.056	324.88
457.276	293.88
457.497	305.88
457.717	304.88
457.937	289.88
458.157	301.88
458.377	319.88
458.598	319.88
458.818	361.88
459.038	388.88
459.258	382.88
459.478	356.88
459.698	321.88
459.918	329.88
460.138	338.88
460.358	330.88
460.578	314.88
460.798	355.88
461.018	352.88
461.238	361.88
461.458	329.88
461.678	334.88
461.898	351.88
462.118	337.88
462.338	335.88
462.558	357.88
462.777	352.88
462.997	368.88
463.217	362.88
463.437	379.88
463.657	367.88
463.876	372.88
464.096	369.88
464.316	358.88
464.536	350.88
464.755	352.88
464.975	353.88
465.195	389.88
465.414	418.88
465.634	379.88
465.854	360.88
466.073	345.88
466.293	327.88
466.512	329.88
466.732	334.88
466.951	328.88
467.171	330.88
467.391	350.88
467.61	342.88
467.829	332.88
468.049	329.88
468.268	335.88
468.488	314.88
468.707	313.88
468.927	317.88
469.146	328.88
469.365	320.88
469.585	314.88
469.804	322.88
470.023	325.88
470.243	353.88
470.462	328.88
470.681	341.88
470.901	317.88
471.12	340.88
471.339	331.88
471.558	316.88
471.777	311.88
471.997	312.88
472.216	329.88
472.435	338.88
472.654	331.88
472.873	316.88
473.092	329.88
473.311	316.88
473.53	315.88
473.749	343.88
473.968	383.88
474.187	426.88
474.406	431.88
474.625	379.88
474.844	344.88
475.063	339.88
475.282	344.88
475.501	334.88
475.72	345.88
475.939	349.88
476.158	336.88
476.377	350.88
476.596	347.88
476.814	353.88
477.033	349.88
477.252	338.88
477.471	355.88
477.69	358.88
477.908	359.88
478.127	377.88
478.346	368.88
478.564	372.88
478.783	379.88
479.002	368.88
479.22	360.88
479.439	367.88
479.658	379.88
479.876	398.88
480.095	394.88
480.313	392.88
480.532	404.88
480.751	397.88
480.969	409.88
481.188	420.88
481.406	416.88
481.624	410.88
481.843	394.88
482.061	376.88
482.28	372.88
482.498	368.88
482.717	392.88
482.935	368.88
483.153	369.88
483.372	391.88
483.59	380.88
483.808	368.88
484.027	393.88
484.245	383.88
484.463	388.88
484.681	380.88
484.9	373.88
485.118	394.88
485.336	407.88
485.554	368.88
485.772	374.88
485.99	385.88
486.209	392.88
486.427	398.88
486.645	383.88
486.863	404.88
487.081	406.88
487.299	380.88
487.517	413.88
487.735	409.88
487.953	405.88
488.171	397.88
488.389	398.88
488.607	396.88
488.825	408.88
489.043	400.88
489.261	418.88
489.479	423.88
489.696	412.88
489.914	415.88
490.132	419.88
490.35	434.88
490.568	446.88
490.786	421.88
491.003	431.88
491.221	435.88
491.439	469.88
491.657	424.88
491.874	457.88
492.092	465.88
492.31	464.88
492.527	462.88
492.745	459.88
492.963	460.88
493.18	444.88
493.398	460.88
493.615	474.88
493.833	469.88
494.05	493.88
494.268	471.88
494.485	481.88
494.703	467.88
494.92	461.88
495.138	481.88
495.355	500.88
495.573	479.88
495.79	492.88
496.008	499.88
496.225	476.88
496.442	468.88
496.66	492.88
496.877	483.88
497.094	499.88
497.312	481.88
497.529	512.88
497.746	492.88
497.963	501.88
498.181	502.88
498.398	532.88
498.615	512.88
498.832	530.88
499.049	536.88
499.267	545.88
499.484	568.88
499.701	580.88
499.918	616.88
500.135	638.88
500.352	653.88
500.569	650.88
500.786	633.88
501.003	663.88
501.22	633.88
501.437	634.88
501.654	599.88
501.871	583.88
502.088	547.88
