Data from 1971.PennyLincolnUp.Lamp.En5.5.200Scan.071719.P1._HRD10591_15-19-21-840.txt Node
Date: Thu Jul 18 15:19:21 EDT 2019
User: cochatt
Spectrometer: HR+D1059
Trigger mode: 1
Integration Time (sec): 1.000000E-1
Scans to average: 1
Electric dark correction enabled: true
Nonlinearity correction enabled: false
Boxcar width: 0
XAxis mode: Wavelengths
Number of Pixels in Spectrum: 2048
>>>>>Begin Spectral Data<<<<<
223.165	-18.75
223.4	-18.75
223.635	-18.75
223.869	-9.75
224.104	-19.75
224.338	-8.75
224.573	-17.75
224.808	-9.75
225.042	-0.75
225.277	0.25
225.511	-1.75
225.746	-3.75
225.98	5.25
226.215	12.25
226.449	22.25
226.683	22.25
226.918	14.25
227.152	14.25
227.387	51.25
227.621	33.25
227.856	47.25
228.09	43.25
228.324	42.25
228.559	50.25
228.793	71.25
229.027	88.25
229.262	117.25
229.496	106.25
229.73	114.25
229.964	128.25
230.199	132.25
230.433	113.25
230.667	102.25
230.901	115.25
231.136	112.25
231.37	109.25
231.604	110.25
231.838	118.25
232.072	122.25
232.306	116.25
232.541	117.25
232.775	94.25
233.009	92.25
233.243	108.25
233.477	120.25
233.711	120.25
233.945	118.25
234.179	112.25
234.413	122.25
234.647	118.25
234.881	123.25
235.115	115.25
235.349	116.25
235.583	128.25
235.817	119.25
236.051	122.25
236.285	127.25
236.519	116.25
236.753	136.25
236.987	147.25
237.221	172.25
237.455	221.25
237.689	170.25
237.922	152.25
238.156	144.25
238.39	132.25
238.624	131.25
238.858	124.25
239.091	126.25
239.325	134.25
239.559	135.25
239.793	132.25
240.027	137.25
240.26	144.25
240.494	161.25
240.728	144.25
240.961	166.25
241.195	141.25
241.429	141.25
241.662	135.25
241.896	139.25
242.13	141.25
242.363	120.25
242.597	143.25
242.83	130.25
243.064	122.25
243.298	131.25
243.531	148.25
243.765	150.25
243.998	146.25
244.232	146.25
244.465	146.25
244.699	166.25
244.932	145.25
245.166	163.25
245.399	136.25
245.633	166.25
245.866	137.25
246.099	149.25
246.333	162.25
246.566	141.25
246.8	164.25
247.033	164.25
247.266	160.25
247.5	150.25
247.733	169.25
247.966	165.25
248.2	169.25
248.433	175.25
248.666	172.25
248.899	175.25
249.133	186.25
249.366	208.25
249.599	190.25
249.832	175.25
250.066	179.25
250.299	191.25
250.532	197.25
250.765	201.25
250.998	217.25
251.231	222.25
251.465	223.25
251.698	212.25
251.931	203.25
252.164	202.25
252.397	215.25
252.63	206.25
252.863	236.25
253.096	224.25
253.329	234.25
253.562	230.25
253.795	223.25
254.028	219.25
254.261	246.25
254.494	232.25
254.727	268.25
254.96	285.25
255.193	280.25
255.426	256.25
255.659	235.25
255.892	241.25
256.124	240.25
256.357	221.25
256.59	212.25
256.823	234.25
257.056	228.25
257.289	221.25
257.521	217.25
257.754	216.25
257.987	210.25
258.22	211.25
258.452	218.25
258.685	222.25
258.918	230.25
259.151	199.25
259.383	215.25
259.616	226.25
259.849	250.25
260.081	260.25
260.314	270.25
260.547	260.25
260.779	265.25
261.012	258.25
261.244	238.25
261.477	240.25
261.71	240.25
261.942	227.25
262.175	223.25
262.407	227.25
262.64	235.25
262.872	218.25
263.105	198.25
263.337	233.25
263.57	227.25
263.802	224.25
264.035	229.25
264.267	232.25
264.499	223.25
264.732	235.25
264.964	225.25
265.197	222.25
265.429	230.25
265.661	228.25
265.894	217.25
266.126	240.25
266.358	230.25
266.591	212.25
266.823	228.25
267.055	238.25
267.287	219.25
267.52	223.25
267.752	225.25
267.984	237.25
268.216	238.25
268.448	258.25
268.681	242.25
268.913	257.25
269.145	282.25
269.377	290.25
269.609	273.25
269.841	271.25
270.073	274.25
270.306	299.25
270.538	332.25
270.77	329.25
271.002	332.25
271.234	293.25
271.466	313.25
271.698	314.25
271.93	329.25
272.162	332.25
272.394	340.25
272.626	326.25
272.858	315.25
273.09	289.25
273.322	296.25
273.553	264.25
273.785	281.25
274.017	284.25
274.249	289.25
274.481	290.25
274.713	281.25
274.945	269.25
275.176	282.25
275.408	264.25
275.64	270.25
275.872	287.25
276.104	286.25
276.335	288.25
276.567	291.25
276.799	277.25
277.031	312.25
277.262	320.25
277.494	326.25
277.726	323.25
277.957	312.25
278.189	296.25
278.421	299.25
278.652	281.25
278.884	273.25
279.115	271.25
279.347	284.25
279.579	276.25
279.81	269.25
280.042	282.25
280.273	280.25
280.505	275.25
280.736	282.25
280.968	278.25
281.199	291.25
281.431	268.25
281.662	286.25
281.894	296.25
282.125	282.25
282.356	301.25
282.588	313.25
282.819	322.25
283.051	305.25
283.282	295.25
283.513	299.25
283.745	274.25
283.976	296.25
284.207	284.25
284.439	298.25
284.67	279.25
284.901	308.25
285.132	289.25
285.364	284.25
285.595	303.25
285.826	291.25
286.057	302.25
286.288	282.25
286.52	297.25
286.751	304.25
286.982	308.25
287.213	277.25
287.444	314.25
287.675	298.25
287.906	327.25
288.138	312.25
288.369	312.25
288.6	330.25
288.831	300.25
289.062	315.25
289.293	313.25
289.524	310.25
289.755	318.25
289.986	306.25
290.217	305.25
290.448	316.25
290.679	305.25
290.91	317.25
291.141	300.25
291.371	308.25
291.602	318.25
291.833	318.25
292.064	304.25
292.295	303.25
292.526	304.25
292.757	300.25
292.987	298.25
293.218	300.25
293.449	310.25
293.68	319.25
293.91	307.25
294.141	296.25
294.372	302.25
294.603	290.25
294.833	285.25
295.064	306.25
295.295	291.25
295.525	296.25
295.756	312.25
295.987	304.25
296.217	348.25
296.448	337.25
296.679	331.25
296.909	303.25
297.14	299.25
297.37	293.25
297.601	314.25
297.831	294.25
298.062	316.25
298.292	324.25
298.523	319.25
298.753	321.25
298.984	326.25
299.214	308.25
299.445	321.25
299.675	314.25
299.905	328.25
300.136	315.25
300.366	310.25
300.597	299.25
300.827	332.25
301.057	329.25
301.288	339.25
301.518	323.25
301.748	317.25
301.979	322.25
302.209	325.25
302.439	334.25
302.669	344.25
302.9	349.25
303.13	337.25
303.36	336.25
303.59	343.25
303.82	327.25
304.051	345.25
304.281	337.25
304.511	324.25
304.741	324.25
304.971	312.25
305.201	341.25
305.431	336.25
305.661	339.25
305.891	336.25
306.121	348.25
306.352	340.25
306.582	354.25
306.812	355.25
307.042	355.25
307.272	346.25
307.502	350.25
307.731	332.25
307.961	355.25
308.191	339.25
308.421	342.25
308.651	343.25
308.881	356.25
309.111	351.25
309.341	340.25
309.571	364.25
309.8	353.25
310.03	344.25
310.26	380.25
310.49	393.25
310.72	402.25
310.949	402.25
311.179	386.25
311.409	390.25
311.639	387.25
311.868	388.25
312.098	384.25
312.328	387.25
312.557	389.25
312.787	400.25
313.017	413.25
313.246	393.25
313.476	384.25
313.706	406.25
313.935	371.25
314.165	394.25
314.394	410.25
314.624	419.25
314.853	392.25
315.083	396.25
315.312	395.25
315.542	386.25
315.771	395.25
316.001	376.25
316.23	389.25
316.46	392.25
316.689	390.25
316.919	403.25
317.148	408.25
317.377	387.25
317.607	385.25
317.836	389.25
318.065	369.25
318.295	365.25
318.524	397.25
318.753	386.25
318.983	397.25
319.212	387.25
319.441	402.25
319.67	404.25
319.9	381.25
320.129	381.25
320.358	416.25
320.587	387.25
320.816	429.25
321.046	424.25
321.275	415.25
321.504	402.25
321.733	404.25
321.962	422.25
322.191	431.25
322.42	451.25
322.649	454.25
322.878	455.25
323.108	477.25
323.337	469.25
323.566	506.25
323.795	532.25
324.024	573.25
324.253	690.25
324.482	958.25
324.71	1418.25
324.939	1931.25
325.168	1640.25
325.397	888.25
325.626	619.25
325.855	548.25
326.084	494.25
326.313	498.25
326.542	497.25
326.77	554.25
326.999	670.25
327.228	872.25
327.457	1254.25
327.686	1423.25
327.914	939.25
328.143	662.25
328.372	588.25
328.6	582.25
328.829	560.25
329.058	548.25
329.287	558.25
329.515	535.25
329.744	515.25
329.972	516.25
330.201	514.25
330.43	539.25
330.658	575.25
330.887	570.25
331.115	567.25
331.344	495.25
331.572	477.25
331.801	481.25
332.03	488.25
332.258	449.25
332.486	461.25
332.715	450.25
332.943	445.25
333.172	460.25
333.4	447.25
333.629	454.25
333.857	478.25
334.085	485.25
334.314	474.25
334.542	501.25
334.771	516.25
334.999	485.25
335.227	463.25
335.455	455.25
335.684	434.25
335.912	430.25
336.14	432.25
336.369	439.25
336.597	442.25
336.825	461.25
337.053	454.25
337.281	447.25
337.51	460.25
337.738	438.25
337.966	429.25
338.194	447.25
338.422	434.25
338.65	439.25
338.878	424.25
339.106	419.25
339.334	415.25
339.562	414.25
339.79	420.25
340.018	421.25
340.246	410.25
340.474	428.25
340.702	422.25
340.93	419.25
341.158	429.25
341.386	446.25
341.614	421.25
341.842	431.25
342.07	407.25
342.298	413.25
342.526	421.25
342.754	399.25
342.981	410.25
343.209	400.25
343.437	392.25
343.665	419.25
343.893	412.25
344.12	416.25
344.348	430.25
344.576	430.25
344.804	426.25
345.031	431.25
345.259	417.25
345.487	427.25
345.714	441.25
345.942	408.25
346.17	428.25
346.397	406.25
346.625	410.25
346.853	410.25
347.08	407.25
347.308	407.25
347.535	438.25
347.763	402.25
347.99	388.25
348.218	417.25
348.445	414.25
348.673	420.25
348.9	403.25
349.128	405.25
349.355	390.25
349.583	379.25
349.81	403.25
350.037	386.25
350.265	385.25
350.492	386.25
350.72	392.25
350.947	382.25
351.174	396.25
351.402	406.25
351.629	404.25
351.856	392.25
352.083	426.25
352.311	396.25
352.538	400.25
352.765	416.25
352.992	419.25
353.22	396.25
353.447	403.25
353.674	384.25
353.901	386.25
354.128	378.25
354.355	387.25
354.583	384.25
354.81	375.25
355.037	367.25
355.264	362.25
355.491	361.25
355.718	367.25
355.945	361.25
356.172	358.25
356.399	366.25
356.626	380.25
356.853	378.25
357.08	377.25
357.307	381.25
357.534	361.25
357.761	372.25
357.988	383.25
358.215	386.25
358.441	364.25
358.668	359.25
358.895	378.25
359.122	384.25
359.349	386.25
359.576	387.25
359.802	405.25
360.029	420.25
360.256	430.25
360.483	416.25
360.709	374.25
360.936	380.25
361.163	382.25
361.39	392.25
361.616	404.25
361.843	388.25
362.07	379.25
362.296	391.25
362.523	365.25
362.749	396.25
362.976	383.25
363.203	384.25
363.429	384.25
363.656	371.25
363.882	378.25
364.109	394.25
364.335	379.25
364.562	376.25
364.788	374.25
365.015	383.25
365.241	377.25
365.468	390.25
365.694	377.25
365.92	382.25
366.147	358.25
366.373	358.25
366.599	363.25
366.826	365.25
367.052	354.25
367.278	367.25
367.505	353.25
367.731	381.25
367.957	376.25
368.184	382.25
368.41	371.25
368.636	371.25
368.862	391.25
369.089	377.25
369.315	363.25
369.541	374.25
369.767	369.25
369.993	382.25
370.219	371.25
370.445	368.25
370.672	351.25
370.898	374.25
371.124	374.25
371.35	360.25
371.576	365.25
371.802	374.25
372.028	353.25
372.254	363.25
372.48	378.25
372.706	347.25
372.932	374.25
373.158	374.25
373.384	387.25
373.61	371.25
373.835	362.25
374.061	359.25
374.287	364.25
374.513	366.25
374.739	377.25
374.965	378.25
375.191	378.25
375.416	379.25
375.642	353.25
375.868	372.25
376.094	355.25
376.319	370.25
376.545	383.25
376.771	358.25
376.997	352.25
377.222	383.25
377.448	356.25
377.674	370.25
377.899	367.25
378.125	365.25
378.35	370.25
378.576	346.25
378.802	366.25
379.027	352.25
379.253	366.25
379.478	350.25
379.704	350.25
379.929	369.25
380.155	365.25
380.38	344.25
380.606	388.25
380.831	366.25
381.057	357.25
381.282	367.25
381.507	351.25
381.733	370.25
381.958	361.25
382.184	357.25
382.409	364.25
382.634	370.25
382.86	374.25
383.085	364.25
383.31	374.25
383.535	364.25
383.761	372.25
383.986	359.25
384.211	355.25
384.436	354.25
384.662	351.25
384.887	386.25
385.112	395.25
385.337	388.25
385.562	374.25
385.787	404.25
386.013	392.25
386.238	396.25
386.463	411.25
386.688	386.25
386.913	372.25
387.138	386.25
387.363	365.25
387.588	371.25
387.813	375.25
388.038	356.25
388.263	384.25
388.488	382.25
388.713	391.25
388.938	404.25
389.163	386.25
389.387	381.25
389.612	382.25
389.837	371.25
390.062	384.25
390.287	382.25
390.512	369.25
390.736	382.25
390.961	390.25
391.186	381.25
391.411	386.25
391.636	364.25
391.86	355.25
392.085	374.25
392.31	376.25
392.534	387.25
392.759	388.25
392.984	378.25
393.208	368.25
393.433	398.25
393.658	390.25
393.882	390.25
394.107	379.25
394.331	375.25
394.556	373.25
394.78	380.25
395.005	375.25
395.229	378.25
395.454	372.25
395.678	383.25
395.903	402.25
396.127	423.25
396.352	409.25
396.576	398.25
396.801	394.25
397.025	396.25
397.249	409.25
397.474	399.25
397.698	420.25
397.922	403.25
398.147	424.25
398.371	428.25
398.595	411.25
398.82	402.25
399.044	418.25
399.268	427.25
399.492	461.25
399.717	472.25
399.941	481.25
400.165	502.25
400.389	518.25
400.613	480.25
400.837	439.25
401.062	443.25
401.286	413.25
401.51	441.25
401.734	420.25
401.958	419.25
402.182	429.25
402.406	417.25
402.63	427.25
402.854	438.25
403.078	426.25
403.302	436.25
403.526	438.25
403.75	447.25
403.974	434.25
404.198	432.25
404.422	460.25
404.645	443.25
404.869	452.25
405.093	453.25
405.317	502.25
405.541	538.25
405.765	496.25
405.988	453.25
406.212	461.25
406.436	476.25
406.66	475.25
406.883	477.25
407.107	478.25
407.331	535.25
407.555	537.25
407.778	554.25
408.002	513.25
408.226	480.25
408.449	469.25
408.673	480.25
408.896	503.25
409.12	538.25
409.344	488.25
409.567	469.25
409.791	408.25
410.014	436.25
410.238	429.25
410.461	458.25
410.685	430.25
410.908	462.25
411.132	494.25
411.355	498.25
411.578	471.25
411.802	449.25
412.025	424.25
412.249	444.25
412.472	468.25
412.695	497.25
412.919	483.25
413.142	451.25
413.365	443.25
413.589	420.25
413.812	406.25
414.035	402.25
414.258	415.25
414.482	401.25
414.705	412.25
414.928	382.25
415.151	404.25
415.374	412.25
415.597	426.25
415.821	409.25
416.044	412.25
416.267	383.25
416.49	399.25
416.713	402.25
416.936	404.25
417.159	387.25
417.382	414.25
417.605	395.25
417.828	412.25
418.051	422.25
418.274	418.25
418.497	415.25
418.72	414.25
418.943	407.25
419.166	414.25
419.389	433.25
419.611	419.25
419.834	446.25
420.057	442.25
420.28	438.25
420.503	424.25
420.726	427.25
420.948	459.25
421.171	485.25
421.394	499.25
421.617	448.25
421.839	432.25
422.062	442.25
422.285	423.25
422.507	492.25
422.73	548.25
422.953	536.25
423.175	465.25
423.398	429.25
423.621	442.25
423.843	475.25
424.066	462.25
424.288	463.25
424.511	467.25
424.733	535.25
424.956	590.25
425.178	560.25
425.401	580.25
425.623	586.25
425.846	494.25
426.068	465.25
426.291	452.25
426.513	467.25
426.735	467.25
426.958	510.25
427.18	572.25
427.402	694.25
427.625	711.25
427.847	642.25
428.069	553.25
428.292	493.25
428.514	457.25
428.736	436.25
428.958	431.25
429.181	426.25
429.403	419.25
429.625	427.25
429.847	457.25
430.069	516.25
430.292	498.25
430.514	458.25
430.736	424.25
430.958	412.25
431.18	412.25
431.402	413.25
431.624	375.25
431.846	401.25
432.068	393.25
432.29	393.25
432.512	397.25
432.734	419.25
432.956	408.25
433.178	399.25
433.4	411.25
433.622	405.25
433.844	409.25
434.066	396.25
434.287	412.25
434.509	409.25
434.731	401.25
434.953	401.25
435.175	419.25
435.397	450.25
435.618	472.25
435.84	495.25
436.062	586.25
436.284	624.25
436.505	491.25
436.727	464.25
436.949	432.25
437.17	434.25
437.392	411.25
437.614	414.25
437.835	471.25
438.057	536.25
438.278	614.25
438.5	593.25
438.721	669.25
438.943	616.25
439.165	497.25
439.386	474.25
439.608	458.25
439.829	465.25
440.05	491.25
440.272	525.25
440.493	475.25
440.715	448.25
440.936	442.25
441.158	423.25
441.379	426.25
441.6	420.25
441.822	480.25
442.043	494.25
442.264	573.25
442.486	597.25
442.707	483.25
442.928	498.25
443.149	467.25
443.371	482.25
443.592	539.25
443.813	608.25
444.034	637.25
444.255	550.25
444.476	492.25
444.698	476.25
444.919	451.25
445.14	535.25
445.361	507.25
445.582	528.25
445.803	551.25
446.024	588.25
446.245	649.25
446.466	574.25
446.687	477.25
446.908	474.25
447.129	428.25
447.35	424.25
447.571	407.25
447.792	420.25
448.013	410.25
448.234	428.25
448.455	482.25
448.675	568.25
448.896	686.25
449.117	582.25
449.338	544.25
449.559	635.25
449.779	678.25
450	555.25
450.221	473.25
450.442	432.25
450.662	420.25
450.883	411.25
451.104	407.25
451.324	407.25
451.545	391.25
451.766	405.25
451.986	359.25
452.207	363.25
452.428	370.25
452.648	376.25
452.869	370.25
453.089	383.25
453.31	366.25
453.53	402.25
453.751	384.25
453.971	378.25
454.192	371.25
454.412	398.25
454.633	371.25
454.853	378.25
455.073	377.25
455.294	392.25
455.514	445.25
455.734	443.25
455.955	374.25
456.175	375.25
456.395	351.25
456.616	354.25
456.836	328.25
457.056	348.25
457.276	340.25
457.497	380.25
457.717	333.25
457.937	358.25
458.157	356.25
458.377	382.25
458.598	384.25
458.818	424.25
459.038	480.25
459.258	487.25
459.478	434.25
459.698	389.25
459.918	390.25
460.138	393.25
460.358	405.25
460.578	392.25
460.798	383.25
461.018	410.25
461.238	385.25
461.458	369.25
461.678	386.25
461.898	368.25
462.118	396.25
462.338	378.25
462.558	401.25
462.777	397.25
462.997	407.25
463.217	438.25
463.437	423.25
463.657	440.25
463.876	419.25
464.096	424.25
464.316	402.25
464.536	411.25
464.755	418.25
464.975	403.25
465.195	457.25
465.414	482.25
465.634	424.25
465.854	400.25
466.073	403.25
466.293	400.25
466.512	393.25
466.732	369.25
466.951	382.25
467.171	370.25
467.391	390.25
467.61	381.25
467.829	399.25
468.049	392.25
468.268	382.25
468.488	378.25
468.707	391.25
468.927	375.25
469.146	355.25
469.365	372.25
469.585	364.25
469.804	376.25
470.023	402.25
470.243	383.25
470.462	398.25
470.681	394.25
470.901	410.25
471.12	378.25
471.339	394.25
471.558	409.25
471.777	395.25
471.997	384.25
472.216	394.25
472.435	384.25
472.654	405.25
472.873	389.25
473.092	394.25
473.311	392.25
473.53	389.25
473.749	384.25
473.968	444.25
474.187	531.25
474.406	519.25
474.625	431.25
474.844	408.25
475.063	417.25
475.282	398.25
475.501	377.25
475.72	403.25
475.939	407.25
476.158	395.25
476.377	396.25
476.596	419.25
476.814	395.25
477.033	404.25
477.252	411.25
477.471	387.25
477.69	394.25
477.908	418.25
478.127	427.25
478.346	426.25
478.564	443.25
478.783	418.25
479.002	465.25
479.22	451.25
479.439	449.25
479.658	459.25
479.876	444.25
480.095	471.25
480.313	505.25
480.532	463.25
480.751	444.25
480.969	462.25
481.188	514.25
481.406	537.25
481.624	468.25
481.843	454.25
482.061	455.25
482.28	444.25
482.498	444.25
482.717	452.25
482.935	438.25
483.153	444.25
483.372	460.25
483.59	456.25
483.808	449.25
484.027	436.25
484.245	432.25
484.463	459.25
484.681	452.25
484.9	457.25
485.118	474.25
485.336	443.25
485.554	466.25
485.772	463.25
485.99	459.25
486.209	471.25
486.427	474.25
486.645	470.25
486.863	498.25
487.081	488.25
487.299	489.25
487.517	473.25
487.735	491.25
487.953	488.25
488.171	492.25
488.389	479.25
488.607	479.25
488.825	466.25
489.043	490.25
489.261	487.25
489.479	473.25
489.696	483.25
489.914	501.25
490.132	494.25
490.35	495.25
490.568	495.25
490.786	505.25
491.003	510.25
491.221	523.25
491.439	543.25
491.657	542.25
491.874	555.25
492.092	556.25
492.31	548.25
492.527	566.25
492.745	559.25
492.963	566.25
493.18	561.25
493.398	587.25
493.615	576.25
493.833	558.25
494.05	562.25
494.268	585.25
494.485	563.25
494.703	568.25
494.92	558.25
495.138	563.25
495.355	562.25
495.573	573.25
495.79	554.25
496.008	569.25
496.225	570.25
496.442	571.25
496.66	576.25
496.877	582.25
497.094	568.25
497.312	565.25
497.529	570.25
497.746	604.25
497.963	589.25
498.181	621.25
498.398	626.25
498.615	602.25
498.832	634.25
499.049	632.25
499.267	625.25
499.484	652.25
499.701	662.25
499.918	715.25
500.135	742.25
500.352	732.25
500.569	783.25
500.786	755.25
501.003	748.25
501.22	717.25
501.437	702.25
501.654	732.25
501.871	696.25
502.088	687.25
