Data from 1971.PennyLincolnUp.Lamp.En5.5.200Scan.071719.P1.Scan 2. Changed Angle._HRD10591_15-23-25-842.txt Node
Date: Thu Jul 18 15:23:25 EDT 2019
User: cochatt
Spectrometer: HR+D1059
Trigger mode: 1
Integration Time (sec): 1.000000E-1
Scans to average: 1
Electric dark correction enabled: true
Nonlinearity correction enabled: false
Boxcar width: 0
XAxis mode: Wavelengths
Number of Pixels in Spectrum: 2048
>>>>>Begin Spectral Data<<<<<
223.165	-8.44
223.4	-8.44
223.635	-8.44
223.869	-18.44
224.104	-17.44
224.338	-11.44
224.573	-19.44
224.808	-15.44
225.042	5.56
225.277	1.56
225.511	-1.44
225.746	-6.44
225.98	13.56
226.215	6.56
226.449	14.56
226.683	13.56
226.918	30.56
227.152	12.56
227.387	36.56
227.621	37.56
227.856	53.56
228.09	52.56
228.324	51.56
228.559	56.56
228.793	54.56
229.027	103.56
229.262	113.56
229.496	142.56
229.73	158.56
229.964	186.56
230.199	161.56
230.433	138.56
230.667	128.56
230.901	122.56
231.136	118.56
231.37	106.56
231.604	116.56
231.838	126.56
232.072	127.56
232.306	116.56
232.541	121.56
232.775	126.56
233.009	115.56
233.243	127.56
233.477	119.56
233.711	123.56
233.945	125.56
234.179	133.56
234.413	127.56
234.647	123.56
234.881	126.56
235.115	120.56
235.349	123.56
235.583	138.56
235.817	128.56
236.051	134.56
236.285	130.56
236.519	145.56
236.753	126.56
236.987	154.56
237.221	192.56
237.455	276.56
237.689	209.56
237.922	170.56
238.156	146.56
238.39	130.56
238.624	152.56
238.858	124.56
239.091	134.56
239.325	125.56
239.559	138.56
239.793	139.56
240.027	146.56
240.26	151.56
240.494	161.56
240.728	156.56
240.961	156.56
241.195	151.56
241.429	162.56
241.662	141.56
241.896	148.56
242.13	132.56
242.363	136.56
242.597	147.56
242.83	147.56
243.064	144.56
243.298	160.56
243.531	157.56
243.765	149.56
243.998	152.56
244.232	151.56
244.465	146.56
244.699	156.56
244.932	158.56
245.166	160.56
245.399	157.56
245.633	141.56
245.866	158.56
246.099	157.56
246.333	170.56
246.566	147.56
246.8	158.56
247.033	166.56
247.266	161.56
247.5	181.56
247.733	174.56
247.966	185.56
248.2	187.56
248.433	183.56
248.666	178.56
248.899	198.56
249.133	210.56
249.366	229.56
249.599	219.56
249.832	206.56
250.066	200.56
250.299	189.56
250.532	202.56
250.765	211.56
250.998	237.56
251.231	264.56
251.465	228.56
251.698	217.56
251.931	224.56
252.164	233.56
252.397	195.56
252.63	210.56
252.863	200.56
253.096	231.56
253.329	249.56
253.562	251.56
253.795	231.56
254.028	248.56
254.261	213.56
254.494	244.56
254.727	288.56
254.96	303.56
255.193	306.56
255.426	281.56
255.659	258.56
255.892	269.56
256.124	270.56
256.357	239.56
256.59	240.56
256.823	242.56
257.056	232.56
257.289	229.56
257.521	242.56
257.754	217.56
257.987	213.56
258.22	218.56
258.452	203.56
258.685	212.56
258.918	237.56
259.151	224.56
259.383	240.56
259.616	233.56
259.849	234.56
260.081	260.56
260.314	254.56
260.547	279.56
260.779	273.56
261.012	260.56
261.244	238.56
261.477	244.56
261.71	241.56
261.942	238.56
262.175	246.56
262.407	243.56
262.64	214.56
262.872	213.56
263.105	211.56
263.337	215.56
263.57	225.56
263.802	206.56
264.035	218.56
264.267	214.56
264.499	218.56
264.732	223.56
264.964	213.56
265.197	214.56
265.429	217.56
265.661	204.56
265.894	215.56
266.126	218.56
266.358	223.56
266.591	216.56
266.823	224.56
267.055	226.56
267.287	237.56
267.52	216.56
267.752	221.56
267.984	231.56
268.216	229.56
268.448	228.56
268.681	241.56
268.913	239.56
269.145	272.56
269.377	292.56
269.609	286.56
269.841	256.56
270.073	272.56
270.306	298.56
270.538	330.56
270.77	317.56
271.002	321.56
271.234	298.56
271.466	312.56
271.698	318.56
271.93	308.56
272.162	332.56
272.394	327.56
272.626	312.56
272.858	292.56
273.09	284.56
273.322	285.56
273.553	284.56
273.785	268.56
274.017	278.56
274.249	264.56
274.481	267.56
274.713	283.56
274.945	273.56
275.176	260.56
275.408	253.56
275.64	247.56
275.872	266.56
276.104	265.56
276.335	257.56
276.567	274.56
276.799	290.56
277.031	311.56
277.262	319.56
277.494	320.56
277.726	311.56
277.957	301.56
278.189	277.56
278.421	301.56
278.652	284.56
278.884	276.56
279.115	268.56
279.347	253.56
279.579	265.56
279.81	255.56
280.042	254.56
280.273	268.56
280.505	256.56
280.736	244.56
280.968	253.56
281.199	255.56
281.431	275.56
281.662	242.56
281.894	249.56
282.125	262.56
282.356	276.56
282.588	282.56
282.819	328.56
283.051	282.56
283.282	248.56
283.513	251.56
283.745	268.56
283.976	291.56
284.207	271.56
284.439	268.56
284.67	245.56
284.901	267.56
285.132	274.56
285.364	261.56
285.595	273.56
285.826	269.56
286.057	264.56
286.288	260.56
286.52	268.56
286.751	265.56
286.982	281.56
287.213	253.56
287.444	264.56
287.675	283.56
287.906	292.56
288.138	289.56
288.369	281.56
288.6	272.56
288.831	270.56
289.062	278.56
289.293	272.56
289.524	285.56
289.755	268.56
289.986	264.56
290.217	272.56
290.448	278.56
290.679	258.56
290.91	285.56
291.141	264.56
291.371	280.56
291.602	270.56
291.833	277.56
292.064	264.56
292.295	283.56
292.526	289.56
292.757	274.56
292.987	291.56
293.218	268.56
293.449	268.56
293.68	273.56
293.91	245.56
294.141	266.56
294.372	273.56
294.603	282.56
294.833	278.56
295.064	264.56
295.295	264.56
295.525	281.56
295.756	282.56
295.987	298.56
296.217	299.56
296.448	337.56
296.679	306.56
296.909	297.56
297.14	298.56
297.37	263.56
297.601	299.56
297.831	286.56
298.062	292.56
298.292	275.56
298.523	275.56
298.753	297.56
298.984	267.56
299.214	279.56
299.445	275.56
299.675	295.56
299.905	308.56
300.136	297.56
300.366	300.56
300.597	307.56
300.827	302.56
301.057	275.56
301.288	293.56
301.518	299.56
301.748	280.56
301.979	287.56
302.209	302.56
302.439	327.56
302.669	313.56
302.9	308.56
303.13	314.56
303.36	318.56
303.59	320.56
303.82	331.56
304.051	320.56
304.281	308.56
304.511	315.56
304.741	301.56
304.971	304.56
305.201	310.56
305.431	322.56
305.661	320.56
305.891	330.56
306.121	302.56
306.352	315.56
306.582	310.56
306.812	322.56
307.042	306.56
307.272	301.56
307.502	335.56
307.731	320.56
307.961	320.56
308.191	317.56
308.421	325.56
308.651	328.56
308.881	313.56
309.111	322.56
309.341	341.56
309.571	342.56
309.8	360.56
310.03	361.56
310.26	386.56
310.49	381.56
310.72	365.56
310.949	386.56
311.179	401.56
311.409	375.56
311.639	377.56
311.868	381.56
312.098	370.56
312.328	392.56
312.557	404.56
312.787	422.56
313.017	424.56
313.246	400.56
313.476	375.56
313.706	388.56
313.935	379.56
314.165	388.56
314.394	400.56
314.624	383.56
314.853	382.56
315.083	372.56
315.312	368.56
315.542	365.56
315.771	358.56
316.001	352.56
316.23	327.56
316.46	363.56
316.689	358.56
316.919	374.56
317.148	384.56
317.377	403.56
317.607	389.56
317.836	382.56
318.065	381.56
318.295	354.56
318.524	382.56
318.753	373.56
318.983	349.56
319.212	361.56
319.441	364.56
319.67	374.56
319.9	386.56
320.129	365.56
320.358	371.56
320.587	372.56
320.816	379.56
321.046	403.56
321.275	383.56
321.504	378.56
321.733	391.56
321.962	419.56
322.191	449.56
322.42	431.56
322.649	449.56
322.878	479.56
323.108	465.56
323.337	494.56
323.566	559.56
323.795	573.56
324.024	624.56
324.253	810.56
324.482	1139.56
324.71	1772.56
324.939	2500.56
325.168	2136.56
325.397	1122.56
325.626	730.56
325.855	613.56
326.084	578.56
326.313	541.56
326.542	543.56
326.77	612.56
326.999	704.56
327.228	982.56
327.457	1541.56
327.686	1873.56
327.914	1266.56
328.143	838.56
328.372	705.56
328.6	648.56
328.829	606.56
329.058	633.56
329.287	662.56
329.515	583.56
329.744	538.56
329.972	540.56
330.201	576.56
330.43	613.56
330.658	637.56
330.887	705.56
331.115	664.56
331.344	564.56
331.572	519.56
331.801	522.56
332.03	552.56
332.258	482.56
332.486	474.56
332.715	433.56
332.943	449.56
333.172	431.56
333.4	442.56
333.629	459.56
333.857	448.56
334.085	457.56
334.314	498.56
334.542	530.56
334.771	568.56
334.999	516.56
335.227	470.56
335.455	441.56
335.684	428.56
335.912	416.56
336.14	434.56
336.369	440.56
336.597	446.56
336.825	448.56
337.053	457.56
337.281	432.56
337.51	408.56
337.738	436.56
337.966	436.56
338.194	451.56
338.422	425.56
338.65	415.56
338.878	435.56
339.106	406.56
339.334	413.56
339.562	420.56
339.79	412.56
340.018	426.56
340.246	420.56
340.474	434.56
340.702	413.56
340.93	415.56
341.158	407.56
341.386	408.56
341.614	438.56
341.842	418.56
342.07	456.56
342.298	409.56
342.526	415.56
342.754	425.56
342.981	402.56
343.209	390.56
343.437	421.56
343.665	394.56
343.893	413.56
344.12	422.56
344.348	412.56
344.576	421.56
344.804	424.56
345.031	434.56
345.259	460.56
345.487	463.56
345.714	440.56
345.942	436.56
346.17	432.56
346.397	411.56
346.625	407.56
346.853	402.56
347.08	420.56
347.308	430.56
347.535	431.56
347.763	422.56
347.99	439.56
348.218	436.56
348.445	430.56
348.673	441.56
348.9	420.56
349.128	429.56
349.355	401.56
349.583	420.56
349.81	391.56
350.037	399.56
350.265	399.56
350.492	411.56
350.72	383.56
350.947	401.56
351.174	436.56
351.402	422.56
351.629	442.56
351.856	438.56
352.083	431.56
352.311	444.56
352.538	448.56
352.765	466.56
352.992	445.56
353.22	437.56
353.447	415.56
353.674	391.56
353.901	384.56
354.128	395.56
354.355	402.56
354.583	370.56
354.81	384.56
355.037	412.56
355.264	394.56
355.491	376.56
355.718	364.56
355.945	388.56
356.172	394.56
356.399	386.56
356.626	367.56
356.853	368.56
357.08	380.56
357.307	384.56
357.534	365.56
357.761	388.56
357.988	398.56
358.215	394.56
358.441	402.56
358.668	395.56
358.895	405.56
359.122	406.56
359.349	403.56
359.576	431.56
359.802	442.56
360.029	506.56
360.256	523.56
360.483	505.56
360.709	432.56
360.936	444.56
361.163	419.56
361.39	421.56
361.616	439.56
361.843	430.56
362.07	444.56
362.296	436.56
362.523	443.56
362.749	426.56
362.976	424.56
363.203	420.56
363.429	405.56
363.656	416.56
363.882	409.56
364.109	418.56
364.335	416.56
364.562	410.56
364.788	419.56
365.015	406.56
365.241	417.56
365.468	416.56
365.694	415.56
365.92	399.56
366.147	408.56
366.373	402.56
366.599	404.56
366.826	387.56
367.052	403.56
367.278	415.56
367.505	425.56
367.731	428.56
367.957	406.56
368.184	405.56
368.41	408.56
368.636	409.56
368.862	423.56
369.089	421.56
369.315	417.56
369.541	413.56
369.767	413.56
369.993	391.56
370.219	397.56
370.445	384.56
370.672	410.56
370.898	394.56
371.124	399.56
371.35	393.56
371.576	383.56
371.802	382.56
372.028	392.56
372.254	394.56
372.48	411.56
372.706	390.56
372.932	412.56
373.158	388.56
373.384	413.56
373.61	396.56
373.835	395.56
374.061	433.56
374.287	413.56
374.513	413.56
374.739	402.56
374.965	393.56
375.191	421.56
375.416	410.56
375.642	407.56
375.868	402.56
376.094	402.56
376.319	417.56
376.545	416.56
376.771	410.56
376.997	404.56
377.222	398.56
377.448	414.56
377.674	416.56
377.899	395.56
378.125	383.56
378.35	400.56
378.576	400.56
378.802	386.56
379.027	395.56
379.253	403.56
379.478	397.56
379.704	397.56
379.929	393.56
380.155	397.56
380.38	390.56
380.606	437.56
380.831	393.56
381.057	406.56
381.282	408.56
381.507	406.56
381.733	416.56
381.958	402.56
382.184	394.56
382.409	425.56
382.634	429.56
382.86	410.56
383.085	397.56
383.31	390.56
383.535	426.56
383.761	414.56
383.986	415.56
384.211	402.56
384.436	414.56
384.662	422.56
384.887	422.56
385.112	429.56
385.337	405.56
385.562	425.56
385.787	426.56
386.013	433.56
386.238	429.56
386.463	441.56
386.688	446.56
386.913	432.56
387.138	440.56
387.363	438.56
387.588	443.56
387.813	432.56
388.038	420.56
388.263	433.56
388.488	425.56
388.713	430.56
388.938	437.56
389.163	423.56
389.387	436.56
389.612	428.56
389.837	418.56
390.062	424.56
390.287	439.56
390.512	410.56
390.736	426.56
390.961	427.56
391.186	414.56
391.411	440.56
391.636	450.56
391.86	425.56
392.085	431.56
392.31	433.56
392.534	449.56
392.759	437.56
392.984	450.56
393.208	435.56
393.433	453.56
393.658	461.56
393.882	444.56
394.107	432.56
394.331	426.56
394.556	442.56
394.78	441.56
395.005	429.56
395.229	430.56
395.454	449.56
395.678	445.56
395.903	469.56
396.127	479.56
396.352	487.56
396.576	471.56
396.801	442.56
397.025	452.56
397.249	465.56
397.474	447.56
397.698	468.56
397.922	484.56
398.147	501.56
398.371	494.56
398.595	462.56
398.82	482.56
399.044	501.56
399.268	518.56
399.492	524.56
399.717	554.56
399.941	578.56
400.165	584.56
400.389	610.56
400.613	552.56
400.837	514.56
401.062	507.56
401.286	477.56
401.51	524.56
401.734	493.56
401.958	486.56
402.182	500.56
402.406	520.56
402.63	520.56
402.854	512.56
403.078	505.56
403.302	526.56
403.526	518.56
403.75	517.56
403.974	508.56
404.198	500.56
404.422	529.56
404.645	536.56
404.869	532.56
405.093	586.56
405.317	605.56
405.541	644.56
405.765	591.56
405.988	561.56
406.212	552.56
406.436	601.56
406.66	606.56
406.883	573.56
407.107	594.56
407.331	656.56
407.555	710.56
407.778	706.56
408.002	641.56
408.226	583.56
408.449	574.56
408.673	594.56
408.896	617.56
409.12	649.56
409.344	600.56
409.567	554.56
409.791	536.56
410.014	543.56
410.238	530.56
410.461	512.56
410.685	555.56
410.908	573.56
411.132	580.56
411.355	618.56
411.578	604.56
411.802	548.56
412.025	514.56
412.249	548.56
412.472	546.56
412.695	602.56
412.919	578.56
413.142	539.56
413.365	519.56
413.589	533.56
413.812	518.56
414.035	505.56
414.258	510.56
414.482	494.56
414.705	502.56
414.928	514.56
415.151	503.56
415.374	478.56
415.597	481.56
415.821	502.56
416.044	503.56
416.267	506.56
416.49	521.56
416.713	500.56
416.936	541.56
417.159	524.56
417.382	519.56
417.605	484.56
417.828	525.56
418.051	536.56
418.274	524.56
418.497	482.56
418.72	488.56
418.943	522.56
419.166	526.56
419.389	536.56
419.611	526.56
419.834	542.56
420.057	537.56
420.28	548.56
420.503	530.56
420.726	544.56
420.948	566.56
421.171	592.56
421.394	633.56
421.617	573.56
421.839	549.56
422.062	530.56
422.285	558.56
422.507	613.56
422.73	699.56
422.953	668.56
423.175	603.56
423.398	560.56
423.621	584.56
423.843	588.56
424.066	592.56
424.288	578.56
424.511	620.56
424.733	657.56
424.956	744.56
425.178	734.56
425.401	742.56
425.623	750.56
425.846	636.56
426.068	640.56
426.291	591.56
426.513	600.56
426.735	602.56
426.958	659.56
427.18	742.56
427.402	884.56
427.625	941.56
427.847	856.56
428.069	749.56
428.292	652.56
428.514	570.56
428.736	572.56
428.958	569.56
429.181	532.56
429.403	533.56
429.625	570.56
429.847	612.56
430.069	679.56
430.292	650.56
430.514	570.56
430.736	565.56
430.958	549.56
431.18	534.56
431.402	541.56
431.624	507.56
431.846	520.56
432.068	510.56
432.29	506.56
432.512	517.56
432.734	508.56
432.956	519.56
433.178	538.56
433.4	546.56
433.622	546.56
433.844	533.56
434.066	523.56
434.287	520.56
434.509	524.56
434.731	556.56
434.953	504.56
435.175	538.56
435.397	580.56
435.618	604.56
435.84	639.56
436.062	743.56
436.284	790.56
436.505	702.56
436.727	633.56
436.949	603.56
437.17	559.56
437.392	574.56
437.614	569.56
437.835	636.56
438.057	733.56
438.278	837.56
438.5	828.56
438.721	881.56
438.943	871.56
439.165	680.56
439.386	631.56
439.608	633.56
439.829	626.56
440.05	666.56
440.272	694.56
440.493	660.56
440.715	629.56
440.936	580.56
441.158	552.56
441.379	537.56
441.6	573.56
441.822	601.56
442.043	656.56
442.264	760.56
442.486	787.56
442.707	654.56
442.928	623.56
443.149	644.56
443.371	662.56
443.592	694.56
443.813	802.56
444.034	854.56
444.255	693.56
444.476	628.56
444.698	594.56
444.919	621.56
445.14	696.56
445.361	655.56
445.582	651.56
445.803	741.56
446.024	849.56
446.245	826.56
446.466	770.56
446.687	668.56
446.908	612.56
447.129	581.56
447.35	573.56
447.571	550.56
447.792	546.56
448.013	581.56
448.234	591.56
448.455	644.56
448.675	765.56
448.896	873.56
449.117	768.56
449.338	700.56
449.559	839.56
449.779	908.56
450	728.56
450.221	624.56
450.442	581.56
450.662	565.56
450.883	557.56
451.104	603.56
451.324	585.56
451.545	573.56
451.766	529.56
451.986	496.56
452.207	487.56
452.428	489.56
452.648	509.56
452.869	498.56
453.089	518.56
453.31	520.56
453.53	520.56
453.751	502.56
453.971	493.56
454.192	538.56
454.412	542.56
454.633	505.56
454.853	507.56
455.073	489.56
455.294	548.56
455.514	608.56
455.734	588.56
455.955	516.56
456.175	491.56
456.395	487.56
456.616	463.56
456.836	463.56
457.056	459.56
457.276	456.56
457.497	457.56
457.717	481.56
457.937	475.56
458.157	481.56
458.377	465.56
458.598	509.56
458.818	601.56
459.038	694.56
459.258	682.56
459.478	603.56
459.698	534.56
459.918	524.56
460.138	520.56
460.358	503.56
460.578	517.56
460.798	518.56
461.018	503.56
461.238	512.56
461.458	511.56
461.678	504.56
461.898	521.56
462.118	493.56
462.338	504.56
462.558	509.56
462.777	539.56
462.997	524.56
463.217	536.56
463.437	550.56
463.657	517.56
463.876	543.56
464.096	539.56
464.316	562.56
464.536	545.56
464.755	540.56
464.975	561.56
465.195	629.56
465.414	750.56
465.634	624.56
465.854	578.56
466.073	558.56
466.293	565.56
466.512	530.56
466.732	534.56
466.951	530.56
467.171	492.56
467.391	538.56
467.61	537.56
467.829	538.56
468.049	547.56
468.268	530.56
468.488	506.56
468.707	514.56
468.927	477.56
469.146	481.56
469.365	494.56
469.585	471.56
469.804	506.56
470.023	524.56
470.243	520.56
470.462	518.56
470.681	543.56
470.901	562.56
471.12	518.56
471.339	508.56
471.558	546.56
471.777	538.56
471.997	504.56
472.216	501.56
472.435	561.56
472.654	554.56
472.873	540.56
473.092	520.56
473.311	514.56
473.53	520.56
473.749	517.56
473.968	589.56
474.187	677.56
474.406	712.56
474.625	594.56
474.844	549.56
475.063	520.56
475.282	539.56
475.501	542.56
475.72	516.56
475.939	533.56
476.158	528.56
476.377	538.56
476.596	548.56
476.814	541.56
477.033	579.56
477.252	572.56
477.471	569.56
477.69	550.56
477.908	561.56
478.127	570.56
478.346	541.56
478.564	551.56
478.783	567.56
479.002	594.56
479.22	597.56
479.439	617.56
479.658	650.56
479.876	636.56
480.095	630.56
480.313	664.56
480.532	645.56
480.751	621.56
480.969	646.56
481.188	732.56
481.406	794.56
481.624	677.56
481.843	636.56
482.061	601.56
482.28	627.56
482.498	614.56
482.717	634.56
482.935	644.56
483.153	607.56
483.372	602.56
483.59	624.56
483.808	618.56
484.027	639.56
484.245	625.56
484.463	606.56
484.681	610.56
484.9	617.56
485.118	637.56
485.336	619.56
485.554	644.56
485.772	606.56
485.99	612.56
486.209	641.56
486.427	650.56
486.645	653.56
486.863	687.56
487.081	697.56
487.299	682.56
487.517	660.56
487.735	674.56
487.953	671.56
488.171	678.56
488.389	670.56
488.607	681.56
488.825	672.56
489.043	687.56
489.261	688.56
489.479	693.56
489.696	702.56
489.914	701.56
490.132	710.56
490.35	711.56
490.568	729.56
490.786	721.56
491.003	751.56
491.221	742.56
491.439	775.56
491.657	758.56
491.874	778.56
492.092	792.56
492.31	788.56
492.527	785.56
492.745	804.56
492.963	794.56
493.18	796.56
493.398	811.56
493.615	804.56
493.833	827.56
494.05	808.56
494.268	805.56
494.485	816.56
494.703	811.56
494.92	808.56
495.138	805.56
495.355	802.56
495.573	804.56
495.79	804.56
496.008	827.56
496.225	799.56
496.442	852.56
496.66	812.56
496.877	820.56
497.094	799.56
497.312	817.56
497.529	830.56
497.746	829.56
497.963	830.56
498.181	846.56
498.398	872.56
498.615	889.56
498.832	889.56
499.049	888.56
499.267	883.56
499.484	900.56
499.701	928.56
499.918	936.56
500.135	959.56
500.352	982.56
500.569	980.56
500.786	1005.56
501.003	1001.56
501.22	980.56
501.437	955.56
501.654	945.56
