Data from 1971.PennyLincolnUp.Lamp.En5.5.200Scan.071719.P1._HRD10591_15-18-53-841.txt Node
Date: Thu Jul 18 15:18:53 EDT 2019
User: cochatt
Spectrometer: HR+D1059
Trigger mode: 1
Integration Time (sec): 1.000000E-1
Scans to average: 1
Electric dark correction enabled: true
Nonlinearity correction enabled: false
Boxcar width: 0
XAxis mode: Wavelengths
Number of Pixels in Spectrum: 2048
>>>>>Begin Spectral Data<<<<<
223.165	-0.88
223.4	-0.88
223.635	-0.88
223.869	-26.88
224.104	-21.88
224.338	-19.88
224.573	-12.88
224.808	-19.88
225.042	-11.88
225.277	6.12
225.511	-13.88
225.746	-11.88
225.98	14.12
226.215	14.12
226.449	22.12
226.683	31.12
226.918	12.12
227.152	40.12
227.387	27.12
227.621	31.12
227.856	37.12
228.09	30.12
228.324	46.12
228.559	45.12
228.793	85.12
229.027	86.12
229.262	101.12
229.496	105.12
229.73	118.12
229.964	143.12
230.199	127.12
230.433	104.12
230.667	110.12
230.901	109.12
231.136	114.12
231.37	108.12
231.604	118.12
231.838	107.12
232.072	112.12
232.306	105.12
232.541	114.12
232.775	114.12
233.009	114.12
233.243	103.12
233.477	112.12
233.711	112.12
233.945	108.12
234.179	109.12
234.413	112.12
234.647	125.12
234.881	115.12
235.115	120.12
235.349	106.12
235.583	126.12
235.817	106.12
236.051	127.12
236.285	107.12
236.519	136.12
236.753	130.12
236.987	125.12
237.221	170.12
237.455	202.12
237.689	172.12
237.922	143.12
238.156	136.12
238.39	121.12
238.624	133.12
238.858	123.12
239.091	124.12
239.325	110.12
239.559	117.12
239.793	126.12
240.027	128.12
240.26	131.12
240.494	154.12
240.728	148.12
240.961	155.12
241.195	146.12
241.429	145.12
241.662	129.12
241.896	124.12
242.13	126.12
242.363	132.12
242.597	126.12
242.83	142.12
243.064	122.12
243.298	151.12
243.531	133.12
243.765	142.12
243.998	141.12
244.232	131.12
244.465	128.12
244.699	130.12
244.932	138.12
245.166	135.12
245.399	135.12
245.633	149.12
245.866	150.12
246.099	147.12
246.333	148.12
246.566	147.12
246.8	157.12
247.033	148.12
247.266	159.12
247.5	170.12
247.733	171.12
247.966	173.12
248.2	178.12
248.433	173.12
248.666	172.12
248.899	178.12
249.133	194.12
249.366	179.12
249.599	192.12
249.832	190.12
250.066	200.12
250.299	182.12
250.532	184.12
250.765	196.12
250.998	207.12
251.231	216.12
251.465	210.12
251.698	199.12
251.931	193.12
252.164	209.12
252.397	190.12
252.63	199.12
252.863	194.12
253.096	215.12
253.329	223.12
253.562	219.12
253.795	217.12
254.028	235.12
254.261	227.12
254.494	243.12
254.727	241.12
254.96	284.12
255.193	257.12
255.426	237.12
255.659	232.12
255.892	232.12
256.124	230.12
256.357	234.12
256.59	200.12
256.823	210.12
257.056	207.12
257.289	221.12
257.521	223.12
257.754	230.12
257.987	202.12
258.22	202.12
258.452	194.12
258.685	207.12
258.918	208.12
259.151	205.12
259.383	202.12
259.616	226.12
259.849	231.12
260.081	239.12
260.314	257.12
260.547	262.12
260.779	240.12
261.012	246.12
261.244	237.12
261.477	229.12
261.71	204.12
261.942	223.12
262.175	232.12
262.407	226.12
262.64	214.12
262.872	215.12
263.105	224.12
263.337	218.12
263.57	219.12
263.802	218.12
264.035	210.12
264.267	211.12
264.499	222.12
264.732	210.12
264.964	222.12
265.197	218.12
265.429	213.12
265.661	217.12
265.894	211.12
266.126	222.12
266.358	238.12
266.591	237.12
266.823	242.12
267.055	228.12
267.287	223.12
267.52	235.12
267.752	243.12
267.984	212.12
268.216	244.12
268.448	233.12
268.681	233.12
268.913	263.12
269.145	272.12
269.377	275.12
269.609	254.12
269.841	284.12
270.073	268.12
270.306	290.12
270.538	307.12
270.77	294.12
271.002	297.12
271.234	298.12
271.466	298.12
271.698	300.12
271.93	304.12
272.162	323.12
272.394	318.12
272.626	302.12
272.858	279.12
273.09	278.12
273.322	285.12
273.553	270.12
273.785	275.12
274.017	271.12
274.249	280.12
274.481	261.12
274.713	265.12
274.945	270.12
275.176	271.12
275.408	262.12
275.64	275.12
275.872	257.12
276.104	272.12
276.335	264.12
276.567	275.12
276.799	293.12
277.031	298.12
277.262	307.12
277.494	318.12
277.726	306.12
277.957	302.12
278.189	278.12
278.421	285.12
278.652	289.12
278.884	278.12
279.115	270.12
279.347	275.12
279.579	271.12
279.81	280.12
280.042	263.12
280.273	280.12
280.505	284.12
280.736	269.12
280.968	283.12
281.199	254.12
281.431	263.12
281.662	261.12
281.894	265.12
282.125	279.12
282.356	288.12
282.588	291.12
282.819	298.12
283.051	300.12
283.282	293.12
283.513	309.12
283.745	292.12
283.976	290.12
284.207	281.12
284.439	278.12
284.67	281.12
284.901	271.12
285.132	290.12
285.364	288.12
285.595	298.12
285.826	277.12
286.057	278.12
286.288	290.12
286.52	282.12
286.751	276.12
286.982	287.12
287.213	302.12
287.444	286.12
287.675	288.12
287.906	281.12
288.138	324.12
288.369	290.12
288.6	298.12
288.831	294.12
289.062	295.12
289.293	289.12
289.524	312.12
289.755	286.12
289.986	270.12
290.217	294.12
290.448	284.12
290.679	282.12
290.91	291.12
291.141	287.12
291.371	299.12
291.602	289.12
291.833	299.12
292.064	298.12
292.295	302.12
292.526	298.12
292.757	302.12
292.987	292.12
293.218	295.12
293.449	299.12
293.68	299.12
293.91	294.12
294.141	305.12
294.372	301.12
294.603	294.12
294.833	302.12
295.064	299.12
295.295	296.12
295.525	292.12
295.756	307.12
295.987	311.12
296.217	315.12
296.448	323.12
296.679	323.12
296.909	285.12
297.14	300.12
297.37	295.12
297.601	312.12
297.831	298.12
298.062	304.12
298.292	318.12
298.523	324.12
298.753	326.12
298.984	313.12
299.214	291.12
299.445	326.12
299.675	307.12
299.905	317.12
300.136	300.12
300.366	316.12
300.597	308.12
300.827	323.12
301.057	323.12
301.288	322.12
301.518	327.12
301.748	325.12
301.979	329.12
302.209	333.12
302.439	311.12
302.669	330.12
302.9	332.12
303.13	326.12
303.36	349.12
303.59	353.12
303.82	312.12
304.051	340.12
304.281	334.12
304.511	319.12
304.741	308.12
304.971	316.12
305.201	328.12
305.431	320.12
305.661	323.12
305.891	325.12
306.121	341.12
306.352	341.12
306.582	347.12
306.812	332.12
307.042	338.12
307.272	334.12
307.502	331.12
307.731	360.12
307.961	348.12
308.191	347.12
308.421	335.12
308.651	344.12
308.881	322.12
309.111	360.12
309.341	339.12
309.571	359.12
309.8	340.12
310.03	338.12
310.26	382.12
310.49	362.12
310.72	362.12
310.949	401.12
311.179	376.12
311.409	380.12
311.639	381.12
311.868	378.12
312.098	372.12
312.328	396.12
312.557	393.12
312.787	397.12
313.017	395.12
313.246	381.12
313.476	384.12
313.706	373.12
313.935	370.12
314.165	380.12
314.394	375.12
314.624	403.12
314.853	386.12
315.083	374.12
315.312	362.12
315.542	384.12
315.771	375.12
316.001	383.12
316.23	384.12
316.46	374.12
316.689	383.12
316.919	389.12
317.148	396.12
317.377	406.12
317.607	390.12
317.836	375.12
318.065	386.12
318.295	367.12
318.524	373.12
318.753	358.12
318.983	364.12
319.212	377.12
319.441	378.12
319.67	383.12
319.9	397.12
320.129	376.12
320.358	368.12
320.587	380.12
320.816	392.12
321.046	405.12
321.275	394.12
321.504	386.12
321.733	387.12
321.962	395.12
322.191	423.12
322.42	416.12
322.649	428.12
322.878	426.12
323.108	454.12
323.337	464.12
323.566	478.12
323.795	494.12
324.024	545.12
324.253	667.12
324.482	938.12
324.71	1363.12
324.939	1822.12
325.168	1526.12
325.397	824.12
325.626	612.12
325.855	530.12
326.084	499.12
326.313	467.12
326.542	472.12
326.77	512.12
326.999	617.12
327.228	837.12
327.457	1183.12
327.686	1346.12
327.914	921.12
328.143	637.12
328.372	566.12
328.6	546.12
328.829	527.12
329.058	512.12
329.287	534.12
329.515	472.12
329.744	481.12
329.972	476.12
330.201	487.12
330.43	523.12
330.658	539.12
330.887	559.12
331.115	548.12
331.344	485.12
331.572	484.12
331.801	468.12
332.03	460.12
332.258	456.12
332.486	438.12
332.715	454.12
332.943	444.12
333.172	442.12
333.4	440.12
333.629	452.12
333.857	459.12
334.085	472.12
334.314	459.12
334.542	504.12
334.771	482.12
334.999	484.12
335.227	447.12
335.455	436.12
335.684	453.12
335.912	432.12
336.14	438.12
336.369	437.12
336.597	435.12
336.825	422.12
337.053	425.12
337.281	443.12
337.51	415.12
337.738	418.12
337.966	428.12
338.194	424.12
338.422	445.12
338.65	409.12
338.878	415.12
339.106	413.12
339.334	421.12
339.562	406.12
339.79	418.12
340.018	410.12
340.246	411.12
340.474	399.12
340.702	413.12
340.93	414.12
341.158	414.12
341.386	432.12
341.614	405.12
341.842	421.12
342.07	418.12
342.298	389.12
342.526	404.12
342.754	394.12
342.981	388.12
343.209	373.12
343.437	406.12
343.665	398.12
343.893	420.12
344.12	416.12
344.348	442.12
344.576	429.12
344.804	413.12
345.031	433.12
345.259	419.12
345.487	434.12
345.714	415.12
345.942	405.12
346.17	391.12
346.397	379.12
346.625	376.12
346.853	394.12
347.08	385.12
347.308	392.12
347.535	387.12
347.763	398.12
347.99	393.12
348.218	409.12
348.445	406.12
348.673	422.12
348.9	398.12
349.128	382.12
349.355	367.12
349.583	398.12
349.81	384.12
350.037	380.12
350.265	397.12
350.492	374.12
350.72	382.12
350.947	392.12
351.174	380.12
351.402	392.12
351.629	388.12
351.856	400.12
352.083	399.12
352.311	411.12
352.538	396.12
352.765	390.12
352.992	388.12
353.22	390.12
353.447	372.12
353.674	394.12
353.901	401.12
354.128	383.12
354.355	365.12
354.583	357.12
354.81	355.12
355.037	366.12
355.264	357.12
355.491	361.12
355.718	365.12
355.945	357.12
356.172	370.12
356.399	346.12
356.626	353.12
356.853	354.12
357.08	379.12
357.307	358.12
357.534	340.12
357.761	346.12
357.988	356.12
358.215	375.12
358.441	358.12
358.668	370.12
358.895	363.12
359.122	364.12
359.349	366.12
359.576	381.12
359.802	390.12
360.029	438.12
360.256	428.12
360.483	394.12
360.709	384.12
360.936	374.12
361.163	388.12
361.39	380.12
361.616	380.12
361.843	381.12
362.07	373.12
362.296	380.12
362.523	396.12
362.749	380.12
362.976	384.12
363.203	377.12
363.429	355.12
363.656	374.12
363.882	377.12
364.109	370.12
364.335	361.12
364.562	355.12
364.788	359.12
365.015	349.12
365.241	372.12
365.468	358.12
365.694	353.12
365.92	360.12
366.147	375.12
366.373	374.12
366.599	340.12
366.826	340.12
367.052	344.12
367.278	363.12
367.505	359.12
367.731	347.12
367.957	358.12
368.184	374.12
368.41	379.12
368.636	359.12
368.862	379.12
369.089	376.12
369.315	365.12
369.541	382.12
369.767	353.12
369.993	338.12
370.219	354.12
370.445	357.12
370.672	336.12
370.898	367.12
371.124	352.12
371.35	378.12
371.576	364.12
371.802	340.12
372.028	350.12
372.254	369.12
372.48	341.12
372.706	366.12
372.932	349.12
373.158	352.12
373.384	366.12
373.61	339.12
373.835	367.12
374.061	352.12
374.287	366.12
374.513	359.12
374.739	352.12
374.965	363.12
375.191	378.12
375.416	358.12
375.642	361.12
375.868	348.12
376.094	359.12
376.319	357.12
376.545	354.12
376.771	358.12
376.997	373.12
377.222	354.12
377.448	354.12
377.674	351.12
377.899	346.12
378.125	359.12
378.35	363.12
378.576	336.12
378.802	353.12
379.027	346.12
379.253	354.12
379.478	342.12
379.704	335.12
379.929	359.12
380.155	354.12
380.38	354.12
380.606	365.12
380.831	341.12
381.057	343.12
381.282	349.12
381.507	353.12
381.733	344.12
381.958	359.12
382.184	359.12
382.409	378.12
382.634	357.12
382.86	346.12
383.085	359.12
383.31	353.12
383.535	332.12
383.761	351.12
383.986	333.12
384.211	352.12
384.436	351.12
384.662	388.12
384.887	371.12
385.112	388.12
385.337	392.12
385.562	386.12
385.787	374.12
386.013	383.12
386.238	371.12
386.463	395.12
386.688	360.12
386.913	370.12
387.138	370.12
387.363	364.12
387.588	373.12
387.813	366.12
388.038	366.12
388.263	380.12
388.488	371.12
388.713	376.12
388.938	374.12
389.163	374.12
389.387	386.12
389.612	370.12
389.837	367.12
390.062	376.12
390.287	360.12
390.512	370.12
390.736	375.12
390.961	393.12
391.186	366.12
391.411	376.12
391.636	379.12
391.86	390.12
392.085	362.12
392.31	374.12
392.534	371.12
392.759	368.12
392.984	390.12
393.208	373.12
393.433	381.12
393.658	371.12
393.882	363.12
394.107	386.12
394.331	376.12
394.556	373.12
394.78	356.12
395.005	390.12
395.229	384.12
395.454	383.12
395.678	376.12
395.903	384.12
396.127	411.12
396.352	392.12
396.576	394.12
396.801	375.12
397.025	383.12
397.249	381.12
397.474	388.12
397.698	384.12
397.922	408.12
398.147	405.12
398.371	405.12
398.595	416.12
398.82	394.12
399.044	423.12
399.268	431.12
399.492	438.12
399.717	459.12
399.941	508.12
400.165	489.12
400.389	494.12
400.613	464.12
400.837	427.12
401.062	409.12
401.286	403.12
401.51	406.12
401.734	395.12
401.958	430.12
402.182	423.12
402.406	413.12
402.63	428.12
402.854	426.12
403.078	426.12
403.302	435.12
403.526	439.12
403.75	439.12
403.974	417.12
404.198	410.12
404.422	437.12
404.645	436.12
404.869	444.12
405.093	475.12
405.317	482.12
405.541	522.12
405.765	447.12
405.988	434.12
406.212	464.12
406.436	479.12
406.66	469.12
406.883	448.12
407.107	485.12
407.331	513.12
407.555	582.12
407.778	516.12
408.002	517.12
408.226	475.12
408.449	466.12
408.673	450.12
408.896	504.12
409.12	515.12
409.344	498.12
409.567	448.12
409.791	430.12
410.014	431.12
410.238	424.12
410.461	420.12
410.685	440.12
410.908	454.12
411.132	456.12
411.355	486.12
411.578	472.12
411.802	429.12
412.025	422.12
412.249	430.12
412.472	423.12
412.695	457.12
412.919	473.12
413.142	417.12
413.365	415.12
413.589	426.12
413.812	412.12
414.035	403.12
414.258	419.12
414.482	398.12
414.705	386.12
414.928	391.12
415.151	412.12
415.374	388.12
415.597	401.12
415.821	374.12
416.044	410.12
416.267	414.12
416.49	396.12
416.713	396.12
416.936	394.12
417.159	401.12
417.382	413.12
417.605	387.12
417.828	398.12
418.051	417.12
418.274	389.12
418.497	396.12
418.72	406.12
418.943	401.12
419.166	411.12
419.389	419.12
419.611	422.12
419.834	405.12
420.057	417.12
420.28	415.12
420.503	395.12
420.726	409.12
420.948	442.12
421.171	439.12
421.394	491.12
421.617	429.12
421.839	408.12
422.062	432.12
422.285	423.12
422.507	512.12
422.73	532.12
422.953	505.12
423.175	446.12
423.398	419.12
423.621	419.12
423.843	449.12
424.066	457.12
424.288	454.12
424.511	486.12
424.733	492.12
424.956	575.12
425.178	570.12
425.401	536.12
425.623	556.12
425.846	467.12
426.068	436.12
426.291	438.12
426.513	443.12
426.735	466.12
426.958	496.12
427.18	540.12
427.402	636.12
427.625	708.12
427.847	602.12
428.069	530.12
428.292	488.12
428.514	447.12
428.736	432.12
428.958	416.12
429.181	404.12
429.403	405.12
429.625	431.12
429.847	463.12
430.069	506.12
430.292	494.12
430.514	444.12
430.736	423.12
430.958	402.12
431.18	388.12
431.402	389.12
431.624	374.12
431.846	375.12
432.068	372.12
432.29	371.12
432.512	379.12
432.734	383.12
432.956	405.12
433.178	405.12
433.4	407.12
433.622	394.12
433.844	392.12
434.066	388.12
434.287	390.12
434.509	385.12
434.731	414.12
434.953	384.12
435.175	415.12
435.397	430.12
435.618	461.12
435.84	455.12
436.062	535.12
436.284	601.12
436.505	517.12
436.727	458.12
436.949	407.12
437.17	419.12
437.392	427.12
437.614	406.12
437.835	445.12
438.057	523.12
438.278	603.12
438.5	581.12
438.721	664.12
438.943	620.12
439.165	507.12
439.386	468.12
439.608	461.12
439.829	462.12
440.05	456.12
440.272	498.12
440.493	477.12
440.715	440.12
440.936	426.12
441.158	416.12
441.379	417.12
441.6	426.12
441.822	450.12
442.043	476.12
442.264	528.12
442.486	578.12
442.707	486.12
442.928	463.12
443.149	452.12
443.371	481.12
443.592	509.12
443.813	577.12
444.034	605.12
444.255	525.12
444.476	466.12
444.698	458.12
444.919	462.12
445.14	584.12
445.361	518.12
445.582	484.12
445.803	531.12
446.024	608.12
446.245	610.12
446.466	553.12
446.687	486.12
446.908	473.12
447.129	419.12
447.35	411.12
447.571	411.12
447.792	404.12
448.013	415.12
448.234	445.12
448.455	481.12
448.675	554.12
448.896	630.12
449.117	550.12
449.338	519.12
449.559	594.12
449.779	651.12
450	537.12
450.221	459.12
450.442	428.12
450.662	400.12
450.883	414.12
451.104	407.12
451.324	390.12
451.545	368.12
451.766	382.12
451.986	360.12
452.207	353.12
452.428	358.12
452.648	376.12
452.869	378.12
453.089	372.12
453.31	390.12
453.53	379.12
453.751	380.12
453.971	376.12
454.192	386.12
454.412	373.12
454.633	372.12
454.853	351.12
455.073	359.12
455.294	363.12
455.514	437.12
455.734	423.12
455.955	363.12
456.175	354.12
456.395	335.12
456.616	347.12
456.836	349.12
457.056	347.12
457.276	344.12
457.497	351.12
457.717	357.12
457.937	339.12
458.157	343.12
458.377	352.12
458.598	386.12
458.818	411.12
459.038	448.12
459.258	477.12
459.478	431.12
459.698	387.12
459.918	366.12
460.138	390.12
460.358	380.12
460.578	388.12
460.798	386.12
461.018	384.12
461.238	376.12
461.458	389.12
461.678	362.12
461.898	378.12
462.118	384.12
462.338	396.12
462.558	403.12
462.777	389.12
462.997	392.12
463.217	406.12
463.437	400.12
463.657	400.12
463.876	408.12
464.096	386.12
464.316	401.12
464.536	419.12
464.755	421.12
464.975	420.12
465.195	445.12
465.414	482.12
465.634	432.12
465.854	415.12
466.073	397.12
466.293	382.12
466.512	372.12
466.732	393.12
466.951	374.12
467.171	368.12
467.391	378.12
467.61	390.12
467.829	391.12
468.049	398.12
468.268	377.12
468.488	379.12
468.707	366.12
468.927	363.12
469.146	380.12
469.365	365.12
469.585	375.12
469.804	393.12
470.023	396.12
470.243	382.12
470.462	365.12
470.681	380.12
470.901	380.12
471.12	393.12
471.339	400.12
471.558	383.12
471.777	370.12
471.997	390.12
472.216	393.12
472.435	398.12
472.654	390.12
472.873	375.12
473.092	370.12
473.311	375.12
473.53	382.12
473.749	391.12
473.968	429.12
474.187	488.12
474.406	504.12
474.625	420.12
474.844	391.12
475.063	380.12
475.282	390.12
475.501	372.12
475.72	380.12
475.939	383.12
476.158	393.12
476.377	392.12
476.596	380.12
476.814	391.12
477.033	397.12
477.252	396.12
477.471	389.12
477.69	421.12
477.908	399.12
478.127	405.12
478.346	389.12
478.564	432.12
478.783	410.12
479.002	425.12
479.22	422.12
479.439	447.12
479.658	446.12
479.876	443.12
480.095	437.12
480.313	478.12
480.532	463.12
480.751	454.12
480.969	459.12
481.188	505.12
481.406	506.12
481.624	471.12
481.843	444.12
482.061	438.12
482.28	431.12
482.498	443.12
482.717	441.12
482.935	443.12
483.153	451.12
483.372	451.12
483.59	447.12
483.808	415.12
484.027	421.12
484.245	440.12
484.463	455.12
484.681	436.12
484.9	461.12
485.118	445.12
485.336	456.12
485.554	426.12
485.772	457.12
485.99	467.12
486.209	457.12
486.427	482.12
486.645	460.12
486.863	493.12
487.081	462.12
487.299	469.12
487.517	453.12
487.735	486.12
487.953	479.12
488.171	467.12
488.389	452.12
488.607	471.12
488.825	470.12
489.043	482.12
489.261	484.12
489.479	462.12
489.696	482.12
489.914	473.12
490.132	480.12
490.35	483.12
490.568	487.12
490.786	507.12
491.003	531.12
491.221	546.12
491.439	536.12
491.657	511.12
491.874	540.12
492.092	539.12
492.31	543.12
492.527	549.12
492.745	560.12
492.963	551.12
493.18	540.12
493.398	550.12
493.615	566.12
493.833	551.12
494.05	559.12
494.268	560.12
494.485	549.12
494.703	539.12
494.92	558.12
495.138	554.12
495.355	534.12
495.573	575.12
495.79	551.12
496.008	558.12
496.225	578.12
496.442	546.12
496.66	551.12
496.877	545.12
497.094	578.12
497.312	570.12
497.529	575.12
497.746	575.12
497.963	585.12
498.181	605.12
498.398	584.12
498.615	598.12
498.832	602.12
499.049	628.12
499.267	630.12
499.484	647.12
499.701	655.12
499.918	684.12
500.135	719.12
500.352	740.12
500.569	772.12
500.786	736.12
501.003	716.12
501.22	732.12
501.437	703.12
501.654	694.12
501.871	702.12
