Data from 1971.PennyLincolnUp.Lamp.En5.5.200Scan.071719.P1._HRD10591_15-18-45-841.txt Node
Date: Thu Jul 18 15:18:45 EDT 2019
User: cochatt
Spectrometer: HR+D1059
Trigger mode: 1
Integration Time (sec): 1.000000E-1
Scans to average: 1
Electric dark correction enabled: true
Nonlinearity correction enabled: false
Boxcar width: 0
XAxis mode: Wavelengths
Number of Pixels in Spectrum: 2048
>>>>>Begin Spectral Data<<<<<
223.165	-9.06
223.4	-9.06
223.635	-9.06
223.869	-26.06
224.104	-15.06
224.338	-16.06
224.573	-18.06
224.808	-13.06
225.042	-3.06
225.277	-3.06
225.511	-0.06
225.746	-5.06
225.98	4.94
226.215	4.94
226.449	15.94
226.683	23.94
226.918	30.94
227.152	27.94
227.387	37.94
227.621	34.94
227.856	32.94
228.09	47.94
228.324	55.94
228.559	66.94
228.793	75.94
229.027	96.94
229.262	88.94
229.496	100.94
229.73	109.94
229.964	151.94
230.199	124.94
230.433	110.94
230.667	114.94
230.901	120.94
231.136	115.94
231.37	103.94
231.604	102.94
231.838	115.94
232.072	115.94
232.306	109.94
232.541	101.94
232.775	117.94
233.009	111.94
233.243	95.94
233.477	113.94
233.711	121.94
233.945	119.94
234.179	107.94
234.413	111.94
234.647	117.94
234.881	109.94
235.115	113.94
235.349	108.94
235.583	106.94
235.817	103.94
236.051	119.94
236.285	114.94
236.519	109.94
236.753	126.94
236.987	135.94
237.221	158.94
237.455	203.94
237.689	166.94
237.922	138.94
238.156	129.94
238.39	122.94
238.624	121.94
238.858	130.94
239.091	110.94
239.325	132.94
239.559	130.94
239.793	111.94
240.027	128.94
240.26	140.94
240.494	148.94
240.728	132.94
240.961	136.94
241.195	140.94
241.429	137.94
241.662	128.94
241.896	118.94
242.13	134.94
242.363	127.94
242.597	134.94
242.83	148.94
243.064	134.94
243.298	150.94
243.531	139.94
243.765	122.94
243.998	138.94
244.232	136.94
244.465	126.94
244.699	149.94
244.932	141.94
245.166	153.94
245.399	155.94
245.633	159.94
245.866	139.94
246.099	139.94
246.333	139.94
246.566	148.94
246.8	146.94
247.033	149.94
247.266	148.94
247.5	174.94
247.733	157.94
247.966	159.94
248.2	170.94
248.433	158.94
248.666	162.94
248.899	190.94
249.133	192.94
249.366	197.94
249.599	197.94
249.832	185.94
250.066	197.94
250.299	186.94
250.532	188.94
250.765	211.94
250.998	211.94
251.231	225.94
251.465	221.94
251.698	200.94
251.931	203.94
252.164	190.94
252.397	198.94
252.63	195.94
252.863	220.94
253.096	210.94
253.329	211.94
253.562	200.94
253.795	220.94
254.028	221.94
254.261	212.94
254.494	214.94
254.727	238.94
254.96	268.94
255.193	270.94
255.426	233.94
255.659	246.94
255.892	236.94
256.124	226.94
256.357	222.94
256.59	224.94
256.823	208.94
257.056	206.94
257.289	209.94
257.521	205.94
257.754	209.94
257.987	205.94
258.22	194.94
258.452	219.94
258.685	210.94
258.918	195.94
259.151	210.94
259.383	199.94
259.616	214.94
259.849	211.94
260.081	215.94
260.314	256.94
260.547	259.94
260.779	239.94
261.012	220.94
261.244	238.94
261.477	239.94
261.71	226.94
261.942	227.94
262.175	219.94
262.407	229.94
262.64	220.94
262.872	221.94
263.105	212.94
263.337	195.94
263.57	195.94
263.802	234.94
264.035	213.94
264.267	200.94
264.499	233.94
264.732	220.94
264.964	208.94
265.197	204.94
265.429	213.94
265.661	218.94
265.894	211.94
266.126	217.94
266.358	213.94
266.591	218.94
266.823	223.94
267.055	226.94
267.287	234.94
267.52	215.94
267.752	214.94
267.984	214.94
268.216	242.94
268.448	242.94
268.681	225.94
268.913	232.94
269.145	268.94
269.377	274.94
269.609	267.94
269.841	268.94
270.073	274.94
270.306	294.94
270.538	319.94
270.77	295.94
271.002	288.94
271.234	300.94
271.466	294.94
271.698	287.94
271.93	314.94
272.162	299.94
272.394	311.94
272.626	304.94
272.858	280.94
273.09	271.94
273.322	278.94
273.553	266.94
273.785	263.94
274.017	269.94
274.249	254.94
274.481	272.94
274.713	253.94
274.945	250.94
275.176	251.94
275.408	270.94
275.64	262.94
275.872	271.94
276.104	260.94
276.335	267.94
276.567	266.94
276.799	279.94
277.031	294.94
277.262	323.94
277.494	308.94
277.726	291.94
277.957	285.94
278.189	270.94
278.421	255.94
278.652	266.94
278.884	260.94
279.115	269.94
279.347	280.94
279.579	286.94
279.81	271.94
280.042	260.94
280.273	267.94
280.505	255.94
280.736	254.94
280.968	263.94
281.199	265.94
281.431	278.94
281.662	272.94
281.894	269.94
282.125	285.94
282.356	291.94
282.588	308.94
282.819	297.94
283.051	287.94
283.282	249.94
283.513	271.94
283.745	290.94
283.976	292.94
284.207	294.94
284.439	293.94
284.67	292.94
284.901	262.94
285.132	285.94
285.364	298.94
285.595	286.94
285.826	277.94
286.057	276.94
286.288	273.94
286.52	287.94
286.751	299.94
286.982	261.94
287.213	282.94
287.444	295.94
287.675	282.94
287.906	303.94
288.138	311.94
288.369	289.94
288.6	312.94
288.831	304.94
289.062	290.94
289.293	308.94
289.524	308.94
289.755	307.94
289.986	286.94
290.217	296.94
290.448	296.94
290.679	301.94
290.91	306.94
291.141	298.94
291.371	281.94
291.602	277.94
291.833	273.94
292.064	286.94
292.295	269.94
292.526	296.94
292.757	271.94
292.987	300.94
293.218	311.94
293.449	269.94
293.68	295.94
293.91	307.94
294.141	289.94
294.372	301.94
294.603	302.94
294.833	312.94
295.064	294.94
295.295	293.94
295.525	303.94
295.756	302.94
295.987	293.94
296.217	313.94
296.448	320.94
296.679	309.94
296.909	286.94
297.14	288.94
297.37	300.94
297.601	307.94
297.831	299.94
298.062	286.94
298.292	297.94
298.523	306.94
298.753	282.94
298.984	298.94
299.214	297.94
299.445	319.94
299.675	301.94
299.905	309.94
300.136	318.94
300.366	303.94
300.597	302.94
300.827	319.94
301.057	319.94
301.288	311.94
301.518	324.94
301.748	330.94
301.979	344.94
302.209	328.94
302.439	323.94
302.669	330.94
302.9	314.94
303.13	326.94
303.36	335.94
303.59	338.94
303.82	322.94
304.051	306.94
304.281	320.94
304.511	326.94
304.741	332.94
304.971	327.94
305.201	316.94
305.431	295.94
305.661	328.94
305.891	323.94
306.121	324.94
306.352	346.94
306.582	323.94
306.812	327.94
307.042	322.94
307.272	324.94
307.502	320.94
307.731	347.94
307.961	314.94
308.191	343.94
308.421	331.94
308.651	329.94
308.881	328.94
309.111	347.94
309.341	331.94
309.571	343.94
309.8	370.94
310.03	367.94
310.26	368.94
310.49	379.94
310.72	365.94
310.949	384.94
311.179	384.94
311.409	377.94
311.639	357.94
311.868	382.94
312.098	377.94
312.328	364.94
312.557	367.94
312.787	390.94
313.017	394.94
313.246	379.94
313.476	376.94
313.706	361.94
313.935	365.94
314.165	375.94
314.394	380.94
314.624	362.94
314.853	362.94
315.083	379.94
315.312	382.94
315.542	358.94
315.771	362.94
316.001	360.94
316.23	361.94
316.46	368.94
316.689	376.94
316.919	373.94
317.148	376.94
317.377	380.94
317.607	382.94
317.836	373.94
318.065	394.94
318.295	371.94
318.524	360.94
318.753	365.94
318.983	360.94
319.212	373.94
319.441	384.94
319.67	374.94
319.9	358.94
320.129	355.94
320.358	364.94
320.587	388.94
320.816	376.94
321.046	384.94
321.275	386.94
321.504	386.94
321.733	401.94
321.962	404.94
322.191	408.94
322.42	399.94
322.649	414.94
322.878	433.94
323.108	436.94
323.337	455.94
323.566	479.94
323.795	516.94
324.024	538.94
324.253	622.94
324.482	909.94
324.71	1314.94
324.939	1767.94
325.168	1486.94
325.397	795.94
325.626	590.94
325.855	517.94
326.084	480.94
326.313	462.94
326.542	485.94
326.77	495.94
326.999	621.94
327.228	829.94
327.457	1146.94
327.686	1325.94
327.914	863.94
328.143	620.94
328.372	568.94
328.6	514.94
328.829	504.94
329.058	525.94
329.287	527.94
329.515	493.94
329.744	475.94
329.972	464.94
330.201	494.94
330.43	502.94
330.658	534.94
330.887	515.94
331.115	532.94
331.344	469.94
331.572	454.94
331.801	461.94
332.03	427.94
332.258	438.94
332.486	441.94
332.715	420.94
332.943	427.94
333.172	424.94
333.4	419.94
333.629	420.94
333.857	455.94
334.085	448.94
334.314	458.94
334.542	467.94
334.771	479.94
334.999	464.94
335.227	450.94
335.455	455.94
335.684	413.94
335.912	446.94
336.14	420.94
336.369	407.94
336.597	408.94
336.825	442.94
337.053	412.94
337.281	409.94
337.51	413.94
337.738	409.94
337.966	407.94
338.194	396.94
338.422	424.94
338.65	419.94
338.878	404.94
339.106	387.94
339.334	412.94
339.562	386.94
339.79	420.94
340.018	412.94
340.246	401.94
340.474	424.94
340.702	414.94
340.93	395.94
341.158	414.94
341.386	397.94
341.614	406.94
341.842	405.94
342.07	401.94
342.298	397.94
342.526	395.94
342.754	394.94
342.981	401.94
343.209	392.94
343.437	379.94
343.665	395.94
343.893	409.94
344.12	427.94
344.348	416.94
344.576	423.94
344.804	410.94
345.031	418.94
345.259	416.94
345.487	432.94
345.714	412.94
345.942	386.94
346.17	369.94
346.397	405.94
346.625	385.94
346.853	399.94
347.08	390.94
347.308	424.94
347.535	402.94
347.763	401.94
347.99	392.94
348.218	397.94
348.445	419.94
348.673	412.94
348.9	393.94
349.128	393.94
349.355	376.94
349.583	393.94
349.81	382.94
350.037	375.94
350.265	374.94
350.492	366.94
350.72	390.94
350.947	390.94
351.174	380.94
351.402	390.94
351.629	404.94
351.856	391.94
352.083	384.94
352.311	397.94
352.538	391.94
352.765	403.94
352.992	399.94
353.22	397.94
353.447	384.94
353.674	383.94
353.901	378.94
354.128	361.94
354.355	360.94
354.583	375.94
354.81	374.94
355.037	357.94
355.264	364.94
355.491	364.94
355.718	359.94
355.945	343.94
356.172	346.94
356.399	358.94
356.626	354.94
356.853	325.94
357.08	334.94
357.307	348.94
357.534	365.94
357.761	376.94
357.988	360.94
358.215	354.94
358.441	359.94
358.668	364.94
358.895	356.94
359.122	348.94
359.349	361.94
359.576	377.94
359.802	395.94
360.029	416.94
360.256	415.94
360.483	398.94
360.709	370.94
360.936	376.94
361.163	394.94
361.39	371.94
361.616	378.94
361.843	376.94
362.07	365.94
362.296	374.94
362.523	384.94
362.749	377.94
362.976	370.94
363.203	359.94
363.429	355.94
363.656	367.94
363.882	361.94
364.109	364.94
364.335	361.94
364.562	355.94
364.788	351.94
365.015	344.94
365.241	387.94
365.468	380.94
365.694	357.94
365.92	363.94
366.147	362.94
366.373	344.94
366.599	348.94
366.826	336.94
367.052	339.94
367.278	357.94
367.505	362.94
367.731	364.94
367.957	354.94
368.184	360.94
368.41	363.94
368.636	366.94
368.862	359.94
369.089	351.94
369.315	371.94
369.541	354.94
369.767	357.94
369.993	356.94
370.219	359.94
370.445	355.94
370.672	363.94
370.898	364.94
371.124	366.94
371.35	356.94
371.576	350.94
371.802	345.94
372.028	351.94
372.254	356.94
372.48	358.94
372.706	365.94
372.932	342.94
373.158	344.94
373.384	362.94
373.61	363.94
373.835	334.94
374.061	351.94
374.287	358.94
374.513	350.94
374.739	341.94
374.965	357.94
375.191	361.94
375.416	370.94
375.642	356.94
375.868	356.94
376.094	342.94
376.319	352.94
376.545	342.94
376.771	335.94
376.997	344.94
377.222	333.94
377.448	353.94
377.674	346.94
377.899	329.94
378.125	344.94
378.35	344.94
378.576	338.94
378.802	334.94
379.027	331.94
379.253	326.94
379.478	339.94
379.704	326.94
379.929	320.94
380.155	346.94
380.38	358.94
380.606	356.94
380.831	351.94
381.057	349.94
381.282	334.94
381.507	366.94
381.733	373.94
381.958	352.94
382.184	341.94
382.409	352.94
382.634	359.94
382.86	349.94
383.085	354.94
383.31	370.94
383.535	376.94
383.761	349.94
383.986	364.94
384.211	364.94
384.436	382.94
384.662	372.94
384.887	348.94
385.112	361.94
385.337	336.94
385.562	365.94
385.787	370.94
386.013	382.94
386.238	387.94
386.463	394.94
386.688	360.94
386.913	367.94
387.138	362.94
387.363	345.94
387.588	345.94
387.813	378.94
388.038	386.94
388.263	364.94
388.488	350.94
388.713	346.94
388.938	359.94
389.163	384.94
389.387	381.94
389.612	374.94
389.837	368.94
390.062	378.94
390.287	360.94
390.512	356.94
390.736	372.94
390.961	358.94
391.186	385.94
391.411	352.94
391.636	353.94
391.86	372.94
392.085	372.94
392.31	387.94
392.534	368.94
392.759	358.94
392.984	381.94
393.208	372.94
393.433	381.94
393.658	383.94
393.882	359.94
394.107	363.94
394.331	353.94
394.556	382.94
394.78	378.94
395.005	380.94
395.229	362.94
395.454	367.94
395.678	387.94
395.903	378.94
396.127	401.94
396.352	393.94
396.576	379.94
396.801	385.94
397.025	380.94
397.249	380.94
397.474	393.94
397.698	388.94
397.922	384.94
398.147	416.94
398.371	405.94
398.595	419.94
398.82	430.94
399.044	438.94
399.268	407.94
399.492	429.94
399.717	455.94
399.941	485.94
400.165	509.94
400.389	538.94
400.613	469.94
400.837	422.94
401.062	429.94
401.286	440.94
401.51	403.94
401.734	398.94
401.958	411.94
402.182	409.94
402.406	405.94
402.63	428.94
402.854	414.94
403.078	404.94
403.302	403.94
403.526	443.94
403.75	431.94
403.974	411.94
404.198	397.94
404.422	429.94
404.645	418.94
404.869	428.94
405.093	440.94
405.317	480.94
405.541	488.94
405.765	448.94
405.988	448.94
406.212	446.94
406.436	454.94
406.66	457.94
406.883	446.94
407.107	488.94
407.331	519.94
407.555	549.94
407.778	552.94
408.002	502.94
408.226	455.94
408.449	468.94
408.673	461.94
408.896	491.94
409.12	490.94
409.344	475.94
409.567	428.94
409.791	422.94
410.014	422.94
410.238	408.94
410.461	408.94
410.685	420.94
410.908	435.94
411.132	461.94
411.355	486.94
411.578	461.94
411.802	445.94
412.025	427.94
412.249	441.94
412.472	439.94
412.695	453.94
412.919	446.94
413.142	422.94
413.365	393.94
413.589	415.94
413.812	402.94
414.035	409.94
414.258	379.94
414.482	389.94
414.705	392.94
414.928	397.94
415.151	390.94
415.374	393.94
415.597	396.94
415.821	389.94
416.044	386.94
416.267	388.94
416.49	400.94
416.713	394.94
416.936	388.94
417.159	385.94
417.382	388.94
417.605	412.94
417.828	398.94
418.051	398.94
418.274	415.94
418.497	405.94
418.72	410.94
418.943	375.94
419.166	395.94
419.389	427.94
419.611	391.94
419.834	413.94
420.057	400.94
420.28	411.94
420.503	403.94
420.726	424.94
420.948	440.94
421.171	450.94
421.394	472.94
421.617	426.94
421.839	423.94
422.062	402.94
422.285	419.94
422.507	458.94
422.73	499.94
422.953	487.94
423.175	453.94
423.398	422.94
423.621	414.94
423.843	434.94
424.066	422.94
424.288	434.94
424.511	457.94
424.733	492.94
424.956	566.94
425.178	528.94
425.401	550.94
425.623	542.94
425.846	482.94
426.068	430.94
426.291	421.94
426.513	436.94
426.735	455.94
426.958	458.94
427.18	566.94
427.402	635.94
427.625	691.94
427.847	598.94
428.069	527.94
428.292	473.94
428.514	426.94
428.736	425.94
428.958	439.94
429.181	402.94
429.403	408.94
429.625	404.94
429.847	436.94
430.069	471.94
430.292	488.94
430.514	416.94
430.736	414.94
430.958	402.94
431.18	383.94
431.402	396.94
431.624	386.94
431.846	380.94
432.068	385.94
432.29	373.94
432.512	376.94
432.734	388.94
432.956	386.94
433.178	387.94
433.4	391.94
433.622	392.94
433.844	382.94
434.066	370.94
434.287	386.94
434.509	385.94
434.731	403.94
434.953	393.94
435.175	393.94
435.397	432.94
435.618	463.94
435.84	477.94
436.062	544.94
436.284	576.94
436.505	488.94
436.727	462.94
436.949	430.94
437.17	421.94
437.392	392.94
437.614	409.94
437.835	449.94
438.057	526.94
438.278	566.94
438.5	582.94
438.721	659.94
438.943	619.94
439.165	506.94
439.386	450.94
439.608	466.94
439.829	445.94
440.05	465.94
440.272	509.94
440.493	471.94
440.715	456.94
440.936	418.94
441.158	424.94
441.379	417.94
441.6	427.94
441.822	415.94
442.043	471.94
442.264	520.94
442.486	580.94
442.707	459.94
442.928	455.94
443.149	451.94
443.371	455.94
443.592	510.94
443.813	569.94
444.034	578.94
444.255	500.94
444.476	467.94
444.698	458.94
444.919	428.94
445.14	585.94
445.361	534.94
445.582	482.94
445.803	512.94
446.024	600.94
446.245	611.94
446.466	539.94
446.687	461.94
446.908	458.94
447.129	412.94
447.35	412.94
447.571	423.94
447.792	417.94
448.013	401.94
448.234	426.94
448.455	464.94
448.675	555.94
448.896	642.94
449.117	520.94
449.338	496.94
449.559	582.94
449.779	660.94
450	560.94
450.221	464.94
450.442	423.94
450.662	411.94
450.883	405.94
451.104	401.94
451.324	410.94
451.545	388.94
451.766	374.94
451.986	367.94
452.207	361.94
452.428	373.94
452.648	352.94
452.869	348.94
453.089	372.94
453.31	376.94
453.53	355.94
453.751	380.94
453.971	362.94
454.192	356.94
454.412	363.94
454.633	339.94
454.853	349.94
455.073	362.94
455.294	379.94
455.514	438.94
455.734	400.94
455.955	362.94
456.175	357.94
456.395	341.94
456.616	342.94
456.836	326.94
457.056	347.94
457.276	342.94
457.497	338.94
457.717	347.94
457.937	330.94
458.157	354.94
458.377	355.94
458.598	359.94
458.818	403.94
459.038	458.94
459.258	451.94
459.478	396.94
459.698	375.94
459.918	366.94
460.138	364.94
460.358	375.94
460.578	376.94
460.798	386.94
461.018	399.94
461.238	382.94
461.458	377.94
461.678	361.94
461.898	373.94
462.118	388.94
462.338	394.94
462.558	391.94
462.777	386.94
462.997	402.94
463.217	418.94
463.437	424.94
463.657	399.94
463.876	408.94
464.096	395.94
464.316	398.94
464.536	401.94
464.755	404.94
464.975	404.94
465.195	432.94
465.414	477.94
465.634	398.94
465.854	382.94
466.073	379.94
466.293	368.94
466.512	382.94
466.732	360.94
466.951	374.94
467.171	356.94
467.391	358.94
467.61	375.94
467.829	394.94
468.049	370.94
468.268	380.94
468.488	363.94
468.707	365.94
468.927	383.94
469.146	344.94
469.365	358.94
469.585	352.94
469.804	385.94
470.023	390.94
470.243	373.94
470.462	372.94
470.681	379.94
470.901	379.94
471.12	363.94
471.339	373.94
471.558	373.94
471.777	384.94
471.997	358.94
472.216	373.94
472.435	400.94
472.654	407.94
472.873	351.94
473.092	355.94
473.311	355.94
473.53	386.94
473.749	380.94
473.968	412.94
474.187	492.94
474.406	486.94
474.625	415.94
474.844	395.94
475.063	391.94
475.282	380.94
475.501	378.94
475.72	389.94
475.939	387.94
476.158	380.94
476.377	373.94
476.596	364.94
476.814	376.94
477.033	378.94
477.252	396.94
477.471	389.94
477.69	400.94
477.908	415.94
478.127	411.94
478.346	422.94
478.564	398.94
478.783	397.94
479.002	424.94
479.22	404.94
479.439	418.94
479.658	453.94
479.876	444.94
480.095	455.94
480.313	476.94
480.532	458.94
480.751	440.94
480.969	439.94
481.188	480.94
481.406	486.94
481.624	457.94
481.843	447.94
482.061	436.94
482.28	437.94
482.498	445.94
482.717	420.94
482.935	413.94
483.153	399.94
483.372	414.94
483.59	412.94
483.808	422.94
484.027	435.94
484.245	450.94
484.463	429.94
484.681	451.94
484.9	435.94
485.118	433.94
485.336	441.94
485.554	439.94
485.772	454.94
485.99	424.94
486.209	443.94
486.427	452.94
486.645	454.94
486.863	464.94
487.081	476.94
487.299	463.94
487.517	452.94
487.735	472.94
487.953	475.94
488.171	462.94
488.389	462.94
488.607	453.94
488.825	454.94
489.043	461.94
489.261	475.94
489.479	474.94
489.696	464.94
489.914	452.94
490.132	491.94
490.35	501.94
490.568	485.94
490.786	475.94
491.003	501.94
491.221	517.94
491.439	511.94
491.657	523.94
491.874	534.94
492.092	541.94
492.31	541.94
492.527	543.94
492.745	560.94
492.963	554.94
493.18	512.94
493.398	522.94
493.615	535.94
493.833	535.94
494.05	541.94
494.268	548.94
494.485	537.94
494.703	534.94
494.92	556.94
495.138	547.94
495.355	520.94
495.573	554.94
495.79	558.94
496.008	541.94
496.225	542.94
496.442	539.94
496.66	552.94
496.877	562.94
497.094	550.94
497.312	557.94
497.529	558.94
497.746	564.94
497.963	590.94
498.181	606.94
498.398	595.94
498.615	584.94
498.832	591.94
499.049	620.94
499.267	623.94
499.484	658.94
499.701	654.94
499.918	665.94
500.135	711.94
500.352	697.94
500.569	718.94
500.786	731.94
501.003	721.94
501.22	701.94
501.437	683.94
501.654	674.94
501.871	657.94
502.088	626.94
