Data from 1971.PennyLincolnUp.Lamp.En5.5.200Scan.071719.P1.Scan 2. Changed Angle._HRD10591_15-22-54-842.txt Node
Date: Thu Jul 18 15:22:54 EDT 2019
User: cochatt
Spectrometer: HR+D1059
Trigger mode: 1
Integration Time (sec): 1.000000E-1
Scans to average: 1
Electric dark correction enabled: true
Nonlinearity correction enabled: false
Boxcar width: 0
XAxis mode: Wavelengths
Number of Pixels in Spectrum: 2048
>>>>>Begin Spectral Data<<<<<
223.165	-18.94
223.4	-18.94
223.635	-18.94
223.869	-21.94
224.104	-1.94
224.338	-12.94
224.573	-19.94
224.808	-18.94
225.042	-2.94
225.277	5.06
225.511	-5.94
225.746	-12.94
225.98	5.06
226.215	14.06
226.449	12.06
226.683	15.06
226.918	24.06
227.152	41.06
227.387	38.06
227.621	28.06
227.856	47.06
228.09	46.06
228.324	66.06
228.559	53.06
228.793	57.06
229.027	106.06
229.262	124.06
229.496	113.06
229.73	125.06
229.964	166.06
230.199	133.06
230.433	111.06
230.667	129.06
230.901	110.06
231.136	110.06
231.37	120.06
231.604	114.06
231.838	101.06
232.072	116.06
232.306	119.06
232.541	113.06
232.775	109.06
233.009	114.06
233.243	126.06
233.477	119.06
233.711	123.06
233.945	98.06
234.179	124.06
234.413	125.06
234.647	110.06
234.881	121.06
235.115	115.06
235.349	116.06
235.583	117.06
235.817	103.06
236.051	119.06
236.285	125.06
236.519	118.06
236.753	129.06
236.987	144.06
237.221	188.06
237.455	251.06
237.689	199.06
237.922	147.06
238.156	136.06
238.39	129.06
238.624	125.06
238.858	140.06
239.091	133.06
239.325	118.06
239.559	114.06
239.793	119.06
240.027	134.06
240.26	139.06
240.494	157.06
240.728	138.06
240.961	143.06
241.195	136.06
241.429	138.06
241.662	133.06
241.896	123.06
242.13	134.06
242.363	121.06
242.597	135.06
242.83	130.06
243.064	144.06
243.298	134.06
243.531	141.06
243.765	140.06
243.998	157.06
244.232	136.06
244.465	130.06
244.699	153.06
244.932	135.06
245.166	138.06
245.399	151.06
245.633	138.06
245.866	148.06
246.099	147.06
246.333	165.06
246.566	150.06
246.8	145.06
247.033	143.06
247.266	151.06
247.5	153.06
247.733	158.06
247.966	161.06
248.2	181.06
248.433	172.06
248.666	177.06
248.899	188.06
249.133	196.06
249.366	205.06
249.599	203.06
249.832	199.06
250.066	177.06
250.299	188.06
250.532	189.06
250.765	206.06
250.998	220.06
251.231	230.06
251.465	219.06
251.698	193.06
251.931	191.06
252.164	215.06
252.397	216.06
252.63	206.06
252.863	214.06
253.096	227.06
253.329	233.06
253.562	226.06
253.795	211.06
254.028	205.06
254.261	214.06
254.494	218.06
254.727	268.06
254.96	275.06
255.193	281.06
255.426	250.06
255.659	235.06
255.892	232.06
256.124	225.06
256.357	213.06
256.59	237.06
256.823	228.06
257.056	214.06
257.289	201.06
257.521	201.06
257.754	202.06
257.987	210.06
258.22	207.06
258.452	191.06
258.685	210.06
258.918	187.06
259.151	196.06
259.383	205.06
259.616	212.06
259.849	226.06
260.081	233.06
260.314	255.06
260.547	265.06
260.779	245.06
261.012	235.06
261.244	216.06
261.477	234.06
261.71	225.06
261.942	232.06
262.175	245.06
262.407	225.06
262.64	202.06
262.872	215.06
263.105	202.06
263.337	187.06
263.57	208.06
263.802	193.06
264.035	206.06
264.267	210.06
264.499	208.06
264.732	186.06
264.964	206.06
265.197	205.06
265.429	213.06
265.661	193.06
265.894	198.06
266.126	204.06
266.358	206.06
266.591	200.06
266.823	207.06
267.055	209.06
267.287	206.06
267.52	213.06
267.752	197.06
267.984	220.06
268.216	207.06
268.448	213.06
268.681	224.06
268.913	225.06
269.145	243.06
269.377	271.06
269.609	241.06
269.841	260.06
270.073	254.06
270.306	289.06
270.538	308.06
270.77	327.06
271.002	282.06
271.234	284.06
271.466	270.06
271.698	294.06
271.93	294.06
272.162	309.06
272.394	312.06
272.626	286.06
272.858	274.06
273.09	261.06
273.322	247.06
273.553	247.06
273.785	256.06
274.017	242.06
274.249	235.06
274.481	226.06
274.713	226.06
274.945	250.06
275.176	248.06
275.408	243.06
275.64	255.06
275.872	243.06
276.104	264.06
276.335	248.06
276.567	236.06
276.799	267.06
277.031	301.06
277.262	293.06
277.494	301.06
277.726	289.06
277.957	273.06
278.189	261.06
278.421	228.06
278.652	237.06
278.884	260.06
279.115	257.06
279.347	258.06
279.579	248.06
279.81	218.06
280.042	243.06
280.273	256.06
280.505	238.06
280.736	243.06
280.968	249.06
281.199	238.06
281.431	236.06
281.662	220.06
281.894	249.06
282.125	244.06
282.356	244.06
282.588	281.06
282.819	286.06
283.051	251.06
283.282	241.06
283.513	225.06
283.745	227.06
283.976	243.06
284.207	245.06
284.439	246.06
284.67	247.06
284.901	227.06
285.132	216.06
285.364	231.06
285.595	249.06
285.826	253.06
286.057	231.06
286.288	230.06
286.52	238.06
286.751	245.06
286.982	246.06
287.213	236.06
287.444	270.06
287.675	262.06
287.906	270.06
288.138	257.06
288.369	268.06
288.6	269.06
288.831	265.06
289.062	247.06
289.293	261.06
289.524	262.06
289.755	270.06
289.986	269.06
290.217	251.06
290.448	228.06
290.679	236.06
290.91	250.06
291.141	268.06
291.371	257.06
291.602	258.06
291.833	267.06
292.064	256.06
292.295	251.06
292.526	249.06
292.757	252.06
292.987	248.06
293.218	267.06
293.449	260.06
293.68	255.06
293.91	254.06
294.141	257.06
294.372	263.06
294.603	253.06
294.833	262.06
295.064	267.06
295.295	250.06
295.525	259.06
295.756	257.06
295.987	280.06
296.217	305.06
296.448	321.06
296.679	292.06
296.909	255.06
297.14	249.06
297.37	253.06
297.601	250.06
297.831	267.06
298.062	277.06
298.292	267.06
298.523	268.06
298.753	265.06
298.984	281.06
299.214	265.06
299.445	270.06
299.675	254.06
299.905	305.06
300.136	268.06
300.366	268.06
300.597	277.06
300.827	283.06
301.057	265.06
301.288	290.06
301.518	291.06
301.748	291.06
301.979	267.06
302.209	278.06
302.439	273.06
302.669	291.06
302.9	291.06
303.13	285.06
303.36	286.06
303.59	293.06
303.82	309.06
304.051	297.06
304.281	279.06
304.511	283.06
304.741	277.06
304.971	263.06
305.201	282.06
305.431	269.06
305.661	297.06
305.891	292.06
306.121	293.06
306.352	283.06
306.582	309.06
306.812	279.06
307.042	270.06
307.272	291.06
307.502	293.06
307.731	292.06
307.961	307.06
308.191	287.06
308.421	289.06
308.651	281.06
308.881	315.06
309.111	302.06
309.341	297.06
309.571	328.06
309.8	335.06
310.03	348.06
310.26	342.06
310.49	335.06
310.72	335.06
310.949	369.06
311.179	358.06
311.409	347.06
311.639	353.06
311.868	352.06
312.098	333.06
312.328	366.06
312.557	346.06
312.787	375.06
313.017	382.06
313.246	361.06
313.476	309.06
313.706	341.06
313.935	343.06
314.165	356.06
314.394	349.06
314.624	350.06
314.853	359.06
315.083	348.06
315.312	341.06
315.542	337.06
315.771	340.06
316.001	319.06
316.23	332.06
316.46	329.06
316.689	331.06
316.919	333.06
317.148	339.06
317.377	362.06
317.607	337.06
317.836	337.06
318.065	334.06
318.295	337.06
318.524	348.06
318.753	331.06
318.983	330.06
319.212	313.06
319.441	366.06
319.67	357.06
319.9	351.06
320.129	335.06
320.358	330.06
320.587	340.06
320.816	360.06
321.046	364.06
321.275	376.06
321.504	371.06
321.733	368.06
321.962	370.06
322.191	405.06
322.42	405.06
322.649	412.06
322.878	421.06
323.108	420.06
323.337	439.06
323.566	485.06
323.795	498.06
324.024	573.06
324.253	687.06
324.482	1034.06
324.71	1539.06
324.939	2238.06
325.168	1953.06
325.397	991.06
325.626	649.06
325.855	552.06
326.084	487.06
326.313	488.06
326.542	497.06
326.77	539.06
326.999	653.06
327.228	899.06
327.457	1406.06
327.686	1681.06
327.914	1137.06
328.143	731.06
328.372	635.06
328.6	568.06
328.829	563.06
329.058	538.06
329.287	573.06
329.515	533.06
329.744	485.06
329.972	477.06
330.201	483.06
330.43	553.06
330.658	567.06
330.887	631.06
331.115	630.06
331.344	511.06
331.572	477.06
331.801	486.06
332.03	467.06
332.258	443.06
332.486	392.06
332.715	398.06
332.943	405.06
333.172	409.06
333.4	408.06
333.629	405.06
333.857	418.06
334.085	412.06
334.314	441.06
334.542	461.06
334.771	481.06
334.999	438.06
335.227	421.06
335.455	399.06
335.684	403.06
335.912	386.06
336.14	387.06
336.369	401.06
336.597	385.06
336.825	399.06
337.053	407.06
337.281	390.06
337.51	403.06
337.738	395.06
337.966	381.06
338.194	412.06
338.422	399.06
338.65	400.06
338.878	374.06
339.106	380.06
339.334	403.06
339.562	395.06
339.79	385.06
340.018	400.06
340.246	397.06
340.474	379.06
340.702	400.06
340.93	418.06
341.158	377.06
341.386	387.06
341.614	378.06
341.842	379.06
342.07	403.06
342.298	366.06
342.526	370.06
342.754	378.06
342.981	376.06
343.209	374.06
343.437	382.06
343.665	376.06
343.893	393.06
344.12	395.06
344.348	387.06
344.576	385.06
344.804	405.06
345.031	395.06
345.259	417.06
345.487	419.06
345.714	408.06
345.942	381.06
346.17	387.06
346.397	366.06
346.625	389.06
346.853	387.06
347.08	382.06
347.308	395.06
347.535	363.06
347.763	388.06
347.99	387.06
348.218	408.06
348.445	443.06
348.673	381.06
348.9	384.06
349.128	386.06
349.355	375.06
349.583	371.06
349.81	381.06
350.037	361.06
350.265	354.06
350.492	372.06
350.72	383.06
350.947	376.06
351.174	380.06
351.402	386.06
351.629	387.06
351.856	402.06
352.083	394.06
352.311	428.06
352.538	425.06
352.765	395.06
352.992	398.06
353.22	395.06
353.447	381.06
353.674	378.06
353.901	385.06
354.128	364.06
354.355	355.06
354.583	364.06
354.81	375.06
355.037	368.06
355.264	375.06
355.491	365.06
355.718	348.06
355.945	348.06
356.172	346.06
356.399	345.06
356.626	371.06
356.853	355.06
357.08	352.06
357.307	362.06
357.534	364.06
357.761	340.06
357.988	361.06
358.215	358.06
358.441	372.06
358.668	371.06
358.895	391.06
359.122	365.06
359.349	385.06
359.576	411.06
359.802	421.06
360.029	448.06
360.256	445.06
360.483	454.06
360.709	403.06
360.936	395.06
361.163	389.06
361.39	403.06
361.616	381.06
361.843	390.06
362.07	395.06
362.296	410.06
362.523	406.06
362.749	422.06
362.976	391.06
363.203	387.06
363.429	378.06
363.656	391.06
363.882	380.06
364.109	367.06
364.335	364.06
364.562	379.06
364.788	381.06
365.015	360.06
365.241	369.06
365.468	389.06
365.694	380.06
365.92	375.06
366.147	373.06
366.373	394.06
366.599	388.06
366.826	372.06
367.052	379.06
367.278	368.06
367.505	386.06
367.731	380.06
367.957	365.06
368.184	385.06
368.41	385.06
368.636	374.06
368.862	385.06
369.089	401.06
369.315	366.06
369.541	371.06
369.767	357.06
369.993	354.06
370.219	379.06
370.445	377.06
370.672	384.06
370.898	382.06
371.124	379.06
371.35	380.06
371.576	394.06
371.802	349.06
372.028	374.06
372.254	367.06
372.48	397.06
372.706	371.06
372.932	378.06
373.158	386.06
373.384	393.06
373.61	379.06
373.835	390.06
374.061	386.06
374.287	374.06
374.513	381.06
374.739	375.06
374.965	389.06
375.191	385.06
375.416	391.06
375.642	395.06
375.868	397.06
376.094	372.06
376.319	366.06
376.545	367.06
376.771	381.06
376.997	346.06
377.222	367.06
377.448	365.06
377.674	356.06
377.899	381.06
378.125	374.06
378.35	381.06
378.576	366.06
378.802	362.06
379.027	379.06
379.253	375.06
379.478	372.06
379.704	378.06
379.929	374.06
380.155	370.06
380.38	364.06
380.606	381.06
380.831	369.06
381.057	389.06
381.282	367.06
381.507	383.06
381.733	381.06
381.958	382.06
382.184	380.06
382.409	370.06
382.634	376.06
382.86	384.06
383.085	407.06
383.31	384.06
383.535	398.06
383.761	398.06
383.986	393.06
384.211	381.06
384.436	396.06
384.662	392.06
384.887	415.06
385.112	411.06
385.337	392.06
385.562	397.06
385.787	431.06
386.013	422.06
386.238	399.06
386.463	409.06
386.688	400.06
386.913	431.06
387.138	391.06
387.363	396.06
387.588	391.06
387.813	422.06
388.038	389.06
388.263	395.06
388.488	400.06
388.713	399.06
388.938	411.06
389.163	416.06
389.387	411.06
389.612	407.06
389.837	393.06
390.062	396.06
390.287	403.06
390.512	403.06
390.736	395.06
390.961	400.06
391.186	419.06
391.411	403.06
391.636	402.06
391.86	393.06
392.085	405.06
392.31	409.06
392.534	414.06
392.759	410.06
392.984	411.06
393.208	419.06
393.433	443.06
393.658	437.06
393.882	423.06
394.107	406.06
394.331	411.06
394.556	421.06
394.78	398.06
395.005	394.06
395.229	392.06
395.454	407.06
395.678	403.06
395.903	430.06
396.127	444.06
396.352	449.06
396.576	434.06
396.801	437.06
397.025	443.06
397.249	435.06
397.474	415.06
397.698	437.06
397.922	444.06
398.147	458.06
398.371	466.06
398.595	439.06
398.82	450.06
399.044	441.06
399.268	467.06
399.492	495.06
399.717	511.06
399.941	507.06
400.165	532.06
400.389	572.06
400.613	516.06
400.837	493.06
401.062	481.06
401.286	477.06
401.51	485.06
401.734	482.06
401.958	459.06
402.182	466.06
402.406	487.06
402.63	471.06
402.854	472.06
403.078	467.06
403.302	484.06
403.526	484.06
403.75	491.06
403.974	489.06
404.198	463.06
404.422	478.06
404.645	503.06
404.869	517.06
405.093	533.06
405.317	552.06
405.541	590.06
405.765	540.06
405.988	520.06
406.212	503.06
406.436	535.06
406.66	565.06
406.883	544.06
407.107	549.06
407.331	582.06
407.555	661.06
407.778	648.06
408.002	592.06
408.226	549.06
408.449	526.06
408.673	552.06
408.896	583.06
409.12	610.06
409.344	581.06
409.567	513.06
409.791	510.06
410.014	492.06
410.238	491.06
410.461	517.06
410.685	507.06
410.908	510.06
411.132	542.06
411.355	585.06
411.578	559.06
411.802	506.06
412.025	489.06
412.249	472.06
412.472	497.06
412.695	555.06
412.919	531.06
413.142	487.06
413.365	498.06
413.589	484.06
413.812	485.06
414.035	489.06
414.258	452.06
414.482	454.06
414.705	451.06
414.928	451.06
415.151	451.06
415.374	468.06
415.597	454.06
415.821	447.06
416.044	460.06
416.267	471.06
416.49	458.06
416.713	460.06
416.936	458.06
417.159	462.06
417.382	475.06
417.605	482.06
417.828	484.06
418.051	511.06
418.274	499.06
418.497	491.06
418.72	493.06
418.943	461.06
419.166	482.06
419.389	489.06
419.611	472.06
419.834	502.06
420.057	497.06
420.28	511.06
420.503	498.06
420.726	501.06
420.948	517.06
421.171	534.06
421.394	579.06
421.617	512.06
421.839	501.06
422.062	505.06
422.285	520.06
422.507	556.06
422.73	638.06
422.953	644.06
423.175	567.06
423.398	522.06
423.621	522.06
423.843	562.06
424.066	542.06
424.288	553.06
424.511	573.06
424.733	630.06
424.956	713.06
425.178	680.06
425.401	659.06
425.623	694.06
425.846	593.06
426.068	565.06
426.291	551.06
426.513	552.06
426.735	579.06
426.958	625.06
427.18	682.06
427.402	827.06
427.625	912.06
427.847	817.06
428.069	713.06
428.292	629.06
428.514	563.06
428.736	550.06
428.958	527.06
429.181	506.06
429.403	531.06
429.625	505.06
429.847	553.06
430.069	630.06
430.292	625.06
430.514	537.06
430.736	518.06
430.958	512.06
431.18	486.06
431.402	499.06
431.624	465.06
431.846	465.06
432.068	475.06
432.29	479.06
432.512	473.06
432.734	482.06
432.956	485.06
433.178	522.06
433.4	492.06
433.622	493.06
433.844	454.06
434.066	482.06
434.287	476.06
434.509	479.06
434.731	483.06
434.953	473.06
435.175	524.06
435.397	556.06
435.618	581.06
435.84	590.06
436.062	694.06
436.284	761.06
436.505	646.06
436.727	584.06
436.949	551.06
437.17	524.06
437.392	505.06
437.614	543.06
437.835	585.06
438.057	675.06
438.278	801.06
438.5	790.06
438.721	822.06
438.943	807.06
439.165	661.06
439.386	595.06
439.608	578.06
439.829	562.06
440.05	595.06
440.272	656.06
440.493	607.06
440.715	562.06
440.936	530.06
441.158	517.06
441.379	538.06
441.6	544.06
441.822	561.06
442.043	633.06
442.264	691.06
442.486	719.06
442.707	610.06
442.928	581.06
443.149	604.06
443.371	643.06
443.592	664.06
443.813	757.06
444.034	798.06
444.255	674.06
444.476	574.06
444.698	554.06
444.919	531.06
445.14	669.06
445.361	609.06
445.582	612.06
445.803	653.06
446.024	759.06
446.245	771.06
446.466	732.06
446.687	636.06
446.908	585.06
447.129	562.06
447.35	541.06
447.571	511.06
447.792	501.06
448.013	535.06
448.234	537.06
448.455	594.06
448.675	717.06
448.896	830.06
449.117	710.06
449.338	663.06
449.559	781.06
449.779	861.06
450	692.06
450.221	591.06
450.442	515.06
450.662	524.06
450.883	528.06
451.104	552.06
451.324	524.06
451.545	504.06
451.766	481.06
451.986	451.06
452.207	479.06
452.428	459.06
452.648	466.06
452.869	472.06
453.089	466.06
453.31	506.06
453.53	456.06
453.751	470.06
453.971	476.06
454.192	492.06
454.412	487.06
454.633	472.06
454.853	466.06
455.073	462.06
455.294	502.06
455.514	577.06
455.734	538.06
455.955	463.06
456.175	438.06
456.395	433.06
456.616	419.06
456.836	425.06
457.056	434.06
457.276	422.06
457.497	427.06
457.717	440.06
457.937	430.06
458.157	433.06
458.377	472.06
458.598	481.06
458.818	525.06
459.038	661.06
459.258	631.06
459.478	546.06
459.698	507.06
459.918	453.06
460.138	477.06
460.358	445.06
460.578	478.06
460.798	479.06
461.018	480.06
461.238	481.06
461.458	471.06
461.678	469.06
461.898	456.06
462.118	464.06
462.338	485.06
462.558	493.06
462.777	499.06
462.997	485.06
463.217	517.06
463.437	511.06
463.657	481.06
463.876	482.06
464.096	511.06
464.316	503.06
464.536	493.06
464.755	520.06
464.975	527.06
465.195	598.06
465.414	702.06
465.634	580.06
465.854	523.06
466.073	511.06
466.293	486.06
466.512	476.06
466.732	462.06
466.951	458.06
467.171	474.06
467.391	463.06
467.61	484.06
467.829	489.06
468.049	485.06
468.268	478.06
468.488	467.06
468.707	466.06
468.927	471.06
469.146	469.06
469.365	436.06
469.585	472.06
469.804	498.06
470.023	494.06
470.243	485.06
470.462	488.06
470.681	494.06
470.901	498.06
471.12	478.06
471.339	489.06
471.558	487.06
471.777	477.06
471.997	458.06
472.216	481.06
472.435	507.06
472.654	501.06
472.873	478.06
473.092	472.06
473.311	473.06
473.53	489.06
473.749	500.06
473.968	551.06
474.187	661.06
474.406	648.06
474.625	540.06
474.844	507.06
475.063	484.06
475.282	474.06
475.501	487.06
475.72	495.06
475.939	497.06
476.158	514.06
476.377	471.06
476.596	499.06
476.814	491.06
477.033	510.06
477.252	526.06
477.471	508.06
477.69	523.06
477.908	524.06
478.127	524.06
478.346	529.06
478.564	524.06
478.783	538.06
479.002	544.06
479.22	545.06
479.439	573.06
479.658	582.06
479.876	573.06
480.095	595.06
480.313	603.06
480.532	574.06
480.751	587.06
480.969	613.06
481.188	649.06
481.406	698.06
481.624	613.06
481.843	594.06
482.061	575.06
482.28	583.06
482.498	565.06
482.717	580.06
482.935	570.06
483.153	576.06
483.372	572.06
483.59	580.06
483.808	544.06
484.027	571.06
484.245	585.06
484.463	581.06
484.681	598.06
484.9	572.06
485.118	578.06
485.336	587.06
485.554	587.06
485.772	565.06
485.99	574.06
486.209	594.06
486.427	588.06
486.645	586.06
486.863	633.06
487.081	641.06
487.299	610.06
487.517	610.06
487.735	584.06
487.953	641.06
488.171	640.06
488.389	643.06
488.607	615.06
488.825	597.06
489.043	597.06
489.261	665.06
489.479	605.06
489.696	647.06
489.914	665.06
490.132	635.06
490.35	641.06
490.568	645.06
490.786	674.06
491.003	675.06
491.221	690.06
491.439	693.06
491.657	700.06
491.874	695.06
492.092	731.06
492.31	719.06
492.527	732.06
492.745	717.06
492.963	732.06
493.18	740.06
493.398	747.06
493.615	750.06
493.833	747.06
494.05	743.06
494.268	723.06
494.485	741.06
494.703	741.06
494.92	773.06
495.138	746.06
495.355	748.06
495.573	765.06
495.79	753.06
496.008	763.06
496.225	777.06
496.442	758.06
496.66	778.06
496.877	761.06
497.094	757.06
497.312	727.06
497.529	748.06
497.746	758.06
497.963	795.06
498.181	799.06
498.398	795.06
498.615	829.06
498.832	810.06
499.049	833.06
499.267	851.06
499.484	857.06
499.701	840.06
499.918	859.06
500.135	899.06
500.352	942.06
500.569	932.06
500.786	933.06
501.003	886.06
501.22	915.06
501.437	882.06
501.654	886.06
