Data from 1971.PennyLincolnUp.Lamp.En5.5.200Scan.071719.P1._HRD10591_15-20-54-843.txt Node
Date: Thu Jul 18 15:20:54 EDT 2019
User: cochatt
Spectrometer: HR+D1059
Trigger mode: 1
Integration Time (sec): 1.000000E-1
Scans to average: 1
Electric dark correction enabled: true
Nonlinearity correction enabled: false
Boxcar width: 0
XAxis mode: Wavelengths
Number of Pixels in Spectrum: 2048
>>>>>Begin Spectral Data<<<<<
223.165	-6.62
223.4	-6.62
223.635	-6.62
223.869	-12.62
224.104	-10.62
224.338	-8.62
224.573	-26.62
224.808	-7.62
225.042	-7.62
225.277	-21.62
225.511	-3.62
225.746	2.38
225.98	-6.62
226.215	22.38
226.449	19.38
226.683	8.38
226.918	26.38
227.152	33.38
227.387	29.38
227.621	53.38
227.856	39.38
228.09	57.38
228.324	43.38
228.559	56.38
228.793	63.38
229.027	84.38
229.262	95.38
229.496	116.38
229.73	134.38
229.964	150.38
230.199	122.38
230.433	110.38
230.667	117.38
230.901	108.38
231.136	107.38
231.37	93.38
231.604	116.38
231.838	120.38
232.072	113.38
232.306	113.38
232.541	117.38
232.775	111.38
233.009	111.38
233.243	107.38
233.477	104.38
233.711	113.38
233.945	112.38
234.179	118.38
234.413	114.38
234.647	108.38
234.881	119.38
235.115	107.38
235.349	107.38
235.583	119.38
235.817	112.38
236.051	139.38
236.285	123.38
236.519	115.38
236.753	135.38
236.987	146.38
237.221	173.38
237.455	211.38
237.689	168.38
237.922	138.38
238.156	118.38
238.39	121.38
238.624	130.38
238.858	126.38
239.091	133.38
239.325	118.38
239.559	111.38
239.793	127.38
240.027	139.38
240.26	131.38
240.494	149.38
240.728	160.38
240.961	153.38
241.195	155.38
241.429	142.38
241.662	133.38
241.896	129.38
242.13	126.38
242.363	127.38
242.597	137.38
242.83	144.38
243.064	140.38
243.298	145.38
243.531	135.38
243.765	151.38
243.998	146.38
244.232	131.38
244.465	143.38
244.699	153.38
244.932	153.38
245.166	143.38
245.399	145.38
245.633	155.38
245.866	146.38
246.099	166.38
246.333	155.38
246.566	169.38
246.8	142.38
247.033	153.38
247.266	157.38
247.5	158.38
247.733	158.38
247.966	172.38
248.2	185.38
248.433	173.38
248.666	173.38
248.899	174.38
249.133	202.38
249.366	213.38
249.599	214.38
249.832	193.38
250.066	174.38
250.299	197.38
250.532	185.38
250.765	213.38
250.998	220.38
251.231	225.38
251.465	207.38
251.698	213.38
251.931	210.38
252.164	193.38
252.397	214.38
252.63	213.38
252.863	212.38
253.096	231.38
253.329	228.38
253.562	225.38
253.795	226.38
254.028	210.38
254.261	226.38
254.494	231.38
254.727	266.38
254.96	294.38
255.193	288.38
255.426	255.38
255.659	257.38
255.892	249.38
256.124	237.38
256.357	250.38
256.59	219.38
256.823	224.38
257.056	212.38
257.289	214.38
257.521	225.38
257.754	232.38
257.987	215.38
258.22	227.38
258.452	211.38
258.685	241.38
258.918	218.38
259.151	213.38
259.383	219.38
259.616	223.38
259.849	225.38
260.081	231.38
260.314	257.38
260.547	285.38
260.779	256.38
261.012	259.38
261.244	243.38
261.477	245.38
261.71	235.38
261.942	229.38
262.175	262.38
262.407	227.38
262.64	234.38
262.872	211.38
263.105	232.38
263.337	203.38
263.57	199.38
263.802	217.38
264.035	215.38
264.267	217.38
264.499	223.38
264.732	234.38
264.964	231.38
265.197	217.38
265.429	223.38
265.661	220.38
265.894	229.38
266.126	232.38
266.358	228.38
266.591	229.38
266.823	251.38
267.055	231.38
267.287	263.38
267.52	234.38
267.752	231.38
267.984	246.38
268.216	243.38
268.448	254.38
268.681	242.38
268.913	244.38
269.145	286.38
269.377	292.38
269.609	290.38
269.841	285.38
270.073	280.38
270.306	315.38
270.538	325.38
270.77	342.38
271.002	314.38
271.234	285.38
271.466	317.38
271.698	313.38
271.93	347.38
272.162	327.38
272.394	343.38
272.626	301.38
272.858	303.38
273.09	302.38
273.322	279.38
273.553	270.38
273.785	269.38
274.017	264.38
274.249	291.38
274.481	293.38
274.713	269.38
274.945	289.38
275.176	284.38
275.408	277.38
275.64	268.38
275.872	274.38
276.104	284.38
276.335	272.38
276.567	271.38
276.799	289.38
277.031	297.38
277.262	330.38
277.494	335.38
277.726	315.38
277.957	313.38
278.189	291.38
278.421	283.38
278.652	298.38
278.884	286.38
279.115	296.38
279.347	300.38
279.579	314.38
279.81	279.38
280.042	284.38
280.273	269.38
280.505	280.38
280.736	270.38
280.968	277.38
281.199	268.38
281.431	283.38
281.662	285.38
281.894	276.38
282.125	269.38
282.356	291.38
282.588	314.38
282.819	296.38
283.051	302.38
283.282	284.38
283.513	289.38
283.745	296.38
283.976	297.38
284.207	290.38
284.439	295.38
284.67	291.38
284.901	292.38
285.132	282.38
285.364	289.38
285.595	292.38
285.826	278.38
286.057	293.38
286.288	281.38
286.52	298.38
286.751	279.38
286.982	296.38
287.213	299.38
287.444	299.38
287.675	305.38
287.906	323.38
288.138	323.38
288.369	307.38
288.6	326.38
288.831	300.38
289.062	283.38
289.293	305.38
289.524	297.38
289.755	286.38
289.986	282.38
290.217	287.38
290.448	291.38
290.679	296.38
290.91	308.38
291.141	277.38
291.371	299.38
291.602	308.38
291.833	301.38
292.064	313.38
292.295	293.38
292.526	307.38
292.757	298.38
292.987	281.38
293.218	309.38
293.449	292.38
293.68	304.38
293.91	290.38
294.141	285.38
294.372	328.38
294.603	317.38
294.833	302.38
295.064	281.38
295.295	286.38
295.525	311.38
295.756	327.38
295.987	303.38
296.217	337.38
296.448	359.38
296.679	318.38
296.909	313.38
297.14	313.38
297.37	301.38
297.601	310.38
297.831	308.38
298.062	309.38
298.292	291.38
298.523	325.38
298.753	327.38
298.984	322.38
299.214	344.38
299.445	316.38
299.675	324.38
299.905	328.38
300.136	324.38
300.366	330.38
300.597	315.38
300.827	352.38
301.057	329.38
301.288	354.38
301.518	325.38
301.748	333.38
301.979	315.38
302.209	328.38
302.439	342.38
302.669	350.38
302.9	361.38
303.13	331.38
303.36	352.38
303.59	333.38
303.82	335.38
304.051	335.38
304.281	343.38
304.511	327.38
304.741	342.38
304.971	333.38
305.201	342.38
305.431	334.38
305.661	357.38
305.891	328.38
306.121	339.38
306.352	346.38
306.582	355.38
306.812	369.38
307.042	347.38
307.272	333.38
307.502	340.38
307.731	346.38
307.961	341.38
308.191	362.38
308.421	358.38
308.651	350.38
308.881	358.38
309.111	361.38
309.341	365.38
309.571	371.38
309.8	373.38
310.03	389.38
310.26	393.38
310.49	367.38
310.72	395.38
310.949	414.38
311.179	403.38
311.409	407.38
311.639	393.38
311.868	379.38
312.098	382.38
312.328	414.38
312.557	398.38
312.787	414.38
313.017	413.38
313.246	393.38
313.476	390.38
313.706	398.38
313.935	404.38
314.165	403.38
314.394	402.38
314.624	427.38
314.853	404.38
315.083	408.38
315.312	399.38
315.542	375.38
315.771	387.38
316.001	374.38
316.23	380.38
316.46	395.38
316.689	394.38
316.919	384.38
317.148	395.38
317.377	398.38
317.607	395.38
317.836	398.38
318.065	394.38
318.295	386.38
318.524	382.38
318.753	393.38
318.983	408.38
319.212	377.38
319.441	389.38
319.67	390.38
319.9	415.38
320.129	388.38
320.358	395.38
320.587	395.38
320.816	395.38
321.046	403.38
321.275	402.38
321.504	441.38
321.733	431.38
321.962	435.38
322.191	429.38
322.42	449.38
322.649	452.38
322.878	463.38
323.108	459.38
323.337	469.38
323.566	508.38
323.795	531.38
324.024	567.38
324.253	720.38
324.482	977.38
324.71	1545.38
324.939	2005.38
325.168	1711.38
325.397	927.38
325.626	638.38
325.855	531.38
326.084	490.38
326.313	487.38
326.542	490.38
326.77	556.38
326.999	673.38
327.228	918.38
327.457	1287.38
327.686	1487.38
327.914	998.38
328.143	674.38
328.372	636.38
328.6	584.38
328.829	575.38
329.058	584.38
329.287	559.38
329.515	533.38
329.744	520.38
329.972	491.38
330.201	528.38
330.43	569.38
330.658	569.38
330.887	577.38
331.115	572.38
331.344	507.38
331.572	478.38
331.801	502.38
332.03	498.38
332.258	462.38
332.486	485.38
332.715	454.38
332.943	463.38
333.172	466.38
333.4	475.38
333.629	455.38
333.857	470.38
334.085	494.38
334.314	500.38
334.542	509.38
334.771	515.38
334.999	459.38
335.227	467.38
335.455	452.38
335.684	443.38
335.912	451.38
336.14	449.38
336.369	444.38
336.597	446.38
336.825	470.38
337.053	431.38
337.281	430.38
337.51	459.38
337.738	449.38
337.966	448.38
338.194	424.38
338.422	450.38
338.65	418.38
338.878	417.38
339.106	420.38
339.334	422.38
339.562	442.38
339.79	443.38
340.018	417.38
340.246	429.38
340.474	442.38
340.702	413.38
340.93	427.38
341.158	422.38
341.386	428.38
341.614	414.38
341.842	411.38
342.07	419.38
342.298	423.38
342.526	406.38
342.754	391.38
342.981	407.38
343.209	401.38
343.437	412.38
343.665	421.38
343.893	419.38
344.12	439.38
344.348	442.38
344.576	418.38
344.804	453.38
345.031	445.38
345.259	436.38
345.487	441.38
345.714	426.38
345.942	430.38
346.17	386.38
346.397	399.38
346.625	399.38
346.853	410.38
347.08	398.38
347.308	414.38
347.535	414.38
347.763	407.38
347.99	391.38
348.218	406.38
348.445	425.38
348.673	417.38
348.9	397.38
349.128	384.38
349.355	393.38
349.583	375.38
349.81	395.38
350.037	394.38
350.265	396.38
350.492	387.38
350.72	387.38
350.947	378.38
351.174	416.38
351.402	407.38
351.629	415.38
351.856	398.38
352.083	400.38
352.311	392.38
352.538	417.38
352.765	440.38
352.992	404.38
353.22	414.38
353.447	417.38
353.674	405.38
353.901	368.38
354.128	383.38
354.355	360.38
354.583	358.38
354.81	364.38
355.037	352.38
355.264	388.38
355.491	367.38
355.718	385.38
355.945	379.38
356.172	378.38
356.399	365.38
356.626	367.38
356.853	368.38
357.08	359.38
357.307	373.38
357.534	373.38
357.761	360.38
357.988	378.38
358.215	382.38
358.441	370.38
358.668	377.38
358.895	387.38
359.122	390.38
359.349	385.38
359.576	385.38
359.802	417.38
360.029	418.38
360.256	424.38
360.483	425.38
360.709	413.38
360.936	407.38
361.163	398.38
361.39	404.38
361.616	406.38
361.843	384.38
362.07	398.38
362.296	382.38
362.523	383.38
362.749	391.38
362.976	386.38
363.203	383.38
363.429	370.38
363.656	381.38
363.882	370.38
364.109	373.38
364.335	384.38
364.562	377.38
364.788	372.38
365.015	377.38
365.241	373.38
365.468	383.38
365.694	395.38
365.92	385.38
366.147	383.38
366.373	373.38
366.599	364.38
366.826	349.38
367.052	371.38
367.278	365.38
367.505	375.38
367.731	390.38
367.957	370.38
368.184	381.38
368.41	395.38
368.636	383.38
368.862	364.38
369.089	373.38
369.315	362.38
369.541	358.38
369.767	381.38
369.993	349.38
370.219	365.38
370.445	369.38
370.672	366.38
370.898	372.38
371.124	356.38
371.35	341.38
371.576	369.38
371.802	361.38
372.028	364.38
372.254	369.38
372.48	362.38
372.706	360.38
372.932	365.38
373.158	351.38
373.384	370.38
373.61	361.38
373.835	365.38
374.061	354.38
374.287	351.38
374.513	369.38
374.739	357.38
374.965	371.38
375.191	358.38
375.416	379.38
375.642	357.38
375.868	371.38
376.094	379.38
376.319	375.38
376.545	364.38
376.771	359.38
376.997	350.38
377.222	331.38
377.448	359.38
377.674	348.38
377.899	349.38
378.125	342.38
378.35	362.38
378.576	347.38
378.802	341.38
379.027	356.38
379.253	361.38
379.478	376.38
379.704	356.38
379.929	355.38
380.155	347.38
380.38	330.38
380.606	349.38
380.831	361.38
381.057	357.38
381.282	360.38
381.507	355.38
381.733	354.38
381.958	362.38
382.184	359.38
382.409	359.38
382.634	364.38
382.86	369.38
383.085	371.38
383.31	373.38
383.535	366.38
383.761	364.38
383.986	365.38
384.211	360.38
384.436	361.38
384.662	380.38
384.887	371.38
385.112	374.38
385.337	363.38
385.562	374.38
385.787	376.38
386.013	391.38
386.238	398.38
386.463	389.38
386.688	377.38
386.913	359.38
387.138	375.38
387.363	377.38
387.588	383.38
387.813	391.38
388.038	366.38
388.263	362.38
388.488	383.38
388.713	365.38
388.938	385.38
389.163	386.38
389.387	371.38
389.612	376.38
389.837	372.38
390.062	372.38
390.287	383.38
390.512	349.38
390.736	357.38
390.961	375.38
391.186	372.38
391.411	376.38
391.636	370.38
391.86	383.38
392.085	385.38
392.31	394.38
392.534	386.38
392.759	393.38
392.984	378.38
393.208	354.38
393.433	369.38
393.658	371.38
393.882	383.38
394.107	380.38
394.331	369.38
394.556	353.38
394.78	377.38
395.005	385.38
395.229	374.38
395.454	392.38
395.678	395.38
395.903	400.38
396.127	409.38
396.352	407.38
396.576	396.38
396.801	378.38
397.025	379.38
397.249	387.38
397.474	407.38
397.698	415.38
397.922	423.38
398.147	433.38
398.371	439.38
398.595	398.38
398.82	412.38
399.044	422.38
399.268	420.38
399.492	458.38
399.717	467.38
399.941	475.38
400.165	492.38
400.389	513.38
400.613	470.38
400.837	445.38
401.062	422.38
401.286	397.38
401.51	438.38
401.734	421.38
401.958	427.38
402.182	409.38
402.406	419.38
402.63	423.38
402.854	439.38
403.078	430.38
403.302	420.38
403.526	419.38
403.75	413.38
403.974	446.38
404.198	420.38
404.422	441.38
404.645	427.38
404.869	449.38
405.093	476.38
405.317	488.38
405.541	505.38
405.765	479.38
405.988	450.38
406.212	453.38
406.436	487.38
406.66	454.38
406.883	476.38
407.107	494.38
407.331	515.38
407.555	567.38
407.778	557.38
408.002	517.38
408.226	484.38
408.449	468.38
408.673	483.38
408.896	500.38
409.12	523.38
409.344	521.38
409.567	458.38
409.791	437.38
410.014	448.38
410.238	432.38
410.461	430.38
410.685	425.38
410.908	448.38
411.132	488.38
411.355	509.38
411.578	467.38
411.802	447.38
412.025	430.38
412.249	433.38
412.472	444.38
412.695	485.38
412.919	486.38
413.142	425.38
413.365	430.38
413.589	419.38
413.812	413.38
414.035	417.38
414.258	411.38
414.482	390.38
414.705	415.38
414.928	387.38
415.151	408.38
415.374	419.38
415.597	405.38
415.821	401.38
416.044	401.38
416.267	403.38
416.49	407.38
416.713	391.38
416.936	410.38
417.159	401.38
417.382	393.38
417.605	383.38
417.828	410.38
418.051	429.38
418.274	419.38
418.497	414.38
418.72	405.38
418.943	401.38
419.166	406.38
419.389	444.38
419.611	422.38
419.834	425.38
420.057	443.38
420.28	439.38
420.503	435.38
420.726	441.38
420.948	438.38
421.171	470.38
421.394	504.38
421.617	433.38
421.839	426.38
422.062	435.38
422.285	430.38
422.507	502.38
422.73	552.38
422.953	524.38
423.175	476.38
423.398	445.38
423.621	437.38
423.843	469.38
424.066	469.38
424.288	453.38
424.511	469.38
424.733	527.38
424.956	600.38
425.178	579.38
425.401	539.38
425.623	563.38
425.846	506.38
426.068	455.38
426.291	438.38
426.513	448.38
426.735	469.38
426.958	491.38
427.18	564.38
427.402	674.38
427.625	725.38
427.847	636.38
428.069	571.38
428.292	503.38
428.514	451.38
428.736	417.38
428.958	430.38
429.181	417.38
429.403	419.38
429.625	437.38
429.847	451.38
430.069	507.38
430.292	510.38
430.514	423.38
430.736	419.38
430.958	418.38
431.18	397.38
431.402	409.38
431.624	391.38
431.846	375.38
432.068	382.38
432.29	400.38
432.512	406.38
432.734	406.38
432.956	394.38
433.178	409.38
433.4	415.38
433.622	408.38
433.844	404.38
434.066	398.38
434.287	380.38
434.509	387.38
434.731	393.38
434.953	411.38
435.175	427.38
435.397	464.38
435.618	471.38
435.84	500.38
436.062	584.38
436.284	611.38
436.505	513.38
436.727	465.38
436.949	428.38
437.17	430.38
437.392	442.38
437.614	446.38
437.835	459.38
438.057	555.38
438.278	626.38
438.5	618.38
438.721	675.38
438.943	642.38
439.165	529.38
439.386	469.38
439.608	488.38
439.829	463.38
440.05	490.38
440.272	540.38
440.493	514.38
440.715	456.38
440.936	447.38
441.158	433.38
441.379	421.38
441.6	441.38
441.822	450.38
442.043	490.38
442.264	558.38
442.486	592.38
442.707	486.38
442.928	447.38
443.149	462.38
443.371	509.38
443.592	517.38
443.813	618.38
444.034	629.38
444.255	529.38
444.476	492.38
444.698	460.38
444.919	459.38
445.14	539.38
445.361	520.38
445.582	501.38
445.803	548.38
446.024	624.38
446.245	620.38
446.466	575.38
446.687	484.38
446.908	467.38
447.129	447.38
447.35	429.38
447.571	445.38
447.792	408.38
448.013	427.38
448.234	430.38
448.455	474.38
448.675	589.38
448.896	657.38
449.117	577.38
449.338	529.38
449.559	613.38
449.779	686.38
450	567.38
450.221	464.38
450.442	443.38
450.662	399.38
450.883	415.38
451.104	422.38
451.324	423.38
451.545	395.38
451.766	407.38
451.986	379.38
452.207	374.38
452.428	380.38
452.648	361.38
452.869	381.38
453.089	393.38
453.31	396.38
453.53	374.38
453.751	371.38
453.971	362.38
454.192	377.38
454.412	397.38
454.633	377.38
454.853	380.38
455.073	376.38
455.294	404.38
455.514	455.38
455.734	445.38
455.955	383.38
456.175	381.38
456.395	364.38
456.616	350.38
456.836	357.38
457.056	347.38
457.276	353.38
457.497	373.38
457.717	369.38
457.937	349.38
458.157	387.38
458.377	375.38
458.598	373.38
458.818	429.38
459.038	499.38
459.258	499.38
459.478	437.38
459.698	407.38
459.918	397.38
460.138	381.38
460.358	385.38
460.578	395.38
460.798	409.38
461.018	393.38
461.238	402.38
461.458	395.38
461.678	380.38
461.898	398.38
462.118	399.38
462.338	403.38
462.558	396.38
462.777	396.38
462.997	419.38
463.217	405.38
463.437	405.38
463.657	418.38
463.876	401.38
464.096	405.38
464.316	401.38
464.536	411.38
464.755	413.38
464.975	429.38
465.195	460.38
465.414	505.38
465.634	443.38
465.854	405.38
466.073	409.38
466.293	385.38
466.512	393.38
466.732	363.38
466.951	374.38
467.171	382.38
467.391	377.38
467.61	378.38
467.829	389.38
468.049	400.38
468.268	390.38
468.488	354.38
468.707	376.38
468.927	373.38
469.146	375.38
469.365	381.38
469.585	383.38
469.804	341.38
470.023	401.38
470.243	388.38
470.462	387.38
470.681	430.38
470.901	419.38
471.12	397.38
471.339	379.38
471.558	366.38
471.777	399.38
471.997	377.38
472.216	393.38
472.435	401.38
472.654	422.38
472.873	400.38
473.092	407.38
473.311	389.38
473.53	379.38
473.749	400.38
473.968	441.38
474.187	530.38
474.406	544.38
474.625	430.38
474.844	404.38
475.063	389.38
475.282	389.38
475.501	390.38
475.72	401.38
475.939	404.38
476.158	393.38
476.377	391.38
476.596	393.38
476.814	402.38
477.033	393.38
477.252	395.38
477.471	401.38
477.69	421.38
477.908	407.38
478.127	415.38
478.346	407.38
478.564	407.38
478.783	445.38
479.002	421.38
479.22	439.38
479.439	438.38
479.658	452.38
479.876	456.38
480.095	456.38
480.313	471.38
480.532	469.38
480.751	467.38
480.969	483.38
481.188	498.38
481.406	544.38
481.624	488.38
481.843	486.38
482.061	453.38
482.28	433.38
482.498	458.38
482.717	450.38
482.935	443.38
483.153	435.38
483.372	436.38
483.59	454.38
483.808	431.38
484.027	440.38
484.245	463.38
484.463	442.38
484.681	430.38
484.9	449.38
485.118	455.38
485.336	469.38
485.554	457.38
485.772	462.38
485.99	422.38
486.209	471.38
486.427	470.38
486.645	464.38
486.863	476.38
487.081	482.38
487.299	477.38
487.517	474.38
487.735	499.38
487.953	470.38
488.171	501.38
488.389	470.38
488.607	457.38
488.825	474.38
489.043	471.38
489.261	492.38
489.479	480.38
489.696	496.38
489.914	492.38
490.132	499.38
490.35	509.38
490.568	524.38
490.786	519.38
491.003	523.38
491.221	539.38
491.439	548.38
491.657	555.38
491.874	567.38
492.092	558.38
492.31	578.38
492.527	551.38
492.745	568.38
492.963	583.38
493.18	577.38
493.398	563.38
493.615	568.38
493.833	569.38
494.05	573.38
494.268	577.38
494.485	580.38
494.703	590.38
494.92	559.38
495.138	580.38
495.355	589.38
495.573	575.38
495.79	568.38
496.008	577.38
496.225	572.38
496.442	573.38
496.66	574.38
496.877	559.38
497.094	567.38
497.312	578.38
497.529	575.38
497.746	580.38
497.963	607.38
498.181	578.38
498.398	613.38
498.615	619.38
498.832	620.38
499.049	637.38
499.267	650.38
499.484	654.38
499.701	674.38
499.918	677.38
500.135	738.38
500.352	720.38
500.569	750.38
500.786	744.38
501.003	750.38
501.22	752.38
501.437	705.38
501.654	699.38
501.871	711.38
502.088	681.38
