Data from 1971.PennyLincolnUp.Lamp.En5.5.200Scan.071719.P1._HRD10591_15-20-45-841.txt Node
Date: Thu Jul 18 15:20:45 EDT 2019
User: cochatt
Spectrometer: HR+D1059
Trigger mode: 1
Integration Time (sec): 1.000000E-1
Scans to average: 1
Electric dark correction enabled: true
Nonlinearity correction enabled: false
Boxcar width: 0
XAxis mode: Wavelengths
Number of Pixels in Spectrum: 2048
>>>>>Begin Spectral Data<<<<<
223.165	0.44
223.4	0.44
223.635	0.44
223.869	-9.56
224.104	-10.56
224.338	-8.56
224.573	-16.56
224.808	-11.56
225.042	1.44
225.277	-10.56
225.511	-9.56
225.746	2.44
225.98	2.44
226.215	11.44
226.449	-0.56
226.683	18.44
226.918	19.44
227.152	21.44
227.387	32.44
227.621	27.44
227.856	42.44
228.09	39.44
228.324	46.44
228.559	66.44
228.793	70.44
229.027	97.44
229.262	116.44
229.496	110.44
229.73	106.44
229.964	144.44
230.199	124.44
230.433	113.44
230.667	113.44
230.901	111.44
231.136	95.44
231.37	112.44
231.604	91.44
231.838	112.44
232.072	100.44
232.306	113.44
232.541	118.44
232.775	118.44
233.009	117.44
233.243	106.44
233.477	119.44
233.711	94.44
233.945	119.44
234.179	108.44
234.413	107.44
234.647	118.44
234.881	114.44
235.115	125.44
235.349	110.44
235.583	135.44
235.817	118.44
236.051	116.44
236.285	115.44
236.519	116.44
236.753	143.44
236.987	135.44
237.221	163.44
237.455	230.44
237.689	168.44
237.922	130.44
238.156	129.44
238.39	124.44
238.624	121.44
238.858	123.44
239.091	127.44
239.325	138.44
239.559	143.44
239.793	118.44
240.027	132.44
240.26	135.44
240.494	149.44
240.728	154.44
240.961	144.44
241.195	131.44
241.429	144.44
241.662	134.44
241.896	136.44
242.13	130.44
242.363	128.44
242.597	142.44
242.83	125.44
243.064	123.44
243.298	138.44
243.531	146.44
243.765	158.44
243.998	123.44
244.232	137.44
244.465	135.44
244.699	126.44
244.932	126.44
245.166	148.44
245.399	144.44
245.633	146.44
245.866	151.44
246.099	161.44
246.333	159.44
246.566	158.44
246.8	149.44
247.033	153.44
247.266	143.44
247.5	181.44
247.733	158.44
247.966	180.44
248.2	187.44
248.433	176.44
248.666	183.44
248.899	205.44
249.133	194.44
249.366	211.44
249.599	195.44
249.832	196.44
250.066	215.44
250.299	189.44
250.532	202.44
250.765	224.44
250.998	240.44
251.231	236.44
251.465	224.44
251.698	199.44
251.931	215.44
252.164	213.44
252.397	223.44
252.63	216.44
252.863	220.44
253.096	232.44
253.329	234.44
253.562	239.44
253.795	241.44
254.028	227.44
254.261	227.44
254.494	232.44
254.727	266.44
254.96	274.44
255.193	300.44
255.426	262.44
255.659	240.44
255.892	243.44
256.124	225.44
256.357	253.44
256.59	240.44
256.823	233.44
257.056	217.44
257.289	203.44
257.521	218.44
257.754	228.44
257.987	215.44
258.22	213.44
258.452	213.44
258.685	227.44
258.918	228.44
259.151	215.44
259.383	215.44
259.616	230.44
259.849	234.44
260.081	265.44
260.314	266.44
260.547	266.44
260.779	265.44
261.012	248.44
261.244	240.44
261.477	224.44
261.71	238.44
261.942	254.44
262.175	261.44
262.407	239.44
262.64	240.44
262.872	222.44
263.105	235.44
263.337	230.44
263.57	231.44
263.802	222.44
264.035	208.44
264.267	226.44
264.499	212.44
264.732	242.44
264.964	224.44
265.197	226.44
265.429	242.44
265.661	223.44
265.894	214.44
266.126	230.44
266.358	249.44
266.591	230.44
266.823	253.44
267.055	242.44
267.287	233.44
267.52	232.44
267.752	241.44
267.984	240.44
268.216	249.44
268.448	247.44
268.681	252.44
268.913	248.44
269.145	287.44
269.377	296.44
269.609	298.44
269.841	295.44
270.073	311.44
270.306	329.44
270.538	353.44
270.77	325.44
271.002	337.44
271.234	336.44
271.466	327.44
271.698	334.44
271.93	325.44
272.162	333.44
272.394	347.44
272.626	332.44
272.858	312.44
273.09	302.44
273.322	296.44
273.553	293.44
273.785	278.44
274.017	286.44
274.249	301.44
274.481	287.44
274.713	278.44
274.945	305.44
275.176	295.44
275.408	295.44
275.64	282.44
275.872	297.44
276.104	291.44
276.335	281.44
276.567	285.44
276.799	304.44
277.031	333.44
277.262	329.44
277.494	335.44
277.726	327.44
277.957	291.44
278.189	307.44
278.421	303.44
278.652	282.44
278.884	281.44
279.115	289.44
279.347	286.44
279.579	294.44
279.81	291.44
280.042	281.44
280.273	288.44
280.505	277.44
280.736	293.44
280.968	285.44
281.199	296.44
281.431	274.44
281.662	303.44
281.894	280.44
282.125	293.44
282.356	311.44
282.588	326.44
282.819	306.44
283.051	295.44
283.282	296.44
283.513	308.44
283.745	286.44
283.976	294.44
284.207	283.44
284.439	300.44
284.67	303.44
284.901	276.44
285.132	278.44
285.364	311.44
285.595	283.44
285.826	290.44
286.057	283.44
286.288	297.44
286.52	296.44
286.751	297.44
286.982	293.44
287.213	292.44
287.444	318.44
287.675	315.44
287.906	307.44
288.138	315.44
288.369	323.44
288.6	324.44
288.831	311.44
289.062	317.44
289.293	302.44
289.524	310.44
289.755	295.44
289.986	320.44
290.217	315.44
290.448	316.44
290.679	297.44
290.91	292.44
291.141	306.44
291.371	315.44
291.602	307.44
291.833	311.44
292.064	306.44
292.295	318.44
292.526	325.44
292.757	309.44
292.987	307.44
293.218	320.44
293.449	320.44
293.68	301.44
293.91	329.44
294.141	302.44
294.372	326.44
294.603	309.44
294.833	312.44
295.064	302.44
295.295	316.44
295.525	312.44
295.756	329.44
295.987	329.44
296.217	344.44
296.448	348.44
296.679	317.44
296.909	318.44
297.14	307.44
297.37	303.44
297.601	314.44
297.831	297.44
298.062	299.44
298.292	314.44
298.523	316.44
298.753	320.44
298.984	315.44
299.214	315.44
299.445	316.44
299.675	318.44
299.905	336.44
300.136	346.44
300.366	317.44
300.597	342.44
300.827	343.44
301.057	338.44
301.288	328.44
301.518	345.44
301.748	345.44
301.979	347.44
302.209	345.44
302.439	369.44
302.669	347.44
302.9	324.44
303.13	338.44
303.36	368.44
303.59	350.44
303.82	344.44
304.051	343.44
304.281	323.44
304.511	338.44
304.741	343.44
304.971	336.44
305.201	336.44
305.431	328.44
305.661	318.44
305.891	340.44
306.121	351.44
306.352	368.44
306.582	356.44
306.812	331.44
307.042	335.44
307.272	359.44
307.502	350.44
307.731	338.44
307.961	370.44
308.191	343.44
308.421	357.44
308.651	370.44
308.881	353.44
309.111	360.44
309.341	371.44
309.571	347.44
309.8	390.44
310.03	386.44
310.26	394.44
310.49	382.44
310.72	400.44
310.949	390.44
311.179	385.44
311.409	399.44
311.639	393.44
311.868	385.44
312.098	397.44
312.328	419.44
312.557	426.44
312.787	423.44
313.017	422.44
313.246	415.44
313.476	395.44
313.706	385.44
313.935	418.44
314.165	419.44
314.394	402.44
314.624	425.44
314.853	421.44
315.083	390.44
315.312	416.44
315.542	369.44
315.771	390.44
316.001	376.44
316.23	401.44
316.46	412.44
316.689	405.44
316.919	406.44
317.148	405.44
317.377	400.44
317.607	399.44
317.836	405.44
318.065	403.44
318.295	386.44
318.524	408.44
318.753	374.44
318.983	410.44
319.212	412.44
319.441	397.44
319.67	388.44
319.9	390.44
320.129	393.44
320.358	387.44
320.587	394.44
320.816	411.44
321.046	423.44
321.275	424.44
321.504	408.44
321.733	407.44
321.962	421.44
322.191	440.44
322.42	452.44
322.649	457.44
322.878	455.44
323.108	472.44
323.337	500.44
323.566	504.44
323.795	555.44
324.024	607.44
324.253	730.44
324.482	1009.44
324.71	1579.44
324.939	2104.44
325.168	1769.44
325.397	969.44
325.626	650.44
325.855	548.44
326.084	515.44
326.313	521.44
326.542	534.44
326.77	542.44
326.999	666.44
327.228	928.44
327.457	1358.44
327.686	1526.44
327.914	1050.44
328.143	704.44
328.372	619.44
328.6	596.44
328.829	566.44
329.058	582.44
329.287	587.44
329.515	542.44
329.744	535.44
329.972	528.44
330.201	528.44
330.43	581.44
330.658	591.44
330.887	607.44
331.115	605.44
331.344	513.44
331.572	510.44
331.801	498.44
332.03	514.44
332.258	488.44
332.486	468.44
332.715	468.44
332.943	456.44
333.172	460.44
333.4	472.44
333.629	476.44
333.857	497.44
334.085	484.44
334.314	512.44
334.542	514.44
334.771	503.44
334.999	502.44
335.227	488.44
335.455	455.44
335.684	454.44
335.912	432.44
336.14	463.44
336.369	468.44
336.597	464.44
336.825	469.44
337.053	465.44
337.281	442.44
337.51	451.44
337.738	442.44
337.966	438.44
338.194	438.44
338.422	446.44
338.65	438.44
338.878	440.44
339.106	418.44
339.334	460.44
339.562	440.44
339.79	447.44
340.018	443.44
340.246	446.44
340.474	437.44
340.702	434.44
340.93	444.44
341.158	425.44
341.386	451.44
341.614	442.44
341.842	436.44
342.07	427.44
342.298	409.44
342.526	417.44
342.754	421.44
342.981	414.44
343.209	418.44
343.437	421.44
343.665	425.44
343.893	419.44
344.12	427.44
344.348	431.44
344.576	427.44
344.804	446.44
345.031	433.44
345.259	438.44
345.487	411.44
345.714	429.44
345.942	418.44
346.17	414.44
346.397	420.44
346.625	421.44
346.853	426.44
347.08	403.44
347.308	407.44
347.535	426.44
347.763	412.44
347.99	410.44
348.218	437.44
348.445	433.44
348.673	424.44
348.9	427.44
349.128	416.44
349.355	384.44
349.583	394.44
349.81	398.44
350.037	390.44
350.265	385.44
350.492	408.44
350.72	418.44
350.947	397.44
351.174	400.44
351.402	434.44
351.629	391.44
351.856	426.44
352.083	408.44
352.311	442.44
352.538	422.44
352.765	412.44
352.992	423.44
353.22	393.44
353.447	392.44
353.674	406.44
353.901	392.44
354.128	384.44
354.355	388.44
354.583	383.44
354.81	374.44
355.037	382.44
355.264	392.44
355.491	382.44
355.718	379.44
355.945	382.44
356.172	378.44
356.399	376.44
356.626	369.44
356.853	364.44
357.08	382.44
357.307	372.44
357.534	372.44
357.761	387.44
357.988	391.44
358.215	383.44
358.441	387.44
358.668	374.44
358.895	372.44
359.122	380.44
359.349	377.44
359.576	396.44
359.802	421.44
360.029	450.44
360.256	453.44
360.483	427.44
360.709	417.44
360.936	403.44
361.163	387.44
361.39	406.44
361.616	402.44
361.843	379.44
362.07	387.44
362.296	406.44
362.523	398.44
362.749	393.44
362.976	378.44
363.203	381.44
363.429	384.44
363.656	372.44
363.882	390.44
364.109	376.44
364.335	370.44
364.562	376.44
364.788	370.44
365.015	380.44
365.241	394.44
365.468	410.44
365.694	390.44
365.92	395.44
366.147	376.44
366.373	371.44
366.599	394.44
366.826	394.44
367.052	374.44
367.278	370.44
367.505	374.44
367.731	361.44
367.957	392.44
368.184	392.44
368.41	374.44
368.636	401.44
368.862	405.44
369.089	378.44
369.315	360.44
369.541	364.44
369.767	370.44
369.993	400.44
370.219	366.44
370.445	367.44
370.672	374.44
370.898	364.44
371.124	386.44
371.35	372.44
371.576	384.44
371.802	369.44
372.028	355.44
372.254	359.44
372.48	372.44
372.706	378.44
372.932	374.44
373.158	372.44
373.384	355.44
373.61	356.44
373.835	372.44
374.061	350.44
374.287	372.44
374.513	387.44
374.739	369.44
374.965	374.44
375.191	359.44
375.416	366.44
375.642	371.44
375.868	384.44
376.094	360.44
376.319	355.44
376.545	370.44
376.771	374.44
376.997	362.44
377.222	376.44
377.448	370.44
377.674	357.44
377.899	349.44
378.125	358.44
378.35	358.44
378.576	365.44
378.802	346.44
379.027	378.44
379.253	367.44
379.478	356.44
379.704	360.44
379.929	383.44
380.155	366.44
380.38	356.44
380.606	349.44
380.831	384.44
381.057	363.44
381.282	378.44
381.507	372.44
381.733	366.44
381.958	348.44
382.184	366.44
382.409	378.44
382.634	372.44
382.86	349.44
383.085	378.44
383.31	379.44
383.535	382.44
383.761	382.44
383.986	370.44
384.211	355.44
384.436	384.44
384.662	394.44
384.887	360.44
385.112	373.44
385.337	382.44
385.562	382.44
385.787	376.44
386.013	386.44
386.238	394.44
386.463	362.44
386.688	406.44
386.913	382.44
387.138	373.44
387.363	391.44
387.588	387.44
387.813	378.44
388.038	369.44
388.263	377.44
388.488	371.44
388.713	391.44
388.938	396.44
389.163	396.44
389.387	391.44
389.612	401.44
389.837	386.44
390.062	379.44
390.287	371.44
390.512	376.44
390.736	382.44
390.961	390.44
391.186	382.44
391.411	371.44
391.636	389.44
391.86	386.44
392.085	386.44
392.31	402.44
392.534	373.44
392.759	402.44
392.984	386.44
393.208	391.44
393.433	371.44
393.658	406.44
393.882	386.44
394.107	372.44
394.331	383.44
394.556	390.44
394.78	394.44
395.005	381.44
395.229	380.44
395.454	383.44
395.678	408.44
395.903	395.44
396.127	432.44
396.352	411.44
396.576	396.44
396.801	408.44
397.025	388.44
397.249	383.44
397.474	403.44
397.698	407.44
397.922	414.44
398.147	423.44
398.371	427.44
398.595	415.44
398.82	430.44
399.044	445.44
399.268	452.44
399.492	468.44
399.717	470.44
399.941	496.44
400.165	532.44
400.389	511.44
400.613	483.44
400.837	443.44
401.062	431.44
401.286	416.44
401.51	438.44
401.734	420.44
401.958	425.44
402.182	435.44
402.406	459.44
402.63	445.44
402.854	434.44
403.078	426.44
403.302	450.44
403.526	433.44
403.75	444.44
403.974	454.44
404.198	429.44
404.422	451.44
404.645	453.44
404.869	451.44
405.093	470.44
405.317	512.44
405.541	532.44
405.765	484.44
405.988	468.44
406.212	467.44
406.436	500.44
406.66	482.44
406.883	460.44
407.107	512.44
407.331	543.44
407.555	576.44
407.778	599.44
408.002	547.44
408.226	490.44
408.449	490.44
408.673	481.44
408.896	510.44
409.12	557.44
409.344	517.44
409.567	444.44
409.791	446.44
410.014	455.44
410.238	443.44
410.461	439.44
410.685	442.44
410.908	447.44
411.132	490.44
411.355	506.44
411.578	480.44
411.802	445.44
412.025	441.44
412.249	432.44
412.472	454.44
412.695	495.44
412.919	492.44
413.142	461.44
413.365	435.44
413.589	424.44
413.812	415.44
414.035	415.44
414.258	412.44
414.482	407.44
414.705	416.44
414.928	420.44
415.151	412.44
415.374	419.44
415.597	423.44
415.821	421.44
416.044	417.44
416.267	425.44
416.49	400.44
416.713	405.44
416.936	417.44
417.159	378.44
417.382	415.44
417.605	427.44
417.828	447.44
418.051	441.44
418.274	426.44
418.497	432.44
418.72	420.44
418.943	402.44
419.166	426.44
419.389	446.44
419.611	451.44
419.834	437.44
420.057	448.44
420.28	446.44
420.503	435.44
420.726	448.44
420.948	424.44
421.171	494.44
421.394	502.44
421.617	472.44
421.839	435.44
422.062	425.44
422.285	456.44
422.507	501.44
422.73	572.44
422.953	524.44
423.175	481.44
423.398	447.44
423.621	473.44
423.843	473.44
424.066	474.44
424.288	460.44
424.511	489.44
424.733	543.44
424.956	586.44
425.178	552.44
425.401	575.44
425.623	578.44
425.846	482.44
426.068	470.44
426.291	473.44
426.513	458.44
426.735	471.44
426.958	511.44
427.18	604.44
427.402	698.44
427.625	767.44
427.847	658.44
428.069	598.44
428.292	502.44
428.514	472.44
428.736	433.44
428.958	468.44
429.181	446.44
429.403	441.44
429.625	439.44
429.847	466.44
430.069	525.44
430.292	528.44
430.514	472.44
430.736	449.44
430.958	422.44
431.18	422.44
431.402	406.44
431.624	399.44
431.846	388.44
432.068	392.44
432.29	397.44
432.512	428.44
432.734	420.44
432.956	410.44
433.178	414.44
433.4	426.44
433.622	412.44
433.844	398.44
434.066	370.44
434.287	409.44
434.509	398.44
434.731	407.44
434.953	438.44
435.175	424.44
435.397	456.44
435.618	481.44
435.84	517.44
436.062	596.44
436.284	636.44
436.505	534.44
436.727	469.44
436.949	451.44
437.17	443.44
437.392	434.44
437.614	459.44
437.835	469.44
438.057	542.44
438.278	632.44
438.5	648.44
438.721	688.44
438.943	658.44
439.165	530.44
439.386	503.44
439.608	465.44
439.829	478.44
440.05	493.44
440.272	518.44
440.493	514.44
440.715	458.44
440.936	457.44
441.158	452.44
441.379	435.44
441.6	449.44
441.822	463.44
442.043	498.44
442.264	582.44
442.486	609.44
442.707	519.44
442.928	486.44
443.149	486.44
443.371	514.44
443.592	533.44
443.813	614.44
444.034	649.44
444.255	543.44
444.476	480.44
444.698	484.44
444.919	464.44
445.14	553.44
445.361	514.44
445.582	523.44
445.803	565.44
446.024	670.44
446.245	677.44
446.466	595.44
446.687	506.44
446.908	476.44
447.129	437.44
447.35	440.44
447.571	410.44
447.792	414.44
448.013	446.44
448.234	458.44
448.455	488.44
448.675	596.44
448.896	688.44
449.117	586.44
449.338	549.44
449.559	635.44
449.779	716.44
450	596.44
450.221	487.44
450.442	438.44
450.662	425.44
450.883	444.44
451.104	423.44
451.324	424.44
451.545	406.44
451.766	398.44
451.986	419.44
452.207	388.44
452.428	382.44
452.648	381.44
452.869	389.44
453.089	408.44
453.31	400.44
453.53	383.44
453.751	375.44
453.971	382.44
454.192	388.44
454.412	376.44
454.633	373.44
454.853	383.44
455.073	405.44
455.294	430.44
455.514	459.44
455.734	434.44
455.955	367.44
456.175	374.44
456.395	359.44
456.616	358.44
456.836	382.44
457.056	367.44
457.276	351.44
457.497	362.44
457.717	380.44
457.937	373.44
458.157	375.44
458.377	361.44
458.598	392.44
458.818	438.44
459.038	517.44
459.258	515.44
459.478	425.44
459.698	395.44
459.918	409.44
460.138	395.44
460.358	388.44
460.578	389.44
460.798	395.44
461.018	433.44
461.238	396.44
461.458	382.44
461.678	392.44
461.898	392.44
462.118	392.44
462.338	403.44
462.558	414.44
462.777	423.44
462.997	399.44
463.217	425.44
463.437	418.44
463.657	432.44
463.876	422.44
464.096	410.44
464.316	414.44
464.536	419.44
464.755	412.44
464.975	436.44
465.195	469.44
465.414	501.44
465.634	416.44
465.854	419.44
466.073	421.44
466.293	389.44
466.512	389.44
466.732	399.44
466.951	397.44
467.171	390.44
467.391	378.44
467.61	394.44
467.829	401.44
468.049	395.44
468.268	390.44
468.488	396.44
468.707	359.44
468.927	370.44
469.146	372.44
469.365	395.44
469.585	356.44
469.804	388.44
470.023	396.44
470.243	394.44
470.462	387.44
470.681	410.44
470.901	386.44
471.12	390.44
471.339	395.44
471.558	376.44
471.777	418.44
471.997	386.44
472.216	392.44
472.435	407.44
472.654	417.44
472.873	363.44
473.092	396.44
473.311	400.44
473.53	391.44
473.749	424.44
473.968	458.44
474.187	545.44
474.406	548.44
474.625	458.44
474.844	428.44
475.063	409.44
475.282	415.44
475.501	398.44
475.72	409.44
475.939	391.44
476.158	424.44
476.377	399.44
476.596	424.44
476.814	402.44
477.033	426.44
477.252	422.44
477.471	401.44
477.69	403.44
477.908	437.44
478.127	427.44
478.346	422.44
478.564	414.44
478.783	427.44
479.002	447.44
479.22	440.44
479.439	432.44
479.658	459.44
479.876	458.44
480.095	460.44
480.313	498.44
480.532	481.44
480.751	471.44
480.969	472.44
481.188	519.44
481.406	518.44
481.624	482.44
481.843	477.44
482.061	472.44
482.28	454.44
482.498	452.44
482.717	468.44
482.935	467.44
483.153	459.44
483.372	451.44
483.59	446.44
483.808	463.44
484.027	449.44
484.245	448.44
484.463	459.44
484.681	460.44
484.9	456.44
485.118	475.44
485.336	462.44
485.554	481.44
485.772	455.44
485.99	462.44
486.209	473.44
486.427	475.44
486.645	483.44
486.863	503.44
487.081	503.44
487.299	496.44
487.517	485.44
487.735	479.44
487.953	504.44
488.171	514.44
488.389	494.44
488.607	495.44
488.825	496.44
489.043	513.44
489.261	496.44
489.479	497.44
489.696	492.44
489.914	506.44
490.132	517.44
490.35	532.44
490.568	515.44
490.786	523.44
491.003	531.44
491.221	560.44
491.439	558.44
491.657	528.44
491.874	578.44
492.092	568.44
492.31	567.44
492.527	571.44
492.745	590.44
492.963	568.44
493.18	587.44
493.398	581.44
493.615	606.44
493.833	580.44
494.05	595.44
494.268	591.44
494.485	578.44
494.703	550.44
494.92	580.44
495.138	571.44
495.355	590.44
495.573	616.44
495.79	585.44
496.008	622.44
496.225	586.44
496.442	593.44
496.66	584.44
496.877	574.44
497.094	600.44
497.312	620.44
497.529	587.44
497.746	594.44
497.963	584.44
498.181	616.44
498.398	627.44
498.615	641.44
498.832	630.44
499.049	653.44
499.267	635.44
499.484	660.44
499.701	702.44
499.918	701.44
500.135	734.44
500.352	791.44
500.569	758.44
500.786	772.44
501.003	767.44
501.22	754.44
501.437	726.44
501.654	721.44
501.871	712.44
502.088	697.44
