Data from 1971.PennyLincolnUp.Lamp.En5.5.200Scan.071719.P1.Scan 2. Changed Angle._HRD10591_15-23-44-842.txt Node
Date: Thu Jul 18 15:23:44 EDT 2019
User: cochatt
Spectrometer: HR+D1059
Trigger mode: 1
Integration Time (sec): 1.000000E-1
Scans to average: 1
Electric dark correction enabled: true
Nonlinearity correction enabled: false
Boxcar width: 0
XAxis mode: Wavelengths
Number of Pixels in Spectrum: 2048
>>>>>Begin Spectral Data<<<<<
223.165	-14.06
223.4	-14.06
223.635	-14.06
223.869	-17.06
224.104	-17.06
224.338	-20.06
224.573	-17.06
224.808	-8.06
225.042	-10.06
225.277	-4.06
225.511	-7.06
225.746	6.94
225.98	-2.06
226.215	12.94
226.449	11.94
226.683	24.94
226.918	28.94
227.152	30.94
227.387	50.94
227.621	43.94
227.856	25.94
228.09	49.94
228.324	47.94
228.559	45.94
228.793	87.94
229.027	108.94
229.262	117.94
229.496	122.94
229.73	140.94
229.964	171.94
230.199	144.94
230.433	123.94
230.667	121.94
230.901	122.94
231.136	112.94
231.37	123.94
231.604	124.94
231.838	116.94
232.072	117.94
232.306	116.94
232.541	125.94
232.775	137.94
233.009	115.94
233.243	125.94
233.477	124.94
233.711	120.94
233.945	118.94
234.179	125.94
234.413	128.94
234.647	123.94
234.881	114.94
235.115	119.94
235.349	129.94
235.583	138.94
235.817	113.94
236.051	142.94
236.285	122.94
236.519	123.94
236.753	136.94
236.987	143.94
237.221	187.94
237.455	241.94
237.689	205.94
237.922	151.94
238.156	136.94
238.39	123.94
238.624	143.94
238.858	135.94
239.091	127.94
239.325	125.94
239.559	122.94
239.793	117.94
240.027	140.94
240.26	149.94
240.494	161.94
240.728	163.94
240.961	165.94
241.195	146.94
241.429	147.94
241.662	142.94
241.896	132.94
242.13	138.94
242.363	147.94
242.597	135.94
242.83	144.94
243.064	140.94
243.298	154.94
243.531	137.94
243.765	142.94
243.998	147.94
244.232	151.94
244.465	157.94
244.699	156.94
244.932	155.94
245.166	147.94
245.399	140.94
245.633	157.94
245.866	155.94
246.099	135.94
246.333	152.94
246.566	165.94
246.8	170.94
247.033	157.94
247.266	142.94
247.5	174.94
247.733	177.94
247.966	192.94
248.2	181.94
248.433	175.94
248.666	194.94
248.899	219.94
249.133	217.94
249.366	226.94
249.599	213.94
249.832	204.94
250.066	187.94
250.299	197.94
250.532	214.94
250.765	211.94
250.998	233.94
251.231	259.94
251.465	233.94
251.698	225.94
251.931	219.94
252.164	215.94
252.397	217.94
252.63	206.94
252.863	227.94
253.096	240.94
253.329	241.94
253.562	259.94
253.795	239.94
254.028	218.94
254.261	231.94
254.494	247.94
254.727	275.94
254.96	314.94
255.193	294.94
255.426	273.94
255.659	255.94
255.892	266.94
256.124	256.94
256.357	245.94
256.59	255.94
256.823	246.94
257.056	224.94
257.289	230.94
257.521	232.94
257.754	210.94
257.987	232.94
258.22	227.94
258.452	223.94
258.685	221.94
258.918	202.94
259.151	234.94
259.383	225.94
259.616	227.94
259.849	246.94
260.081	251.94
260.314	265.94
260.547	273.94
260.779	267.94
261.012	271.94
261.244	216.94
261.477	243.94
261.71	231.94
261.942	256.94
262.175	251.94
262.407	231.94
262.64	219.94
262.872	220.94
263.105	202.94
263.337	224.94
263.57	213.94
263.802	200.94
264.035	208.94
264.267	213.94
264.499	209.94
264.732	207.94
264.964	212.94
265.197	221.94
265.429	210.94
265.661	199.94
265.894	195.94
266.126	203.94
266.358	196.94
266.591	207.94
266.823	226.94
267.055	233.94
267.287	226.94
267.52	231.94
267.752	223.94
267.984	227.94
268.216	246.94
268.448	233.94
268.681	235.94
268.913	244.94
269.145	248.94
269.377	297.94
269.609	255.94
269.841	277.94
270.073	280.94
270.306	300.94
270.538	326.94
270.77	345.94
271.002	313.94
271.234	296.94
271.466	330.94
271.698	318.94
271.93	332.94
272.162	309.94
272.394	321.94
272.626	321.94
272.858	319.94
273.09	295.94
273.322	275.94
273.553	264.94
273.785	277.94
274.017	259.94
274.249	271.94
274.481	275.94
274.713	263.94
274.945	272.94
275.176	267.94
275.408	281.94
275.64	252.94
275.872	277.94
276.104	266.94
276.335	268.94
276.567	272.94
276.799	309.94
277.031	295.94
277.262	313.94
277.494	311.94
277.726	311.94
277.957	295.94
278.189	275.94
278.421	270.94
278.652	275.94
278.884	264.94
279.115	276.94
279.347	266.94
279.579	260.94
279.81	268.94
280.042	262.94
280.273	236.94
280.505	269.94
280.736	263.94
280.968	241.94
281.199	248.94
281.431	239.94
281.662	269.94
281.894	253.94
282.125	269.94
282.356	267.94
282.588	287.94
282.819	300.94
283.051	267.94
283.282	261.94
283.513	260.94
283.745	245.94
283.976	273.94
284.207	254.94
284.439	272.94
284.67	260.94
284.901	271.94
285.132	265.94
285.364	266.94
285.595	264.94
285.826	259.94
286.057	267.94
286.288	243.94
286.52	266.94
286.751	271.94
286.982	274.94
287.213	248.94
287.444	273.94
287.675	273.94
287.906	290.94
288.138	298.94
288.369	299.94
288.6	297.94
288.831	265.94
289.062	275.94
289.293	275.94
289.524	260.94
289.755	267.94
289.986	279.94
290.217	275.94
290.448	281.94
290.679	262.94
290.91	270.94
291.141	263.94
291.371	280.94
291.602	275.94
291.833	268.94
292.064	278.94
292.295	266.94
292.526	273.94
292.757	280.94
292.987	261.94
293.218	289.94
293.449	266.94
293.68	269.94
293.91	262.94
294.141	252.94
294.372	288.94
294.603	278.94
294.833	288.94
295.064	301.94
295.295	283.94
295.525	273.94
295.756	283.94
295.987	279.94
296.217	317.94
296.448	325.94
296.679	295.94
296.909	280.94
297.14	269.94
297.37	275.94
297.601	285.94
297.831	277.94
298.062	283.94
298.292	275.94
298.523	273.94
298.753	279.94
298.984	285.94
299.214	288.94
299.445	287.94
299.675	296.94
299.905	291.94
300.136	290.94
300.366	298.94
300.597	287.94
300.827	293.94
301.057	311.94
301.288	315.94
301.518	328.94
301.748	313.94
301.979	332.94
302.209	318.94
302.439	323.94
302.669	311.94
302.9	319.94
303.13	293.94
303.36	315.94
303.59	316.94
303.82	311.94
304.051	319.94
304.281	319.94
304.511	314.94
304.741	316.94
304.971	290.94
305.201	308.94
305.431	317.94
305.661	303.94
305.891	291.94
306.121	311.94
306.352	335.94
306.582	341.94
306.812	317.94
307.042	309.94
307.272	329.94
307.502	318.94
307.731	303.94
307.961	297.94
308.191	305.94
308.421	295.94
308.651	327.94
308.881	316.94
309.111	341.94
309.341	338.94
309.571	353.94
309.8	337.94
310.03	353.94
310.26	347.94
310.49	368.94
310.72	373.94
310.949	384.94
311.179	408.94
311.409	372.94
311.639	375.94
311.868	360.94
312.098	356.94
312.328	388.94
312.557	396.94
312.787	433.94
313.017	403.94
313.246	387.94
313.476	375.94
313.706	370.94
313.935	375.94
314.165	373.94
314.394	381.94
314.624	384.94
314.853	392.94
315.083	360.94
315.312	368.94
315.542	339.94
315.771	346.94
316.001	356.94
316.23	356.94
316.46	378.94
316.689	364.94
316.919	371.94
317.148	391.94
317.377	389.94
317.607	376.94
317.836	347.94
318.065	358.94
318.295	365.94
318.524	369.94
318.753	374.94
318.983	374.94
319.212	361.94
319.441	401.94
319.67	375.94
319.9	379.94
320.129	382.94
320.358	377.94
320.587	373.94
320.816	379.94
321.046	397.94
321.275	392.94
321.504	388.94
321.733	405.94
321.962	388.94
322.191	418.94
322.42	420.94
322.649	452.94
322.878	441.94
323.108	492.94
323.337	485.94
323.566	509.94
323.795	576.94
324.024	637.94
324.253	751.94
324.482	1145.94
324.71	1757.94
324.939	2530.94
325.168	2184.94
325.397	1114.94
325.626	731.94
325.855	601.94
326.084	562.94
326.313	522.94
326.542	539.94
326.77	588.94
326.999	701.94
327.228	998.94
327.457	1538.94
327.686	1855.94
327.914	1278.94
328.143	824.94
328.372	728.94
328.6	675.94
328.829	620.94
329.058	636.94
329.287	639.94
329.515	603.94
329.744	556.94
329.972	567.94
330.201	565.94
330.43	602.94
330.658	622.94
330.887	683.94
331.115	642.94
331.344	561.94
331.572	537.94
331.801	511.94
332.03	501.94
332.258	493.94
332.486	463.94
332.715	445.94
332.943	445.94
333.172	447.94
333.4	443.94
333.629	464.94
333.857	475.94
334.085	494.94
334.314	487.94
334.542	545.94
334.771	535.94
334.999	489.94
335.227	457.94
335.455	441.94
335.684	422.94
335.912	432.94
336.14	402.94
336.369	423.94
336.597	438.94
336.825	447.94
337.053	433.94
337.281	422.94
337.51	436.94
337.738	421.94
337.966	414.94
338.194	440.94
338.422	424.94
338.65	408.94
338.878	428.94
339.106	400.94
339.334	419.94
339.562	425.94
339.79	423.94
340.018	416.94
340.246	412.94
340.474	416.94
340.702	425.94
340.93	401.94
341.158	411.94
341.386	396.94
341.614	424.94
341.842	431.94
342.07	414.94
342.298	403.94
342.526	417.94
342.754	427.94
342.981	403.94
343.209	386.94
343.437	398.94
343.665	401.94
343.893	423.94
344.12	419.94
344.348	410.94
344.576	420.94
344.804	401.94
345.031	420.94
345.259	469.94
345.487	450.94
345.714	431.94
345.942	415.94
346.17	422.94
346.397	410.94
346.625	409.94
346.853	407.94
347.08	393.94
347.308	431.94
347.535	435.94
347.763	448.94
347.99	418.94
348.218	436.94
348.445	445.94
348.673	440.94
348.9	424.94
349.128	431.94
349.355	405.94
349.583	384.94
349.81	381.94
350.037	410.94
350.265	400.94
350.492	388.94
350.72	410.94
350.947	392.94
351.174	422.94
351.402	429.94
351.629	422.94
351.856	420.94
352.083	444.94
352.311	431.94
352.538	439.94
352.765	433.94
352.992	419.94
353.22	432.94
353.447	406.94
353.674	418.94
353.901	412.94
354.128	380.94
354.355	401.94
354.583	390.94
354.81	380.94
355.037	381.94
355.264	379.94
355.491	381.94
355.718	378.94
355.945	370.94
356.172	364.94
356.399	379.94
356.626	389.94
356.853	394.94
357.08	392.94
357.307	369.94
357.534	378.94
357.761	377.94
357.988	385.94
358.215	386.94
358.441	393.94
358.668	400.94
358.895	396.94
359.122	414.94
359.349	403.94
359.576	442.94
359.802	453.94
360.029	487.94
360.256	501.94
360.483	470.94
360.709	452.94
360.936	448.94
361.163	426.94
361.39	424.94
361.616	434.94
361.843	457.94
362.07	428.94
362.296	439.94
362.523	428.94
362.749	434.94
362.976	419.94
363.203	408.94
363.429	427.94
363.656	430.94
363.882	398.94
364.109	400.94
364.335	393.94
364.562	398.94
364.788	387.94
365.015	407.94
365.241	393.94
365.468	420.94
365.694	402.94
365.92	417.94
366.147	398.94
366.373	405.94
366.599	379.94
366.826	395.94
367.052	393.94
367.278	409.94
367.505	406.94
367.731	391.94
367.957	410.94
368.184	417.94
368.41	415.94
368.636	428.94
368.862	428.94
369.089	405.94
369.315	417.94
369.541	405.94
369.767	389.94
369.993	381.94
370.219	373.94
370.445	423.94
370.672	394.94
370.898	374.94
371.124	384.94
371.35	379.94
371.576	380.94
371.802	401.94
372.028	413.94
372.254	393.94
372.48	385.94
372.706	394.94
372.932	398.94
373.158	388.94
373.384	393.94
373.61	410.94
373.835	396.94
374.061	385.94
374.287	411.94
374.513	397.94
374.739	408.94
374.965	391.94
375.191	402.94
375.416	405.94
375.642	420.94
375.868	381.94
376.094	383.94
376.319	403.94
376.545	409.94
376.771	398.94
376.997	396.94
377.222	395.94
377.448	373.94
377.674	410.94
377.899	391.94
378.125	396.94
378.35	399.94
378.576	375.94
378.802	380.94
379.027	385.94
379.253	391.94
379.478	386.94
379.704	392.94
379.929	391.94
380.155	408.94
380.38	387.94
380.606	414.94
380.831	411.94
381.057	408.94
381.282	387.94
381.507	416.94
381.733	411.94
381.958	399.94
382.184	388.94
382.409	387.94
382.634	408.94
382.86	407.94
383.085	406.94
383.31	395.94
383.535	401.94
383.761	409.94
383.986	424.94
384.211	418.94
384.436	399.94
384.662	423.94
384.887	426.94
385.112	418.94
385.337	448.94
385.562	423.94
385.787	428.94
386.013	446.94
386.238	461.94
386.463	436.94
386.688	419.94
386.913	417.94
387.138	428.94
387.363	432.94
387.588	414.94
387.813	412.94
388.038	424.94
388.263	411.94
388.488	433.94
388.713	424.94
388.938	436.94
389.163	445.94
389.387	428.94
389.612	423.94
389.837	423.94
390.062	424.94
390.287	446.94
390.512	418.94
390.736	419.94
390.961	424.94
391.186	437.94
391.411	434.94
391.636	438.94
391.86	421.94
392.085	425.94
392.31	422.94
392.534	434.94
392.759	444.94
392.984	435.94
393.208	432.94
393.433	440.94
393.658	466.94
393.882	445.94
394.107	435.94
394.331	434.94
394.556	438.94
394.78	448.94
395.005	431.94
395.229	419.94
395.454	449.94
395.678	431.94
395.903	453.94
396.127	473.94
396.352	492.94
396.576	457.94
396.801	453.94
397.025	453.94
397.249	445.94
397.474	450.94
397.698	455.94
397.922	469.94
398.147	475.94
398.371	493.94
398.595	487.94
398.82	497.94
399.044	492.94
399.268	490.94
399.492	509.94
399.717	545.94
399.941	568.94
400.165	581.94
400.389	608.94
400.613	543.94
400.837	516.94
401.062	503.94
401.286	511.94
401.51	489.94
401.734	502.94
401.958	473.94
402.182	495.94
402.406	517.94
402.63	517.94
402.854	496.94
403.078	507.94
403.302	520.94
403.526	524.94
403.75	535.94
403.974	546.94
404.198	522.94
404.422	516.94
404.645	531.94
404.869	541.94
405.093	553.94
405.317	609.94
405.541	638.94
405.765	585.94
405.988	546.94
406.212	559.94
406.436	591.94
406.66	599.94
406.883	583.94
407.107	593.94
407.331	609.94
407.555	711.94
407.778	681.94
408.002	644.94
408.226	564.94
408.449	561.94
408.673	571.94
408.896	602.94
409.12	664.94
409.344	600.94
409.567	544.94
409.791	544.94
410.014	498.94
410.238	541.94
410.461	540.94
410.685	555.94
410.908	554.94
411.132	588.94
411.355	610.94
411.578	598.94
411.802	529.94
412.025	527.94
412.249	518.94
412.472	539.94
412.695	581.94
412.919	593.94
413.142	530.94
413.365	509.94
413.589	516.94
413.812	498.94
414.035	485.94
414.258	486.94
414.482	487.94
414.705	482.94
414.928	481.94
415.151	480.94
415.374	469.94
415.597	484.94
415.821	472.94
416.044	498.94
416.267	495.94
416.49	502.94
416.713	497.94
416.936	507.94
417.159	515.94
417.382	539.94
417.605	492.94
417.828	525.94
418.051	515.94
418.274	533.94
418.497	486.94
418.72	512.94
418.943	499.94
419.166	531.94
419.389	532.94
419.611	548.94
419.834	516.94
420.057	535.94
420.28	548.94
420.503	532.94
420.726	530.94
420.948	552.94
421.171	604.94
421.394	623.94
421.617	567.94
421.839	532.94
422.062	518.94
422.285	583.94
422.507	620.94
422.73	672.94
422.953	680.94
423.175	545.94
423.398	583.94
423.621	565.94
423.843	573.94
424.066	580.94
424.288	582.94
424.511	590.94
424.733	666.94
424.956	721.94
425.178	746.94
425.401	723.94
425.623	752.94
425.846	660.94
426.068	597.94
426.291	572.94
426.513	588.94
426.735	596.94
426.958	656.94
427.18	735.94
427.402	863.94
427.625	953.94
427.847	862.94
428.069	775.94
428.292	669.94
428.514	610.94
428.736	571.94
428.958	579.94
429.181	536.94
429.403	561.94
429.625	566.94
429.847	618.94
430.069	682.94
430.292	684.94
430.514	585.94
430.736	559.94
430.958	521.94
431.18	511.94
431.402	506.94
431.624	497.94
431.846	521.94
432.068	496.94
432.29	511.94
432.512	523.94
432.734	519.94
432.956	518.94
433.178	544.94
433.4	536.94
433.622	533.94
433.844	518.94
434.066	507.94
434.287	504.94
434.509	514.94
434.731	490.94
434.953	521.94
435.175	538.94
435.397	583.94
435.618	615.94
435.84	650.94
436.062	757.94
436.284	800.94
436.505	684.94
436.727	621.94
436.949	573.94
437.17	548.94
437.392	576.94
437.614	577.94
437.835	609.94
438.057	741.94
438.278	856.94
438.5	814.94
438.721	893.94
438.943	860.94
439.165	677.94
439.386	629.94
439.608	628.94
439.829	642.94
440.05	654.94
440.272	695.94
440.493	646.94
440.715	586.94
440.936	584.94
441.158	540.94
441.379	550.94
441.6	578.94
441.822	610.94
442.043	640.94
442.264	733.94
442.486	778.94
442.707	661.94
442.928	620.94
443.149	619.94
443.371	648.94
443.592	693.94
443.813	789.94
444.034	864.94
444.255	714.94
444.476	604.94
444.698	595.94
444.919	596.94
445.14	695.94
445.361	667.94
445.582	655.94
445.803	747.94
446.024	835.94
446.245	858.94
446.466	769.94
446.687	656.94
446.908	604.94
447.129	590.94
447.35	583.94
447.571	547.94
447.792	557.94
448.013	552.94
448.234	599.94
448.455	653.94
448.675	765.94
448.896	863.94
449.117	755.94
449.338	704.94
449.559	855.94
449.779	904.94
450	739.94
450.221	627.94
450.442	579.94
450.662	544.94
450.883	557.94
451.104	591.94
451.324	590.94
451.545	545.94
451.766	521.94
451.986	534.94
452.207	495.94
452.428	469.94
452.648	491.94
452.869	489.94
453.089	502.94
453.31	546.94
453.53	519.94
453.751	509.94
453.971	518.94
454.192	563.94
454.412	538.94
454.633	503.94
454.853	497.94
455.073	511.94
455.294	554.94
455.514	599.94
455.734	609.94
455.955	522.94
456.175	491.94
456.395	453.94
456.616	465.94
456.836	447.94
457.056	467.94
457.276	446.94
457.497	466.94
457.717	455.94
457.937	465.94
458.157	455.94
458.377	481.94
458.598	523.94
458.818	591.94
459.038	711.94
459.258	697.94
459.478	564.94
459.698	545.94
459.918	501.94
460.138	499.94
460.358	521.94
460.578	513.94
460.798	499.94
461.018	512.94
461.238	497.94
461.458	523.94
461.678	477.94
461.898	509.94
462.118	487.94
462.338	525.94
462.558	485.94
462.777	505.94
462.997	512.94
463.217	539.94
463.437	524.94
463.657	525.94
463.876	534.94
464.096	537.94
464.316	540.94
464.536	568.94
464.755	525.94
464.975	565.94
465.195	583.94
465.414	725.94
465.634	602.94
465.854	568.94
466.073	565.94
466.293	528.94
466.512	540.94
466.732	509.94
466.951	517.94
467.171	516.94
467.391	501.94
467.61	505.94
467.829	524.94
468.049	517.94
468.268	526.94
468.488	498.94
468.707	513.94
468.927	490.94
469.146	502.94
469.365	498.94
469.585	517.94
469.804	506.94
470.023	535.94
470.243	514.94
470.462	521.94
470.681	540.94
470.901	545.94
471.12	525.94
471.339	501.94
471.558	534.94
471.777	515.94
471.997	488.94
472.216	523.94
472.435	574.94
472.654	554.94
472.873	544.94
473.092	511.94
473.311	505.94
473.53	546.94
473.749	531.94
473.968	576.94
474.187	697.94
474.406	713.94
474.625	603.94
474.844	525.94
475.063	529.94
475.282	543.94
475.501	527.94
475.72	529.94
475.939	518.94
476.158	529.94
476.377	531.94
476.596	516.94
476.814	539.94
477.033	537.94
477.252	557.94
477.471	544.94
477.69	545.94
477.908	573.94
478.127	566.94
478.346	576.94
478.564	555.94
478.783	583.94
479.002	565.94
479.22	563.94
479.439	585.94
479.658	626.94
479.876	615.94
480.095	620.94
480.313	658.94
480.532	633.94
480.751	648.94
480.969	648.94
481.188	721.94
481.406	737.94
481.624	679.94
481.843	666.94
482.061	661.94
482.28	632.94
482.498	639.94
482.717	607.94
482.935	616.94
483.153	608.94
483.372	598.94
483.59	627.94
483.808	624.94
484.027	617.94
484.245	625.94
484.463	646.94
484.681	637.94
484.9	642.94
485.118	643.94
485.336	625.94
485.554	626.94
485.772	643.94
485.99	624.94
486.209	642.94
486.427	645.94
486.645	646.94
486.863	681.94
487.081	688.94
487.299	675.94
487.517	689.94
487.735	681.94
487.953	664.94
488.171	676.94
488.389	667.94
488.607	670.94
488.825	667.94
489.043	661.94
489.261	693.94
489.479	698.94
489.696	675.94
489.914	682.94
490.132	703.94
490.35	690.94
490.568	735.94
490.786	709.94
491.003	703.94
491.221	742.94
491.439	757.94
491.657	747.94
491.874	773.94
492.092	779.94
492.31	824.94
492.527	780.94
492.745	785.94
492.963	815.94
493.18	775.94
493.398	813.94
493.615	807.94
493.833	815.94
494.05	823.94
494.268	797.94
494.485	812.94
494.703	810.94
494.92	817.94
495.138	788.94
495.355	796.94
495.573	806.94
495.79	796.94
496.008	806.94
496.225	832.94
496.442	791.94
496.66	801.94
496.877	805.94
497.094	805.94
497.312	812.94
497.529	832.94
497.746	824.94
497.963	823.94
498.181	854.94
498.398	870.94
498.615	838.94
498.832	845.94
499.049	881.94
499.267	887.94
499.484	904.94
499.701	913.94
499.918	912.94
500.135	946.94
500.352	941.94
500.569	968.94
500.786	999.94
501.003	991.94
501.22	993.94
501.437	972.94
501.654	1007.94
