Data from 1971.PennyLincolnUp.Lamp.En5.5.200Scan.071719.P1.Scan 2. Changed Angle._HRD10591_15-24-15-843.txt Node
Date: Thu Jul 18 15:24:15 EDT 2019
User: cochatt
Spectrometer: HR+D1059
Trigger mode: 1
Integration Time (sec): 1.000000E-1
Scans to average: 1
Electric dark correction enabled: true
Nonlinearity correction enabled: false
Boxcar width: 0
XAxis mode: Wavelengths
Number of Pixels in Spectrum: 2048
>>>>>Begin Spectral Data<<<<<
223.165	-13.94
223.4	-13.94
223.635	-13.94
223.869	-16.94
224.104	-25.94
224.338	-14.94
224.573	-16.94
224.808	-9.94
225.042	-0.94
225.277	-1.94
225.511	4.06
225.746	9.06
225.98	11.06
226.215	3.06
226.449	14.06
226.683	12.06
226.918	19.06
227.152	29.06
227.387	45.06
227.621	36.06
227.856	44.06
228.09	55.06
228.324	45.06
228.559	56.06
228.793	77.06
229.027	102.06
229.262	125.06
229.496	120.06
229.73	146.06
229.964	182.06
230.199	149.06
230.433	121.06
230.667	123.06
230.901	117.06
231.136	124.06
231.37	116.06
231.604	126.06
231.838	138.06
232.072	134.06
232.306	123.06
232.541	130.06
232.775	121.06
233.009	116.06
233.243	126.06
233.477	125.06
233.711	124.06
233.945	126.06
234.179	123.06
234.413	127.06
234.647	121.06
234.881	121.06
235.115	128.06
235.349	120.06
235.583	114.06
235.817	129.06
236.051	144.06
236.285	144.06
236.519	139.06
236.753	140.06
236.987	166.06
237.221	230.06
237.455	290.06
237.689	222.06
237.922	162.06
238.156	134.06
238.39	146.06
238.624	126.06
238.858	127.06
239.091	138.06
239.325	138.06
239.559	132.06
239.793	144.06
240.027	141.06
240.26	156.06
240.494	164.06
240.728	165.06
240.961	168.06
241.195	166.06
241.429	162.06
241.662	161.06
241.896	144.06
242.13	149.06
242.363	144.06
242.597	145.06
242.83	152.06
243.064	146.06
243.298	138.06
243.531	153.06
243.765	149.06
243.998	159.06
244.232	157.06
244.465	157.06
244.699	150.06
244.932	157.06
245.166	144.06
245.399	161.06
245.633	162.06
245.866	162.06
246.099	181.06
246.333	161.06
246.566	151.06
246.8	160.06
247.033	165.06
247.266	164.06
247.5	171.06
247.733	173.06
247.966	166.06
248.2	167.06
248.433	188.06
248.666	193.06
248.899	215.06
249.133	211.06
249.366	231.06
249.599	225.06
249.832	206.06
250.066	203.06
250.299	202.06
250.532	205.06
250.765	237.06
250.998	225.06
251.231	231.06
251.465	247.06
251.698	238.06
251.931	246.06
252.164	219.06
252.397	221.06
252.63	225.06
252.863	248.06
253.096	249.06
253.329	244.06
253.562	270.06
253.795	258.06
254.028	226.06
254.261	250.06
254.494	267.06
254.727	286.06
254.96	332.06
255.193	297.06
255.426	292.06
255.659	290.06
255.892	261.06
256.124	234.06
256.357	255.06
256.59	240.06
256.823	239.06
257.056	251.06
257.289	233.06
257.521	221.06
257.754	229.06
257.987	242.06
258.22	223.06
258.452	213.06
258.685	243.06
258.918	224.06
259.151	218.06
259.383	237.06
259.616	238.06
259.849	247.06
260.081	257.06
260.314	292.06
260.547	284.06
260.779	267.06
261.012	256.06
261.244	253.06
261.477	237.06
261.71	261.06
261.942	234.06
262.175	267.06
262.407	254.06
262.64	250.06
262.872	222.06
263.105	213.06
263.337	231.06
263.57	227.06
263.802	223.06
264.035	229.06
264.267	224.06
264.499	207.06
264.732	221.06
264.964	219.06
265.197	231.06
265.429	230.06
265.661	222.06
265.894	205.06
266.126	217.06
266.358	228.06
266.591	210.06
266.823	228.06
267.055	221.06
267.287	231.06
267.52	243.06
267.752	223.06
267.984	229.06
268.216	247.06
268.448	244.06
268.681	236.06
268.913	245.06
269.145	272.06
269.377	294.06
269.609	276.06
269.841	282.06
270.073	276.06
270.306	317.06
270.538	349.06
270.77	345.06
271.002	342.06
271.234	318.06
271.466	314.06
271.698	341.06
271.93	356.06
272.162	348.06
272.394	363.06
272.626	328.06
272.858	310.06
273.09	294.06
273.322	282.06
273.553	308.06
273.785	282.06
274.017	276.06
274.249	265.06
274.481	278.06
274.713	271.06
274.945	290.06
275.176	259.06
275.408	275.06
275.64	278.06
275.872	267.06
276.104	272.06
276.335	283.06
276.567	263.06
276.799	303.06
277.031	319.06
277.262	315.06
277.494	331.06
277.726	307.06
277.957	309.06
278.189	316.06
278.421	287.06
278.652	294.06
278.884	294.06
279.115	272.06
279.347	263.06
279.579	252.06
279.81	265.06
280.042	273.06
280.273	274.06
280.505	281.06
280.736	278.06
280.968	270.06
281.199	277.06
281.431	256.06
281.662	278.06
281.894	248.06
282.125	286.06
282.356	282.06
282.588	322.06
282.819	312.06
283.051	268.06
283.282	268.06
283.513	266.06
283.745	279.06
283.976	276.06
284.207	303.06
284.439	278.06
284.67	299.06
284.901	273.06
285.132	272.06
285.364	278.06
285.595	277.06
285.826	252.06
286.057	286.06
286.288	282.06
286.52	269.06
286.751	282.06
286.982	274.06
287.213	281.06
287.444	279.06
287.675	276.06
287.906	295.06
288.138	309.06
288.369	303.06
288.6	285.06
288.831	307.06
289.062	292.06
289.293	285.06
289.524	293.06
289.755	281.06
289.986	272.06
290.217	285.06
290.448	272.06
290.679	294.06
290.91	293.06
291.141	265.06
291.371	287.06
291.602	276.06
291.833	275.06
292.064	271.06
292.295	285.06
292.526	290.06
292.757	299.06
292.987	289.06
293.218	289.06
293.449	276.06
293.68	301.06
293.91	286.06
294.141	285.06
294.372	285.06
294.603	276.06
294.833	292.06
295.064	282.06
295.295	289.06
295.525	281.06
295.756	298.06
295.987	303.06
296.217	325.06
296.448	342.06
296.679	308.06
296.909	304.06
297.14	285.06
297.37	302.06
297.601	303.06
297.831	304.06
298.062	299.06
298.292	288.06
298.523	303.06
298.753	293.06
298.984	297.06
299.214	324.06
299.445	295.06
299.675	303.06
299.905	292.06
300.136	305.06
300.366	303.06
300.597	302.06
300.827	299.06
301.057	319.06
301.288	317.06
301.518	333.06
301.748	317.06
301.979	313.06
302.209	319.06
302.439	315.06
302.669	332.06
302.9	324.06
303.13	292.06
303.36	307.06
303.59	324.06
303.82	332.06
304.051	337.06
304.281	317.06
304.511	322.06
304.741	301.06
304.971	307.06
305.201	322.06
305.431	314.06
305.661	320.06
305.891	311.06
306.121	333.06
306.352	324.06
306.582	326.06
306.812	326.06
307.042	314.06
307.272	341.06
307.502	351.06
307.731	320.06
307.961	329.06
308.191	314.06
308.421	326.06
308.651	327.06
308.881	326.06
309.111	347.06
309.341	346.06
309.571	358.06
309.8	358.06
310.03	374.06
310.26	390.06
310.49	369.06
310.72	391.06
310.949	416.06
311.179	415.06
311.409	403.06
311.639	376.06
311.868	386.06
312.098	396.06
312.328	399.06
312.557	413.06
312.787	444.06
313.017	422.06
313.246	384.06
313.476	374.06
313.706	362.06
313.935	377.06
314.165	419.06
314.394	408.06
314.624	406.06
314.853	391.06
315.083	383.06
315.312	362.06
315.542	360.06
315.771	361.06
316.001	374.06
316.23	351.06
316.46	379.06
316.689	388.06
316.919	386.06
317.148	405.06
317.377	394.06
317.607	390.06
317.836	399.06
318.065	372.06
318.295	383.06
318.524	388.06
318.753	399.06
318.983	371.06
319.212	388.06
319.441	389.06
319.67	418.06
319.9	407.06
320.129	383.06
320.358	388.06
320.587	397.06
320.816	403.06
321.046	405.06
321.275	423.06
321.504	406.06
321.733	434.06
321.962	439.06
322.191	456.06
322.42	453.06
322.649	468.06
322.878	497.06
323.108	504.06
323.337	541.06
323.566	546.06
323.795	595.06
324.024	644.06
324.253	816.06
324.482	1206.06
324.71	1877.06
324.939	2661.06
325.168	2317.06
325.397	1215.06
325.626	797.06
325.855	640.06
326.084	570.06
326.313	579.06
326.542	582.06
326.77	635.06
326.999	759.06
327.228	1092.06
327.457	1623.06
327.686	1986.06
327.914	1326.06
328.143	877.06
328.372	765.06
328.6	692.06
328.829	642.06
329.058	664.06
329.287	681.06
329.515	628.06
329.744	590.06
329.972	547.06
330.201	599.06
330.43	651.06
330.658	679.06
330.887	715.06
331.115	709.06
331.344	592.06
331.572	543.06
331.801	546.06
332.03	536.06
332.258	502.06
332.486	484.06
332.715	451.06
332.943	455.06
333.172	482.06
333.4	457.06
333.629	494.06
333.857	518.06
334.085	501.06
334.314	521.06
334.542	559.06
334.771	571.06
334.999	520.06
335.227	501.06
335.455	470.06
335.684	468.06
335.912	451.06
336.14	447.06
336.369	442.06
336.597	459.06
336.825	464.06
337.053	477.06
337.281	431.06
337.51	431.06
337.738	445.06
337.966	460.06
338.194	462.06
338.422	447.06
338.65	424.06
338.878	428.06
339.106	430.06
339.334	450.06
339.562	412.06
339.79	438.06
340.018	440.06
340.246	427.06
340.474	442.06
340.702	450.06
340.93	440.06
341.158	424.06
341.386	436.06
341.614	448.06
341.842	432.06
342.07	446.06
342.298	428.06
342.526	419.06
342.754	417.06
342.981	400.06
343.209	412.06
343.437	438.06
343.665	432.06
343.893	431.06
344.12	422.06
344.348	414.06
344.576	428.06
344.804	465.06
345.031	460.06
345.259	494.06
345.487	470.06
345.714	464.06
345.942	451.06
346.17	452.06
346.397	428.06
346.625	437.06
346.853	431.06
347.08	428.06
347.308	449.06
347.535	451.06
347.763	426.06
347.99	446.06
348.218	438.06
348.445	448.06
348.673	451.06
348.9	437.06
349.128	437.06
349.355	432.06
349.583	416.06
349.81	414.06
350.037	428.06
350.265	429.06
350.492	407.06
350.72	422.06
350.947	432.06
351.174	429.06
351.402	454.06
351.629	415.06
351.856	456.06
352.083	453.06
352.311	456.06
352.538	469.06
352.765	475.06
352.992	462.06
353.22	425.06
353.447	454.06
353.674	454.06
353.901	413.06
354.128	392.06
354.355	404.06
354.583	405.06
354.81	400.06
355.037	391.06
355.264	380.06
355.491	386.06
355.718	402.06
355.945	386.06
356.172	407.06
356.399	408.06
356.626	395.06
356.853	392.06
357.08	385.06
357.307	405.06
357.534	422.06
357.761	418.06
357.988	405.06
358.215	407.06
358.441	392.06
358.668	402.06
358.895	417.06
359.122	408.06
359.349	432.06
359.576	451.06
359.802	476.06
360.029	516.06
360.256	531.06
360.483	498.06
360.709	436.06
360.936	434.06
361.163	446.06
361.39	451.06
361.616	446.06
361.843	442.06
362.07	434.06
362.296	467.06
362.523	453.06
362.749	445.06
362.976	455.06
363.203	420.06
363.429	402.06
363.656	439.06
363.882	414.06
364.109	426.06
364.335	420.06
364.562	417.06
364.788	420.06
365.015	446.06
365.241	413.06
365.468	418.06
365.694	435.06
365.92	418.06
366.147	439.06
366.373	413.06
366.599	412.06
366.826	419.06
367.052	408.06
367.278	398.06
367.505	419.06
367.731	431.06
367.957	416.06
368.184	420.06
368.41	421.06
368.636	437.06
368.862	439.06
369.089	427.06
369.315	398.06
369.541	436.06
369.767	420.06
369.993	427.06
370.219	411.06
370.445	415.06
370.672	429.06
370.898	406.06
371.124	430.06
371.35	427.06
371.576	406.06
371.802	410.06
372.028	408.06
372.254	404.06
372.48	411.06
372.706	418.06
372.932	408.06
373.158	395.06
373.384	423.06
373.61	404.06
373.835	418.06
374.061	432.06
374.287	422.06
374.513	425.06
374.739	408.06
374.965	421.06
375.191	406.06
375.416	407.06
375.642	417.06
375.868	409.06
376.094	431.06
376.319	403.06
376.545	392.06
376.771	404.06
376.997	405.06
377.222	412.06
377.448	408.06
377.674	413.06
377.899	397.06
378.125	383.06
378.35	415.06
378.576	398.06
378.802	394.06
379.027	430.06
379.253	393.06
379.478	378.06
379.704	400.06
379.929	422.06
380.155	413.06
380.38	404.06
380.606	408.06
380.831	424.06
381.057	408.06
381.282	420.06
381.507	413.06
381.733	410.06
381.958	431.06
382.184	414.06
382.409	406.06
382.634	417.06
382.86	416.06
383.085	407.06
383.31	422.06
383.535	420.06
383.761	435.06
383.986	438.06
384.211	429.06
384.436	416.06
384.662	413.06
384.887	448.06
385.112	419.06
385.337	454.06
385.562	428.06
385.787	420.06
386.013	444.06
386.238	440.06
386.463	471.06
386.688	434.06
386.913	426.06
387.138	441.06
387.363	441.06
387.588	455.06
387.813	414.06
388.038	423.06
388.263	448.06
388.488	458.06
388.713	448.06
388.938	452.06
389.163	485.06
389.387	458.06
389.612	424.06
389.837	450.06
390.062	445.06
390.287	447.06
390.512	442.06
390.736	427.06
390.961	442.06
391.186	429.06
391.411	455.06
391.636	464.06
391.86	449.06
392.085	465.06
392.31	464.06
392.534	461.06
392.759	469.06
392.984	462.06
393.208	465.06
393.433	450.06
393.658	442.06
393.882	464.06
394.107	454.06
394.331	448.06
394.556	456.06
394.78	451.06
395.005	456.06
395.229	429.06
395.454	452.06
395.678	474.06
395.903	496.06
396.127	511.06
396.352	482.06
396.576	481.06
396.801	464.06
397.025	491.06
397.249	476.06
397.474	486.06
397.698	472.06
397.922	485.06
398.147	501.06
398.371	523.06
398.595	468.06
398.82	485.06
399.044	516.06
399.268	517.06
399.492	541.06
399.717	551.06
399.941	574.06
400.165	617.06
400.389	611.06
400.613	567.06
400.837	534.06
401.062	518.06
401.286	535.06
401.51	510.06
401.734	493.06
401.958	487.06
402.182	533.06
402.406	544.06
402.63	542.06
402.854	528.06
403.078	540.06
403.302	552.06
403.526	558.06
403.75	527.06
403.974	511.06
404.198	543.06
404.422	529.06
404.645	552.06
404.869	570.06
405.093	578.06
405.317	630.06
405.541	671.06
405.765	597.06
405.988	562.06
406.212	560.06
406.436	613.06
406.66	632.06
406.883	593.06
407.107	607.06
407.331	630.06
407.555	737.06
407.778	738.06
408.002	690.06
408.226	600.06
408.449	592.06
408.673	603.06
408.896	632.06
409.12	699.06
409.344	655.06
409.567	594.06
409.791	559.06
410.014	564.06
410.238	559.06
410.461	547.06
410.685	547.06
410.908	564.06
411.132	594.06
411.355	654.06
411.578	627.06
411.802	578.06
412.025	548.06
412.249	542.06
412.472	592.06
412.695	632.06
412.919	588.06
413.142	564.06
413.365	535.06
413.589	528.06
413.812	540.06
414.035	524.06
414.258	503.06
414.482	506.06
414.705	502.06
414.928	529.06
415.151	498.06
415.374	501.06
415.597	521.06
415.821	521.06
416.044	520.06
416.267	491.06
416.49	509.06
416.713	516.06
416.936	511.06
417.159	512.06
417.382	540.06
417.605	538.06
417.828	546.06
418.051	543.06
418.274	552.06
418.497	524.06
418.72	519.06
418.943	520.06
419.166	541.06
419.389	566.06
419.611	550.06
419.834	562.06
420.057	564.06
420.28	573.06
420.503	558.06
420.726	564.06
420.948	595.06
421.171	612.06
421.394	667.06
421.617	570.06
421.839	572.06
422.062	563.06
422.285	565.06
422.507	673.06
422.73	710.06
422.953	709.06
423.175	613.06
423.398	587.06
423.621	574.06
423.843	618.06
424.066	622.06
424.288	584.06
424.511	638.06
424.733	684.06
424.956	768.06
425.178	764.06
425.401	723.06
425.623	764.06
425.846	670.06
426.068	623.06
426.291	593.06
426.513	641.06
426.735	639.06
426.958	701.06
427.18	774.06
427.402	882.06
427.625	989.06
427.847	909.06
428.069	790.06
428.292	700.06
428.514	648.06
428.736	607.06
428.958	597.06
429.181	599.06
429.403	539.06
429.625	571.06
429.847	620.06
430.069	694.06
430.292	652.06
430.514	619.06
430.736	553.06
430.958	572.06
431.18	554.06
431.402	540.06
431.624	540.06
431.846	538.06
432.068	543.06
432.29	532.06
432.512	526.06
432.734	555.06
432.956	562.06
433.178	554.06
433.4	555.06
433.622	540.06
433.844	521.06
434.066	509.06
434.287	538.06
434.509	556.06
434.731	547.06
434.953	529.06
435.175	566.06
435.397	616.06
435.618	613.06
435.84	658.06
436.062	777.06
436.284	867.06
436.505	739.06
436.727	660.06
436.949	606.06
437.17	610.06
437.392	603.06
437.614	590.06
437.835	647.06
438.057	746.06
438.278	854.06
438.5	843.06
438.721	920.06
438.943	882.06
439.165	744.06
439.386	664.06
439.608	635.06
439.829	670.06
440.05	675.06
440.272	738.06
440.493	679.06
440.715	635.06
440.936	602.06
441.158	602.06
441.379	579.06
441.6	598.06
441.822	638.06
442.043	664.06
442.264	786.06
442.486	786.06
442.707	672.06
442.928	651.06
443.149	655.06
443.371	690.06
443.592	748.06
443.813	824.06
444.034	878.06
444.255	717.06
444.476	655.06
444.698	637.06
444.919	590.06
445.14	739.06
445.361	682.06
445.582	664.06
445.803	775.06
446.024	850.06
446.245	875.06
446.466	802.06
446.687	723.06
446.908	641.06
447.129	590.06
447.35	582.06
447.571	588.06
447.792	591.06
448.013	571.06
448.234	608.06
448.455	686.06
448.675	781.06
448.896	908.06
449.117	783.06
449.338	756.06
449.559	857.06
449.779	955.06
450	778.06
450.221	655.06
450.442	606.06
450.662	592.06
450.883	588.06
451.104	622.06
451.324	614.06
451.545	576.06
451.766	548.06
451.986	546.06
452.207	533.06
452.428	536.06
452.648	529.06
452.869	534.06
453.089	532.06
453.31	538.06
453.53	559.06
453.751	539.06
453.971	536.06
454.192	563.06
454.412	535.06
454.633	534.06
454.853	519.06
455.073	518.06
455.294	559.06
455.514	657.06
455.734	641.06
455.955	538.06
456.175	507.06
456.395	502.06
456.616	503.06
456.836	468.06
457.056	470.06
457.276	484.06
457.497	478.06
457.717	518.06
457.937	503.06
458.157	499.06
458.377	494.06
458.598	540.06
458.818	607.06
459.038	694.06
459.258	716.06
459.478	611.06
459.698	569.06
459.918	520.06
460.138	536.06
460.358	519.06
460.578	519.06
460.798	542.06
461.018	544.06
461.238	548.06
461.458	537.06
461.678	521.06
461.898	534.06
462.118	516.06
462.338	535.06
462.558	539.06
462.777	532.06
462.997	538.06
463.217	533.06
463.437	538.06
463.657	548.06
463.876	569.06
464.096	566.06
464.316	555.06
464.536	583.06
464.755	549.06
464.975	580.06
465.195	639.06
465.414	746.06
465.634	658.06
465.854	635.06
466.073	602.06
466.293	560.06
466.512	527.06
466.732	522.06
466.951	543.06
467.171	518.06
467.391	529.06
467.61	525.06
467.829	551.06
468.049	558.06
468.268	532.06
468.488	528.06
468.707	538.06
468.927	509.06
469.146	506.06
469.365	502.06
469.585	503.06
469.804	522.06
470.023	528.06
470.243	539.06
470.462	548.06
470.681	580.06
470.901	548.06
471.12	553.06
471.339	526.06
471.558	536.06
471.777	534.06
471.997	543.06
472.216	571.06
472.435	576.06
472.654	594.06
472.873	543.06
473.092	530.06
473.311	526.06
473.53	528.06
473.749	560.06
473.968	604.06
474.187	736.06
474.406	766.06
474.625	621.06
474.844	575.06
475.063	555.06
475.282	549.06
475.501	556.06
475.72	553.06
475.939	527.06
476.158	543.06
476.377	536.06
476.596	574.06
476.814	574.06
477.033	582.06
477.252	566.06
477.471	564.06
477.69	578.06
477.908	568.06
478.127	595.06
478.346	566.06
478.564	593.06
478.783	594.06
479.002	611.06
479.22	618.06
479.439	612.06
479.658	643.06
479.876	674.06
480.095	662.06
480.313	655.06
480.532	633.06
480.751	655.06
480.969	677.06
481.188	721.06
481.406	795.06
481.624	705.06
481.843	644.06
482.061	644.06
482.28	629.06
482.498	654.06
482.717	646.06
482.935	648.06
483.153	651.06
483.372	633.06
483.59	635.06
483.808	637.06
484.027	646.06
484.245	631.06
484.463	647.06
484.681	648.06
484.9	651.06
485.118	660.06
485.336	664.06
485.554	678.06
485.772	694.06
485.99	685.06
486.209	692.06
486.427	676.06
486.645	701.06
486.863	741.06
487.081	693.06
487.299	713.06
487.517	704.06
487.735	710.06
487.953	703.06
488.171	686.06
488.389	704.06
488.607	703.06
488.825	703.06
489.043	691.06
489.261	694.06
489.479	691.06
489.696	703.06
489.914	730.06
490.132	725.06
490.35	732.06
490.568	762.06
490.786	743.06
491.003	756.06
491.221	785.06
491.439	788.06
491.657	778.06
491.874	792.06
492.092	815.06
492.31	815.06
492.527	842.06
492.745	800.06
492.963	852.06
493.18	824.06
493.398	841.06
493.615	846.06
493.833	856.06
494.05	824.06
494.268	851.06
494.485	851.06
494.703	833.06
494.92	862.06
495.138	842.06
495.355	834.06
495.573	855.06
495.79	856.06
496.008	869.06
496.225	842.06
496.442	845.06
496.66	856.06
496.877	866.06
497.094	830.06
497.312	859.06
497.529	844.06
497.746	878.06
497.963	884.06
498.181	891.06
498.398	869.06
498.615	894.06
498.832	904.06
499.049	898.06
499.267	928.06
499.484	924.06
499.701	943.06
499.918	956.06
500.135	995.06
500.352	1034.06
500.569	1042.06
500.786	1026.06
501.003	1015.06
501.22	1005.06
501.437	988.06
