Data from 1971.PennyLincolnUp.Lamp.En5.5.200Scan.071719.P1.Scan 2. Changed Angle._HRD10591_15-22-32-842.txt Node
Date: Thu Jul 18 15:22:32 EDT 2019
User: cochatt
Spectrometer: HR+D1059
Trigger mode: 1
Integration Time (sec): 1.000000E-1
Scans to average: 1
Electric dark correction enabled: true
Nonlinearity correction enabled: false
Boxcar width: 0
XAxis mode: Wavelengths
Number of Pixels in Spectrum: 2048
>>>>>Begin Spectral Data<<<<<
223.165	-0.25
223.4	-0.25
223.635	-0.25
223.869	-23.25
224.104	-24.25
224.338	-16.25
224.573	-3.25
224.808	-16.25
225.042	-3.25
225.277	0.75
225.511	1.75
225.746	-2.25
225.98	6.75
226.215	7.75
226.449	6.75
226.683	17.75
226.918	17.75
227.152	29.75
227.387	38.75
227.621	28.75
227.856	47.75
228.09	53.75
228.324	62.75
228.559	53.75
228.793	65.75
229.027	83.75
229.262	98.75
229.496	101.75
229.73	118.75
229.964	147.75
230.199	120.75
230.433	100.75
230.667	98.75
230.901	98.75
231.136	98.75
231.37	94.75
231.604	96.75
231.838	103.75
232.072	117.75
232.306	116.75
232.541	111.75
232.775	93.75
233.009	104.75
233.243	97.75
233.477	99.75
233.711	117.75
233.945	102.75
234.179	112.75
234.413	97.75
234.647	116.75
234.881	116.75
235.115	109.75
235.349	99.75
235.583	117.75
235.817	112.75
236.051	106.75
236.285	121.75
236.519	107.75
236.753	120.75
236.987	127.75
237.221	144.75
237.455	199.75
237.689	166.75
237.922	110.75
238.156	125.75
238.39	124.75
238.624	123.75
238.858	112.75
239.091	109.75
239.325	120.75
239.559	113.75
239.793	120.75
240.027	127.75
240.26	138.75
240.494	127.75
240.728	131.75
240.961	130.75
241.195	123.75
241.429	126.75
241.662	134.75
241.896	116.75
242.13	119.75
242.363	120.75
242.597	113.75
242.83	130.75
243.064	136.75
243.298	123.75
243.531	125.75
243.765	131.75
243.998	138.75
244.232	140.75
244.465	131.75
244.699	120.75
244.932	144.75
245.166	131.75
245.399	144.75
245.633	137.75
245.866	134.75
246.099	120.75
246.333	159.75
246.566	133.75
246.8	138.75
247.033	137.75
247.266	139.75
247.5	144.75
247.733	149.75
247.966	166.75
248.2	155.75
248.433	168.75
248.666	172.75
248.899	173.75
249.133	178.75
249.366	178.75
249.599	186.75
249.832	168.75
250.066	152.75
250.299	164.75
250.532	170.75
250.765	190.75
250.998	186.75
251.231	207.75
251.465	202.75
251.698	187.75
251.931	184.75
252.164	181.75
252.397	169.75
252.63	188.75
252.863	194.75
253.096	184.75
253.329	199.75
253.562	180.75
253.795	217.75
254.028	178.75
254.261	182.75
254.494	196.75
254.727	230.75
254.96	231.75
255.193	223.75
255.426	206.75
255.659	215.75
255.892	185.75
256.124	205.75
256.357	206.75
256.59	200.75
256.823	181.75
257.056	186.75
257.289	181.75
257.521	182.75
257.754	186.75
257.987	180.75
258.22	189.75
258.452	186.75
258.685	196.75
258.918	184.75
259.151	178.75
259.383	191.75
259.616	192.75
259.849	197.75
260.081	203.75
260.314	230.75
260.547	191.75
260.779	206.75
261.012	203.75
261.244	209.75
261.477	203.75
261.71	194.75
261.942	190.75
262.175	198.75
262.407	220.75
262.64	184.75
262.872	170.75
263.105	183.75
263.337	173.75
263.57	181.75
263.802	185.75
264.035	206.75
264.267	189.75
264.499	180.75
264.732	184.75
264.964	184.75
265.197	178.75
265.429	188.75
265.661	172.75
265.894	165.75
266.126	171.75
266.358	182.75
266.591	195.75
266.823	187.75
267.055	184.75
267.287	185.75
267.52	189.75
267.752	200.75
267.984	172.75
268.216	192.75
268.448	191.75
268.681	191.75
268.913	195.75
269.145	202.75
269.377	227.75
269.609	220.75
269.841	214.75
270.073	221.75
270.306	222.75
270.538	238.75
270.77	251.75
271.002	243.75
271.234	242.75
271.466	229.75
271.698	256.75
271.93	260.75
272.162	266.75
272.394	240.75
272.626	232.75
272.858	227.75
273.09	226.75
273.322	214.75
273.553	228.75
273.785	215.75
274.017	242.75
274.249	228.75
274.481	211.75
274.713	226.75
274.945	222.75
275.176	219.75
275.408	214.75
275.64	213.75
275.872	215.75
276.104	224.75
276.335	223.75
276.567	219.75
276.799	244.75
277.031	252.75
277.262	244.75
277.494	255.75
277.726	243.75
277.957	243.75
278.189	229.75
278.421	207.75
278.652	223.75
278.884	227.75
279.115	230.75
279.347	210.75
279.579	222.75
279.81	205.75
280.042	211.75
280.273	222.75
280.505	212.75
280.736	211.75
280.968	197.75
281.199	222.75
281.431	220.75
281.662	215.75
281.894	219.75
282.125	216.75
282.356	223.75
282.588	251.75
282.819	235.75
283.051	234.75
283.282	219.75
283.513	216.75
283.745	216.75
283.976	212.75
284.207	233.75
284.439	224.75
284.67	213.75
284.901	227.75
285.132	212.75
285.364	213.75
285.595	224.75
285.826	212.75
286.057	214.75
286.288	215.75
286.52	220.75
286.751	209.75
286.982	225.75
287.213	221.75
287.444	226.75
287.675	226.75
287.906	224.75
288.138	224.75
288.369	244.75
288.6	231.75
288.831	222.75
289.062	241.75
289.293	221.75
289.524	216.75
289.755	226.75
289.986	231.75
290.217	220.75
290.448	230.75
290.679	228.75
290.91	226.75
291.141	230.75
291.371	223.75
291.602	223.75
291.833	223.75
292.064	231.75
292.295	236.75
292.526	240.75
292.757	218.75
292.987	222.75
293.218	216.75
293.449	250.75
293.68	216.75
293.91	232.75
294.141	243.75
294.372	230.75
294.603	233.75
294.833	215.75
295.064	223.75
295.295	230.75
295.525	232.75
295.756	233.75
295.987	213.75
296.217	232.75
296.448	261.75
296.679	254.75
296.909	234.75
297.14	236.75
297.37	229.75
297.601	213.75
297.831	222.75
298.062	230.75
298.292	232.75
298.523	228.75
298.753	224.75
298.984	239.75
299.214	222.75
299.445	237.75
299.675	237.75
299.905	245.75
300.136	239.75
300.366	235.75
300.597	226.75
300.827	239.75
301.057	254.75
301.288	262.75
301.518	241.75
301.748	253.75
301.979	270.75
302.209	268.75
302.439	266.75
302.669	262.75
302.9	243.75
303.13	258.75
303.36	252.75
303.59	244.75
303.82	247.75
304.051	268.75
304.281	255.75
304.511	256.75
304.741	251.75
304.971	259.75
305.201	248.75
305.431	257.75
305.661	253.75
305.891	245.75
306.121	278.75
306.352	261.75
306.582	256.75
306.812	258.75
307.042	258.75
307.272	279.75
307.502	242.75
307.731	276.75
307.961	251.75
308.191	258.75
308.421	253.75
308.651	260.75
308.881	254.75
309.111	256.75
309.341	250.75
309.571	271.75
309.8	274.75
310.03	279.75
310.26	278.75
310.49	309.75
310.72	270.75
310.949	315.75
311.179	316.75
311.409	302.75
311.639	306.75
311.868	280.75
312.098	307.75
312.328	288.75
312.557	312.75
312.787	315.75
313.017	312.75
313.246	295.75
313.476	273.75
313.706	269.75
313.935	302.75
314.165	307.75
314.394	289.75
314.624	315.75
314.853	302.75
315.083	294.75
315.312	303.75
315.542	270.75
315.771	279.75
316.001	283.75
316.23	287.75
316.46	282.75
316.689	306.75
316.919	286.75
317.148	310.75
317.377	290.75
317.607	302.75
317.836	296.75
318.065	275.75
318.295	291.75
318.524	276.75
318.753	292.75
318.983	283.75
319.212	280.75
319.441	316.75
319.67	310.75
319.9	287.75
320.129	296.75
320.358	280.75
320.587	313.75
320.816	296.75
321.046	304.75
321.275	330.75
321.504	316.75
321.733	321.75
321.962	312.75
322.191	325.75
322.42	334.75
322.649	351.75
322.878	342.75
323.108	351.75
323.337	378.75
323.566	377.75
323.795	406.75
324.024	427.75
324.253	524.75
324.482	735.75
324.71	1140.75
324.939	1581.75
325.168	1404.75
325.397	724.75
325.626	474.75
325.855	449.75
326.084	395.75
326.313	384.75
326.542	402.75
326.77	418.75
326.999	478.75
327.228	656.75
327.457	1010.75
327.686	1197.75
327.914	826.75
328.143	556.75
328.372	489.75
328.6	430.75
328.829	434.75
329.058	446.75
329.287	430.75
329.515	395.75
329.744	406.75
329.972	396.75
330.201	403.75
330.43	396.75
330.658	453.75
330.887	451.75
331.115	456.75
331.344	408.75
331.572	364.75
331.801	390.75
332.03	376.75
332.258	347.75
332.486	332.75
332.715	344.75
332.943	348.75
333.172	355.75
333.4	343.75
333.629	331.75
333.857	362.75
334.085	357.75
334.314	371.75
334.542	379.75
334.771	381.75
334.999	373.75
335.227	361.75
335.455	347.75
335.684	370.75
335.912	330.75
336.14	341.75
336.369	348.75
336.597	342.75
336.825	352.75
337.053	339.75
337.281	345.75
337.51	330.75
337.738	346.75
337.966	333.75
338.194	326.75
338.422	343.75
338.65	356.75
338.878	359.75
339.106	332.75
339.334	336.75
339.562	323.75
339.79	322.75
340.018	359.75
340.246	345.75
340.474	342.75
340.702	359.75
340.93	354.75
341.158	340.75
341.386	332.75
341.614	352.75
341.842	331.75
342.07	341.75
342.298	340.75
342.526	328.75
342.754	327.75
342.981	328.75
343.209	327.75
343.437	340.75
343.665	338.75
343.893	329.75
344.12	343.75
344.348	334.75
344.576	321.75
344.804	345.75
345.031	352.75
345.259	375.75
345.487	358.75
345.714	336.75
345.942	319.75
346.17	345.75
346.397	344.75
346.625	333.75
346.853	345.75
347.08	326.75
347.308	333.75
347.535	324.75
347.763	338.75
347.99	339.75
348.218	345.75
348.445	342.75
348.673	342.75
348.9	338.75
349.128	344.75
349.355	351.75
349.583	322.75
349.81	306.75
350.037	324.75
350.265	315.75
350.492	330.75
350.72	324.75
350.947	336.75
351.174	342.75
351.402	344.75
351.629	349.75
351.856	330.75
352.083	356.75
352.311	341.75
352.538	339.75
352.765	358.75
352.992	349.75
353.22	328.75
353.447	341.75
353.674	340.75
353.901	342.75
354.128	307.75
354.355	325.75
354.583	329.75
354.81	322.75
355.037	325.75
355.264	319.75
355.491	328.75
355.718	313.75
355.945	314.75
356.172	320.75
356.399	323.75
356.626	328.75
356.853	312.75
357.08	318.75
357.307	324.75
357.534	318.75
357.761	324.75
357.988	328.75
358.215	322.75
358.441	303.75
358.668	318.75
358.895	330.75
359.122	339.75
359.349	327.75
359.576	328.75
359.802	351.75
360.029	377.75
360.256	387.75
360.483	394.75
360.709	346.75
360.936	340.75
361.163	319.75
361.39	328.75
361.616	332.75
361.843	333.75
362.07	343.75
362.296	349.75
362.523	348.75
362.749	335.75
362.976	331.75
363.203	329.75
363.429	325.75
363.656	342.75
363.882	329.75
364.109	324.75
364.335	319.75
364.562	326.75
364.788	334.75
365.015	347.75
365.241	324.75
365.468	337.75
365.694	353.75
365.92	341.75
366.147	336.75
366.373	340.75
366.599	328.75
366.826	340.75
367.052	331.75
367.278	345.75
367.505	352.75
367.731	344.75
367.957	349.75
368.184	339.75
368.41	327.75
368.636	360.75
368.862	349.75
369.089	360.75
369.315	344.75
369.541	349.75
369.767	323.75
369.993	337.75
370.219	333.75
370.445	342.75
370.672	345.75
370.898	346.75
371.124	324.75
371.35	321.75
371.576	354.75
371.802	340.75
372.028	349.75
372.254	363.75
372.48	324.75
372.706	332.75
372.932	355.75
373.158	348.75
373.384	342.75
373.61	339.75
373.835	318.75
374.061	339.75
374.287	328.75
374.513	342.75
374.739	339.75
374.965	351.75
375.191	352.75
375.416	346.75
375.642	337.75
375.868	344.75
376.094	355.75
376.319	355.75
376.545	348.75
376.771	330.75
376.997	349.75
377.222	338.75
377.448	331.75
377.674	354.75
377.899	338.75
378.125	351.75
378.35	341.75
378.576	342.75
378.802	328.75
379.027	338.75
379.253	334.75
379.478	358.75
379.704	334.75
379.929	339.75
380.155	350.75
380.38	343.75
380.606	343.75
380.831	349.75
381.057	343.75
381.282	339.75
381.507	347.75
381.733	352.75
381.958	356.75
382.184	358.75
382.409	355.75
382.634	343.75
382.86	348.75
383.085	351.75
383.31	360.75
383.535	342.75
383.761	365.75
383.986	350.75
384.211	362.75
384.436	372.75
384.662	372.75
384.887	375.75
385.112	351.75
385.337	371.75
385.562	375.75
385.787	383.75
386.013	380.75
386.238	362.75
386.463	388.75
386.688	360.75
386.913	360.75
387.138	386.75
387.363	388.75
387.588	380.75
387.813	391.75
388.038	367.75
388.263	360.75
388.488	380.75
388.713	378.75
388.938	373.75
389.163	396.75
389.387	372.75
389.612	380.75
389.837	379.75
390.062	355.75
390.287	360.75
390.512	370.75
390.736	382.75
390.961	381.75
391.186	368.75
391.411	379.75
391.636	371.75
391.86	370.75
392.085	370.75
392.31	377.75
392.534	386.75
392.759	407.75
392.984	394.75
393.208	389.75
393.433	413.75
393.658	422.75
393.882	394.75
394.107	374.75
394.331	380.75
394.556	379.75
394.78	387.75
395.005	339.75
395.229	388.75
395.454	392.75
395.678	391.75
395.903	387.75
396.127	423.75
396.352	421.75
396.576	392.75
396.801	396.75
397.025	410.75
397.249	422.75
397.474	407.75
397.698	403.75
397.922	400.75
398.147	422.75
398.371	421.75
398.595	412.75
398.82	430.75
399.044	428.75
399.268	467.75
399.492	435.75
399.717	470.75
399.941	510.75
400.165	526.75
400.389	521.75
400.613	491.75
400.837	454.75
401.062	442.75
401.286	436.75
401.51	428.75
401.734	436.75
401.958	428.75
402.182	434.75
402.406	447.75
402.63	455.75
402.854	438.75
403.078	462.75
403.302	431.75
403.526	443.75
403.75	451.75
403.974	436.75
404.198	428.75
404.422	419.75
404.645	431.75
404.869	443.75
405.093	460.75
405.317	478.75
405.541	522.75
405.765	485.75
405.988	468.75
406.212	480.75
406.436	476.75
406.66	491.75
406.883	482.75
407.107	510.75
407.331	523.75
407.555	600.75
407.778	598.75
408.002	528.75
408.226	488.75
408.449	480.75
408.673	473.75
408.896	536.75
409.12	556.75
409.344	529.75
409.567	471.75
409.791	484.75
410.014	448.75
410.238	476.75
410.461	461.75
410.685	463.75
410.908	469.75
411.132	511.75
411.355	530.75
411.578	469.75
411.802	468.75
412.025	456.75
412.249	438.75
412.472	443.75
412.695	482.75
412.919	483.75
413.142	431.75
413.365	440.75
413.589	432.75
413.812	424.75
414.035	448.75
414.258	409.75
414.482	437.75
414.705	427.75
414.928	450.75
415.151	441.75
415.374	421.75
415.597	422.75
415.821	442.75
416.044	428.75
416.267	413.75
416.49	403.75
416.713	427.75
416.936	416.75
417.159	429.75
417.382	430.75
417.605	437.75
417.828	446.75
418.051	445.75
418.274	436.75
418.497	437.75
418.72	425.75
418.943	421.75
419.166	471.75
419.389	465.75
419.611	463.75
419.834	461.75
420.057	462.75
420.28	442.75
420.503	456.75
420.726	440.75
420.948	461.75
421.171	520.75
421.394	505.75
421.617	476.75
421.839	444.75
422.062	469.75
422.285	458.75
422.507	517.75
422.73	591.75
422.953	591.75
423.175	513.75
423.398	468.75
423.621	466.75
423.843	500.75
424.066	480.75
424.288	510.75
424.511	503.75
424.733	536.75
424.956	615.75
425.178	595.75
425.401	597.75
425.623	610.75
425.846	533.75
426.068	512.75
426.291	484.75
426.513	479.75
426.735	488.75
426.958	523.75
427.18	608.75
427.402	709.75
427.625	803.75
427.847	671.75
428.069	598.75
428.292	517.75
428.514	522.75
428.736	486.75
428.958	487.75
429.181	453.75
429.403	465.75
429.625	485.75
429.847	490.75
430.069	562.75
430.292	545.75
430.514	481.75
430.736	444.75
430.958	457.75
431.18	438.75
431.402	435.75
431.624	434.75
431.846	418.75
432.068	414.75
432.29	429.75
432.512	440.75
432.734	450.75
432.956	436.75
433.178	464.75
433.4	459.75
433.622	454.75
433.844	450.75
434.066	426.75
434.287	422.75
434.509	425.75
434.731	431.75
434.953	460.75
435.175	464.75
435.397	473.75
435.618	487.75
435.84	526.75
436.062	605.75
436.284	664.75
436.505	578.75
436.727	506.75
436.949	469.75
437.17	473.75
437.392	479.75
437.614	459.75
437.835	480.75
438.057	588.75
438.278	647.75
438.5	684.75
438.721	734.75
438.943	698.75
439.165	576.75
439.386	507.75
439.608	522.75
439.829	527.75
440.05	528.75
440.272	566.75
440.493	521.75
440.715	493.75
440.936	499.75
441.158	476.75
441.379	483.75
441.6	498.75
441.822	493.75
442.043	534.75
442.264	592.75
442.486	626.75
442.707	542.75
442.928	494.75
443.149	513.75
443.371	526.75
443.592	558.75
443.813	618.75
444.034	697.75
444.255	589.75
444.476	522.75
444.698	485.75
444.919	511.75
445.14	573.75
445.361	523.75
445.582	507.75
445.803	585.75
446.024	674.75
446.245	664.75
446.466	639.75
446.687	508.75
446.908	493.75
447.129	485.75
447.35	481.75
447.571	484.75
447.792	449.75
448.013	462.75
448.234	479.75
448.455	551.75
448.675	635.75
448.896	713.75
449.117	605.75
449.338	551.75
449.559	674.75
449.779	735.75
450	582.75
450.221	521.75
450.442	482.75
450.662	455.75
450.883	463.75
451.104	466.75
451.324	465.75
451.545	438.75
451.766	439.75
451.986	412.75
452.207	417.75
452.428	416.75
452.648	427.75
452.869	406.75
453.089	439.75
453.31	425.75
453.53	436.75
453.751	427.75
453.971	427.75
454.192	437.75
454.412	424.75
454.633	412.75
454.853	422.75
455.073	423.75
455.294	448.75
455.514	483.75
455.734	474.75
455.955	437.75
456.175	394.75
456.395	388.75
456.616	386.75
456.836	381.75
457.056	395.75
457.276	396.75
457.497	404.75
457.717	395.75
457.937	396.75
458.157	393.75
458.377	407.75
458.598	426.75
458.818	463.75
459.038	506.75
459.258	543.75
459.478	472.75
459.698	443.75
459.918	442.75
460.138	430.75
460.358	448.75
460.578	438.75
460.798	431.75
461.018	411.75
461.238	422.75
461.458	462.75
461.678	430.75
461.898	420.75
462.118	421.75
462.338	458.75
462.558	464.75
462.777	458.75
462.997	480.75
463.217	467.75
463.437	471.75
463.657	471.75
463.876	464.75
464.096	481.75
464.316	460.75
464.536	447.75
464.755	488.75
464.975	475.75
465.195	482.75
465.414	522.75
465.634	489.75
465.854	465.75
466.073	462.75
466.293	455.75
466.512	448.75
466.732	422.75
466.951	411.75
467.171	438.75
467.391	435.75
467.61	436.75
467.829	433.75
468.049	440.75
468.268	415.75
468.488	411.75
468.707	411.75
468.927	419.75
469.146	398.75
469.365	402.75
469.585	415.75
469.804	439.75
470.023	448.75
470.243	423.75
470.462	416.75
470.681	466.75
470.901	448.75
471.12	431.75
471.339	434.75
471.558	440.75
471.777	439.75
471.997	428.75
472.216	436.75
472.435	444.75
472.654	447.75
472.873	444.75
473.092	429.75
473.311	405.75
473.53	423.75
473.749	425.75
473.968	483.75
474.187	538.75
474.406	575.75
474.625	483.75
474.844	458.75
475.063	424.75
475.282	435.75
475.501	454.75
475.72	447.75
475.939	452.75
476.158	446.75
476.377	471.75
476.596	452.75
476.814	464.75
477.033	447.75
477.252	469.75
477.471	453.75
477.69	465.75
477.908	462.75
478.127	484.75
478.346	471.75
478.564	492.75
478.783	471.75
479.002	499.75
479.22	485.75
479.439	489.75
479.658	527.75
479.876	516.75
480.095	525.75
480.313	532.75
480.532	536.75
480.751	531.75
480.969	520.75
481.188	547.75
481.406	573.75
481.624	537.75
481.843	539.75
482.061	520.75
482.28	499.75
482.498	497.75
482.717	520.75
482.935	500.75
483.153	499.75
483.372	526.75
483.59	520.75
483.808	517.75
484.027	494.75
484.245	518.75
484.463	503.75
484.681	498.75
484.9	540.75
485.118	536.75
485.336	507.75
485.554	515.75
485.772	530.75
485.99	520.75
486.209	538.75
486.427	534.75
486.645	534.75
486.863	564.75
487.081	556.75
487.299	549.75
487.517	549.75
487.735	553.75
487.953	575.75
488.171	564.75
488.389	575.75
488.607	574.75
488.825	556.75
489.043	554.75
489.261	547.75
489.479	562.75
489.696	586.75
489.914	574.75
490.132	559.75
490.35	602.75
490.568	581.75
490.786	609.75
491.003	597.75
491.221	630.75
491.439	621.75
491.657	630.75
491.874	650.75
492.092	641.75
492.31	638.75
492.527	652.75
492.745	637.75
492.963	648.75
493.18	655.75
493.398	636.75
493.615	659.75
493.833	682.75
494.05	669.75
494.268	644.75
494.485	638.75
494.703	676.75
494.92	696.75
495.138	676.75
495.355	668.75
495.573	662.75
495.79	646.75
496.008	678.75
496.225	698.75
496.442	669.75
496.66	682.75
496.877	694.75
497.094	713.75
497.312	651.75
497.529	702.75
497.746	690.75
497.963	698.75
498.181	710.75
498.398	682.75
498.615	719.75
498.832	728.75
499.049	741.75
499.267	759.75
499.484	766.75
499.701	788.75
499.918	802.75
500.135	810.75
500.352	853.75
500.569	851.75
500.786	880.75
501.003	852.75
501.22	828.75
501.437	840.75
501.654	807.75
501.871	802.75
