Data from 1971.PennyLincolnUp.Lamp.En5.5.200Scan.071719.P1._HRD10591_15-19-22-841.txt Node
Date: Thu Jul 18 15:19:22 EDT 2019
User: cochatt
Spectrometer: HR+D1059
Trigger mode: 1
Integration Time (sec): 1.000000E-1
Scans to average: 1
Electric dark correction enabled: true
Nonlinearity correction enabled: false
Boxcar width: 0
XAxis mode: Wavelengths
Number of Pixels in Spectrum: 2048
>>>>>Begin Spectral Data<<<<<
223.165	-26.62
223.4	-26.62
223.635	-26.62
223.869	-4.62
224.104	-22.62
224.338	-4.62
224.573	-26.62
224.808	-23.62
225.042	3.38
225.277	4.38
225.511	-3.62
225.746	-0.62
225.98	5.38
226.215	21.38
226.449	16.38
226.683	5.38
226.918	32.38
227.152	24.38
227.387	34.38
227.621	33.38
227.856	52.38
228.09	44.38
228.324	43.38
228.559	30.38
228.793	70.38
229.027	99.38
229.262	107.38
229.496	107.38
229.73	125.38
229.964	141.38
230.199	117.38
230.433	105.38
230.667	108.38
230.901	114.38
231.136	105.38
231.37	118.38
231.604	97.38
231.838	117.38
232.072	117.38
232.306	116.38
232.541	124.38
232.775	121.38
233.009	110.38
233.243	108.38
233.477	108.38
233.711	108.38
233.945	102.38
234.179	97.38
234.413	108.38
234.647	115.38
234.881	125.38
235.115	117.38
235.349	113.38
235.583	102.38
235.817	107.38
236.051	128.38
236.285	115.38
236.519	124.38
236.753	124.38
236.987	133.38
237.221	172.38
237.455	200.38
237.689	170.38
237.922	135.38
238.156	126.38
238.39	126.38
238.624	124.38
238.858	124.38
239.091	116.38
239.325	134.38
239.559	141.38
239.793	117.38
240.027	134.38
240.26	137.38
240.494	135.38
240.728	151.38
240.961	126.38
241.195	146.38
241.429	132.38
241.662	129.38
241.896	142.38
242.13	129.38
242.363	132.38
242.597	138.38
242.83	142.38
243.064	134.38
243.298	132.38
243.531	126.38
243.765	129.38
243.998	129.38
244.232	143.38
244.465	138.38
244.699	147.38
244.932	147.38
245.166	137.38
245.399	153.38
245.633	137.38
245.866	153.38
246.099	155.38
246.333	159.38
246.566	159.38
246.8	153.38
247.033	147.38
247.266	143.38
247.5	173.38
247.733	164.38
247.966	180.38
248.2	164.38
248.433	182.38
248.666	180.38
248.899	176.38
249.133	194.38
249.366	193.38
249.599	190.38
249.832	205.38
250.066	183.38
250.299	183.38
250.532	202.38
250.765	193.38
250.998	211.38
251.231	221.38
251.465	228.38
251.698	197.38
251.931	195.38
252.164	188.38
252.397	193.38
252.63	199.38
252.863	217.38
253.096	215.38
253.329	217.38
253.562	230.38
253.795	225.38
254.028	221.38
254.261	220.38
254.494	237.38
254.727	246.38
254.96	261.38
255.193	276.38
255.426	246.38
255.659	236.38
255.892	243.38
256.124	234.38
256.357	233.38
256.59	221.38
256.823	216.38
257.056	214.38
257.289	220.38
257.521	222.38
257.754	209.38
257.987	216.38
258.22	197.38
258.452	218.38
258.685	232.38
258.918	202.38
259.151	215.38
259.383	236.38
259.616	221.38
259.849	225.38
260.081	255.38
260.314	244.38
260.547	250.38
260.779	247.38
261.012	243.38
261.244	225.38
261.477	224.38
261.71	219.38
261.942	223.38
262.175	237.38
262.407	219.38
262.64	213.38
262.872	229.38
263.105	226.38
263.337	225.38
263.57	239.38
263.802	221.38
264.035	220.38
264.267	215.38
264.499	209.38
264.732	225.38
264.964	224.38
265.197	228.38
265.429	237.38
265.661	231.38
265.894	216.38
266.126	245.38
266.358	229.38
266.591	213.38
266.823	225.38
267.055	244.38
267.287	230.38
267.52	250.38
267.752	231.38
267.984	227.38
268.216	226.38
268.448	212.38
268.681	240.38
268.913	248.38
269.145	281.38
269.377	286.38
269.609	288.38
269.841	279.38
270.073	287.38
270.306	300.38
270.538	311.38
270.77	299.38
271.002	295.38
271.234	298.38
271.466	321.38
271.698	325.38
271.93	330.38
272.162	337.38
272.394	325.38
272.626	311.38
272.858	299.38
273.09	279.38
273.322	262.38
273.553	273.38
273.785	271.38
274.017	263.38
274.249	269.38
274.481	285.38
274.713	279.38
274.945	281.38
275.176	250.38
275.408	255.38
275.64	273.38
275.872	271.38
276.104	263.38
276.335	277.38
276.567	285.38
276.799	299.38
277.031	324.38
277.262	322.38
277.494	332.38
277.726	317.38
277.957	287.38
278.189	290.38
278.421	279.38
278.652	284.38
278.884	287.38
279.115	252.38
279.347	260.38
279.579	264.38
279.81	265.38
280.042	285.38
280.273	261.38
280.505	287.38
280.736	290.38
280.968	282.38
281.199	274.38
281.431	274.38
281.662	278.38
281.894	285.38
282.125	286.38
282.356	273.38
282.588	314.38
282.819	314.38
283.051	283.38
283.282	277.38
283.513	253.38
283.745	276.38
283.976	285.38
284.207	273.38
284.439	283.38
284.67	285.38
284.901	282.38
285.132	289.38
285.364	292.38
285.595	298.38
285.826	291.38
286.057	283.38
286.288	267.38
286.52	289.38
286.751	281.38
286.982	284.38
287.213	272.38
287.444	277.38
287.675	278.38
287.906	302.38
288.138	288.38
288.369	287.38
288.6	312.38
288.831	307.38
289.062	293.38
289.293	304.38
289.524	289.38
289.755	297.38
289.986	304.38
290.217	291.38
290.448	286.38
290.679	295.38
290.91	281.38
291.141	293.38
291.371	320.38
291.602	290.38
291.833	285.38
292.064	293.38
292.295	292.38
292.526	298.38
292.757	310.38
292.987	311.38
293.218	312.38
293.449	292.38
293.68	307.38
293.91	317.38
294.141	309.38
294.372	287.38
294.603	299.38
294.833	307.38
295.064	315.38
295.295	305.38
295.525	306.38
295.756	311.38
295.987	294.38
296.217	323.38
296.448	344.38
296.679	321.38
296.909	310.38
297.14	285.38
297.37	301.38
297.601	301.38
297.831	316.38
298.062	298.38
298.292	305.38
298.523	299.38
298.753	313.38
298.984	323.38
299.214	315.38
299.445	312.38
299.675	329.38
299.905	327.38
300.136	306.38
300.366	308.38
300.597	316.38
300.827	323.38
301.057	318.38
301.288	322.38
301.518	333.38
301.748	310.38
301.979	321.38
302.209	339.38
302.439	342.38
302.669	335.38
302.9	314.38
303.13	340.38
303.36	344.38
303.59	354.38
303.82	348.38
304.051	335.38
304.281	345.38
304.511	323.38
304.741	326.38
304.971	314.38
305.201	338.38
305.431	338.38
305.661	322.38
305.891	333.38
306.121	347.38
306.352	354.38
306.582	334.38
306.812	341.38
307.042	363.38
307.272	319.38
307.502	332.38
307.731	352.38
307.961	339.38
308.191	341.38
308.421	335.38
308.651	349.38
308.881	342.38
309.111	346.38
309.341	339.38
309.571	346.38
309.8	372.38
310.03	356.38
310.26	386.38
310.49	401.38
310.72	383.38
310.949	392.38
311.179	377.38
311.409	379.38
311.639	382.38
311.868	379.38
312.098	380.38
312.328	388.38
312.557	404.38
312.787	402.38
313.017	414.38
313.246	409.38
313.476	382.38
313.706	382.38
313.935	375.38
314.165	387.38
314.394	380.38
314.624	390.38
314.853	399.38
315.083	387.38
315.312	403.38
315.542	375.38
315.771	374.38
316.001	383.38
316.23	384.38
316.46	377.38
316.689	378.38
316.919	380.38
317.148	390.38
317.377	369.38
317.607	389.38
317.836	396.38
318.065	381.38
318.295	374.38
318.524	383.38
318.753	385.38
318.983	368.38
319.212	371.38
319.441	386.38
319.67	398.38
319.9	397.38
320.129	386.38
320.358	409.38
320.587	375.38
320.816	393.38
321.046	404.38
321.275	406.38
321.504	399.38
321.733	402.38
321.962	419.38
322.191	425.38
322.42	424.38
322.649	450.38
322.878	448.38
323.108	450.38
323.337	442.38
323.566	475.38
323.795	510.38
324.024	570.38
324.253	678.38
324.482	971.38
324.71	1411.38
324.939	1939.38
325.168	1600.38
325.397	878.38
325.626	619.38
325.855	517.38
326.084	507.38
326.313	477.38
326.542	505.38
326.77	546.38
326.999	643.38
327.228	843.38
327.457	1216.38
327.686	1439.38
327.914	953.38
328.143	659.38
328.372	594.38
328.6	557.38
328.829	538.38
329.058	550.38
329.287	546.38
329.515	495.38
329.744	472.38
329.972	499.38
330.201	492.38
330.43	521.38
330.658	551.38
330.887	567.38
331.115	555.38
331.344	498.38
331.572	491.38
331.801	476.38
332.03	485.38
332.258	459.38
332.486	436.38
332.715	434.38
332.943	439.38
333.172	457.38
333.4	441.38
333.629	467.38
333.857	483.38
334.085	468.38
334.314	477.38
334.542	503.38
334.771	515.38
334.999	476.38
335.227	470.38
335.455	432.38
335.684	453.38
335.912	435.38
336.14	449.38
336.369	428.38
336.597	435.38
336.825	459.38
337.053	447.38
337.281	425.38
337.51	423.38
337.738	446.38
337.966	426.38
338.194	445.38
338.422	439.38
338.65	431.38
338.878	413.38
339.106	441.38
339.334	412.38
339.562	404.38
339.79	408.38
340.018	417.38
340.246	427.38
340.474	423.38
340.702	413.38
340.93	435.38
341.158	411.38
341.386	430.38
341.614	417.38
341.842	407.38
342.07	400.38
342.298	405.38
342.526	413.38
342.754	404.38
342.981	410.38
343.209	389.38
343.437	399.38
343.665	402.38
343.893	425.38
344.12	433.38
344.348	397.38
344.576	420.38
344.804	412.38
345.031	446.38
345.259	417.38
345.487	429.38
345.714	439.38
345.942	415.38
346.17	402.38
346.397	395.38
346.625	409.38
346.853	405.38
347.08	405.38
347.308	399.38
347.535	410.38
347.763	413.38
347.99	399.38
348.218	419.38
348.445	409.38
348.673	395.38
348.9	397.38
349.128	394.38
349.355	392.38
349.583	375.38
349.81	383.38
350.037	377.38
350.265	365.38
350.492	373.38
350.72	393.38
350.947	404.38
351.174	409.38
351.402	398.38
351.629	405.38
351.856	396.38
352.083	395.38
352.311	411.38
352.538	406.38
352.765	410.38
352.992	405.38
353.22	395.38
353.447	402.38
353.674	392.38
353.901	376.38
354.128	361.38
354.355	383.38
354.583	375.38
354.81	360.38
355.037	375.38
355.264	357.38
355.491	381.38
355.718	390.38
355.945	379.38
356.172	376.38
356.399	373.38
356.626	364.38
356.853	350.38
357.08	346.38
357.307	363.38
357.534	363.38
357.761	355.38
357.988	374.38
358.215	366.38
358.441	358.38
358.668	365.38
358.895	349.38
359.122	366.38
359.349	365.38
359.576	390.38
359.802	375.38
360.029	424.38
360.256	425.38
360.483	398.38
360.709	381.38
360.936	388.38
361.163	387.38
361.39	386.38
361.616	393.38
361.843	383.38
362.07	387.38
362.296	371.38
362.523	384.38
362.749	389.38
362.976	385.38
363.203	376.38
363.429	360.38
363.656	357.38
363.882	374.38
364.109	349.38
364.335	373.38
364.562	359.38
364.788	365.38
365.015	361.38
365.241	378.38
365.468	367.38
365.694	362.38
365.92	386.38
366.147	364.38
366.373	371.38
366.599	367.38
366.826	369.38
367.052	355.38
367.278	367.38
367.505	378.38
367.731	387.38
367.957	365.38
368.184	355.38
368.41	347.38
368.636	376.38
368.862	377.38
369.089	366.38
369.315	366.38
369.541	366.38
369.767	359.38
369.993	358.38
370.219	375.38
370.445	357.38
370.672	357.38
370.898	366.38
371.124	376.38
371.35	358.38
371.576	355.38
371.802	350.38
372.028	350.38
372.254	362.38
372.48	359.38
372.706	367.38
372.932	338.38
373.158	366.38
373.384	359.38
373.61	366.38
373.835	374.38
374.061	362.38
374.287	360.38
374.513	362.38
374.739	370.38
374.965	358.38
375.191	356.38
375.416	371.38
375.642	377.38
375.868	367.38
376.094	364.38
376.319	351.38
376.545	377.38
376.771	371.38
376.997	347.38
377.222	343.38
377.448	356.38
377.674	353.38
377.899	366.38
378.125	359.38
378.35	337.38
378.576	342.38
378.802	364.38
379.027	355.38
379.253	366.38
379.478	337.38
379.704	355.38
379.929	347.38
380.155	355.38
380.38	357.38
380.606	362.38
380.831	367.38
381.057	350.38
381.282	362.38
381.507	344.38
381.733	344.38
381.958	331.38
382.184	341.38
382.409	342.38
382.634	351.38
382.86	364.38
383.085	345.38
383.31	345.38
383.535	360.38
383.761	377.38
383.986	376.38
384.211	346.38
384.436	362.38
384.662	373.38
384.887	364.38
385.112	369.38
385.337	366.38
385.562	357.38
385.787	380.38
386.013	381.38
386.238	395.38
386.463	374.38
386.688	381.38
386.913	365.38
387.138	367.38
387.363	370.38
387.588	387.38
387.813	382.38
388.038	373.38
388.263	385.38
388.488	376.38
388.713	369.38
388.938	382.38
389.163	372.38
389.387	379.38
389.612	352.38
389.837	371.38
390.062	361.38
390.287	376.38
390.512	375.38
390.736	360.38
390.961	367.38
391.186	376.38
391.411	373.38
391.636	356.38
391.86	389.38
392.085	370.38
392.31	377.38
392.534	383.38
392.759	401.38
392.984	388.38
393.208	386.38
393.433	377.38
393.658	386.38
393.882	365.38
394.107	389.38
394.331	370.38
394.556	392.38
394.78	384.38
395.005	359.38
395.229	393.38
395.454	385.38
395.678	386.38
395.903	396.38
396.127	395.38
396.352	409.38
396.576	381.38
396.801	397.38
397.025	387.38
397.249	391.38
397.474	415.38
397.698	391.38
397.922	384.38
398.147	422.38
398.371	408.38
398.595	425.38
398.82	412.38
399.044	416.38
399.268	428.38
399.492	443.38
399.717	462.38
399.941	490.38
400.165	509.38
400.389	531.38
400.613	467.38
400.837	446.38
401.062	424.38
401.286	403.38
401.51	391.38
401.734	419.38
401.958	403.38
402.182	422.38
402.406	421.38
402.63	410.38
402.854	434.38
403.078	419.38
403.302	413.38
403.526	438.38
403.75	427.38
403.974	408.38
404.198	446.38
404.422	435.38
404.645	444.38
404.869	421.38
405.093	467.38
405.317	478.38
405.541	530.38
405.765	464.38
405.988	451.38
406.212	474.38
406.436	479.38
406.66	463.38
406.883	458.38
407.107	475.38
407.331	524.38
407.555	577.38
407.778	547.38
408.002	492.38
408.226	471.38
408.449	463.38
408.673	468.38
408.896	472.38
409.12	510.38
409.344	515.38
409.567	454.38
409.791	431.38
410.014	438.38
410.238	433.38
410.461	427.38
410.685	453.38
410.908	453.38
411.132	467.38
411.355	486.38
411.578	475.38
411.802	425.38
412.025	413.38
412.249	446.38
412.472	441.38
412.695	485.38
412.919	469.38
413.142	429.38
413.365	413.38
413.589	420.38
413.812	413.38
414.035	421.38
414.258	409.38
414.482	401.38
414.705	398.38
414.928	399.38
415.151	406.38
415.374	394.38
415.597	397.38
415.821	411.38
416.044	394.38
416.267	400.38
416.49	406.38
416.713	386.38
416.936	421.38
417.159	413.38
417.382	393.38
417.605	390.38
417.828	415.38
418.051	443.38
418.274	415.38
418.497	422.38
418.72	394.38
418.943	381.38
419.166	405.38
419.389	426.38
419.611	433.38
419.834	427.38
420.057	426.38
420.28	415.38
420.503	420.38
420.726	434.38
420.948	430.38
421.171	463.38
421.394	507.38
421.617	432.38
421.839	430.38
422.062	426.38
422.285	425.38
422.507	479.38
422.73	545.38
422.953	528.38
423.175	464.38
423.398	444.38
423.621	435.38
423.843	452.38
424.066	464.38
424.288	468.38
424.511	474.38
424.733	491.38
424.956	554.38
425.178	551.38
425.401	525.38
425.623	556.38
425.846	484.38
426.068	453.38
426.291	446.38
426.513	455.38
426.735	447.38
426.958	494.38
427.18	568.38
427.402	654.38
427.625	731.38
427.847	615.38
428.069	533.38
428.292	475.38
428.514	449.38
428.736	434.38
428.958	421.38
429.181	395.38
429.403	422.38
429.625	422.38
429.847	438.38
430.069	494.38
430.292	504.38
430.514	435.38
430.736	420.38
430.958	400.38
431.18	400.38
431.402	382.38
431.624	388.38
431.846	396.38
432.068	397.38
432.29	405.38
432.512	380.38
432.734	418.38
432.956	405.38
433.178	405.38
433.4	407.38
433.622	387.38
433.844	395.38
434.066	396.38
434.287	378.38
434.509	370.38
434.731	381.38
434.953	416.38
435.175	400.38
435.397	442.38
435.618	456.38
435.84	492.38
436.062	565.38
436.284	622.38
436.505	509.38
436.727	455.38
436.949	431.38
437.17	433.38
437.392	395.38
437.614	439.38
437.835	468.38
438.057	540.38
438.278	619.38
438.5	598.38
438.721	681.38
438.943	616.38
439.165	497.38
439.386	487.38
439.608	460.38
439.829	481.38
440.05	485.38
440.272	522.38
440.493	473.38
440.715	436.38
440.936	419.38
441.158	430.38
441.379	424.38
441.6	444.38
441.822	444.38
442.043	490.38
442.264	545.38
442.486	561.38
442.707	507.38
442.928	447.38
443.149	468.38
443.371	476.38
443.592	515.38
443.813	596.38
444.034	625.38
444.255	509.38
444.476	462.38
444.698	442.38
444.919	443.38
445.14	548.38
445.361	512.38
445.582	520.38
445.803	541.38
446.024	601.38
446.245	599.38
446.466	570.38
446.687	500.38
446.908	470.38
447.129	434.38
447.35	403.38
447.571	405.38
447.792	420.38
448.013	421.38
448.234	441.38
448.455	489.38
448.675	575.38
448.896	656.38
449.117	543.38
449.338	540.38
449.559	605.38
449.779	672.38
450	541.38
450.221	472.38
450.442	425.38
450.662	389.38
450.883	410.38
451.104	436.38
451.324	421.38
451.545	405.38
451.766	386.38
451.986	371.38
452.207	365.38
452.428	355.38
452.648	374.38
452.869	367.38
453.089	380.38
453.31	381.38
453.53	374.38
453.751	371.38
453.971	372.38
454.192	386.38
454.412	382.38
454.633	374.38
454.853	372.38
455.073	361.38
455.294	393.38
455.514	446.38
455.734	420.38
455.955	373.38
456.175	355.38
456.395	344.38
456.616	337.38
456.836	341.38
457.056	346.38
457.276	347.38
457.497	354.38
457.717	335.38
457.937	354.38
458.157	333.38
458.377	351.38
458.598	366.38
458.818	419.38
459.038	467.38
459.258	478.38
459.478	430.38
459.698	393.38
459.918	374.38
460.138	392.38
460.358	399.38
460.578	381.38
460.798	364.38
461.018	393.38
461.238	389.38
461.458	393.38
461.678	376.38
461.898	404.38
462.118	359.38
462.338	410.38
462.558	390.38
462.777	413.38
462.997	409.38
463.217	419.38
463.437	427.38
463.657	401.38
463.876	408.38
464.096	426.38
464.316	414.38
464.536	421.38
464.755	423.38
464.975	409.38
465.195	421.38
465.414	491.38
465.634	430.38
465.854	413.38
466.073	399.38
466.293	387.38
466.512	366.38
466.732	387.38
466.951	381.38
467.171	377.38
467.391	379.38
467.61	385.38
467.829	381.38
468.049	381.38
468.268	382.38
468.488	364.38
468.707	362.38
468.927	344.38
469.146	357.38
469.365	371.38
469.585	370.38
469.804	386.38
470.023	383.38
470.243	382.38
470.462	374.38
470.681	399.38
470.901	385.38
471.12	391.38
471.339	386.38
471.558	413.38
471.777	403.38
471.997	369.38
472.216	392.38
472.435	414.38
472.654	382.38
472.873	389.38
473.092	376.38
473.311	371.38
473.53	392.38
473.749	419.38
473.968	421.38
474.187	515.38
474.406	513.38
474.625	430.38
474.844	411.38
475.063	392.38
475.282	387.38
475.501	388.38
475.72	391.38
475.939	385.38
476.158	386.38
476.377	385.38
476.596	379.38
476.814	389.38
477.033	405.38
477.252	414.38
477.471	392.38
477.69	388.38
477.908	405.38
478.127	423.38
478.346	437.38
478.564	412.38
478.783	410.38
479.002	436.38
479.22	437.38
479.439	418.38
479.658	422.38
479.876	466.38
480.095	456.38
480.313	481.38
480.532	463.38
480.751	429.38
480.969	479.38
481.188	497.38
481.406	507.38
481.624	486.38
481.843	468.38
482.061	452.38
482.28	459.38
482.498	447.38
482.717	445.38
482.935	455.38
483.153	427.38
483.372	442.38
483.59	430.38
483.808	445.38
484.027	429.38
484.245	457.38
484.463	459.38
484.681	451.38
484.9	454.38
485.118	449.38
485.336	472.38
485.554	470.38
485.772	457.38
485.99	446.38
486.209	439.38
486.427	430.38
486.645	455.38
486.863	467.38
487.081	477.38
487.299	468.38
487.517	475.38
487.735	466.38
487.953	452.38
488.171	461.38
488.389	469.38
488.607	460.38
488.825	489.38
489.043	474.38
489.261	473.38
489.479	484.38
489.696	489.38
489.914	501.38
490.132	491.38
490.35	481.38
490.568	483.38
490.786	523.38
491.003	505.38
491.221	518.38
491.439	526.38
491.657	536.38
491.874	552.38
492.092	562.38
492.31	553.38
492.527	536.38
492.745	546.38
492.963	543.38
493.18	565.38
493.398	551.38
493.615	538.38
493.833	571.38
494.05	582.38
494.268	566.38
494.485	566.38
494.703	548.38
494.92	555.38
495.138	563.38
495.355	571.38
495.573	561.38
495.79	570.38
496.008	555.38
496.225	572.38
496.442	559.38
496.66	603.38
496.877	562.38
497.094	574.38
497.312	551.38
497.529	568.38
497.746	596.38
497.963	586.38
498.181	612.38
498.398	593.38
498.615	625.38
498.832	611.38
499.049	623.38
499.267	648.38
499.484	653.38
499.701	681.38
499.918	683.38
500.135	681.38
500.352	732.38
500.569	743.38
500.786	757.38
501.003	726.38
501.22	738.38
501.437	711.38
501.654	681.38
501.871	661.38
502.088	655.38
