Data from 1971.PennyLincolnUp.Lamp.En5.5.200Scan.071719.P1.Scan 2. Changed Angle._HRD10591_15-23-29-842.txt Node
Date: Thu Jul 18 15:23:29 EDT 2019
User: cochatt
Spectrometer: HR+D1059
Trigger mode: 1
Integration Time (sec): 1.000000E-1
Scans to average: 1
Electric dark correction enabled: true
Nonlinearity correction enabled: false
Boxcar width: 0
XAxis mode: Wavelengths
Number of Pixels in Spectrum: 2048
>>>>>Begin Spectral Data<<<<<
223.165	-13.44
223.4	-13.44
223.635	-13.44
223.869	-16.44
224.104	-22.44
224.338	-15.44
224.573	-16.44
224.808	-22.44
225.042	-9.44
225.277	-3.44
225.511	1.56
225.746	16.56
225.98	10.56
226.215	-1.44
226.449	24.56
226.683	10.56
226.918	22.56
227.152	34.56
227.387	25.56
227.621	22.56
227.856	62.56
228.09	49.56
228.324	44.56
228.559	58.56
228.793	63.56
229.027	98.56
229.262	110.56
229.496	135.56
229.73	144.56
229.964	172.56
230.199	141.56
230.433	113.56
230.667	126.56
230.901	115.56
231.136	118.56
231.37	110.56
231.604	115.56
231.838	122.56
232.072	123.56
232.306	120.56
232.541	120.56
232.775	119.56
233.009	105.56
233.243	124.56
233.477	123.56
233.711	114.56
233.945	126.56
234.179	112.56
234.413	116.56
234.647	105.56
234.881	128.56
235.115	128.56
235.349	123.56
235.583	116.56
235.817	128.56
236.051	130.56
236.285	140.56
236.519	129.56
236.753	151.56
236.987	148.56
237.221	209.56
237.455	268.56
237.689	202.56
237.922	154.56
238.156	143.56
238.39	140.56
238.624	134.56
238.858	124.56
239.091	137.56
239.325	108.56
239.559	126.56
239.793	130.56
240.027	141.56
240.26	144.56
240.494	162.56
240.728	146.56
240.961	156.56
241.195	147.56
241.429	149.56
241.662	140.56
241.896	149.56
242.13	141.56
242.363	135.56
242.597	149.56
242.83	152.56
243.064	143.56
243.298	140.56
243.531	152.56
243.765	142.56
243.998	143.56
244.232	149.56
244.465	146.56
244.699	157.56
244.932	149.56
245.166	154.56
245.399	164.56
245.633	147.56
245.866	143.56
246.099	151.56
246.333	132.56
246.566	160.56
246.8	168.56
247.033	149.56
247.266	170.56
247.5	163.56
247.733	178.56
247.966	191.56
248.2	160.56
248.433	182.56
248.666	174.56
248.899	198.56
249.133	222.56
249.366	223.56
249.599	205.56
249.832	207.56
250.066	199.56
250.299	195.56
250.532	217.56
250.765	224.56
250.998	237.56
251.231	256.56
251.465	236.56
251.698	228.56
251.931	214.56
252.164	212.56
252.397	205.56
252.63	208.56
252.863	226.56
253.096	250.56
253.329	255.56
253.562	235.56
253.795	233.56
254.028	243.56
254.261	233.56
254.494	231.56
254.727	270.56
254.96	291.56
255.193	288.56
255.426	279.56
255.659	255.56
255.892	257.56
256.124	238.56
256.357	246.56
256.59	236.56
256.823	226.56
257.056	227.56
257.289	219.56
257.521	203.56
257.754	215.56
257.987	229.56
258.22	207.56
258.452	209.56
258.685	212.56
258.918	217.56
259.151	223.56
259.383	229.56
259.616	262.56
259.849	234.56
260.081	254.56
260.314	268.56
260.547	274.56
260.779	263.56
261.012	263.56
261.244	234.56
261.477	227.56
261.71	219.56
261.942	265.56
262.175	254.56
262.407	218.56
262.64	231.56
262.872	221.56
263.105	210.56
263.337	224.56
263.57	225.56
263.802	234.56
264.035	219.56
264.267	216.56
264.499	232.56
264.732	211.56
264.964	203.56
265.197	214.56
265.429	220.56
265.661	217.56
265.894	204.56
266.126	206.56
266.358	206.56
266.591	206.56
266.823	227.56
267.055	229.56
267.287	237.56
267.52	237.56
267.752	219.56
267.984	234.56
268.216	233.56
268.448	235.56
268.681	252.56
268.913	243.56
269.145	269.56
269.377	272.56
269.609	266.56
269.841	275.56
270.073	272.56
270.306	289.56
270.538	322.56
270.77	353.56
271.002	316.56
271.234	304.56
271.466	321.56
271.698	322.56
271.93	345.56
272.162	340.56
272.394	318.56
272.626	316.56
272.858	305.56
273.09	273.56
273.322	306.56
273.553	277.56
273.785	276.56
274.017	270.56
274.249	267.56
274.481	251.56
274.713	267.56
274.945	267.56
275.176	263.56
275.408	271.56
275.64	266.56
275.872	243.56
276.104	265.56
276.335	253.56
276.567	262.56
276.799	290.56
277.031	284.56
277.262	323.56
277.494	331.56
277.726	303.56
277.957	294.56
278.189	290.56
278.421	243.56
278.652	277.56
278.884	275.56
279.115	263.56
279.347	280.56
279.579	257.56
279.81	269.56
280.042	248.56
280.273	266.56
280.505	263.56
280.736	258.56
280.968	254.56
281.199	262.56
281.431	270.56
281.662	246.56
281.894	258.56
282.125	253.56
282.356	278.56
282.588	310.56
282.819	323.56
283.051	269.56
283.282	247.56
283.513	256.56
283.745	266.56
283.976	276.56
284.207	260.56
284.439	253.56
284.67	272.56
284.901	276.56
285.132	269.56
285.364	262.56
285.595	252.56
285.826	261.56
286.057	256.56
286.288	249.56
286.52	259.56
286.751	269.56
286.982	252.56
287.213	258.56
287.444	263.56
287.675	264.56
287.906	268.56
288.138	284.56
288.369	283.56
288.6	311.56
288.831	279.56
289.062	292.56
289.293	282.56
289.524	280.56
289.755	290.56
289.986	286.56
290.217	270.56
290.448	262.56
290.679	258.56
290.91	276.56
291.141	275.56
291.371	301.56
291.602	279.56
291.833	273.56
292.064	270.56
292.295	263.56
292.526	277.56
292.757	277.56
292.987	251.56
293.218	264.56
293.449	272.56
293.68	271.56
293.91	287.56
294.141	284.56
294.372	272.56
294.603	274.56
294.833	271.56
295.064	278.56
295.295	270.56
295.525	267.56
295.756	294.56
295.987	292.56
296.217	326.56
296.448	319.56
296.679	301.56
296.909	291.56
297.14	275.56
297.37	272.56
297.601	284.56
297.831	271.56
298.062	290.56
298.292	292.56
298.523	286.56
298.753	295.56
298.984	286.56
299.214	296.56
299.445	283.56
299.675	268.56
299.905	279.56
300.136	301.56
300.366	310.56
300.597	298.56
300.827	304.56
301.057	314.56
301.288	314.56
301.518	317.56
301.748	290.56
301.979	327.56
302.209	331.56
302.439	302.56
302.669	306.56
302.9	313.56
303.13	312.56
303.36	308.56
303.59	300.56
303.82	318.56
304.051	317.56
304.281	312.56
304.511	291.56
304.741	288.56
304.971	308.56
305.201	316.56
305.431	300.56
305.661	319.56
305.891	319.56
306.121	322.56
306.352	317.56
306.582	322.56
306.812	297.56
307.042	322.56
307.272	299.56
307.502	325.56
307.731	332.56
307.961	326.56
308.191	314.56
308.421	318.56
308.651	328.56
308.881	324.56
309.111	341.56
309.341	324.56
309.571	355.56
309.8	351.56
310.03	351.56
310.26	380.56
310.49	365.56
310.72	374.56
310.949	408.56
311.179	381.56
311.409	361.56
311.639	351.56
311.868	362.56
312.098	366.56
312.328	382.56
312.557	391.56
312.787	398.56
313.017	413.56
313.246	366.56
313.476	365.56
313.706	371.56
313.935	370.56
314.165	372.56
314.394	396.56
314.624	388.56
314.853	383.56
315.083	374.56
315.312	366.56
315.542	365.56
315.771	359.56
316.001	351.56
316.23	354.56
316.46	368.56
316.689	351.56
316.919	380.56
317.148	353.56
317.377	386.56
317.607	370.56
317.836	377.56
318.065	364.56
318.295	373.56
318.524	350.56
318.753	341.56
318.983	366.56
319.212	352.56
319.441	356.56
319.67	384.56
319.9	372.56
320.129	360.56
320.358	382.56
320.587	386.56
320.816	376.56
321.046	391.56
321.275	405.56
321.504	378.56
321.733	408.56
321.962	398.56
322.191	398.56
322.42	444.56
322.649	446.56
322.878	451.56
323.108	471.56
323.337	499.56
323.566	520.56
323.795	579.56
324.024	612.56
324.253	775.56
324.482	1102.56
324.71	1690.56
324.939	2426.56
325.168	2102.56
325.397	1084.56
325.626	708.56
325.855	591.56
326.084	541.56
326.313	518.56
326.542	533.56
326.77	584.56
326.999	717.56
327.228	966.56
327.457	1476.56
327.686	1818.56
327.914	1237.56
328.143	824.56
328.372	698.56
328.6	648.56
328.829	614.56
329.058	610.56
329.287	626.56
329.515	569.56
329.744	541.56
329.972	541.56
330.201	557.56
330.43	610.56
330.658	610.56
330.887	663.56
331.115	632.56
331.344	566.56
331.572	517.56
331.801	521.56
332.03	523.56
332.258	481.56
332.486	461.56
332.715	455.56
332.943	440.56
333.172	453.56
333.4	431.56
333.629	446.56
333.857	470.56
334.085	479.56
334.314	488.56
334.542	520.56
334.771	560.56
334.999	508.56
335.227	468.56
335.455	429.56
335.684	453.56
335.912	450.56
336.14	408.56
336.369	414.56
336.597	434.56
336.825	444.56
337.053	430.56
337.281	428.56
337.51	424.56
337.738	441.56
337.966	436.56
338.194	450.56
338.422	445.56
338.65	438.56
338.878	419.56
339.106	412.56
339.334	422.56
339.562	396.56
339.79	410.56
340.018	425.56
340.246	419.56
340.474	415.56
340.702	439.56
340.93	431.56
341.158	420.56
341.386	419.56
341.614	415.56
341.842	428.56
342.07	438.56
342.298	438.56
342.526	412.56
342.754	400.56
342.981	411.56
343.209	390.56
343.437	396.56
343.665	406.56
343.893	404.56
344.12	407.56
344.348	416.56
344.576	429.56
344.804	436.56
345.031	449.56
345.259	446.56
345.487	441.56
345.714	430.56
345.942	412.56
346.17	417.56
346.397	424.56
346.625	436.56
346.853	405.56
347.08	389.56
347.308	428.56
347.535	428.56
347.763	458.56
347.99	450.56
348.218	424.56
348.445	437.56
348.673	446.56
348.9	409.56
349.128	419.56
349.355	406.56
349.583	373.56
349.81	389.56
350.037	386.56
350.265	390.56
350.492	381.56
350.72	409.56
350.947	418.56
351.174	422.56
351.402	431.56
351.629	434.56
351.856	430.56
352.083	401.56
352.311	442.56
352.538	443.56
352.765	462.56
352.992	409.56
353.22	410.56
353.447	448.56
353.674	431.56
353.901	397.56
354.128	387.56
354.355	403.56
354.583	383.56
354.81	394.56
355.037	412.56
355.264	401.56
355.491	382.56
355.718	382.56
355.945	383.56
356.172	371.56
356.399	382.56
356.626	395.56
356.853	360.56
357.08	378.56
357.307	386.56
357.534	392.56
357.761	393.56
357.988	382.56
358.215	407.56
358.441	374.56
358.668	399.56
358.895	375.56
359.122	422.56
359.349	421.56
359.576	439.56
359.802	441.56
360.029	487.56
360.256	502.56
360.483	471.56
360.709	450.56
360.936	430.56
361.163	434.56
361.39	420.56
361.616	444.56
361.843	427.56
362.07	451.56
362.296	434.56
362.523	419.56
362.749	434.56
362.976	395.56
363.203	398.56
363.429	399.56
363.656	399.56
363.882	405.56
364.109	388.56
364.335	415.56
364.562	386.56
364.788	414.56
365.015	423.56
365.241	394.56
365.468	414.56
365.694	415.56
365.92	429.56
366.147	406.56
366.373	401.56
366.599	386.56
366.826	387.56
367.052	399.56
367.278	407.56
367.505	420.56
367.731	407.56
367.957	400.56
368.184	411.56
368.41	421.56
368.636	437.56
368.862	426.56
369.089	413.56
369.315	408.56
369.541	413.56
369.767	404.56
369.993	410.56
370.219	386.56
370.445	405.56
370.672	396.56
370.898	396.56
371.124	396.56
371.35	377.56
371.576	397.56
371.802	416.56
372.028	394.56
372.254	408.56
372.48	391.56
372.706	385.56
372.932	401.56
373.158	379.56
373.384	392.56
373.61	404.56
373.835	413.56
374.061	399.56
374.287	387.56
374.513	412.56
374.739	418.56
374.965	400.56
375.191	416.56
375.416	406.56
375.642	390.56
375.868	397.56
376.094	405.56
376.319	406.56
376.545	398.56
376.771	411.56
376.997	392.56
377.222	421.56
377.448	404.56
377.674	412.56
377.899	372.56
378.125	404.56
378.35	398.56
378.576	415.56
378.802	408.56
379.027	406.56
379.253	391.56
379.478	402.56
379.704	406.56
379.929	405.56
380.155	404.56
380.38	407.56
380.606	422.56
380.831	415.56
381.057	420.56
381.282	415.56
381.507	408.56
381.733	412.56
381.958	401.56
382.184	409.56
382.409	412.56
382.634	410.56
382.86	394.56
383.085	415.56
383.31	405.56
383.535	408.56
383.761	428.56
383.986	409.56
384.211	429.56
384.436	414.56
384.662	409.56
384.887	417.56
385.112	435.56
385.337	414.56
385.562	423.56
385.787	438.56
386.013	457.56
386.238	439.56
386.463	449.56
386.688	439.56
386.913	432.56
387.138	428.56
387.363	434.56
387.588	429.56
387.813	436.56
388.038	449.56
388.263	433.56
388.488	432.56
388.713	445.56
388.938	447.56
389.163	448.56
389.387	443.56
389.612	436.56
389.837	434.56
390.062	451.56
390.287	438.56
390.512	426.56
390.736	430.56
390.961	442.56
391.186	418.56
391.411	438.56
391.636	432.56
391.86	450.56
392.085	438.56
392.31	430.56
392.534	437.56
392.759	424.56
392.984	445.56
393.208	446.56
393.433	453.56
393.658	454.56
393.882	450.56
394.107	436.56
394.331	445.56
394.556	442.56
394.78	434.56
395.005	442.56
395.229	447.56
395.454	446.56
395.678	462.56
395.903	442.56
396.127	488.56
396.352	494.56
396.576	476.56
396.801	448.56
397.025	487.56
397.249	476.56
397.474	456.56
397.698	465.56
397.922	495.56
398.147	486.56
398.371	495.56
398.595	498.56
398.82	502.56
399.044	475.56
399.268	483.56
399.492	534.56
399.717	528.56
399.941	575.56
400.165	608.56
400.389	604.56
400.613	550.56
400.837	518.56
401.062	506.56
401.286	496.56
401.51	508.56
401.734	513.56
401.958	498.56
402.182	511.56
402.406	525.56
402.63	504.56
402.854	489.56
403.078	510.56
403.302	517.56
403.526	515.56
403.75	514.56
403.974	507.56
404.198	499.56
404.422	516.56
404.645	529.56
404.869	531.56
405.093	554.56
405.317	597.56
405.541	621.56
405.765	569.56
405.988	578.56
406.212	560.56
406.436	596.56
406.66	613.56
406.883	572.56
407.107	589.56
407.331	619.56
407.555	728.56
407.778	709.56
408.002	620.56
408.226	592.56
408.449	588.56
408.673	591.56
408.896	608.56
409.12	650.56
409.344	630.56
409.567	570.56
409.791	546.56
410.014	527.56
410.238	514.56
410.461	511.56
410.685	545.56
410.908	554.56
411.132	598.56
411.355	606.56
411.578	580.56
411.802	531.56
412.025	520.56
412.249	540.56
412.472	566.56
412.695	617.56
412.919	597.56
413.142	548.56
413.365	535.56
413.589	512.56
413.812	519.56
414.035	514.56
414.258	473.56
414.482	499.56
414.705	509.56
414.928	497.56
415.151	513.56
415.374	499.56
415.597	508.56
415.821	488.56
416.044	522.56
416.267	524.56
416.49	495.56
416.713	495.56
416.936	503.56
417.159	510.56
417.382	488.56
417.605	517.56
417.828	532.56
418.051	527.56
418.274	528.56
418.497	500.56
418.72	501.56
418.943	496.56
419.166	504.56
419.389	534.56
419.611	517.56
419.834	526.56
420.057	538.56
420.28	521.56
420.503	516.56
420.726	531.56
420.948	553.56
421.171	617.56
421.394	632.56
421.617	561.56
421.839	530.56
422.062	534.56
422.285	547.56
422.507	623.56
422.73	669.56
422.953	698.56
423.175	594.56
423.398	579.56
423.621	590.56
423.843	585.56
424.066	583.56
424.288	578.56
424.511	604.56
424.733	686.56
424.956	768.56
425.178	735.56
425.401	739.56
425.623	741.56
425.846	617.56
426.068	614.56
426.291	601.56
426.513	595.56
426.735	609.56
426.958	653.56
427.18	729.56
427.402	858.56
427.625	958.56
427.847	876.56
428.069	751.56
428.292	667.56
428.514	601.56
428.736	582.56
428.958	563.56
429.181	549.56
429.403	543.56
429.625	548.56
429.847	586.56
430.069	671.56
430.292	664.56
430.514	598.56
430.736	547.56
430.958	548.56
431.18	518.56
431.402	524.56
431.624	517.56
431.846	504.56
432.068	507.56
432.29	476.56
432.512	522.56
432.734	562.56
432.956	518.56
433.178	544.56
433.4	557.56
433.622	523.56
433.844	518.56
434.066	517.56
434.287	526.56
434.509	516.56
434.731	529.56
434.953	509.56
435.175	568.56
435.397	574.56
435.618	586.56
435.84	650.56
436.062	760.56
436.284	799.56
436.505	678.56
436.727	614.56
436.949	568.56
437.17	564.56
437.392	559.56
437.614	572.56
437.835	639.56
438.057	734.56
438.278	826.56
438.5	834.56
438.721	894.56
438.943	852.56
439.165	672.56
439.386	644.56
439.608	626.56
439.829	629.56
440.05	675.56
440.272	702.56
440.493	654.56
440.715	614.56
440.936	569.56
441.158	543.56
441.379	573.56
441.6	583.56
441.822	602.56
442.043	664.56
442.264	726.56
442.486	767.56
442.707	659.56
442.928	633.56
443.149	640.56
443.371	646.56
443.592	702.56
443.813	775.56
444.034	844.56
444.255	713.56
444.476	639.56
444.698	605.56
444.919	602.56
445.14	710.56
445.361	655.56
445.582	645.56
445.803	719.56
446.024	846.56
446.245	830.56
446.466	779.56
446.687	654.56
446.908	622.56
447.129	582.56
447.35	568.56
447.571	571.56
447.792	542.56
448.013	575.56
448.234	582.56
448.455	642.56
448.675	766.56
448.896	858.56
449.117	740.56
449.338	713.56
449.559	840.56
449.779	897.56
450	739.56
450.221	637.56
450.442	596.56
450.662	562.56
450.883	566.56
451.104	585.56
451.324	586.56
451.545	532.56
451.766	522.56
451.986	526.56
452.207	500.56
452.428	490.56
452.648	502.56
452.869	502.56
453.089	524.56
453.31	525.56
453.53	517.56
453.751	525.56
453.971	499.56
454.192	530.56
454.412	512.56
454.633	500.56
454.853	494.56
455.073	495.56
455.294	524.56
455.514	618.56
455.734	591.56
455.955	519.56
456.175	482.56
456.395	453.56
456.616	462.56
456.836	461.56
457.056	463.56
457.276	447.56
457.497	460.56
457.717	438.56
457.937	492.56
458.157	485.56
458.377	465.56
458.598	515.56
458.818	599.56
459.038	683.56
459.258	672.56
459.478	589.56
459.698	548.56
459.918	503.56
460.138	478.56
460.358	524.56
460.578	498.56
460.798	505.56
461.018	502.56
461.238	529.56
461.458	515.56
461.678	500.56
461.898	514.56
462.118	501.56
462.338	499.56
462.558	514.56
462.777	502.56
462.997	518.56
463.217	529.56
463.437	540.56
463.657	500.56
463.876	526.56
464.096	540.56
464.316	522.56
464.536	547.56
464.755	552.56
464.975	581.56
465.195	626.56
465.414	726.56
465.634	622.56
465.854	578.56
466.073	547.56
466.293	533.56
466.512	522.56
466.732	493.56
466.951	518.56
467.171	493.56
467.391	519.56
467.61	519.56
467.829	548.56
468.049	534.56
468.268	507.56
468.488	508.56
468.707	517.56
468.927	489.56
469.146	520.56
469.365	507.56
469.585	516.56
469.804	502.56
470.023	510.56
470.243	491.56
470.462	530.56
470.681	539.56
470.901	538.56
471.12	530.56
471.339	515.56
471.558	503.56
471.777	528.56
471.997	504.56
472.216	521.56
472.435	561.56
472.654	528.56
472.873	504.56
473.092	524.56
473.311	530.56
473.53	518.56
473.749	524.56
473.968	571.56
474.187	691.56
474.406	711.56
474.625	589.56
474.844	548.56
475.063	518.56
475.282	506.56
475.501	531.56
475.72	539.56
475.939	542.56
476.158	558.56
476.377	531.56
476.596	524.56
476.814	544.56
477.033	582.56
477.252	568.56
477.471	548.56
477.69	551.56
477.908	566.56
478.127	556.56
478.346	578.56
478.564	596.56
478.783	581.56
479.002	588.56
479.22	589.56
479.439	606.56
479.658	645.56
479.876	640.56
480.095	623.56
480.313	657.56
480.532	663.56
480.751	656.56
480.969	648.56
481.188	727.56
481.406	756.56
481.624	678.56
481.843	658.56
482.061	631.56
482.28	626.56
482.498	610.56
482.717	618.56
482.935	625.56
483.153	600.56
483.372	608.56
483.59	615.56
483.808	619.56
484.027	621.56
484.245	620.56
484.463	633.56
484.681	638.56
484.9	634.56
485.118	647.56
485.336	640.56
485.554	640.56
485.772	632.56
485.99	633.56
486.209	650.56
486.427	658.56
486.645	639.56
486.863	707.56
487.081	678.56
487.299	674.56
487.517	666.56
487.735	648.56
487.953	675.56
488.171	694.56
488.389	664.56
488.607	664.56
488.825	681.56
489.043	669.56
489.261	662.56
489.479	694.56
489.696	690.56
489.914	687.56
490.132	698.56
490.35	693.56
490.568	712.56
490.786	712.56
491.003	759.56
491.221	718.56
491.439	786.56
491.657	751.56
491.874	771.56
492.092	800.56
492.31	792.56
492.527	782.56
492.745	806.56
492.963	787.56
493.18	805.56
493.398	792.56
493.615	792.56
493.833	831.56
494.05	824.56
494.268	800.56
494.485	803.56
494.703	802.56
494.92	794.56
495.138	821.56
495.355	804.56
495.573	820.56
495.79	816.56
496.008	833.56
496.225	815.56
496.442	800.56
496.66	809.56
496.877	801.56
497.094	814.56
497.312	798.56
497.529	812.56
497.746	789.56
497.963	822.56
498.181	839.56
498.398	841.56
498.615	871.56
498.832	874.56
499.049	866.56
499.267	896.56
499.484	884.56
499.701	938.56
499.918	932.56
500.135	986.56
500.352	985.56
500.569	997.56
500.786	1005.56
501.003	1019.56
501.22	964.56
501.437	973.56
501.654	960.56
