Data from 1971.PennyLincolnUp.Lamp.En5.5.200Scan.071719.P1._HRD10591_15-20-01-840.txt Node
Date: Thu Jul 18 15:20:01 EDT 2019
User: cochatt
Spectrometer: HR+D1059
Trigger mode: 1
Integration Time (sec): 1.000000E-1
Scans to average: 1
Electric dark correction enabled: true
Nonlinearity correction enabled: false
Boxcar width: 0
XAxis mode: Wavelengths
Number of Pixels in Spectrum: 2048
>>>>>Begin Spectral Data<<<<<
223.165	-3.56
223.4	-3.56
223.635	-3.56
223.869	-21.56
224.104	-8.56
224.338	-12.56
224.573	-18.56
224.808	-28.56
225.042	10.44
225.277	0.44
225.511	-14.56
225.746	6.44
225.98	-1.56
226.215	11.44
226.449	10.44
226.683	15.44
226.918	27.44
227.152	27.44
227.387	36.44
227.621	36.44
227.856	30.44
228.09	37.44
228.324	44.44
228.559	63.44
228.793	67.44
229.027	88.44
229.262	83.44
229.496	125.44
229.73	134.44
229.964	141.44
230.199	135.44
230.433	124.44
230.667	123.44
230.901	104.44
231.136	122.44
231.37	109.44
231.604	112.44
231.838	101.44
232.072	114.44
232.306	103.44
232.541	120.44
232.775	126.44
233.009	125.44
233.243	124.44
233.477	121.44
233.711	121.44
233.945	109.44
234.179	130.44
234.413	104.44
234.647	103.44
234.881	115.44
235.115	108.44
235.349	114.44
235.583	134.44
235.817	121.44
236.051	124.44
236.285	123.44
236.519	118.44
236.753	118.44
236.987	142.44
237.221	194.44
237.455	216.44
237.689	183.44
237.922	131.44
238.156	143.44
238.39	122.44
238.624	127.44
238.858	126.44
239.091	118.44
239.325	119.44
239.559	129.44
239.793	125.44
240.027	150.44
240.26	139.44
240.494	160.44
240.728	141.44
240.961	137.44
241.195	130.44
241.429	126.44
241.662	132.44
241.896	143.44
242.13	123.44
242.363	135.44
242.597	136.44
242.83	125.44
243.064	136.44
243.298	125.44
243.531	130.44
243.765	148.44
243.998	150.44
244.232	129.44
244.465	162.44
244.699	149.44
244.932	122.44
245.166	157.44
245.399	139.44
245.633	150.44
245.866	144.44
246.099	144.44
246.333	144.44
246.566	163.44
246.8	158.44
247.033	158.44
247.266	169.44
247.5	153.44
247.733	185.44
247.966	178.44
248.2	178.44
248.433	188.44
248.666	176.44
248.899	188.44
249.133	196.44
249.366	198.44
249.599	200.44
249.832	203.44
250.066	194.44
250.299	195.44
250.532	199.44
250.765	207.44
250.998	230.44
251.231	244.44
251.465	209.44
251.698	212.44
251.931	209.44
252.164	219.44
252.397	210.44
252.63	219.44
252.863	220.44
253.096	243.44
253.329	231.44
253.562	220.44
253.795	229.44
254.028	228.44
254.261	220.44
254.494	225.44
254.727	250.44
254.96	272.44
255.193	278.44
255.426	252.44
255.659	242.44
255.892	245.44
256.124	236.44
256.357	232.44
256.59	230.44
256.823	225.44
257.056	221.44
257.289	202.44
257.521	229.44
257.754	225.44
257.987	229.44
258.22	228.44
258.452	224.44
258.685	220.44
258.918	218.44
259.151	211.44
259.383	235.44
259.616	228.44
259.849	228.44
260.081	226.44
260.314	256.44
260.547	255.44
260.779	263.44
261.012	234.44
261.244	239.44
261.477	240.44
261.71	214.44
261.942	242.44
262.175	237.44
262.407	229.44
262.64	230.44
262.872	223.44
263.105	242.44
263.337	223.44
263.57	225.44
263.802	234.44
264.035	229.44
264.267	214.44
264.499	222.44
264.732	220.44
264.964	230.44
265.197	230.44
265.429	243.44
265.661	238.44
265.894	218.44
266.126	235.44
266.358	229.44
266.591	227.44
266.823	240.44
267.055	226.44
267.287	260.44
267.52	219.44
267.752	243.44
267.984	243.44
268.216	238.44
268.448	246.44
268.681	228.44
268.913	250.44
269.145	281.44
269.377	282.44
269.609	282.44
269.841	268.44
270.073	278.44
270.306	310.44
270.538	328.44
270.77	340.44
271.002	317.44
271.234	314.44
271.466	300.44
271.698	316.44
271.93	343.44
272.162	333.44
272.394	333.44
272.626	319.44
272.858	316.44
273.09	304.44
273.322	297.44
273.553	272.44
273.785	297.44
274.017	290.44
274.249	272.44
274.481	276.44
274.713	292.44
274.945	285.44
275.176	296.44
275.408	272.44
275.64	279.44
275.872	274.44
276.104	283.44
276.335	270.44
276.567	280.44
276.799	291.44
277.031	310.44
277.262	339.44
277.494	332.44
277.726	320.44
277.957	322.44
278.189	313.44
278.421	271.44
278.652	295.44
278.884	292.44
279.115	279.44
279.347	283.44
279.579	287.44
279.81	292.44
280.042	290.44
280.273	275.44
280.505	273.44
280.736	290.44
280.968	277.44
281.199	290.44
281.431	275.44
281.662	282.44
281.894	303.44
282.125	292.44
282.356	282.44
282.588	304.44
282.819	307.44
283.051	315.44
283.282	295.44
283.513	286.44
283.745	303.44
283.976	292.44
284.207	301.44
284.439	297.44
284.67	301.44
284.901	297.44
285.132	284.44
285.364	293.44
285.595	285.44
285.826	295.44
286.057	312.44
286.288	307.44
286.52	296.44
286.751	293.44
286.982	301.44
287.213	288.44
287.444	306.44
287.675	311.44
287.906	318.44
288.138	320.44
288.369	335.44
288.6	323.44
288.831	316.44
289.062	322.44
289.293	318.44
289.524	307.44
289.755	313.44
289.986	309.44
290.217	317.44
290.448	295.44
290.679	298.44
290.91	304.44
291.141	291.44
291.371	318.44
291.602	317.44
291.833	299.44
292.064	300.44
292.295	317.44
292.526	288.44
292.757	320.44
292.987	293.44
293.218	292.44
293.449	315.44
293.68	290.44
293.91	288.44
294.141	299.44
294.372	309.44
294.603	310.44
294.833	299.44
295.064	314.44
295.295	326.44
295.525	319.44
295.756	308.44
295.987	308.44
296.217	338.44
296.448	359.44
296.679	325.44
296.909	323.44
297.14	308.44
297.37	309.44
297.601	316.44
297.831	322.44
298.062	314.44
298.292	309.44
298.523	320.44
298.753	310.44
298.984	318.44
299.214	327.44
299.445	327.44
299.675	325.44
299.905	321.44
300.136	318.44
300.366	329.44
300.597	293.44
300.827	330.44
301.057	331.44
301.288	338.44
301.518	335.44
301.748	351.44
301.979	328.44
302.209	331.44
302.439	343.44
302.669	339.44
302.9	351.44
303.13	324.44
303.36	335.44
303.59	343.44
303.82	362.44
304.051	350.44
304.281	336.44
304.511	335.44
304.741	345.44
304.971	346.44
305.201	311.44
305.431	357.44
305.661	330.44
305.891	343.44
306.121	350.44
306.352	370.44
306.582	350.44
306.812	353.44
307.042	342.44
307.272	342.44
307.502	373.44
307.731	358.44
307.961	323.44
308.191	345.44
308.421	358.44
308.651	368.44
308.881	364.44
309.111	363.44
309.341	370.44
309.571	372.44
309.8	380.44
310.03	390.44
310.26	379.44
310.49	390.44
310.72	382.44
310.949	399.44
311.179	395.44
311.409	406.44
311.639	380.44
311.868	392.44
312.098	377.44
312.328	386.44
312.557	441.44
312.787	415.44
313.017	412.44
313.246	392.44
313.476	401.44
313.706	393.44
313.935	384.44
314.165	375.44
314.394	393.44
314.624	409.44
314.853	387.44
315.083	409.44
315.312	390.44
315.542	394.44
315.771	380.44
316.001	398.44
316.23	404.44
316.46	399.44
316.689	392.44
316.919	391.44
317.148	406.44
317.377	402.44
317.607	405.44
317.836	410.44
318.065	386.44
318.295	386.44
318.524	372.44
318.753	383.44
318.983	372.44
319.212	399.44
319.441	404.44
319.67	399.44
319.9	380.44
320.129	410.44
320.358	392.44
320.587	400.44
320.816	407.44
321.046	420.44
321.275	417.44
321.504	439.44
321.733	439.44
321.962	414.44
322.191	428.44
322.42	445.44
322.649	465.44
322.878	462.44
323.108	476.44
323.337	508.44
323.566	523.44
323.795	531.44
324.024	611.44
324.253	716.44
324.482	989.44
324.71	1452.44
324.939	2021.44
325.168	1668.44
325.397	934.44
325.626	650.44
325.855	548.44
326.084	515.44
326.313	490.44
326.542	535.44
326.77	555.44
326.999	657.44
327.228	894.44
327.457	1270.44
327.686	1492.44
327.914	1010.44
328.143	706.44
328.372	631.44
328.6	600.44
328.829	571.44
329.058	574.44
329.287	584.44
329.515	545.44
329.744	506.44
329.972	498.44
330.201	536.44
330.43	542.44
330.658	566.44
330.887	583.44
331.115	567.44
331.344	503.44
331.572	491.44
331.801	504.44
332.03	494.44
332.258	464.44
332.486	473.44
332.715	458.44
332.943	462.44
333.172	456.44
333.4	459.44
333.629	448.44
333.857	485.44
334.085	508.44
334.314	514.44
334.542	527.44
334.771	520.44
334.999	512.44
335.227	460.44
335.455	461.44
335.684	467.44
335.912	458.44
336.14	460.44
336.369	437.44
336.597	438.44
336.825	447.44
337.053	450.44
337.281	442.44
337.51	427.44
337.738	446.44
337.966	443.44
338.194	451.44
338.422	456.44
338.65	459.44
338.878	434.44
339.106	453.44
339.334	443.44
339.562	427.44
339.79	410.44
340.018	419.44
340.246	424.44
340.474	452.44
340.702	422.44
340.93	422.44
341.158	428.44
341.386	447.44
341.614	426.44
341.842	430.44
342.07	411.44
342.298	430.44
342.526	408.44
342.754	419.44
342.981	418.44
343.209	401.44
343.437	422.44
343.665	415.44
343.893	433.44
344.12	447.44
344.348	455.44
344.576	443.44
344.804	426.44
345.031	436.44
345.259	439.44
345.487	461.44
345.714	437.44
345.942	414.44
346.17	428.44
346.397	408.44
346.625	407.44
346.853	406.44
347.08	425.44
347.308	408.44
347.535	421.44
347.763	407.44
347.99	425.44
348.218	418.44
348.445	423.44
348.673	404.44
348.9	395.44
349.128	396.44
349.355	399.44
349.583	415.44
349.81	396.44
350.037	387.44
350.265	391.44
350.492	399.44
350.72	397.44
350.947	418.44
351.174	396.44
351.402	422.44
351.629	400.44
351.856	406.44
352.083	388.44
352.311	405.44
352.538	414.44
352.765	424.44
352.992	414.44
353.22	384.44
353.447	403.44
353.674	411.44
353.901	408.44
354.128	394.44
354.355	392.44
354.583	381.44
354.81	366.44
355.037	384.44
355.264	378.44
355.491	390.44
355.718	375.44
355.945	371.44
356.172	360.44
356.399	357.44
356.626	373.44
356.853	380.44
357.08	374.44
357.307	365.44
357.534	374.44
357.761	374.44
357.988	381.44
358.215	381.44
358.441	392.44
358.668	382.44
358.895	374.44
359.122	360.44
359.349	392.44
359.576	400.44
359.802	388.44
360.029	415.44
360.256	432.44
360.483	411.44
360.709	404.44
360.936	383.44
361.163	400.44
361.39	389.44
361.616	385.44
361.843	403.44
362.07	383.44
362.296	412.44
362.523	382.44
362.749	405.44
362.976	386.44
363.203	395.44
363.429	387.44
363.656	378.44
363.882	375.44
364.109	381.44
364.335	381.44
364.562	379.44
364.788	384.44
365.015	381.44
365.241	377.44
365.468	356.44
365.694	358.44
365.92	384.44
366.147	382.44
366.373	362.44
366.599	367.44
366.826	382.44
367.052	384.44
367.278	357.44
367.505	368.44
367.731	378.44
367.957	378.44
368.184	382.44
368.41	390.44
368.636	382.44
368.862	392.44
369.089	390.44
369.315	385.44
369.541	373.44
369.767	379.44
369.993	374.44
370.219	363.44
370.445	366.44
370.672	367.44
370.898	366.44
371.124	370.44
371.35	368.44
371.576	376.44
371.802	378.44
372.028	367.44
372.254	371.44
372.48	358.44
372.706	351.44
372.932	370.44
373.158	362.44
373.384	364.44
373.61	371.44
373.835	355.44
374.061	374.44
374.287	390.44
374.513	378.44
374.739	358.44
374.965	378.44
375.191	372.44
375.416	383.44
375.642	359.44
375.868	363.44
376.094	382.44
376.319	386.44
376.545	376.44
376.771	360.44
376.997	359.44
377.222	363.44
377.448	342.44
377.674	371.44
377.899	352.44
378.125	356.44
378.35	360.44
378.576	360.44
378.802	362.44
379.027	366.44
379.253	367.44
379.478	370.44
379.704	370.44
379.929	366.44
380.155	380.44
380.38	365.44
380.606	358.44
380.831	352.44
381.057	374.44
381.282	353.44
381.507	358.44
381.733	356.44
381.958	368.44
382.184	362.44
382.409	372.44
382.634	362.44
382.86	380.44
383.085	386.44
383.31	383.44
383.535	356.44
383.761	373.44
383.986	376.44
384.211	362.44
384.436	365.44
384.662	382.44
384.887	402.44
385.112	380.44
385.337	388.44
385.562	381.44
385.787	383.44
386.013	380.44
386.238	392.44
386.463	388.44
386.688	402.44
386.913	367.44
387.138	398.44
387.363	380.44
387.588	386.44
387.813	397.44
388.038	388.44
388.263	390.44
388.488	384.44
388.713	401.44
388.938	380.44
389.163	378.44
389.387	387.44
389.612	376.44
389.837	372.44
390.062	380.44
390.287	391.44
390.512	396.44
390.736	387.44
390.961	391.44
391.186	374.44
391.411	391.44
391.636	402.44
391.86	413.44
392.085	376.44
392.31	382.44
392.534	392.44
392.759	389.44
392.984	394.44
393.208	383.44
393.433	409.44
393.658	375.44
393.882	388.44
394.107	392.44
394.331	388.44
394.556	389.44
394.78	379.44
395.005	396.44
395.229	398.44
395.454	382.44
395.678	392.44
395.903	402.44
396.127	409.44
396.352	412.44
396.576	406.44
396.801	382.44
397.025	391.44
397.249	395.44
397.474	412.44
397.698	401.44
397.922	388.44
398.147	406.44
398.371	425.44
398.595	420.44
398.82	407.44
399.044	417.44
399.268	433.44
399.492	451.44
399.717	476.44
399.941	504.44
400.165	520.44
400.389	510.44
400.613	469.44
400.837	476.44
401.062	429.44
401.286	420.44
401.51	431.44
401.734	412.44
401.958	435.44
402.182	435.44
402.406	438.44
402.63	441.44
402.854	440.44
403.078	434.44
403.302	414.44
403.526	446.44
403.75	416.44
403.974	434.44
404.198	444.44
404.422	438.44
404.645	435.44
404.869	452.44
405.093	498.44
405.317	494.44
405.541	557.44
405.765	474.44
405.988	475.44
406.212	465.44
406.436	463.44
406.66	494.44
406.883	463.44
407.107	501.44
407.331	541.44
407.555	584.44
407.778	574.44
408.002	526.44
408.226	488.44
408.449	479.44
408.673	478.44
408.896	535.44
409.12	525.44
409.344	518.44
409.567	448.44
409.791	438.44
410.014	444.44
410.238	424.44
410.461	434.44
410.685	431.44
410.908	434.44
411.132	485.44
411.355	507.44
411.578	488.44
411.802	454.44
412.025	458.44
412.249	447.44
412.472	465.44
412.695	514.44
412.919	460.44
413.142	457.44
413.365	440.44
413.589	414.44
413.812	430.44
414.035	402.44
414.258	432.44
414.482	415.44
414.705	435.44
414.928	419.44
415.151	403.44
415.374	413.44
415.597	390.44
415.821	411.44
416.044	401.44
416.267	384.44
416.49	410.44
416.713	418.44
416.936	401.44
417.159	410.44
417.382	407.44
417.605	413.44
417.828	422.44
418.051	426.44
418.274	419.44
418.497	406.44
418.72	423.44
418.943	407.44
419.166	429.44
419.389	449.44
419.611	435.44
419.834	431.44
420.057	434.44
420.28	459.44
420.503	448.44
420.726	434.44
420.948	435.44
421.171	499.44
421.394	508.44
421.617	438.44
421.839	433.44
422.062	423.44
422.285	429.44
422.507	497.44
422.73	546.44
422.953	520.44
423.175	472.44
423.398	432.44
423.621	432.44
423.843	471.44
424.066	457.44
424.288	456.44
424.511	485.44
424.733	542.44
424.956	587.44
425.178	580.44
425.401	550.44
425.623	564.44
425.846	512.44
426.068	462.44
426.291	462.44
426.513	453.44
426.735	467.44
426.958	498.44
427.18	568.44
427.402	676.44
427.625	749.44
427.847	644.44
428.069	545.44
428.292	479.44
428.514	468.44
428.736	433.44
428.958	470.44
429.181	440.44
429.403	428.44
429.625	442.44
429.847	475.44
430.069	519.44
430.292	514.44
430.514	452.44
430.736	441.44
430.958	419.44
431.18	398.44
431.402	402.44
431.624	406.44
431.846	382.44
432.068	409.44
432.29	392.44
432.512	387.44
432.734	412.44
432.956	388.44
433.178	402.44
433.4	433.44
433.622	399.44
433.844	409.44
434.066	410.44
434.287	393.44
434.509	399.44
434.731	408.44
434.953	413.44
435.175	431.44
435.397	464.44
435.618	474.44
435.84	493.44
436.062	580.44
436.284	630.44
436.505	520.44
436.727	491.44
436.949	440.44
437.17	418.44
437.392	419.44
437.614	458.44
437.835	483.44
438.057	565.44
438.278	648.44
438.5	631.44
438.721	675.44
438.943	652.44
439.165	504.44
439.386	485.44
439.608	475.44
439.829	467.44
440.05	507.44
440.272	520.44
440.493	516.44
440.715	451.44
440.936	443.44
441.158	431.44
441.379	446.44
441.6	434.44
441.822	454.44
442.043	480.44
442.264	548.44
442.486	600.44
442.707	496.44
442.928	480.44
443.149	477.44
443.371	499.44
443.592	526.44
443.813	623.44
444.034	637.44
444.255	526.44
444.476	481.44
444.698	458.44
444.919	453.44
445.14	552.44
445.361	510.44
445.582	484.44
445.803	559.44
446.024	621.44
446.245	632.44
446.466	578.44
446.687	506.44
446.908	471.44
447.129	442.44
447.35	424.44
447.571	421.44
447.792	427.44
448.013	443.44
448.234	456.44
448.455	487.44
448.675	584.44
448.896	660.44
449.117	582.44
449.338	564.44
449.559	633.44
449.779	695.44
450	576.44
450.221	482.44
450.442	413.44
450.662	412.44
450.883	421.44
451.104	424.44
451.324	410.44
451.545	382.44
451.766	406.44
451.986	383.44
452.207	383.44
452.428	376.44
452.648	366.44
452.869	375.44
453.089	396.44
453.31	383.44
453.53	390.44
453.751	384.44
453.971	394.44
454.192	402.44
454.412	382.44
454.633	362.44
454.853	394.44
455.073	387.44
455.294	415.44
455.514	455.44
455.734	444.44
455.955	372.44
456.175	353.44
456.395	335.44
456.616	336.44
456.836	347.44
457.056	355.44
457.276	354.44
457.497	363.44
457.717	352.44
457.937	376.44
458.157	370.44
458.377	376.44
458.598	402.44
458.818	438.44
459.038	457.44
459.258	497.44
459.478	424.44
459.698	394.44
459.918	412.44
460.138	381.44
460.358	386.44
460.578	390.44
460.798	398.44
461.018	389.44
461.238	395.44
461.458	395.44
461.678	377.44
461.898	401.44
462.118	410.44
462.338	398.44
462.558	414.44
462.777	407.44
462.997	429.44
463.217	403.44
463.437	427.44
463.657	414.44
463.876	403.44
464.096	438.44
464.316	400.44
464.536	436.44
464.755	415.44
464.975	430.44
465.195	464.44
465.414	484.44
465.634	433.44
465.854	400.44
466.073	409.44
466.293	411.44
466.512	391.44
466.732	379.44
466.951	382.44
467.171	382.44
467.391	393.44
467.61	408.44
467.829	388.44
468.049	372.44
468.268	372.44
468.488	363.44
468.707	397.44
468.927	387.44
469.146	363.44
469.365	373.44
469.585	388.44
469.804	371.44
470.023	370.44
470.243	393.44
470.462	412.44
470.681	413.44
470.901	400.44
471.12	385.44
471.339	370.44
471.558	376.44
471.777	399.44
471.997	397.44
472.216	388.44
472.435	414.44
472.654	390.44
472.873	380.44
473.092	380.44
473.311	389.44
473.53	374.44
473.749	404.44
473.968	425.44
474.187	518.44
474.406	545.44
474.625	440.44
474.844	405.44
475.063	408.44
475.282	395.44
475.501	388.44
475.72	388.44
475.939	401.44
476.158	416.44
476.377	421.44
476.596	392.44
476.814	418.44
477.033	411.44
477.252	420.44
477.471	411.44
477.69	419.44
477.908	412.44
478.127	423.44
478.346	397.44
478.564	420.44
478.783	445.44
479.002	422.44
479.22	437.44
479.439	446.44
479.658	462.44
479.876	451.44
480.095	484.44
480.313	494.44
480.532	471.44
480.751	478.44
480.969	478.44
481.188	528.44
481.406	532.44
481.624	500.44
481.843	466.44
482.061	450.44
482.28	450.44
482.498	467.44
482.717	451.44
482.935	448.44
483.153	458.44
483.372	445.44
483.59	446.44
483.808	445.44
484.027	450.44
484.245	449.44
484.463	450.44
484.681	465.44
484.9	490.44
485.118	459.44
485.336	472.44
485.554	446.44
485.772	462.44
485.99	473.44
486.209	454.44
486.427	481.44
486.645	487.44
486.863	498.44
487.081	476.44
487.299	473.44
487.517	492.44
487.735	499.44
487.953	485.44
488.171	488.44
488.389	482.44
488.607	477.44
488.825	491.44
489.043	483.44
489.261	482.44
489.479	492.44
489.696	487.44
489.914	499.44
490.132	516.44
490.35	522.44
490.568	517.44
490.786	525.44
491.003	540.44
491.221	534.44
491.439	549.44
491.657	538.44
491.874	590.44
492.092	566.44
492.31	598.44
492.527	559.44
492.745	566.44
492.963	581.44
493.18	574.44
493.398	579.44
493.615	573.44
493.833	567.44
494.05	586.44
494.268	584.44
494.485	582.44
494.703	572.44
494.92	580.44
495.138	574.44
495.355	544.44
495.573	557.44
495.79	580.44
496.008	576.44
496.225	572.44
496.442	566.44
496.66	587.44
496.877	574.44
497.094	581.44
497.312	570.44
497.529	591.44
497.746	597.44
497.963	592.44
498.181	602.44
498.398	607.44
498.615	634.44
498.832	626.44
499.049	646.44
499.267	642.44
499.484	660.44
499.701	676.44
499.918	714.44
500.135	721.44
500.352	730.44
500.569	773.44
500.786	766.44
501.003	774.44
501.22	739.44
501.437	736.44
501.654	718.44
501.871	711.44
