Data from 1971.PennyLincolnUp.Lamp.En5.5.200Scan.071719.P1._HRD10591_15-20-59-842.txt Node
Date: Thu Jul 18 15:20:59 EDT 2019
User: cochatt
Spectrometer: HR+D1059
Trigger mode: 1
Integration Time (sec): 1.000000E-1
Scans to average: 1
Electric dark correction enabled: true
Nonlinearity correction enabled: false
Boxcar width: 0
XAxis mode: Wavelengths
Number of Pixels in Spectrum: 2048
>>>>>Begin Spectral Data<<<<<
223.165	-13.69
223.4	-13.69
223.635	-13.69
223.869	-32.69
224.104	-22.69
224.338	-7.69
224.573	-7.69
224.808	-18.69
225.042	-5.69
225.277	9.31
225.511	-9.69
225.746	0.31
225.98	4.31
226.215	13.31
226.449	14.31
226.683	7.31
226.918	38.31
227.152	31.31
227.387	30.31
227.621	35.31
227.856	46.31
228.09	47.31
228.324	66.31
228.559	40.31
228.793	61.31
229.027	95.31
229.262	114.31
229.496	103.31
229.73	144.31
229.964	143.31
230.199	120.31
230.433	110.31
230.667	106.31
230.901	108.31
231.136	106.31
231.37	126.31
231.604	109.31
231.838	104.31
232.072	98.31
232.306	109.31
232.541	102.31
232.775	105.31
233.009	117.31
233.243	120.31
233.477	107.31
233.711	121.31
233.945	125.31
234.179	115.31
234.413	119.31
234.647	133.31
234.881	129.31
235.115	109.31
235.349	125.31
235.583	125.31
235.817	107.31
236.051	125.31
236.285	120.31
236.519	130.31
236.753	130.31
236.987	128.31
237.221	187.31
237.455	211.31
237.689	199.31
237.922	137.31
238.156	130.31
238.39	130.31
238.624	141.31
238.858	113.31
239.091	133.31
239.325	127.31
239.559	116.31
239.793	136.31
240.027	131.31
240.26	141.31
240.494	154.31
240.728	150.31
240.961	153.31
241.195	137.31
241.429	138.31
241.662	137.31
241.896	146.31
242.13	125.31
242.363	139.31
242.597	126.31
242.83	125.31
243.064	133.31
243.298	150.31
243.531	132.31
243.765	148.31
243.998	127.31
244.232	127.31
244.465	126.31
244.699	142.31
244.932	124.31
245.166	141.31
245.399	151.31
245.633	147.31
245.866	159.31
246.099	143.31
246.333	142.31
246.566	159.31
246.8	161.31
247.033	157.31
247.266	158.31
247.5	157.31
247.733	172.31
247.966	187.31
248.2	172.31
248.433	180.31
248.666	165.31
248.899	180.31
249.133	198.31
249.366	196.31
249.599	193.31
249.832	172.31
250.066	182.31
250.299	195.31
250.532	202.31
250.765	203.31
250.998	217.31
251.231	236.31
251.465	210.31
251.698	208.31
251.931	197.31
252.164	200.31
252.397	202.31
252.63	202.31
252.863	210.31
253.096	226.31
253.329	229.31
253.562	230.31
253.795	234.31
254.028	241.31
254.261	235.31
254.494	218.31
254.727	255.31
254.96	277.31
255.193	281.31
255.426	236.31
255.659	243.31
255.892	249.31
256.124	231.31
256.357	226.31
256.59	236.31
256.823	228.31
257.056	219.31
257.289	229.31
257.521	212.31
257.754	212.31
257.987	200.31
258.22	212.31
258.452	218.31
258.685	224.31
258.918	228.31
259.151	228.31
259.383	221.31
259.616	234.31
259.849	243.31
260.081	242.31
260.314	257.31
260.547	278.31
260.779	242.31
261.012	244.31
261.244	230.31
261.477	254.31
261.71	253.31
261.942	251.31
262.175	251.31
262.407	234.31
262.64	229.31
262.872	215.31
263.105	235.31
263.337	243.31
263.57	200.31
263.802	233.31
264.035	221.31
264.267	236.31
264.499	237.31
264.732	225.31
264.964	211.31
265.197	229.31
265.429	235.31
265.661	216.31
265.894	213.31
266.126	216.31
266.358	224.31
266.591	223.31
266.823	229.31
267.055	229.31
267.287	238.31
267.52	220.31
267.752	227.31
267.984	220.31
268.216	234.31
268.448	251.31
268.681	234.31
268.913	278.31
269.145	282.31
269.377	281.31
269.609	291.31
269.841	296.31
270.073	275.31
270.306	309.31
270.538	331.31
270.77	332.31
271.002	330.31
271.234	297.31
271.466	318.31
271.698	323.31
271.93	345.31
272.162	354.31
272.394	329.31
272.626	321.31
272.858	318.31
273.09	309.31
273.322	289.31
273.553	274.31
273.785	286.31
274.017	285.31
274.249	279.31
274.481	282.31
274.713	297.31
274.945	274.31
275.176	293.31
275.408	285.31
275.64	257.31
275.872	279.31
276.104	286.31
276.335	286.31
276.567	282.31
276.799	310.31
277.031	307.31
277.262	338.31
277.494	330.31
277.726	329.31
277.957	318.31
278.189	285.31
278.421	302.31
278.652	293.31
278.884	265.31
279.115	261.31
279.347	290.31
279.579	281.31
279.81	303.31
280.042	270.31
280.273	307.31
280.505	308.31
280.736	284.31
280.968	251.31
281.199	267.31
281.431	281.31
281.662	277.31
281.894	290.31
282.125	278.31
282.356	305.31
282.588	320.31
282.819	305.31
283.051	290.31
283.282	284.31
283.513	277.31
283.745	279.31
283.976	300.31
284.207	302.31
284.439	294.31
284.67	299.31
284.901	291.31
285.132	285.31
285.364	300.31
285.595	293.31
285.826	287.31
286.057	309.31
286.288	289.31
286.52	283.31
286.751	300.31
286.982	299.31
287.213	298.31
287.444	303.31
287.675	306.31
287.906	318.31
288.138	321.31
288.369	310.31
288.6	312.31
288.831	300.31
289.062	307.31
289.293	317.31
289.524	306.31
289.755	325.31
289.986	289.31
290.217	300.31
290.448	307.31
290.679	301.31
290.91	321.31
291.141	305.31
291.371	310.31
291.602	309.31
291.833	289.31
292.064	286.31
292.295	284.31
292.526	308.31
292.757	312.31
292.987	309.31
293.218	314.31
293.449	293.31
293.68	285.31
293.91	299.31
294.141	312.31
294.372	293.31
294.603	326.31
294.833	309.31
295.064	301.31
295.295	298.31
295.525	324.31
295.756	309.31
295.987	337.31
296.217	345.31
296.448	348.31
296.679	324.31
296.909	310.31
297.14	315.31
297.37	310.31
297.601	310.31
297.831	299.31
298.062	313.31
298.292	315.31
298.523	325.31
298.753	319.31
298.984	309.31
299.214	321.31
299.445	319.31
299.675	333.31
299.905	322.31
300.136	316.31
300.366	327.31
300.597	331.31
300.827	347.31
301.057	340.31
301.288	356.31
301.518	328.31
301.748	334.31
301.979	333.31
302.209	357.31
302.439	318.31
302.669	334.31
302.9	349.31
303.13	356.31
303.36	337.31
303.59	317.31
303.82	343.31
304.051	359.31
304.281	339.31
304.511	321.31
304.741	323.31
304.971	339.31
305.201	340.31
305.431	329.31
305.661	349.31
305.891	333.31
306.121	334.31
306.352	360.31
306.582	352.31
306.812	344.31
307.042	355.31
307.272	349.31
307.502	338.31
307.731	346.31
307.961	347.31
308.191	333.31
308.421	353.31
308.651	331.31
308.881	360.31
309.111	361.31
309.341	351.31
309.571	364.31
309.8	362.31
310.03	366.31
310.26	370.31
310.49	391.31
310.72	412.31
310.949	406.31
311.179	405.31
311.409	393.31
311.639	386.31
311.868	375.31
312.098	406.31
312.328	394.31
312.557	414.31
312.787	416.31
313.017	399.31
313.246	409.31
313.476	381.31
313.706	381.31
313.935	414.31
314.165	408.31
314.394	406.31
314.624	415.31
314.853	390.31
315.083	378.31
315.312	400.31
315.542	384.31
315.771	380.31
316.001	389.31
316.23	381.31
316.46	377.31
316.689	383.31
316.919	397.31
317.148	380.31
317.377	387.31
317.607	403.31
317.836	395.31
318.065	383.31
318.295	379.31
318.524	374.31
318.753	384.31
318.983	387.31
319.212	375.31
319.441	377.31
319.67	390.31
319.9	404.31
320.129	400.31
320.358	393.31
320.587	405.31
320.816	417.31
321.046	402.31
321.275	411.31
321.504	427.31
321.733	428.31
321.962	429.31
322.191	440.31
322.42	436.31
322.649	447.31
322.878	457.31
323.108	486.31
323.337	509.31
323.566	531.31
323.795	537.31
324.024	596.31
324.253	693.31
324.482	1011.31
324.71	1535.31
324.939	2076.31
325.168	1748.31
325.397	938.31
325.626	653.31
325.855	558.31
326.084	527.31
326.313	497.31
326.542	521.31
326.77	550.31
326.999	661.31
327.228	932.31
327.457	1350.31
327.686	1546.31
327.914	1013.31
328.143	713.31
328.372	623.31
328.6	589.31
328.829	583.31
329.058	582.31
329.287	564.31
329.515	555.31
329.744	506.31
329.972	517.31
330.201	541.31
330.43	561.31
330.658	585.31
330.887	597.31
331.115	582.31
331.344	526.31
331.572	484.31
331.801	485.31
332.03	479.31
332.258	464.31
332.486	461.31
332.715	460.31
332.943	452.31
333.172	468.31
333.4	451.31
333.629	463.31
333.857	472.31
334.085	483.31
334.314	513.31
334.542	537.31
334.771	517.31
334.999	504.31
335.227	469.31
335.455	450.31
335.684	423.31
335.912	446.31
336.14	449.31
336.369	457.31
336.597	438.31
336.825	465.31
337.053	461.31
337.281	443.31
337.51	437.31
337.738	418.31
337.966	439.31
338.194	441.31
338.422	454.31
338.65	439.31
338.878	446.31
339.106	421.31
339.334	442.31
339.562	431.31
339.79	439.31
340.018	413.31
340.246	416.31
340.474	429.31
340.702	433.31
340.93	435.31
341.158	429.31
341.386	412.31
341.614	409.31
341.842	407.31
342.07	412.31
342.298	439.31
342.526	413.31
342.754	400.31
342.981	394.31
343.209	421.31
343.437	411.31
343.665	417.31
343.893	420.31
344.12	431.31
344.348	431.31
344.576	441.31
344.804	426.31
345.031	443.31
345.259	451.31
345.487	413.31
345.714	418.31
345.942	438.31
346.17	424.31
346.397	410.31
346.625	423.31
346.853	395.31
347.08	389.31
347.308	405.31
347.535	412.31
347.763	416.31
347.99	398.31
348.218	399.31
348.445	411.31
348.673	407.31
348.9	412.31
349.128	415.31
349.355	385.31
349.583	382.31
349.81	407.31
350.037	383.31
350.265	385.31
350.492	401.31
350.72	394.31
350.947	405.31
351.174	401.31
351.402	429.31
351.629	411.31
351.856	403.31
352.083	419.31
352.311	405.31
352.538	414.31
352.765	415.31
352.992	417.31
353.22	393.31
353.447	403.31
353.674	391.31
353.901	374.31
354.128	397.31
354.355	396.31
354.583	398.31
354.81	395.31
355.037	384.31
355.264	376.31
355.491	367.31
355.718	360.31
355.945	370.31
356.172	366.31
356.399	369.31
356.626	390.31
356.853	361.31
357.08	367.31
357.307	371.31
357.534	377.31
357.761	372.31
357.988	380.31
358.215	382.31
358.441	366.31
358.668	383.31
358.895	365.31
359.122	389.31
359.349	374.31
359.576	386.31
359.802	414.31
360.029	424.31
360.256	443.31
360.483	427.31
360.709	387.31
360.936	405.31
361.163	390.31
361.39	402.31
361.616	392.31
361.843	403.31
362.07	395.31
362.296	383.31
362.523	372.31
362.749	402.31
362.976	383.31
363.203	401.31
363.429	389.31
363.656	393.31
363.882	381.31
364.109	390.31
364.335	403.31
364.562	358.31
364.788	369.31
365.015	367.31
365.241	352.31
365.468	378.31
365.694	383.31
365.92	379.31
366.147	384.31
366.373	381.31
366.599	362.31
366.826	362.31
367.052	372.31
367.278	389.31
367.505	364.31
367.731	365.31
367.957	364.31
368.184	383.31
368.41	372.31
368.636	380.31
368.862	398.31
369.089	398.31
369.315	366.31
369.541	358.31
369.767	344.31
369.993	359.31
370.219	362.31
370.445	371.31
370.672	335.31
370.898	352.31
371.124	358.31
371.35	375.31
371.576	371.31
371.802	349.31
372.028	378.31
372.254	367.31
372.48	376.31
372.706	359.31
372.932	357.31
373.158	365.31
373.384	365.31
373.61	372.31
373.835	358.31
374.061	359.31
374.287	384.31
374.513	374.31
374.739	373.31
374.965	364.31
375.191	395.31
375.416	367.31
375.642	360.31
375.868	366.31
376.094	363.31
376.319	369.31
376.545	358.31
376.771	374.31
376.997	351.31
377.222	361.31
377.448	355.31
377.674	361.31
377.899	359.31
378.125	355.31
378.35	382.31
378.576	369.31
378.802	344.31
379.027	348.31
379.253	352.31
379.478	358.31
379.704	348.31
379.929	365.31
380.155	377.31
380.38	353.31
380.606	352.31
380.831	358.31
381.057	361.31
381.282	361.31
381.507	360.31
381.733	377.31
381.958	347.31
382.184	361.31
382.409	374.31
382.634	366.31
382.86	355.31
383.085	356.31
383.31	356.31
383.535	387.31
383.761	355.31
383.986	388.31
384.211	377.31
384.436	366.31
384.662	387.31
384.887	374.31
385.112	378.31
385.337	375.31
385.562	388.31
385.787	365.31
386.013	383.31
386.238	402.31
386.463	402.31
386.688	394.31
386.913	366.31
387.138	373.31
387.363	371.31
387.588	379.31
387.813	374.31
388.038	389.31
388.263	368.31
388.488	388.31
388.713	402.31
388.938	370.31
389.163	406.31
389.387	373.31
389.612	357.31
389.837	358.31
390.062	373.31
390.287	387.31
390.512	384.31
390.736	379.31
390.961	366.31
391.186	381.31
391.411	376.31
391.636	382.31
391.86	376.31
392.085	373.31
392.31	371.31
392.534	396.31
392.759	382.31
392.984	373.31
393.208	382.31
393.433	380.31
393.658	381.31
393.882	373.31
394.107	373.31
394.331	394.31
394.556	370.31
394.78	389.31
395.005	383.31
395.229	380.31
395.454	374.31
395.678	398.31
395.903	379.31
396.127	405.31
396.352	396.31
396.576	384.31
396.801	387.31
397.025	405.31
397.249	379.31
397.474	391.31
397.698	386.31
397.922	398.31
398.147	417.31
398.371	413.31
398.595	402.31
398.82	414.31
399.044	409.31
399.268	422.31
399.492	467.31
399.717	501.31
399.941	513.31
400.165	532.31
400.389	523.31
400.613	501.31
400.837	450.31
401.062	425.31
401.286	424.31
401.51	446.31
401.734	417.31
401.958	420.31
402.182	407.31
402.406	409.31
402.63	441.31
402.854	427.31
403.078	413.31
403.302	430.31
403.526	444.31
403.75	435.31
403.974	437.31
404.198	436.31
404.422	437.31
404.645	437.31
404.869	432.31
405.093	456.31
405.317	481.31
405.541	528.31
405.765	493.31
405.988	475.31
406.212	459.31
406.436	480.31
406.66	470.31
406.883	481.31
407.107	485.31
407.331	507.31
407.555	572.31
407.778	541.31
408.002	527.31
408.226	500.31
408.449	481.31
408.673	479.31
408.896	515.31
409.12	521.31
409.344	514.31
409.567	452.31
409.791	430.31
410.014	431.31
410.238	414.31
410.461	430.31
410.685	461.31
410.908	475.31
411.132	474.31
411.355	515.31
411.578	477.31
411.802	426.31
412.025	443.31
412.249	454.31
412.472	439.31
412.695	512.31
412.919	464.31
413.142	453.31
413.365	426.31
413.589	433.31
413.812	413.31
414.035	415.31
414.258	408.31
414.482	410.31
414.705	421.31
414.928	421.31
415.151	412.31
415.374	399.31
415.597	401.31
415.821	401.31
416.044	398.31
416.267	439.31
416.49	393.31
416.713	393.31
416.936	396.31
417.159	404.31
417.382	404.31
417.605	408.31
417.828	419.31
418.051	419.31
418.274	428.31
418.497	416.31
418.72	412.31
418.943	401.31
419.166	409.31
419.389	428.31
419.611	430.31
419.834	418.31
420.057	425.31
420.28	416.31
420.503	414.31
420.726	420.31
420.948	429.31
421.171	484.31
421.394	496.31
421.617	443.31
421.839	468.31
422.062	420.31
422.285	450.31
422.507	484.31
422.73	538.31
422.953	520.31
423.175	472.31
423.398	432.31
423.621	418.31
423.843	452.31
424.066	464.31
424.288	456.31
424.511	487.31
424.733	522.31
424.956	609.31
425.178	556.31
425.401	553.31
425.623	569.31
425.846	490.31
426.068	474.31
426.291	470.31
426.513	452.31
426.735	450.31
426.958	514.31
427.18	578.31
427.402	667.31
427.625	735.31
427.847	644.31
428.069	580.31
428.292	526.31
428.514	487.31
428.736	453.31
428.958	442.31
429.181	430.31
429.403	422.31
429.625	435.31
429.847	453.31
430.069	535.31
430.292	524.31
430.514	457.31
430.736	413.31
430.958	426.31
431.18	415.31
431.402	395.31
431.624	422.31
431.846	403.31
432.068	379.31
432.29	395.31
432.512	396.31
432.734	400.31
432.956	396.31
433.178	399.31
433.4	429.31
433.622	410.31
433.844	392.31
434.066	403.31
434.287	399.31
434.509	387.31
434.731	418.31
434.953	408.31
435.175	417.31
435.397	462.31
435.618	453.31
435.84	483.31
436.062	572.31
436.284	616.31
436.505	540.31
436.727	477.31
436.949	418.31
437.17	433.31
437.392	423.31
437.614	433.31
437.835	469.31
438.057	561.31
438.278	615.31
438.5	599.31
438.721	687.31
438.943	641.31
439.165	532.31
439.386	464.31
439.608	481.31
439.829	487.31
440.05	489.31
440.272	532.31
440.493	509.31
440.715	454.31
440.936	438.31
441.158	444.31
441.379	440.31
441.6	435.31
441.822	449.31
442.043	477.31
442.264	558.31
442.486	587.31
442.707	515.31
442.928	487.31
443.149	483.31
443.371	481.31
443.592	525.31
443.813	607.31
444.034	662.31
444.255	542.31
444.476	475.31
444.698	454.31
444.919	461.31
445.14	538.31
445.361	508.31
445.582	518.31
445.803	566.31
446.024	659.31
446.245	634.31
446.466	575.31
446.687	511.31
446.908	478.31
447.129	461.31
447.35	422.31
447.571	435.31
447.792	427.31
448.013	422.31
448.234	454.31
448.455	488.31
448.675	589.31
448.896	676.31
449.117	580.31
449.338	552.31
449.559	645.31
449.779	704.31
450	560.31
450.221	470.31
450.442	430.31
450.662	435.31
450.883	434.31
451.104	434.31
451.324	412.31
451.545	399.31
451.766	385.31
451.986	390.31
452.207	375.31
452.428	364.31
452.648	395.31
452.869	388.31
453.089	397.31
453.31	395.31
453.53	378.31
453.751	356.31
453.971	366.31
454.192	402.31
454.412	389.31
454.633	380.31
454.853	373.31
455.073	375.31
455.294	397.31
455.514	458.31
455.734	440.31
455.955	383.31
456.175	365.31
456.395	367.31
456.616	346.31
456.836	365.31
457.056	349.31
457.276	353.31
457.497	351.31
457.717	366.31
457.937	363.31
458.157	354.31
458.377	379.31
458.598	393.31
458.818	429.31
459.038	527.31
459.258	478.31
459.478	428.31
459.698	407.31
459.918	387.31
460.138	398.31
460.358	400.31
460.578	399.31
460.798	381.31
461.018	393.31
461.238	382.31
461.458	399.31
461.678	384.31
461.898	398.31
462.118	381.31
462.338	389.31
462.558	397.31
462.777	404.31
462.997	406.31
463.217	411.31
463.437	444.31
463.657	423.31
463.876	419.31
464.096	407.31
464.316	426.31
464.536	405.31
464.755	415.31
464.975	439.31
465.195	461.31
465.414	495.31
465.634	454.31
465.854	417.31
466.073	407.31
466.293	393.31
466.512	381.31
466.732	378.31
466.951	386.31
467.171	372.31
467.391	399.31
467.61	369.31
467.829	397.31
468.049	381.31
468.268	375.31
468.488	354.31
468.707	391.31
468.927	353.31
469.146	373.31
469.365	371.31
469.585	391.31
469.804	378.31
470.023	379.31
470.243	376.31
470.462	385.31
470.681	398.31
470.901	411.31
471.12	407.31
471.339	406.31
471.558	384.31
471.777	381.31
471.997	390.31
472.216	362.31
472.435	391.31
472.654	391.31
472.873	398.31
473.092	387.31
473.311	389.31
473.53	397.31
473.749	410.31
473.968	455.31
474.187	541.31
474.406	539.31
474.625	445.31
474.844	403.31
475.063	394.31
475.282	387.31
475.501	371.31
475.72	407.31
475.939	394.31
476.158	387.31
476.377	381.31
476.596	417.31
476.814	409.31
477.033	417.31
477.252	392.31
477.471	399.31
477.69	397.31
477.908	429.31
478.127	439.31
478.346	427.31
478.564	426.31
478.783	421.31
479.002	426.31
479.22	447.31
479.439	445.31
479.658	461.31
479.876	469.31
480.095	462.31
480.313	462.31
480.532	490.31
480.751	479.31
480.969	460.31
481.188	524.31
481.406	538.31
481.624	488.31
481.843	494.31
482.061	469.31
482.28	429.31
482.498	449.31
482.717	440.31
482.935	440.31
483.153	431.31
483.372	456.31
483.59	450.31
483.808	438.31
484.027	465.31
484.245	463.31
484.463	446.31
484.681	438.31
484.9	441.31
485.118	457.31
485.336	458.31
485.554	455.31
485.772	483.31
485.99	493.31
486.209	474.31
486.427	486.31
486.645	480.31
486.863	492.31
487.081	469.31
487.299	479.31
487.517	485.31
487.735	475.31
487.953	475.31
488.171	502.31
488.389	480.31
488.607	491.31
488.825	493.31
489.043	489.31
489.261	468.31
489.479	493.31
489.696	492.31
489.914	501.31
490.132	488.31
490.35	509.31
490.568	503.31
490.786	518.31
491.003	525.31
491.221	551.31
491.439	533.31
491.657	549.31
491.874	588.31
492.092	582.31
492.31	574.31
492.527	554.31
492.745	562.31
492.963	564.31
493.18	598.31
493.398	583.31
493.615	589.31
493.833	584.31
494.05	574.31
494.268	574.31
494.485	588.31
494.703	574.31
494.92	566.31
495.138	572.31
495.355	562.31
495.573	576.31
495.79	567.31
496.008	563.31
496.225	576.31
496.442	584.31
496.66	579.31
496.877	586.31
497.094	588.31
497.312	581.31
497.529	593.31
497.746	593.31
497.963	598.31
498.181	623.31
498.398	614.31
498.615	604.31
498.832	629.31
499.049	655.31
499.267	633.31
499.484	664.31
499.701	661.31
499.918	696.31
500.135	739.31
500.352	733.31
500.569	778.31
500.786	741.31
501.003	761.31
501.22	733.31
501.437	707.31
501.654	727.31
501.871	709.31
