Data from 1971.PennyLincolnUp.Lamp.En5.5.200Scan.071719.P1.Scan 2. Changed Angle._HRD10591_15-22-39-842.txt Node
Date: Thu Jul 18 15:22:39 EDT 2019
User: cochatt
Spectrometer: HR+D1059
Trigger mode: 1
Integration Time (sec): 1.000000E-1
Scans to average: 1
Electric dark correction enabled: true
Nonlinearity correction enabled: false
Boxcar width: 0
XAxis mode: Wavelengths
Number of Pixels in Spectrum: 2048
>>>>>Begin Spectral Data<<<<<
223.165	-6.88
223.4	-6.88
223.635	-6.88
223.869	-16.88
224.104	0.12
224.338	-9.88
224.573	-19.88
224.808	-15.88
225.042	-11.88
225.277	-7.88
225.511	6.12
225.746	-9.88
225.98	-7.88
226.215	2.12
226.449	12.12
226.683	30.12
226.918	17.12
227.152	39.12
227.387	34.12
227.621	43.12
227.856	37.12
228.09	35.12
228.324	52.12
228.559	59.12
228.793	70.12
229.027	96.12
229.262	108.12
229.496	133.12
229.73	138.12
229.964	144.12
230.199	123.12
230.433	107.12
230.667	99.12
230.901	110.12
231.136	107.12
231.37	109.12
231.604	118.12
231.838	88.12
232.072	110.12
232.306	117.12
232.541	107.12
232.775	130.12
233.009	123.12
233.243	118.12
233.477	118.12
233.711	106.12
233.945	122.12
234.179	116.12
234.413	102.12
234.647	114.12
234.881	106.12
235.115	127.12
235.349	107.12
235.583	119.12
235.817	109.12
236.051	122.12
236.285	124.12
236.519	133.12
236.753	122.12
236.987	135.12
237.221	165.12
237.455	215.12
237.689	175.12
237.922	143.12
238.156	115.12
238.39	123.12
238.624	121.12
238.858	130.12
239.091	130.12
239.325	120.12
239.559	118.12
239.793	126.12
240.027	122.12
240.26	121.12
240.494	144.12
240.728	159.12
240.961	139.12
241.195	132.12
241.429	140.12
241.662	141.12
241.896	118.12
242.13	134.12
242.363	122.12
242.597	140.12
242.83	132.12
243.064	138.12
243.298	132.12
243.531	138.12
243.765	126.12
243.998	117.12
244.232	137.12
244.465	150.12
244.699	145.12
244.932	145.12
245.166	126.12
245.399	138.12
245.633	138.12
245.866	131.12
246.099	149.12
246.333	157.12
246.566	142.12
246.8	149.12
247.033	147.12
247.266	134.12
247.5	136.12
247.733	153.12
247.966	164.12
248.2	172.12
248.433	180.12
248.666	163.12
248.899	184.12
249.133	180.12
249.366	161.12
249.599	191.12
249.832	180.12
250.066	172.12
250.299	184.12
250.532	200.12
250.765	197.12
250.998	200.12
251.231	228.12
251.465	201.12
251.698	201.12
251.931	197.12
252.164	187.12
252.397	192.12
252.63	207.12
252.863	198.12
253.096	191.12
253.329	229.12
253.562	211.12
253.795	196.12
254.028	221.12
254.261	212.12
254.494	223.12
254.727	221.12
254.96	276.12
255.193	242.12
255.426	231.12
255.659	223.12
255.892	218.12
256.124	206.12
256.357	224.12
256.59	212.12
256.823	200.12
257.056	192.12
257.289	208.12
257.521	211.12
257.754	203.12
257.987	210.12
258.22	193.12
258.452	200.12
258.685	180.12
258.918	191.12
259.151	196.12
259.383	208.12
259.616	215.12
259.849	220.12
260.081	229.12
260.314	253.12
260.547	260.12
260.779	239.12
261.012	229.12
261.244	229.12
261.477	213.12
261.71	214.12
261.942	223.12
262.175	226.12
262.407	220.12
262.64	194.12
262.872	193.12
263.105	208.12
263.337	219.12
263.57	198.12
263.802	185.12
264.035	188.12
264.267	200.12
264.499	181.12
264.732	190.12
264.964	194.12
265.197	177.12
265.429	190.12
265.661	200.12
265.894	189.12
266.126	205.12
266.358	193.12
266.591	196.12
266.823	201.12
267.055	203.12
267.287	208.12
267.52	201.12
267.752	208.12
267.984	210.12
268.216	205.12
268.448	218.12
268.681	197.12
268.913	227.12
269.145	221.12
269.377	255.12
269.609	251.12
269.841	232.12
270.073	258.12
270.306	275.12
270.538	288.12
270.77	284.12
271.002	277.12
271.234	280.12
271.466	261.12
271.698	273.12
271.93	266.12
272.162	274.12
272.394	288.12
272.626	283.12
272.858	258.12
273.09	251.12
273.322	270.12
273.553	239.12
273.785	230.12
274.017	238.12
274.249	232.12
274.481	218.12
274.713	219.12
274.945	239.12
275.176	232.12
275.408	238.12
275.64	246.12
275.872	226.12
276.104	238.12
276.335	213.12
276.567	234.12
276.799	268.12
277.031	255.12
277.262	269.12
277.494	278.12
277.726	257.12
277.957	262.12
278.189	237.12
278.421	253.12
278.652	234.12
278.884	236.12
279.115	238.12
279.347	216.12
279.579	229.12
279.81	223.12
280.042	214.12
280.273	217.12
280.505	232.12
280.736	215.12
280.968	214.12
281.199	212.12
281.431	231.12
281.662	212.12
281.894	226.12
282.125	219.12
282.356	247.12
282.588	266.12
282.819	272.12
283.051	235.12
283.282	233.12
283.513	249.12
283.745	216.12
283.976	218.12
284.207	240.12
284.439	225.12
284.67	219.12
284.901	229.12
285.132	248.12
285.364	223.12
285.595	231.12
285.826	229.12
286.057	242.12
286.288	238.12
286.52	216.12
286.751	235.12
286.982	244.12
287.213	226.12
287.444	236.12
287.675	237.12
287.906	251.12
288.138	264.12
288.369	240.12
288.6	264.12
288.831	258.12
289.062	259.12
289.293	264.12
289.524	244.12
289.755	246.12
289.986	227.12
290.217	245.12
290.448	245.12
290.679	243.12
290.91	243.12
291.141	243.12
291.371	257.12
291.602	229.12
291.833	222.12
292.064	253.12
292.295	250.12
292.526	242.12
292.757	244.12
292.987	247.12
293.218	238.12
293.449	238.12
293.68	244.12
293.91	239.12
294.141	258.12
294.372	234.12
294.603	249.12
294.833	230.12
295.064	258.12
295.295	227.12
295.525	245.12
295.756	267.12
295.987	261.12
296.217	276.12
296.448	286.12
296.679	269.12
296.909	262.12
297.14	252.12
297.37	238.12
297.601	248.12
297.831	241.12
298.062	245.12
298.292	255.12
298.523	254.12
298.753	249.12
298.984	264.12
299.214	257.12
299.445	247.12
299.675	250.12
299.905	266.12
300.136	263.12
300.366	247.12
300.597	257.12
300.827	258.12
301.057	276.12
301.288	274.12
301.518	284.12
301.748	267.12
301.979	269.12
302.209	278.12
302.439	273.12
302.669	291.12
302.9	266.12
303.13	284.12
303.36	284.12
303.59	277.12
303.82	286.12
304.051	278.12
304.281	287.12
304.511	280.12
304.741	272.12
304.971	268.12
305.201	273.12
305.431	283.12
305.661	273.12
305.891	261.12
306.121	284.12
306.352	288.12
306.582	290.12
306.812	296.12
307.042	279.12
307.272	280.12
307.502	285.12
307.731	286.12
307.961	269.12
308.191	282.12
308.421	283.12
308.651	293.12
308.881	286.12
309.111	269.12
309.341	301.12
309.571	298.12
309.8	296.12
310.03	308.12
310.26	326.12
310.49	331.12
310.72	320.12
310.949	332.12
311.179	358.12
311.409	330.12
311.639	315.12
311.868	304.12
312.098	318.12
312.328	328.12
312.557	352.12
312.787	347.12
313.017	326.12
313.246	334.12
313.476	303.12
313.706	323.12
313.935	335.12
314.165	324.12
314.394	343.12
314.624	331.12
314.853	323.12
315.083	325.12
315.312	332.12
315.542	315.12
315.771	302.12
316.001	318.12
316.23	330.12
316.46	342.12
316.689	312.12
316.919	317.12
317.148	350.12
317.377	331.12
317.607	340.12
317.836	326.12
318.065	325.12
318.295	308.12
318.524	317.12
318.753	316.12
318.983	322.12
319.212	326.12
319.441	329.12
319.67	350.12
319.9	340.12
320.129	319.12
320.358	335.12
320.587	314.12
320.816	344.12
321.046	347.12
321.275	345.12
321.504	351.12
321.733	362.12
321.962	360.12
322.191	347.12
322.42	372.12
322.649	382.12
322.878	388.12
323.108	430.12
323.337	445.12
323.566	435.12
323.795	485.12
324.024	520.12
324.253	623.12
324.482	871.12
324.71	1364.12
324.939	1963.12
325.168	1696.12
325.397	869.12
325.626	613.12
325.855	498.12
326.084	447.12
326.313	458.12
326.542	461.12
326.77	473.12
326.999	593.12
327.228	801.12
327.457	1196.12
327.686	1494.12
327.914	992.12
328.143	663.12
328.372	575.12
328.6	541.12
328.829	493.12
329.058	522.12
329.287	509.12
329.515	479.12
329.744	455.12
329.972	447.12
330.201	474.12
330.43	485.12
330.658	528.12
330.887	538.12
331.115	530.12
331.344	459.12
331.572	416.12
331.801	430.12
332.03	417.12
332.258	424.12
332.486	388.12
332.715	394.12
332.943	383.12
333.172	391.12
333.4	383.12
333.629	402.12
333.857	392.12
334.085	405.12
334.314	412.12
334.542	454.12
334.771	448.12
334.999	414.12
335.227	386.12
335.455	392.12
335.684	394.12
335.912	375.12
336.14	403.12
336.369	379.12
336.597	391.12
336.825	388.12
337.053	376.12
337.281	368.12
337.51	374.12
337.738	377.12
337.966	371.12
338.194	395.12
338.422	384.12
338.65	370.12
338.878	364.12
339.106	362.12
339.334	347.12
339.562	355.12
339.79	384.12
340.018	374.12
340.246	347.12
340.474	376.12
340.702	376.12
340.93	366.12
341.158	359.12
341.386	360.12
341.614	382.12
341.842	370.12
342.07	371.12
342.298	369.12
342.526	372.12
342.754	358.12
342.981	360.12
343.209	352.12
343.437	346.12
343.665	365.12
343.893	341.12
344.12	363.12
344.348	382.12
344.576	368.12
344.804	388.12
345.031	371.12
345.259	401.12
345.487	376.12
345.714	378.12
345.942	358.12
346.17	384.12
346.397	349.12
346.625	352.12
346.853	361.12
347.08	361.12
347.308	383.12
347.535	377.12
347.763	386.12
347.99	385.12
348.218	387.12
348.445	380.12
348.673	383.12
348.9	375.12
349.128	363.12
349.355	355.12
349.583	359.12
349.81	349.12
350.037	350.12
350.265	349.12
350.492	350.12
350.72	378.12
350.947	350.12
351.174	371.12
351.402	374.12
351.629	378.12
351.856	392.12
352.083	397.12
352.311	370.12
352.538	411.12
352.765	393.12
352.992	398.12
353.22	373.12
353.447	370.12
353.674	348.12
353.901	362.12
354.128	364.12
354.355	352.12
354.583	362.12
354.81	356.12
355.037	355.12
355.264	346.12
355.491	335.12
355.718	341.12
355.945	341.12
356.172	336.12
356.399	343.12
356.626	343.12
356.853	342.12
357.08	344.12
357.307	358.12
357.534	339.12
357.761	349.12
357.988	354.12
358.215	341.12
358.441	341.12
358.668	365.12
358.895	380.12
359.122	370.12
359.349	344.12
359.576	372.12
359.802	396.12
360.029	404.12
360.256	439.12
360.483	410.12
360.709	379.12
360.936	384.12
361.163	351.12
361.39	384.12
361.616	376.12
361.843	375.12
362.07	375.12
362.296	365.12
362.523	373.12
362.749	392.12
362.976	349.12
363.203	351.12
363.429	375.12
363.656	380.12
363.882	365.12
364.109	340.12
364.335	354.12
364.562	371.12
364.788	344.12
365.015	376.12
365.241	339.12
365.468	367.12
365.694	381.12
365.92	380.12
366.147	383.12
366.373	375.12
366.599	350.12
366.826	367.12
367.052	361.12
367.278	359.12
367.505	376.12
367.731	374.12
367.957	348.12
368.184	356.12
368.41	362.12
368.636	375.12
368.862	378.12
369.089	367.12
369.315	378.12
369.541	376.12
369.767	371.12
369.993	365.12
370.219	363.12
370.445	366.12
370.672	359.12
370.898	364.12
371.124	377.12
371.35	346.12
371.576	358.12
371.802	365.12
372.028	359.12
372.254	368.12
372.48	364.12
372.706	362.12
372.932	388.12
373.158	359.12
373.384	380.12
373.61	372.12
373.835	364.12
374.061	361.12
374.287	370.12
374.513	374.12
374.739	374.12
374.965	393.12
375.191	370.12
375.416	371.12
375.642	382.12
375.868	367.12
376.094	362.12
376.319	367.12
376.545	376.12
376.771	378.12
376.997	363.12
377.222	361.12
377.448	375.12
377.674	367.12
377.899	351.12
378.125	384.12
378.35	363.12
378.576	370.12
378.802	377.12
379.027	390.12
379.253	364.12
379.478	358.12
379.704	369.12
379.929	364.12
380.155	384.12
380.38	372.12
380.606	374.12
380.831	355.12
381.057	366.12
381.282	376.12
381.507	378.12
381.733	386.12
381.958	366.12
382.184	377.12
382.409	381.12
382.634	383.12
382.86	377.12
383.085	376.12
383.31	377.12
383.535	400.12
383.761	388.12
383.986	395.12
384.211	414.12
384.436	380.12
384.662	392.12
384.887	390.12
385.112	390.12
385.337	380.12
385.562	402.12
385.787	399.12
386.013	426.12
386.238	398.12
386.463	398.12
386.688	402.12
386.913	398.12
387.138	382.12
387.363	384.12
387.588	405.12
387.813	409.12
388.038	420.12
388.263	412.12
388.488	397.12
388.713	387.12
388.938	405.12
389.163	416.12
389.387	390.12
389.612	383.12
389.837	397.12
390.062	412.12
390.287	389.12
390.512	389.12
390.736	401.12
390.961	407.12
391.186	410.12
391.411	409.12
391.636	386.12
391.86	391.12
392.085	416.12
392.31	413.12
392.534	419.12
392.759	415.12
392.984	417.12
393.208	432.12
393.433	451.12
393.658	458.12
393.882	424.12
394.107	393.12
394.331	421.12
394.556	404.12
394.78	398.12
395.005	406.12
395.229	422.12
395.454	414.12
395.678	413.12
395.903	432.12
396.127	426.12
396.352	437.12
396.576	419.12
396.801	414.12
397.025	454.12
397.249	428.12
397.474	441.12
397.698	430.12
397.922	444.12
398.147	454.12
398.371	444.12
398.595	465.12
398.82	435.12
399.044	454.12
399.268	452.12
399.492	489.12
399.717	502.12
399.941	558.12
400.165	553.12
400.389	553.12
400.613	511.12
400.837	481.12
401.062	487.12
401.286	459.12
401.51	448.12
401.734	448.12
401.958	466.12
402.182	459.12
402.406	477.12
402.63	465.12
402.854	474.12
403.078	456.12
403.302	481.12
403.526	479.12
403.75	491.12
403.974	480.12
404.198	465.12
404.422	494.12
404.645	483.12
404.869	488.12
405.093	513.12
405.317	536.12
405.541	570.12
405.765	516.12
405.988	507.12
406.212	521.12
406.436	520.12
406.66	544.12
406.883	518.12
407.107	539.12
407.331	564.12
407.555	637.12
407.778	648.12
408.002	579.12
408.226	542.12
408.449	505.12
408.673	544.12
408.896	564.12
409.12	587.12
409.344	571.12
409.567	512.12
409.791	502.12
410.014	498.12
410.238	457.12
410.461	473.12
410.685	500.12
410.908	522.12
411.132	534.12
411.355	560.12
411.578	523.12
411.802	495.12
412.025	495.12
412.249	480.12
412.472	523.12
412.695	550.12
412.919	534.12
413.142	490.12
413.365	474.12
413.589	502.12
413.812	485.12
414.035	456.12
414.258	435.12
414.482	461.12
414.705	459.12
414.928	455.12
415.151	447.12
415.374	464.12
415.597	465.12
415.821	443.12
416.044	469.12
416.267	467.12
416.49	481.12
416.713	453.12
416.936	475.12
417.159	473.12
417.382	465.12
417.605	487.12
417.828	488.12
418.051	482.12
418.274	472.12
418.497	470.12
418.72	439.12
418.943	466.12
419.166	483.12
419.389	497.12
419.611	472.12
419.834	499.12
420.057	495.12
420.28	486.12
420.503	471.12
420.726	479.12
420.948	501.12
421.171	539.12
421.394	576.12
421.617	502.12
421.839	496.12
422.062	508.12
422.285	490.12
422.507	542.12
422.73	651.12
422.953	622.12
423.175	535.12
423.398	514.12
423.621	502.12
423.843	522.12
424.066	537.12
424.288	536.12
424.511	545.12
424.733	606.12
424.956	683.12
425.178	652.12
425.401	636.12
425.623	693.12
425.846	582.12
426.068	542.12
426.291	534.12
426.513	542.12
426.735	552.12
426.958	586.12
427.18	659.12
427.402	806.12
427.625	851.12
427.847	768.12
428.069	676.12
428.292	584.12
428.514	552.12
428.736	509.12
428.958	510.12
429.181	498.12
429.403	484.12
429.625	510.12
429.847	524.12
430.069	606.12
430.292	586.12
430.514	524.12
430.736	518.12
430.958	479.12
431.18	479.12
431.402	492.12
431.624	474.12
431.846	454.12
432.068	475.12
432.29	457.12
432.512	481.12
432.734	492.12
432.956	486.12
433.178	492.12
433.4	471.12
433.622	499.12
433.844	494.12
434.066	457.12
434.287	449.12
434.509	459.12
434.731	471.12
434.953	480.12
435.175	508.12
435.397	532.12
435.618	558.12
435.84	575.12
436.062	666.12
436.284	748.12
436.505	622.12
436.727	562.12
436.949	528.12
437.17	507.12
437.392	489.12
437.614	532.12
437.835	532.12
438.057	644.12
438.278	733.12
438.5	751.12
438.721	829.12
438.943	778.12
439.165	637.12
439.386	564.12
439.608	560.12
439.829	583.12
440.05	590.12
440.272	608.12
440.493	585.12
440.715	540.12
440.936	530.12
441.158	485.12
441.379	502.12
441.6	526.12
441.822	557.12
442.043	584.12
442.264	676.12
442.486	684.12
442.707	630.12
442.928	571.12
443.149	566.12
443.371	596.12
443.592	614.12
443.813	714.12
444.034	771.12
444.255	637.12
444.476	573.12
444.698	532.12
444.919	528.12
445.14	677.12
445.361	613.12
445.582	591.12
445.803	645.12
446.024	727.12
446.245	754.12
446.466	671.12
446.687	593.12
446.908	572.12
447.129	529.12
447.35	507.12
447.571	515.12
447.792	499.12
448.013	508.12
448.234	534.12
448.455	583.12
448.675	676.12
448.896	792.12
449.117	663.12
449.338	645.12
449.559	736.12
449.779	830.12
450	670.12
450.221	591.12
450.442	523.12
450.662	484.12
450.883	536.12
451.104	498.12
451.324	495.12
451.545	474.12
451.766	489.12
451.986	462.12
452.207	454.12
452.428	443.12
452.648	447.12
452.869	448.12
453.089	465.12
453.31	466.12
453.53	450.12
453.751	459.12
453.971	449.12
454.192	477.12
454.412	460.12
454.633	464.12
454.853	457.12
455.073	434.12
455.294	483.12
455.514	557.12
455.734	543.12
455.955	445.12
456.175	439.12
456.395	415.12
456.616	432.12
456.836	428.12
457.056	413.12
457.276	423.12
457.497	413.12
457.717	434.12
457.937	434.12
458.157	429.12
458.377	453.12
458.598	477.12
458.818	512.12
459.038	598.12
459.258	621.12
459.478	518.12
459.698	472.12
459.918	445.12
460.138	476.12
460.358	473.12
460.578	461.12
460.798	472.12
461.018	488.12
461.238	477.12
461.458	463.12
461.678	482.12
461.898	464.12
462.118	454.12
462.338	464.12
462.558	493.12
462.777	482.12
462.997	492.12
463.217	488.12
463.437	502.12
463.657	494.12
463.876	504.12
464.096	520.12
464.316	470.12
464.536	519.12
464.755	514.12
464.975	506.12
465.195	572.12
465.414	634.12
465.634	558.12
465.854	524.12
466.073	499.12
466.293	469.12
466.512	455.12
466.732	454.12
466.951	465.12
467.171	448.12
467.391	461.12
467.61	484.12
467.829	493.12
468.049	476.12
468.268	460.12
468.488	469.12
468.707	455.12
468.927	421.12
469.146	444.12
469.365	458.12
469.585	450.12
469.804	458.12
470.023	472.12
470.243	472.12
470.462	484.12
470.681	511.12
470.901	479.12
471.12	475.12
471.339	472.12
471.558	485.12
471.777	501.12
471.997	463.12
472.216	471.12
472.435	503.12
472.654	487.12
472.873	473.12
473.092	468.12
473.311	469.12
473.53	498.12
473.749	489.12
473.968	510.12
474.187	628.12
474.406	645.12
474.625	526.12
474.844	490.12
475.063	445.12
475.282	468.12
475.501	468.12
475.72	470.12
475.939	488.12
476.158	506.12
476.377	511.12
476.596	481.12
476.814	484.12
477.033	496.12
477.252	499.12
477.471	519.12
477.69	520.12
477.908	532.12
478.127	512.12
478.346	526.12
478.564	532.12
478.783	530.12
479.002	542.12
479.22	513.12
479.439	562.12
479.658	578.12
479.876	580.12
480.095	593.12
480.313	572.12
480.532	622.12
480.751	574.12
480.969	580.12
481.188	621.12
481.406	657.12
481.624	592.12
481.843	550.12
482.061	553.12
482.28	562.12
482.498	555.12
482.717	568.12
482.935	561.12
483.153	545.12
483.372	565.12
483.59	544.12
483.808	565.12
484.027	586.12
484.245	560.12
484.463	549.12
484.681	570.12
484.9	550.12
485.118	578.12
485.336	566.12
485.554	581.12
485.772	584.12
485.99	577.12
486.209	576.12
486.427	560.12
486.645	584.12
486.863	623.12
487.081	637.12
487.299	598.12
487.517	620.12
487.735	599.12
487.953	606.12
488.171	610.12
488.389	600.12
488.607	620.12
488.825	595.12
489.043	603.12
489.261	604.12
489.479	616.12
489.696	593.12
489.914	611.12
490.132	616.12
490.35	627.12
490.568	636.12
490.786	648.12
491.003	662.12
491.221	651.12
491.439	687.12
491.657	683.12
491.874	695.12
492.092	715.12
492.31	707.12
492.527	692.12
492.745	691.12
492.963	706.12
493.18	694.12
493.398	720.12
493.615	735.12
493.833	724.12
494.05	739.12
494.268	715.12
494.485	701.12
494.703	733.12
494.92	734.12
495.138	727.12
495.355	719.12
495.573	755.12
495.79	737.12
496.008	766.12
496.225	716.12
496.442	738.12
496.66	752.12
496.877	732.12
497.094	722.12
497.312	762.12
497.529	763.12
497.746	755.12
497.963	757.12
498.181	762.12
498.398	752.12
498.615	805.12
498.832	821.12
499.049	787.12
499.267	802.12
499.484	854.12
499.701	856.12
499.918	871.12
500.135	909.12
500.352	908.12
500.569	920.12
500.786	910.12
501.003	908.12
501.22	922.12
501.437	900.12
501.654	884.12
