Data from 1971.PennyLincolnUp.Lamp.En5.5.200Scan.071719.P1.Scan 2. Changed Angle._HRD10591_15-24-01-842.txt Node
Date: Thu Jul 18 15:24:01 EDT 2019
User: cochatt
Spectrometer: HR+D1059
Trigger mode: 1
Integration Time (sec): 1.000000E-1
Scans to average: 1
Electric dark correction enabled: true
Nonlinearity correction enabled: false
Boxcar width: 0
XAxis mode: Wavelengths
Number of Pixels in Spectrum: 2048
>>>>>Begin Spectral Data<<<<<
223.165	-5.81
223.4	-5.81
223.635	-5.81
223.869	-22.81
224.104	-9.81
224.338	-11.81
224.573	-10.81
224.808	-14.81
225.042	-10.81
225.277	3.19
225.511	-15.81
225.746	-3.81
225.98	9.19
226.215	5.19
226.449	5.19
226.683	20.19
226.918	23.19
227.152	40.19
227.387	28.19
227.621	30.19
227.856	48.19
228.09	36.19
228.324	46.19
228.559	38.19
228.793	69.19
229.027	107.19
229.262	123.19
229.496	129.19
229.73	154.19
229.964	171.19
230.199	125.19
230.433	132.19
230.667	124.19
230.901	127.19
231.136	117.19
231.37	130.19
231.604	117.19
231.838	128.19
232.072	122.19
232.306	122.19
232.541	125.19
232.775	116.19
233.009	123.19
233.243	118.19
233.477	124.19
233.711	116.19
233.945	134.19
234.179	124.19
234.413	117.19
234.647	112.19
234.881	118.19
235.115	119.19
235.349	133.19
235.583	132.19
235.817	114.19
236.051	134.19
236.285	130.19
236.519	116.19
236.753	137.19
236.987	152.19
237.221	202.19
237.455	262.19
237.689	237.19
237.922	154.19
238.156	152.19
238.39	132.19
238.624	135.19
238.858	133.19
239.091	119.19
239.325	130.19
239.559	133.19
239.793	129.19
240.027	143.19
240.26	148.19
240.494	160.19
240.728	167.19
240.961	157.19
241.195	134.19
241.429	143.19
241.662	134.19
241.896	147.19
242.13	151.19
242.363	155.19
242.597	132.19
242.83	143.19
243.064	142.19
243.298	151.19
243.531	158.19
243.765	136.19
243.998	134.19
244.232	133.19
244.465	130.19
244.699	150.19
244.932	145.19
245.166	154.19
245.399	138.19
245.633	145.19
245.866	152.19
246.099	149.19
246.333	158.19
246.566	162.19
246.8	161.19
247.033	161.19
247.266	161.19
247.5	180.19
247.733	184.19
247.966	177.19
248.2	178.19
248.433	179.19
248.666	173.19
248.899	191.19
249.133	217.19
249.366	219.19
249.599	216.19
249.832	177.19
250.066	197.19
250.299	195.19
250.532	189.19
250.765	204.19
250.998	247.19
251.231	232.19
251.465	237.19
251.698	225.19
251.931	208.19
252.164	221.19
252.397	232.19
252.63	206.19
252.863	228.19
253.096	229.19
253.329	236.19
253.562	240.19
253.795	242.19
254.028	234.19
254.261	236.19
254.494	230.19
254.727	271.19
254.96	316.19
255.193	296.19
255.426	282.19
255.659	262.19
255.892	233.19
256.124	245.19
256.357	260.19
256.59	261.19
256.823	245.19
257.056	228.19
257.289	203.19
257.521	222.19
257.754	237.19
257.987	220.19
258.22	224.19
258.452	221.19
258.685	204.19
258.918	205.19
259.151	225.19
259.383	230.19
259.616	220.19
259.849	222.19
260.081	237.19
260.314	250.19
260.547	266.19
260.779	261.19
261.012	262.19
261.244	231.19
261.477	229.19
261.71	235.19
261.942	243.19
262.175	242.19
262.407	226.19
262.64	221.19
262.872	213.19
263.105	219.19
263.337	230.19
263.57	205.19
263.802	215.19
264.035	204.19
264.267	203.19
264.499	202.19
264.732	228.19
264.964	212.19
265.197	205.19
265.429	206.19
265.661	218.19
265.894	210.19
266.126	227.19
266.358	204.19
266.591	218.19
266.823	219.19
267.055	211.19
267.287	224.19
267.52	219.19
267.752	221.19
267.984	220.19
268.216	198.19
268.448	230.19
268.681	243.19
268.913	232.19
269.145	256.19
269.377	277.19
269.609	268.19
269.841	288.19
270.073	289.19
270.306	302.19
270.538	328.19
270.77	334.19
271.002	311.19
271.234	324.19
271.466	338.19
271.698	318.19
271.93	326.19
272.162	306.19
272.394	331.19
272.626	308.19
272.858	300.19
273.09	278.19
273.322	266.19
273.553	254.19
273.785	293.19
274.017	277.19
274.249	270.19
274.481	253.19
274.713	254.19
274.945	262.19
275.176	263.19
275.408	269.19
275.64	260.19
275.872	259.19
276.104	264.19
276.335	262.19
276.567	273.19
276.799	313.19
277.031	309.19
277.262	329.19
277.494	328.19
277.726	314.19
277.957	289.19
278.189	270.19
278.421	283.19
278.652	264.19
278.884	263.19
279.115	276.19
279.347	258.19
279.579	272.19
279.81	262.19
280.042	250.19
280.273	266.19
280.505	265.19
280.736	270.19
280.968	263.19
281.199	254.19
281.431	256.19
281.662	250.19
281.894	258.19
282.125	245.19
282.356	290.19
282.588	302.19
282.819	318.19
283.051	275.19
283.282	252.19
283.513	262.19
283.745	267.19
283.976	261.19
284.207	266.19
284.439	267.19
284.67	269.19
284.901	271.19
285.132	267.19
285.364	258.19
285.595	247.19
285.826	264.19
286.057	259.19
286.288	262.19
286.52	258.19
286.751	265.19
286.982	263.19
287.213	259.19
287.444	270.19
287.675	278.19
287.906	275.19
288.138	291.19
288.369	290.19
288.6	300.19
288.831	298.19
289.062	292.19
289.293	284.19
289.524	269.19
289.755	288.19
289.986	282.19
290.217	281.19
290.448	268.19
290.679	292.19
290.91	276.19
291.141	262.19
291.371	265.19
291.602	278.19
291.833	259.19
292.064	266.19
292.295	267.19
292.526	267.19
292.757	279.19
292.987	263.19
293.218	280.19
293.449	261.19
293.68	275.19
293.91	262.19
294.141	252.19
294.372	258.19
294.603	265.19
294.833	287.19
295.064	268.19
295.295	267.19
295.525	265.19
295.756	274.19
295.987	302.19
296.217	316.19
296.448	314.19
296.679	291.19
296.909	265.19
297.14	274.19
297.37	298.19
297.601	290.19
297.831	290.19
298.062	279.19
298.292	285.19
298.523	259.19
298.753	286.19
298.984	280.19
299.214	265.19
299.445	270.19
299.675	291.19
299.905	294.19
300.136	283.19
300.366	298.19
300.597	272.19
300.827	299.19
301.057	282.19
301.288	304.19
301.518	298.19
301.748	316.19
301.979	292.19
302.209	294.19
302.439	317.19
302.669	304.19
302.9	298.19
303.13	294.19
303.36	312.19
303.59	308.19
303.82	314.19
304.051	332.19
304.281	315.19
304.511	293.19
304.741	294.19
304.971	312.19
305.201	309.19
305.431	306.19
305.661	307.19
305.891	312.19
306.121	301.19
306.352	310.19
306.582	304.19
306.812	316.19
307.042	307.19
307.272	310.19
307.502	309.19
307.731	320.19
307.961	305.19
308.191	328.19
308.421	329.19
308.651	327.19
308.881	333.19
309.111	324.19
309.341	341.19
309.571	340.19
309.8	336.19
310.03	351.19
310.26	334.19
310.49	370.19
310.72	381.19
310.949	397.19
311.179	405.19
311.409	377.19
311.639	377.19
311.868	369.19
312.098	390.19
312.328	388.19
312.557	397.19
312.787	392.19
313.017	427.19
313.246	396.19
313.476	369.19
313.706	360.19
313.935	380.19
314.165	384.19
314.394	390.19
314.624	398.19
314.853	377.19
315.083	381.19
315.312	353.19
315.542	355.19
315.771	337.19
316.001	359.19
316.23	372.19
316.46	336.19
316.689	359.19
316.919	355.19
317.148	404.19
317.377	374.19
317.607	380.19
317.836	363.19
318.065	356.19
318.295	339.19
318.524	365.19
318.753	357.19
318.983	334.19
319.212	373.19
319.441	377.19
319.67	398.19
319.9	369.19
320.129	362.19
320.358	356.19
320.587	390.19
320.816	394.19
321.046	418.19
321.275	378.19
321.504	396.19
321.733	412.19
321.962	404.19
322.191	417.19
322.42	442.19
322.649	467.19
322.878	454.19
323.108	497.19
323.337	541.19
323.566	555.19
323.795	586.19
324.024	640.19
324.253	813.19
324.482	1184.19
324.71	1833.19
324.939	2659.19
325.168	2267.19
325.397	1194.19
325.626	768.19
325.855	629.19
326.084	554.19
326.313	560.19
326.542	556.19
326.77	581.19
326.999	729.19
327.228	1054.19
327.457	1600.19
327.686	1960.19
327.914	1335.19
328.143	854.19
328.372	741.19
328.6	670.19
328.829	632.19
329.058	649.19
329.287	668.19
329.515	601.19
329.744	564.19
329.972	535.19
330.201	587.19
330.43	609.19
330.658	650.19
330.887	690.19
331.115	673.19
331.344	544.19
331.572	504.19
331.801	520.19
332.03	530.19
332.258	490.19
332.486	457.19
332.715	440.19
332.943	459.19
333.172	442.19
333.4	455.19
333.629	452.19
333.857	504.19
334.085	485.19
334.314	518.19
334.542	516.19
334.771	541.19
334.999	494.19
335.227	470.19
335.455	456.19
335.684	432.19
335.912	448.19
336.14	425.19
336.369	419.19
336.597	438.19
336.825	444.19
337.053	414.19
337.281	417.19
337.51	414.19
337.738	416.19
337.966	450.19
338.194	433.19
338.422	447.19
338.65	432.19
338.878	430.19
339.106	422.19
339.334	418.19
339.562	417.19
339.79	406.19
340.018	427.19
340.246	425.19
340.474	442.19
340.702	425.19
340.93	418.19
341.158	410.19
341.386	407.19
341.614	427.19
341.842	418.19
342.07	418.19
342.298	398.19
342.526	405.19
342.754	388.19
342.981	391.19
343.209	382.19
343.437	408.19
343.665	396.19
343.893	394.19
344.12	443.19
344.348	414.19
344.576	408.19
344.804	430.19
345.031	446.19
345.259	456.19
345.487	446.19
345.714	429.19
345.942	405.19
346.17	424.19
346.397	402.19
346.625	419.19
346.853	400.19
347.08	404.19
347.308	427.19
347.535	428.19
347.763	432.19
347.99	433.19
348.218	412.19
348.445	425.19
348.673	447.19
348.9	410.19
349.128	413.19
349.355	423.19
349.583	408.19
349.81	396.19
350.037	399.19
350.265	400.19
350.492	409.19
350.72	409.19
350.947	421.19
351.174	430.19
351.402	443.19
351.629	435.19
351.856	415.19
352.083	448.19
352.311	440.19
352.538	438.19
352.765	434.19
352.992	446.19
353.22	435.19
353.447	418.19
353.674	388.19
353.901	394.19
354.128	380.19
354.355	393.19
354.583	370.19
354.81	395.19
355.037	403.19
355.264	383.19
355.491	368.19
355.718	376.19
355.945	394.19
356.172	363.19
356.399	366.19
356.626	382.19
356.853	387.19
357.08	388.19
357.307	363.19
357.534	368.19
357.761	382.19
357.988	397.19
358.215	379.19
358.441	375.19
358.668	378.19
358.895	398.19
359.122	401.19
359.349	414.19
359.576	418.19
359.802	455.19
360.029	475.19
360.256	520.19
360.483	504.19
360.709	439.19
360.936	447.19
361.163	414.19
361.39	420.19
361.616	441.19
361.843	448.19
362.07	442.19
362.296	439.19
362.523	422.19
362.749	428.19
362.976	402.19
363.203	397.19
363.429	396.19
363.656	397.19
363.882	396.19
364.109	388.19
364.335	417.19
364.562	381.19
364.788	401.19
365.015	397.19
365.241	395.19
365.468	394.19
365.694	408.19
365.92	400.19
366.147	390.19
366.373	414.19
366.599	410.19
366.826	398.19
367.052	382.19
367.278	386.19
367.505	392.19
367.731	398.19
367.957	379.19
368.184	398.19
368.41	426.19
368.636	437.19
368.862	418.19
369.089	398.19
369.315	397.19
369.541	405.19
369.767	415.19
369.993	388.19
370.219	391.19
370.445	383.19
370.672	365.19
370.898	399.19
371.124	402.19
371.35	391.19
371.576	402.19
371.802	393.19
372.028	405.19
372.254	399.19
372.48	377.19
372.706	391.19
372.932	383.19
373.158	387.19
373.384	397.19
373.61	385.19
373.835	391.19
374.061	382.19
374.287	403.19
374.513	404.19
374.739	404.19
374.965	403.19
375.191	381.19
375.416	382.19
375.642	404.19
375.868	384.19
376.094	394.19
376.319	380.19
376.545	384.19
376.771	391.19
376.997	391.19
377.222	389.19
377.448	384.19
377.674	404.19
377.899	377.19
378.125	389.19
378.35	403.19
378.576	390.19
378.802	389.19
379.027	391.19
379.253	396.19
379.478	393.19
379.704	396.19
379.929	381.19
380.155	386.19
380.38	399.19
380.606	392.19
380.831	369.19
381.057	417.19
381.282	411.19
381.507	376.19
381.733	402.19
381.958	408.19
382.184	420.19
382.409	406.19
382.634	404.19
382.86	390.19
383.085	394.19
383.31	394.19
383.535	416.19
383.761	404.19
383.986	397.19
384.211	414.19
384.436	417.19
384.662	405.19
384.887	408.19
385.112	393.19
385.337	427.19
385.562	427.19
385.787	429.19
386.013	425.19
386.238	426.19
386.463	450.19
386.688	433.19
386.913	413.19
387.138	399.19
387.363	404.19
387.588	412.19
387.813	426.19
388.038	413.19
388.263	445.19
388.488	418.19
388.713	428.19
388.938	426.19
389.163	423.19
389.387	400.19
389.612	411.19
389.837	413.19
390.062	413.19
390.287	420.19
390.512	420.19
390.736	405.19
390.961	422.19
391.186	411.19
391.411	416.19
391.636	436.19
391.86	424.19
392.085	427.19
392.31	413.19
392.534	416.19
392.759	429.19
392.984	413.19
393.208	424.19
393.433	430.19
393.658	427.19
393.882	433.19
394.107	423.19
394.331	416.19
394.556	415.19
394.78	429.19
395.005	414.19
395.229	442.19
395.454	432.19
395.678	415.19
395.903	451.19
396.127	456.19
396.352	477.19
396.576	441.19
396.801	460.19
397.025	463.19
397.249	450.19
397.474	434.19
397.698	437.19
397.922	469.19
398.147	469.19
398.371	472.19
398.595	471.19
398.82	458.19
399.044	469.19
399.268	504.19
399.492	489.19
399.717	533.19
399.941	550.19
400.165	577.19
400.389	589.19
400.613	564.19
400.837	516.19
401.062	510.19
401.286	475.19
401.51	477.19
401.734	477.19
401.958	467.19
402.182	484.19
402.406	500.19
402.63	542.19
402.854	502.19
403.078	498.19
403.302	510.19
403.526	531.19
403.75	513.19
403.974	512.19
404.198	512.19
404.422	490.19
404.645	521.19
404.869	539.19
405.093	569.19
405.317	599.19
405.541	637.19
405.765	583.19
405.988	541.19
406.212	565.19
406.436	594.19
406.66	626.19
406.883	551.19
407.107	576.19
407.331	622.19
407.555	667.19
407.778	694.19
408.002	636.19
408.226	584.19
408.449	554.19
408.673	561.19
408.896	604.19
409.12	629.19
409.344	603.19
409.567	533.19
409.791	536.19
410.014	532.19
410.238	513.19
410.461	516.19
410.685	523.19
410.908	526.19
411.132	580.19
411.355	604.19
411.578	600.19
411.802	537.19
412.025	516.19
412.249	514.19
412.472	560.19
412.695	582.19
412.919	582.19
413.142	550.19
413.365	504.19
413.589	512.19
413.812	497.19
414.035	512.19
414.258	482.19
414.482	502.19
414.705	484.19
414.928	478.19
415.151	462.19
415.374	480.19
415.597	506.19
415.821	490.19
416.044	488.19
416.267	496.19
416.49	491.19
416.713	462.19
416.936	472.19
417.159	470.19
417.382	510.19
417.605	506.19
417.828	500.19
418.051	515.19
418.274	523.19
418.497	481.19
418.72	504.19
418.943	498.19
419.166	532.19
419.389	524.19
419.611	547.19
419.834	528.19
420.057	540.19
420.28	544.19
420.503	514.19
420.726	541.19
420.948	554.19
421.171	590.19
421.394	622.19
421.617	548.19
421.839	526.19
422.062	531.19
422.285	556.19
422.507	611.19
422.73	685.19
422.953	646.19
423.175	582.19
423.398	553.19
423.621	529.19
423.843	575.19
424.066	604.19
424.288	568.19
424.511	597.19
424.733	651.19
424.956	731.19
425.178	718.19
425.401	732.19
425.623	723.19
425.846	626.19
426.068	602.19
426.291	581.19
426.513	580.19
426.735	573.19
426.958	639.19
427.18	720.19
427.402	861.19
427.625	960.19
427.847	860.19
428.069	786.19
428.292	674.19
428.514	621.19
428.736	583.19
428.958	581.19
429.181	582.19
429.403	560.19
429.625	568.19
429.847	575.19
430.069	666.19
430.292	658.19
430.514	578.19
430.736	526.19
430.958	520.19
431.18	517.19
431.402	493.19
431.624	502.19
431.846	505.19
432.068	501.19
432.29	492.19
432.512	511.19
432.734	527.19
432.956	517.19
433.178	524.19
433.4	533.19
433.622	528.19
433.844	536.19
434.066	491.19
434.287	502.19
434.509	496.19
434.731	493.19
434.953	502.19
435.175	555.19
435.397	568.19
435.618	588.19
435.84	629.19
436.062	746.19
436.284	779.19
436.505	680.19
436.727	625.19
436.949	598.19
437.17	560.19
437.392	566.19
437.614	581.19
437.835	620.19
438.057	726.19
438.278	849.19
438.5	805.19
438.721	895.19
438.943	848.19
439.165	684.19
439.386	636.19
439.608	626.19
439.829	618.19
440.05	647.19
440.272	712.19
440.493	645.19
440.715	620.19
440.936	582.19
441.158	551.19
441.379	532.19
441.6	564.19
441.822	585.19
442.043	635.19
442.264	731.19
442.486	774.19
442.707	666.19
442.928	603.19
443.149	645.19
443.371	654.19
443.592	720.19
443.813	781.19
444.034	829.19
444.255	703.19
444.476	619.19
444.698	593.19
444.919	566.19
445.14	664.19
445.361	646.19
445.582	634.19
445.803	718.19
446.024	859.19
446.245	854.19
446.466	786.19
446.687	657.19
446.908	616.19
447.129	566.19
447.35	555.19
447.571	543.19
447.792	514.19
448.013	561.19
448.234	586.19
448.455	632.19
448.675	742.19
448.896	866.19
449.117	737.19
449.338	714.19
449.559	827.19
449.779	912.19
450	736.19
450.221	634.19
450.442	563.19
450.662	550.19
450.883	563.19
451.104	575.19
451.324	568.19
451.545	550.19
451.766	530.19
451.986	507.19
452.207	504.19
452.428	501.19
452.648	484.19
452.869	478.19
453.089	505.19
453.31	530.19
453.53	521.19
453.751	499.19
453.971	515.19
454.192	545.19
454.412	512.19
454.633	511.19
454.853	464.19
455.073	526.19
455.294	549.19
455.514	619.19
455.734	600.19
455.955	515.19
456.175	475.19
456.395	459.19
456.616	440.19
456.836	488.19
457.056	456.19
457.276	444.19
457.497	465.19
457.717	460.19
457.937	467.19
458.157	468.19
458.377	479.19
458.598	516.19
458.818	591.19
459.038	696.19
459.258	691.19
459.478	580.19
459.698	522.19
459.918	491.19
460.138	487.19
460.358	493.19
460.578	487.19
460.798	492.19
461.018	520.19
461.238	499.19
461.458	504.19
461.678	478.19
461.898	508.19
462.118	514.19
462.338	529.19
462.558	532.19
462.777	525.19
462.997	503.19
463.217	520.19
463.437	529.19
463.657	520.19
463.876	530.19
464.096	533.19
464.316	521.19
464.536	546.19
464.755	532.19
464.975	543.19
465.195	624.19
465.414	715.19
465.634	648.19
465.854	580.19
466.073	553.19
466.293	493.19
466.512	503.19
466.732	518.19
466.951	501.19
467.171	504.19
467.391	496.19
467.61	500.19
467.829	532.19
468.049	535.19
468.268	497.19
468.488	499.19
468.707	485.19
468.927	485.19
469.146	488.19
469.365	505.19
469.585	470.19
469.804	522.19
470.023	525.19
470.243	514.19
470.462	536.19
470.681	580.19
470.901	546.19
471.12	510.19
471.339	534.19
471.558	529.19
471.777	534.19
471.997	529.19
472.216	524.19
472.435	564.19
472.654	533.19
472.873	518.19
473.092	505.19
473.311	490.19
473.53	498.19
473.749	537.19
473.968	572.19
474.187	671.19
474.406	706.19
474.625	586.19
474.844	546.19
475.063	527.19
475.282	528.19
475.501	511.19
475.72	491.19
475.939	532.19
476.158	512.19
476.377	528.19
476.596	532.19
476.814	517.19
477.033	550.19
477.252	547.19
477.471	548.19
477.69	542.19
477.908	564.19
478.127	553.19
478.346	557.19
478.564	564.19
478.783	560.19
479.002	563.19
479.22	588.19
479.439	590.19
479.658	607.19
479.876	615.19
480.095	632.19
480.313	651.19
480.532	658.19
480.751	619.19
480.969	617.19
481.188	709.19
481.406	766.19
481.624	673.19
481.843	619.19
482.061	645.19
482.28	611.19
482.498	613.19
482.717	616.19
482.935	616.19
483.153	605.19
483.372	606.19
483.59	620.19
483.808	606.19
484.027	631.19
484.245	620.19
484.463	594.19
484.681	602.19
484.9	629.19
485.118	633.19
485.336	629.19
485.554	621.19
485.772	632.19
485.99	615.19
486.209	604.19
486.427	636.19
486.645	652.19
486.863	686.19
487.081	663.19
487.299	656.19
487.517	668.19
487.735	669.19
487.953	642.19
488.171	651.19
488.389	672.19
488.607	673.19
488.825	648.19
489.043	660.19
489.261	685.19
489.479	684.19
489.696	692.19
489.914	679.19
490.132	658.19
490.35	686.19
490.568	702.19
490.786	720.19
491.003	715.19
491.221	717.19
491.439	756.19
491.657	736.19
491.874	752.19
492.092	802.19
492.31	783.19
492.527	773.19
492.745	781.19
492.963	796.19
493.18	804.19
493.398	805.19
493.615	805.19
493.833	792.19
494.05	824.19
494.268	781.19
494.485	803.19
494.703	805.19
494.92	802.19
495.138	796.19
495.355	805.19
495.573	790.19
495.79	799.19
496.008	819.19
496.225	805.19
496.442	775.19
496.66	780.19
496.877	800.19
497.094	802.19
497.312	810.19
497.529	834.19
497.746	802.19
497.963	820.19
498.181	872.19
498.398	818.19
498.615	850.19
498.832	843.19
499.049	856.19
499.267	870.19
499.484	873.19
499.701	933.19
499.918	924.19
500.135	920.19
500.352	953.19
500.569	955.19
500.786	981.19
501.003	962.19
501.22	950.19
501.437	894.19
501.654	936.19
