Data from 1971.PennyLincolnUp.Lamp.En5.5.200Scan.071719.P1.Scan 2. Changed Angle._HRD10591_15-25-33-843.txt Node
Date: Thu Jul 18 15:25:33 EDT 2019
User: cochatt
Spectrometer: HR+D1059
Trigger mode: 1
Integration Time (sec): 1.000000E-1
Scans to average: 1
Electric dark correction enabled: true
Nonlinearity correction enabled: false
Boxcar width: 0
XAxis mode: Wavelengths
Number of Pixels in Spectrum: 2048
>>>>>Begin Spectral Data<<<<<
223.165	-17.25
223.4	-17.25
223.635	-17.25
223.869	-13.25
224.104	-20.25
224.338	-20.25
224.573	-30.25
224.808	-2.25
225.042	9.75
225.277	-11.25
225.511	-9.25
225.746	11.75
225.98	-5.25
226.215	13.75
226.449	12.75
226.683	22.75
226.918	22.75
227.152	35.75
227.387	35.75
227.621	49.75
227.856	51.75
228.09	44.75
228.324	40.75
228.559	40.75
228.793	64.75
229.027	103.75
229.262	118.75
229.496	130.75
229.73	162.75
229.964	186.75
230.199	143.75
230.433	126.75
230.667	123.75
230.901	111.75
231.136	126.75
231.37	126.75
231.604	136.75
231.838	118.75
232.072	125.75
232.306	108.75
232.541	103.75
232.775	110.75
233.009	120.75
233.243	116.75
233.477	121.75
233.711	113.75
233.945	113.75
234.179	121.75
234.413	116.75
234.647	125.75
234.881	119.75
235.115	134.75
235.349	126.75
235.583	127.75
235.817	117.75
236.051	134.75
236.285	139.75
236.519	139.75
236.753	147.75
236.987	158.75
237.221	220.75
237.455	302.75
237.689	235.75
237.922	164.75
238.156	149.75
238.39	155.75
238.624	137.75
238.858	130.75
239.091	142.75
239.325	130.75
239.559	134.75
239.793	141.75
240.027	146.75
240.26	149.75
240.494	188.75
240.728	173.75
240.961	169.75
241.195	161.75
241.429	155.75
241.662	156.75
241.896	162.75
242.13	154.75
242.363	139.75
242.597	134.75
242.83	157.75
243.064	138.75
243.298	145.75
243.531	130.75
243.765	151.75
243.998	148.75
244.232	158.75
244.465	154.75
244.699	152.75
244.932	151.75
245.166	140.75
245.399	173.75
245.633	143.75
245.866	153.75
246.099	151.75
246.333	152.75
246.566	165.75
246.8	168.75
247.033	175.75
247.266	181.75
247.5	167.75
247.733	171.75
247.966	201.75
248.2	188.75
248.433	182.75
248.666	182.75
248.899	212.75
249.133	227.75
249.366	260.75
249.599	206.75
249.832	207.75
250.066	189.75
250.299	207.75
250.532	219.75
250.765	235.75
250.998	249.75
251.231	249.75
251.465	237.75
251.698	219.75
251.931	209.75
252.164	215.75
252.397	233.75
252.63	224.75
252.863	222.75
253.096	246.75
253.329	267.75
253.562	263.75
253.795	251.75
254.028	236.75
254.261	262.75
254.494	249.75
254.727	290.75
254.96	315.75
255.193	310.75
255.426	296.75
255.659	259.75
255.892	257.75
256.124	286.75
256.357	257.75
256.59	260.75
256.823	234.75
257.056	245.75
257.289	231.75
257.521	243.75
257.754	238.75
257.987	227.75
258.22	226.75
258.452	237.75
258.685	216.75
258.918	222.75
259.151	234.75
259.383	215.75
259.616	251.75
259.849	244.75
260.081	263.75
260.314	299.75
260.547	309.75
260.779	276.75
261.012	261.75
261.244	262.75
261.477	248.75
261.71	253.75
261.942	247.75
262.175	269.75
262.407	254.75
262.64	230.75
262.872	243.75
263.105	225.75
263.337	223.75
263.57	225.75
263.802	226.75
264.035	222.75
264.267	223.75
264.499	236.75
264.732	220.75
264.964	223.75
265.197	227.75
265.429	225.75
265.661	230.75
265.894	219.75
266.126	219.75
266.358	200.75
266.591	230.75
266.823	236.75
267.055	232.75
267.287	235.75
267.52	231.75
267.752	235.75
267.984	231.75
268.216	251.75
268.448	260.75
268.681	253.75
268.913	252.75
269.145	298.75
269.377	308.75
269.609	289.75
269.841	295.75
270.073	311.75
270.306	308.75
270.538	335.75
270.77	349.75
271.002	329.75
271.234	324.75
271.466	338.75
271.698	339.75
271.93	366.75
272.162	376.75
272.394	347.75
272.626	332.75
272.858	314.75
273.09	323.75
273.322	299.75
273.553	289.75
273.785	318.75
274.017	287.75
274.249	270.75
274.481	293.75
274.713	270.75
274.945	283.75
275.176	294.75
275.408	267.75
275.64	283.75
275.872	264.75
276.104	291.75
276.335	281.75
276.567	292.75
276.799	310.75
277.031	346.75
277.262	342.75
277.494	335.75
277.726	338.75
277.957	314.75
278.189	298.75
278.421	276.75
278.652	272.75
278.884	280.75
279.115	269.75
279.347	282.75
279.579	272.75
279.81	284.75
280.042	272.75
280.273	266.75
280.505	271.75
280.736	277.75
280.968	265.75
281.199	250.75
281.431	272.75
281.662	280.75
281.894	286.75
282.125	285.75
282.356	316.75
282.588	326.75
282.819	339.75
283.051	288.75
283.282	275.75
283.513	282.75
283.745	271.75
283.976	273.75
284.207	268.75
284.439	286.75
284.67	288.75
284.901	278.75
285.132	292.75
285.364	269.75
285.595	274.75
285.826	271.75
286.057	293.75
286.288	277.75
286.52	277.75
286.751	284.75
286.982	297.75
287.213	277.75
287.444	277.75
287.675	302.75
287.906	309.75
288.138	319.75
288.369	308.75
288.6	309.75
288.831	295.75
289.062	297.75
289.293	287.75
289.524	308.75
289.755	283.75
289.986	298.75
290.217	291.75
290.448	293.75
290.679	303.75
290.91	298.75
291.141	275.75
291.371	292.75
291.602	267.75
291.833	291.75
292.064	282.75
292.295	289.75
292.526	298.75
292.757	293.75
292.987	276.75
293.218	293.75
293.449	277.75
293.68	287.75
293.91	296.75
294.141	267.75
294.372	287.75
294.603	301.75
294.833	311.75
295.064	296.75
295.295	293.75
295.525	309.75
295.756	291.75
295.987	305.75
296.217	333.75
296.448	345.75
296.679	322.75
296.909	313.75
297.14	298.75
297.37	290.75
297.601	278.75
297.831	291.75
298.062	299.75
298.292	311.75
298.523	325.75
298.753	300.75
298.984	284.75
299.214	297.75
299.445	301.75
299.675	313.75
299.905	303.75
300.136	299.75
300.366	320.75
300.597	307.75
300.827	323.75
301.057	312.75
301.288	336.75
301.518	341.75
301.748	339.75
301.979	327.75
302.209	340.75
302.439	330.75
302.669	331.75
302.9	325.75
303.13	336.75
303.36	313.75
303.59	334.75
303.82	363.75
304.051	345.75
304.281	323.75
304.511	321.75
304.741	298.75
304.971	334.75
305.201	326.75
305.431	317.75
305.661	336.75
305.891	313.75
306.121	316.75
306.352	338.75
306.582	335.75
306.812	335.75
307.042	327.75
307.272	316.75
307.502	350.75
307.731	324.75
307.961	339.75
308.191	345.75
308.421	346.75
308.651	341.75
308.881	326.75
309.111	339.75
309.341	356.75
309.571	376.75
309.8	391.75
310.03	369.75
310.26	409.75
310.49	418.75
310.72	437.75
310.949	436.75
311.179	445.75
311.409	391.75
311.639	385.75
311.868	405.75
312.098	414.75
312.328	417.75
312.557	440.75
312.787	450.75
313.017	445.75
313.246	411.75
313.476	389.75
313.706	403.75
313.935	389.75
314.165	414.75
314.394	435.75
314.624	430.75
314.853	430.75
315.083	412.75
315.312	394.75
315.542	392.75
315.771	393.75
316.001	380.75
316.23	375.75
316.46	378.75
316.689	376.75
316.919	385.75
317.148	379.75
317.377	414.75
317.607	415.75
317.836	394.75
318.065	389.75
318.295	400.75
318.524	400.75
318.753	386.75
318.983	387.75
319.212	389.75
319.441	400.75
319.67	424.75
319.9	401.75
320.129	385.75
320.358	388.75
320.587	405.75
320.816	403.75
321.046	422.75
321.275	447.75
321.504	433.75
321.733	434.75
321.962	449.75
322.191	455.75
322.42	472.75
322.649	505.75
322.878	502.75
323.108	510.75
323.337	530.75
323.566	595.75
323.795	636.75
324.024	717.75
324.253	873.75
324.482	1297.75
324.71	2049.75
324.939	2898.75
325.168	2503.75
325.397	1270.75
325.626	845.75
325.855	687.75
326.084	610.75
326.313	561.75
326.542	601.75
326.77	651.75
326.999	777.75
327.228	1144.75
327.457	1813.75
327.686	2206.75
327.914	1429.75
328.143	917.75
328.372	780.75
328.6	713.75
328.829	681.75
329.058	697.75
329.287	723.75
329.515	659.75
329.744	581.75
329.972	615.75
330.201	590.75
330.43	692.75
330.658	708.75
330.887	773.75
331.115	730.75
331.344	614.75
331.572	573.75
331.801	538.75
332.03	544.75
332.258	515.75
332.486	510.75
332.715	483.75
332.943	491.75
333.172	491.75
333.4	477.75
333.629	498.75
333.857	522.75
334.085	519.75
334.314	538.75
334.542	578.75
334.771	605.75
334.999	550.75
335.227	512.75
335.455	489.75
335.684	472.75
335.912	478.75
336.14	446.75
336.369	465.75
336.597	463.75
336.825	484.75
337.053	456.75
337.281	469.75
337.51	449.75
337.738	462.75
337.966	455.75
338.194	482.75
338.422	480.75
338.65	458.75
338.878	438.75
339.106	456.75
339.334	457.75
339.562	439.75
339.79	463.75
340.018	439.75
340.246	448.75
340.474	452.75
340.702	462.75
340.93	462.75
341.158	454.75
341.386	458.75
341.614	474.75
341.842	430.75
342.07	441.75
342.298	442.75
342.526	452.75
342.754	410.75
342.981	441.75
343.209	429.75
343.437	430.75
343.665	408.75
343.893	424.75
344.12	418.75
344.348	445.75
344.576	443.75
344.804	461.75
345.031	480.75
345.259	476.75
345.487	467.75
345.714	466.75
345.942	466.75
346.17	439.75
346.397	458.75
346.625	426.75
346.853	448.75
347.08	448.75
347.308	454.75
347.535	470.75
347.763	466.75
347.99	460.75
348.218	450.75
348.445	471.75
348.673	470.75
348.9	445.75
349.128	441.75
349.355	429.75
349.583	425.75
349.81	447.75
350.037	416.75
350.265	430.75
350.492	439.75
350.72	419.75
350.947	426.75
351.174	468.75
351.402	466.75
351.629	468.75
351.856	464.75
352.083	458.75
352.311	473.75
352.538	488.75
352.765	473.75
352.992	460.75
353.22	451.75
353.447	453.75
353.674	446.75
353.901	427.75
354.128	424.75
354.355	416.75
354.583	437.75
354.81	431.75
355.037	403.75
355.264	382.75
355.491	410.75
355.718	397.75
355.945	393.75
356.172	411.75
356.399	398.75
356.626	392.75
356.853	402.75
357.08	402.75
357.307	393.75
357.534	400.75
357.761	411.75
357.988	399.75
358.215	435.75
358.441	419.75
358.668	403.75
358.895	418.75
359.122	423.75
359.349	441.75
359.576	462.75
359.802	476.75
360.029	514.75
360.256	531.75
360.483	527.75
360.709	476.75
360.936	461.75
361.163	446.75
361.39	456.75
361.616	461.75
361.843	451.75
362.07	447.75
362.296	439.75
362.523	424.75
362.749	446.75
362.976	423.75
363.203	436.75
363.429	423.75
363.656	429.75
363.882	419.75
364.109	439.75
364.335	428.75
364.562	425.75
364.788	430.75
365.015	429.75
365.241	439.75
365.468	435.75
365.694	457.75
365.92	447.75
366.147	439.75
366.373	422.75
366.599	421.75
366.826	429.75
367.052	422.75
367.278	425.75
367.505	421.75
367.731	435.75
367.957	411.75
368.184	427.75
368.41	425.75
368.636	449.75
368.862	456.75
369.089	436.75
369.315	427.75
369.541	423.75
369.767	412.75
369.993	438.75
370.219	400.75
370.445	419.75
370.672	400.75
370.898	421.75
371.124	420.75
371.35	403.75
371.576	416.75
371.802	414.75
372.028	430.75
372.254	406.75
372.48	405.75
372.706	411.75
372.932	429.75
373.158	399.75
373.384	414.75
373.61	428.75
373.835	427.75
374.061	395.75
374.287	411.75
374.513	418.75
374.739	418.75
374.965	411.75
375.191	423.75
375.416	431.75
375.642	428.75
375.868	424.75
376.094	402.75
376.319	409.75
376.545	428.75
376.771	430.75
376.997	418.75
377.222	393.75
377.448	423.75
377.674	423.75
377.899	402.75
378.125	400.75
378.35	425.75
378.576	411.75
378.802	395.75
379.027	397.75
379.253	436.75
379.478	428.75
379.704	438.75
379.929	443.75
380.155	414.75
380.38	410.75
380.606	427.75
380.831	409.75
381.057	413.75
381.282	420.75
381.507	407.75
381.733	434.75
381.958	421.75
382.184	417.75
382.409	432.75
382.634	422.75
382.86	435.75
383.085	435.75
383.31	421.75
383.535	425.75
383.761	450.75
383.986	438.75
384.211	436.75
384.436	447.75
384.662	424.75
384.887	430.75
385.112	454.75
385.337	446.75
385.562	429.75
385.787	430.75
386.013	457.75
386.238	467.75
386.463	462.75
386.688	457.75
386.913	428.75
387.138	457.75
387.363	457.75
387.588	437.75
387.813	456.75
388.038	441.75
388.263	423.75
388.488	443.75
388.713	448.75
388.938	457.75
389.163	461.75
389.387	466.75
389.612	438.75
389.837	449.75
390.062	444.75
390.287	442.75
390.512	468.75
390.736	459.75
390.961	446.75
391.186	449.75
391.411	438.75
391.636	457.75
391.86	445.75
392.085	473.75
392.31	456.75
392.534	441.75
392.759	456.75
392.984	473.75
393.208	451.75
393.433	464.75
393.658	439.75
393.882	453.75
394.107	456.75
394.331	453.75
394.556	442.75
394.78	450.75
395.005	463.75
395.229	454.75
395.454	454.75
395.678	482.75
395.903	480.75
396.127	519.75
396.352	497.75
396.576	471.75
396.801	456.75
397.025	471.75
397.249	464.75
397.474	489.75
397.698	482.75
397.922	491.75
398.147	509.75
398.371	500.75
398.595	498.75
398.82	488.75
399.044	509.75
399.268	507.75
399.492	547.75
399.717	546.75
399.941	588.75
400.165	641.75
400.389	620.75
400.613	577.75
400.837	542.75
401.062	533.75
401.286	535.75
401.51	520.75
401.734	491.75
401.958	529.75
402.182	538.75
402.406	531.75
402.63	536.75
402.854	565.75
403.078	537.75
403.302	524.75
403.526	564.75
403.75	556.75
403.974	533.75
404.198	543.75
404.422	554.75
404.645	582.75
404.869	568.75
405.093	590.75
405.317	651.75
405.541	663.75
405.765	610.75
405.988	601.75
406.212	612.75
406.436	620.75
406.66	651.75
406.883	613.75
407.107	587.75
407.331	654.75
407.555	737.75
407.778	731.75
408.002	666.75
408.226	644.75
408.449	601.75
408.673	604.75
408.896	640.75
409.12	683.75
409.344	667.75
409.567	592.75
409.791	579.75
410.014	580.75
410.238	549.75
410.461	535.75
410.685	577.75
410.908	577.75
411.132	623.75
411.355	632.75
411.578	621.75
411.802	581.75
412.025	547.75
412.249	559.75
412.472	590.75
412.695	602.75
412.919	619.75
413.142	565.75
413.365	554.75
413.589	553.75
413.812	541.75
414.035	522.75
414.258	504.75
414.482	519.75
414.705	518.75
414.928	487.75
415.151	507.75
415.374	509.75
415.597	526.75
415.821	514.75
416.044	526.75
416.267	531.75
416.49	510.75
416.713	512.75
416.936	515.75
417.159	522.75
417.382	536.75
417.605	535.75
417.828	540.75
418.051	574.75
418.274	540.75
418.497	537.75
418.72	544.75
418.943	521.75
419.166	556.75
419.389	563.75
419.611	557.75
419.834	567.75
420.057	567.75
420.28	567.75
420.503	568.75
420.726	553.75
420.948	578.75
421.171	634.75
421.394	660.75
421.617	578.75
421.839	557.75
422.062	559.75
422.285	605.75
422.507	650.75
422.73	737.75
422.953	727.75
423.175	639.75
423.398	595.75
423.621	590.75
423.843	626.75
424.066	625.75
424.288	627.75
424.511	645.75
424.733	706.75
424.956	782.75
425.178	774.75
425.401	763.75
425.623	795.75
425.846	675.75
426.068	613.75
426.291	616.75
426.513	632.75
426.735	625.75
426.958	679.75
427.18	795.75
427.402	973.75
427.625	1051.75
427.847	935.75
428.069	826.75
428.292	725.75
428.514	627.75
428.736	634.75
428.958	629.75
429.181	583.75
429.403	584.75
429.625	598.75
429.847	604.75
430.069	706.75
430.292	715.75
430.514	621.75
430.736	581.75
430.958	564.75
431.18	537.75
431.402	549.75
431.624	530.75
431.846	554.75
432.068	532.75
432.29	540.75
432.512	534.75
432.734	548.75
432.956	549.75
433.178	557.75
433.4	577.75
433.622	556.75
433.844	546.75
434.066	563.75
434.287	549.75
434.509	542.75
434.731	543.75
434.953	556.75
435.175	591.75
435.397	622.75
435.618	610.75
435.84	678.75
436.062	804.75
436.284	861.75
436.505	742.75
436.727	646.75
436.949	606.75
437.17	577.75
437.392	606.75
437.614	623.75
437.835	645.75
438.057	765.75
438.278	899.75
438.5	875.75
438.721	973.75
438.943	885.75
439.165	739.75
439.386	665.75
439.608	664.75
439.829	647.75
440.05	713.75
440.272	750.75
440.493	714.75
440.715	662.75
440.936	621.75
441.158	591.75
441.379	573.75
441.6	606.75
441.822	629.75
442.043	705.75
442.264	798.75
442.486	843.75
442.707	714.75
442.928	658.75
443.149	652.75
443.371	689.75
443.592	761.75
443.813	873.75
444.034	896.75
444.255	763.75
444.476	649.75
444.698	633.75
444.919	622.75
445.14	709.75
445.361	670.75
445.582	696.75
445.803	798.75
446.024	914.75
446.245	892.75
446.466	843.75
446.687	728.75
446.908	647.75
447.129	618.75
447.35	595.75
447.571	594.75
447.792	586.75
448.013	608.75
448.234	622.75
448.455	701.75
448.675	827.75
448.896	931.75
449.117	828.75
449.338	759.75
449.559	861.75
449.779	948.75
450	803.75
450.221	671.75
450.442	623.75
450.662	619.75
450.883	606.75
451.104	649.75
451.324	606.75
451.545	595.75
451.766	558.75
451.986	541.75
452.207	543.75
452.428	526.75
452.648	510.75
452.869	522.75
453.089	554.75
453.31	580.75
453.53	541.75
453.751	526.75
453.971	535.75
454.192	561.75
454.412	557.75
454.633	551.75
454.853	541.75
455.073	523.75
455.294	581.75
455.514	675.75
455.734	626.75
455.955	556.75
456.175	515.75
456.395	466.75
456.616	480.75
456.836	491.75
457.056	497.75
457.276	469.75
457.497	520.75
457.717	457.75
457.937	494.75
458.157	509.75
458.377	513.75
458.598	523.75
458.818	614.75
459.038	711.75
459.258	729.75
459.478	620.75
459.698	559.75
459.918	535.75
460.138	537.75
460.358	554.75
460.578	554.75
460.798	525.75
461.018	543.75
461.238	522.75
461.458	547.75
461.678	526.75
461.898	523.75
462.118	545.75
462.338	527.75
462.558	528.75
462.777	547.75
462.997	548.75
463.217	556.75
463.437	562.75
463.657	554.75
463.876	555.75
464.096	566.75
464.316	551.75
464.536	591.75
464.755	591.75
464.975	590.75
465.195	645.75
465.414	764.75
465.634	678.75
465.854	624.75
466.073	582.75
466.293	551.75
466.512	532.75
466.732	534.75
466.951	527.75
467.171	531.75
467.391	527.75
467.61	549.75
467.829	545.75
468.049	575.75
468.268	550.75
468.488	534.75
468.707	530.75
468.927	544.75
469.146	480.75
469.365	522.75
469.585	518.75
469.804	515.75
470.023	513.75
470.243	546.75
470.462	567.75
470.681	576.75
470.901	563.75
471.12	562.75
471.339	527.75
471.558	539.75
471.777	549.75
471.997	531.75
472.216	536.75
472.435	598.75
472.654	579.75
472.873	546.75
473.092	527.75
473.311	552.75
473.53	563.75
473.749	545.75
473.968	611.75
474.187	725.75
474.406	763.75
474.625	621.75
474.844	567.75
475.063	564.75
475.282	540.75
475.501	529.75
475.72	566.75
475.939	549.75
476.158	554.75
476.377	566.75
476.596	552.75
476.814	590.75
477.033	594.75
477.252	590.75
477.471	567.75
477.69	569.75
477.908	611.75
478.127	595.75
478.346	590.75
478.564	605.75
478.783	611.75
479.002	608.75
479.22	611.75
479.439	619.75
479.658	651.75
479.876	644.75
480.095	654.75
480.313	700.75
480.532	653.75
480.751	659.75
480.969	684.75
481.188	797.75
481.406	847.75
481.624	721.75
481.843	677.75
482.061	673.75
482.28	654.75
482.498	652.75
482.717	627.75
482.935	629.75
483.153	670.75
483.372	649.75
483.59	636.75
483.808	636.75
484.027	646.75
484.245	660.75
484.463	633.75
484.681	639.75
484.9	670.75
485.118	696.75
485.336	662.75
485.554	675.75
485.772	685.75
485.99	669.75
486.209	689.75
486.427	685.75
486.645	682.75
486.863	721.75
487.081	735.75
487.299	696.75
487.517	720.75
487.735	714.75
487.953	722.75
488.171	699.75
488.389	714.75
488.607	696.75
488.825	720.75
489.043	706.75
489.261	729.75
489.479	734.75
489.696	731.75
489.914	730.75
490.132	745.75
490.35	743.75
490.568	744.75
490.786	759.75
491.003	752.75
491.221	788.75
491.439	822.75
491.657	790.75
491.874	855.75
492.092	838.75
492.31	821.75
492.527	834.75
492.745	843.75
492.963	836.75
493.18	847.75
493.398	861.75
493.615	873.75
493.833	855.75
494.05	883.75
494.268	846.75
494.485	860.75
494.703	862.75
494.92	845.75
495.138	876.75
495.355	871.75
495.573	884.75
495.79	832.75
496.008	881.75
496.225	847.75
496.442	853.75
496.66	840.75
496.877	845.75
497.094	875.75
497.312	854.75
497.529	859.75
497.746	877.75
497.963	894.75
498.181	921.75
498.398	937.75
498.615	911.75
498.832	907.75
499.049	918.75
499.267	934.75
499.484	915.75
499.701	963.75
499.918	1006.75
500.135	981.75
500.352	1024.75
500.569	1028.75
500.786	1024.75
501.003	1045.75
501.22	1006.75
501.437	1031.75
