Data from 1971.PennyLincolnUp.Lamp.En5.5.200Scan.071719.P1._HRD10591_15-19-56-841.txt Node
Date: Thu Jul 18 15:19:56 EDT 2019
User: cochatt
Spectrometer: HR+D1059
Trigger mode: 1
Integration Time (sec): 1.000000E-1
Scans to average: 1
Electric dark correction enabled: true
Nonlinearity correction enabled: false
Boxcar width: 0
XAxis mode: Wavelengths
Number of Pixels in Spectrum: 2048
>>>>>Begin Spectral Data<<<<<
223.165	-29.94
223.4	-29.94
223.635	-29.94
223.869	-13.94
224.104	-6.94
224.338	-23.94
224.573	-24.94
224.808	5.06
225.042	4.06
225.277	3.06
225.511	-5.94
225.746	-7.94
225.98	1.06
226.215	21.06
226.449	25.06
226.683	17.06
226.918	20.06
227.152	17.06
227.387	33.06
227.621	40.06
227.856	48.06
228.09	37.06
228.324	45.06
228.559	63.06
228.793	55.06
229.027	83.06
229.262	99.06
229.496	109.06
229.73	117.06
229.964	137.06
230.199	92.06
230.433	118.06
230.667	121.06
230.901	109.06
231.136	88.06
231.37	100.06
231.604	110.06
231.838	106.06
232.072	114.06
232.306	102.06
232.541	91.06
232.775	96.06
233.009	109.06
233.243	107.06
233.477	111.06
233.711	107.06
233.945	117.06
234.179	107.06
234.413	111.06
234.647	117.06
234.881	103.06
235.115	117.06
235.349	106.06
235.583	114.06
235.817	112.06
236.051	140.06
236.285	120.06
236.519	106.06
236.753	127.06
236.987	137.06
237.221	141.06
237.455	211.06
237.689	174.06
237.922	131.06
238.156	120.06
238.39	127.06
238.624	104.06
238.858	121.06
239.091	125.06
239.325	112.06
239.559	123.06
239.793	116.06
240.027	126.06
240.26	121.06
240.494	137.06
240.728	144.06
240.961	148.06
241.195	133.06
241.429	157.06
241.662	134.06
241.896	131.06
242.13	120.06
242.363	133.06
242.597	121.06
242.83	116.06
243.064	122.06
243.298	149.06
243.531	131.06
243.765	140.06
243.998	133.06
244.232	147.06
244.465	148.06
244.699	141.06
244.932	125.06
245.166	127.06
245.399	147.06
245.633	146.06
245.866	139.06
246.099	158.06
246.333	150.06
246.566	145.06
246.8	147.06
247.033	136.06
247.266	148.06
247.5	160.06
247.733	150.06
247.966	165.06
248.2	168.06
248.433	179.06
248.666	167.06
248.899	182.06
249.133	197.06
249.366	223.06
249.599	184.06
249.832	180.06
250.066	190.06
250.299	172.06
250.532	185.06
250.765	202.06
250.998	225.06
251.231	222.06
251.465	228.06
251.698	217.06
251.931	202.06
252.164	183.06
252.397	198.06
252.63	207.06
252.863	209.06
253.096	217.06
253.329	233.06
253.562	222.06
253.795	203.06
254.028	215.06
254.261	218.06
254.494	235.06
254.727	277.06
254.96	289.06
255.193	276.06
255.426	245.06
255.659	237.06
255.892	244.06
256.124	230.06
256.357	253.06
256.59	218.06
256.823	211.06
257.056	205.06
257.289	221.06
257.521	246.06
257.754	216.06
257.987	204.06
258.22	233.06
258.452	212.06
258.685	202.06
258.918	223.06
259.151	211.06
259.383	231.06
259.616	238.06
259.849	225.06
260.081	233.06
260.314	260.06
260.547	245.06
260.779	252.06
261.012	235.06
261.244	229.06
261.477	233.06
261.71	225.06
261.942	244.06
262.175	245.06
262.407	232.06
262.64	226.06
262.872	230.06
263.105	208.06
263.337	206.06
263.57	213.06
263.802	216.06
264.035	234.06
264.267	213.06
264.499	221.06
264.732	245.06
264.964	247.06
265.197	218.06
265.429	211.06
265.661	215.06
265.894	219.06
266.126	213.06
266.358	221.06
266.591	222.06
266.823	237.06
267.055	232.06
267.287	254.06
267.52	243.06
267.752	245.06
267.984	222.06
268.216	232.06
268.448	249.06
268.681	245.06
268.913	258.06
269.145	272.06
269.377	287.06
269.609	299.06
269.841	282.06
270.073	289.06
270.306	307.06
270.538	313.06
270.77	331.06
271.002	312.06
271.234	314.06
271.466	307.06
271.698	318.06
271.93	341.06
272.162	327.06
272.394	329.06
272.626	323.06
272.858	311.06
273.09	304.06
273.322	277.06
273.553	294.06
273.785	281.06
274.017	280.06
274.249	276.06
274.481	280.06
274.713	286.06
274.945	282.06
275.176	267.06
275.408	289.06
275.64	274.06
275.872	266.06
276.104	275.06
276.335	281.06
276.567	275.06
276.799	294.06
277.031	306.06
277.262	330.06
277.494	329.06
277.726	310.06
277.957	297.06
278.189	281.06
278.421	280.06
278.652	282.06
278.884	269.06
279.115	270.06
279.347	266.06
279.579	286.06
279.81	268.06
280.042	285.06
280.273	296.06
280.505	291.06
280.736	276.06
280.968	267.06
281.199	273.06
281.431	286.06
281.662	269.06
281.894	276.06
282.125	281.06
282.356	294.06
282.588	307.06
282.819	291.06
283.051	267.06
283.282	279.06
283.513	286.06
283.745	289.06
283.976	302.06
284.207	296.06
284.439	287.06
284.67	289.06
284.901	289.06
285.132	278.06
285.364	291.06
285.595	296.06
285.826	283.06
286.057	286.06
286.288	289.06
286.52	287.06
286.751	318.06
286.982	305.06
287.213	304.06
287.444	283.06
287.675	302.06
287.906	290.06
288.138	291.06
288.369	304.06
288.6	307.06
288.831	305.06
289.062	319.06
289.293	305.06
289.524	307.06
289.755	294.06
289.986	292.06
290.217	281.06
290.448	309.06
290.679	293.06
290.91	301.06
291.141	312.06
291.371	304.06
291.602	301.06
291.833	294.06
292.064	303.06
292.295	303.06
292.526	296.06
292.757	312.06
292.987	307.06
293.218	319.06
293.449	306.06
293.68	288.06
293.91	289.06
294.141	287.06
294.372	297.06
294.603	295.06
294.833	293.06
295.064	296.06
295.295	298.06
295.525	316.06
295.756	306.06
295.987	321.06
296.217	326.06
296.448	339.06
296.679	318.06
296.909	298.06
297.14	307.06
297.37	309.06
297.601	306.06
297.831	312.06
298.062	316.06
298.292	298.06
298.523	299.06
298.753	318.06
298.984	299.06
299.214	322.06
299.445	315.06
299.675	303.06
299.905	328.06
300.136	311.06
300.366	311.06
300.597	324.06
300.827	333.06
301.057	321.06
301.288	320.06
301.518	339.06
301.748	334.06
301.979	337.06
302.209	329.06
302.439	348.06
302.669	334.06
302.9	355.06
303.13	326.06
303.36	351.06
303.59	333.06
303.82	355.06
304.051	353.06
304.281	328.06
304.511	329.06
304.741	355.06
304.971	338.06
305.201	337.06
305.431	344.06
305.661	341.06
305.891	344.06
306.121	353.06
306.352	337.06
306.582	352.06
306.812	333.06
307.042	342.06
307.272	345.06
307.502	316.06
307.731	371.06
307.961	353.06
308.191	341.06
308.421	338.06
308.651	342.06
308.881	334.06
309.111	356.06
309.341	345.06
309.571	357.06
309.8	369.06
310.03	363.06
310.26	385.06
310.49	393.06
310.72	405.06
310.949	380.06
311.179	400.06
311.409	383.06
311.639	396.06
311.868	402.06
312.098	391.06
312.328	401.06
312.557	414.06
312.787	414.06
313.017	424.06
313.246	410.06
313.476	384.06
313.706	403.06
313.935	410.06
314.165	412.06
314.394	388.06
314.624	413.06
314.853	406.06
315.083	395.06
315.312	385.06
315.542	361.06
315.771	379.06
316.001	391.06
316.23	375.06
316.46	377.06
316.689	388.06
316.919	394.06
317.148	404.06
317.377	394.06
317.607	393.06
317.836	374.06
318.065	381.06
318.295	385.06
318.524	376.06
318.753	403.06
318.983	389.06
319.212	391.06
319.441	377.06
319.67	388.06
319.9	386.06
320.129	396.06
320.358	391.06
320.587	390.06
320.816	398.06
321.046	422.06
321.275	397.06
321.504	414.06
321.733	411.06
321.962	426.06
322.191	409.06
322.42	438.06
322.649	433.06
322.878	445.06
323.108	454.06
323.337	481.06
323.566	501.06
323.795	518.06
324.024	600.06
324.253	706.06
324.482	958.06
324.71	1458.06
324.939	1975.06
325.168	1655.06
325.397	879.06
325.626	635.06
325.855	537.06
326.084	487.06
326.313	497.06
326.542	517.06
326.77	551.06
326.999	629.06
327.228	910.06
327.457	1273.06
327.686	1467.06
327.914	985.06
328.143	652.06
328.372	599.06
328.6	563.06
328.829	552.06
329.058	543.06
329.287	555.06
329.515	527.06
329.744	514.06
329.972	513.06
330.201	537.06
330.43	559.06
330.658	570.06
330.887	609.06
331.115	569.06
331.344	495.06
331.572	491.06
331.801	457.06
332.03	482.06
332.258	471.06
332.486	464.06
332.715	471.06
332.943	437.06
333.172	455.06
333.4	463.06
333.629	469.06
333.857	472.06
334.085	474.06
334.314	513.06
334.542	504.06
334.771	523.06
334.999	492.06
335.227	474.06
335.455	454.06
335.684	459.06
335.912	453.06
336.14	443.06
336.369	460.06
336.597	471.06
336.825	458.06
337.053	424.06
337.281	453.06
337.51	458.06
337.738	454.06
337.966	433.06
338.194	441.06
338.422	457.06
338.65	437.06
338.878	435.06
339.106	419.06
339.334	426.06
339.562	423.06
339.79	405.06
340.018	438.06
340.246	413.06
340.474	411.06
340.702	443.06
340.93	430.06
341.158	415.06
341.386	426.06
341.614	424.06
341.842	423.06
342.07	419.06
342.298	423.06
342.526	401.06
342.754	403.06
342.981	412.06
343.209	402.06
343.437	401.06
343.665	425.06
343.893	438.06
344.12	432.06
344.348	416.06
344.576	416.06
344.804	418.06
345.031	451.06
345.259	430.06
345.487	445.06
345.714	429.06
345.942	417.06
346.17	406.06
346.397	430.06
346.625	408.06
346.853	379.06
347.08	388.06
347.308	419.06
347.535	398.06
347.763	417.06
347.99	410.06
348.218	415.06
348.445	408.06
348.673	416.06
348.9	394.06
349.128	408.06
349.355	382.06
349.583	386.06
349.81	385.06
350.037	373.06
350.265	385.06
350.492	389.06
350.72	388.06
350.947	402.06
351.174	425.06
351.402	408.06
351.629	403.06
351.856	417.06
352.083	416.06
352.311	411.06
352.538	425.06
352.765	425.06
352.992	391.06
353.22	392.06
353.447	393.06
353.674	395.06
353.901	385.06
354.128	378.06
354.355	375.06
354.583	379.06
354.81	373.06
355.037	376.06
355.264	369.06
355.491	369.06
355.718	385.06
355.945	361.06
356.172	385.06
356.399	360.06
356.626	359.06
356.853	377.06
357.08	361.06
357.307	391.06
357.534	360.06
357.761	370.06
357.988	406.06
358.215	382.06
358.441	379.06
358.668	356.06
358.895	372.06
359.122	381.06
359.349	385.06
359.576	392.06
359.802	419.06
360.029	447.06
360.256	429.06
360.483	413.06
360.709	402.06
360.936	395.06
361.163	393.06
361.39	385.06
361.616	388.06
361.843	393.06
362.07	382.06
362.296	408.06
362.523	402.06
362.749	375.06
362.976	373.06
363.203	366.06
363.429	373.06
363.656	381.06
363.882	393.06
364.109	353.06
364.335	383.06
364.562	368.06
364.788	382.06
365.015	369.06
365.241	371.06
365.468	382.06
365.694	399.06
365.92	391.06
366.147	367.06
366.373	344.06
366.599	375.06
366.826	377.06
367.052	390.06
367.278	361.06
367.505	374.06
367.731	367.06
367.957	377.06
368.184	367.06
368.41	378.06
368.636	375.06
368.862	376.06
369.089	369.06
369.315	360.06
369.541	368.06
369.767	365.06
369.993	355.06
370.219	391.06
370.445	372.06
370.672	351.06
370.898	359.06
371.124	366.06
371.35	367.06
371.576	383.06
371.802	360.06
372.028	346.06
372.254	349.06
372.48	356.06
372.706	352.06
372.932	358.06
373.158	369.06
373.384	365.06
373.61	363.06
373.835	367.06
374.061	371.06
374.287	372.06
374.513	372.06
374.739	386.06
374.965	383.06
375.191	370.06
375.416	358.06
375.642	340.06
375.868	369.06
376.094	370.06
376.319	347.06
376.545	363.06
376.771	370.06
376.997	362.06
377.222	360.06
377.448	376.06
377.674	358.06
377.899	350.06
378.125	358.06
378.35	351.06
378.576	346.06
378.802	354.06
379.027	354.06
379.253	348.06
379.478	355.06
379.704	353.06
379.929	335.06
380.155	359.06
380.38	336.06
380.606	365.06
380.831	362.06
381.057	349.06
381.282	349.06
381.507	351.06
381.733	360.06
381.958	365.06
382.184	362.06
382.409	374.06
382.634	359.06
382.86	377.06
383.085	354.06
383.31	369.06
383.535	350.06
383.761	373.06
383.986	361.06
384.211	374.06
384.436	365.06
384.662	373.06
384.887	373.06
385.112	360.06
385.337	370.06
385.562	371.06
385.787	370.06
386.013	382.06
386.238	392.06
386.463	391.06
386.688	388.06
386.913	394.06
387.138	391.06
387.363	385.06
387.588	377.06
387.813	371.06
388.038	381.06
388.263	359.06
388.488	377.06
388.713	372.06
388.938	376.06
389.163	396.06
389.387	387.06
389.612	376.06
389.837	373.06
390.062	370.06
390.287	373.06
390.512	371.06
390.736	375.06
390.961	371.06
391.186	371.06
391.411	373.06
391.636	384.06
391.86	391.06
392.085	387.06
392.31	388.06
392.534	384.06
392.759	397.06
392.984	377.06
393.208	373.06
393.433	379.06
393.658	377.06
393.882	384.06
394.107	381.06
394.331	377.06
394.556	383.06
394.78	362.06
395.005	395.06
395.229	376.06
395.454	382.06
395.678	401.06
395.903	414.06
396.127	401.06
396.352	401.06
396.576	400.06
396.801	378.06
397.025	390.06
397.249	384.06
397.474	398.06
397.698	395.06
397.922	396.06
398.147	399.06
398.371	422.06
398.595	411.06
398.82	406.06
399.044	416.06
399.268	434.06
399.492	469.06
399.717	499.06
399.941	524.06
400.165	516.06
400.389	521.06
400.613	475.06
400.837	440.06
401.062	432.06
401.286	437.06
401.51	433.06
401.734	420.06
401.958	421.06
402.182	422.06
402.406	401.06
402.63	407.06
402.854	432.06
403.078	435.06
403.302	414.06
403.526	419.06
403.75	439.06
403.974	423.06
404.198	437.06
404.422	445.06
404.645	426.06
404.869	445.06
405.093	447.06
405.317	497.06
405.541	517.06
405.765	478.06
405.988	466.06
406.212	469.06
406.436	459.06
406.66	489.06
406.883	488.06
407.107	492.06
407.331	513.06
407.555	570.06
407.778	587.06
408.002	514.06
408.226	480.06
408.449	471.06
408.673	469.06
408.896	491.06
409.12	547.06
409.344	512.06
409.567	442.06
409.791	439.06
410.014	443.06
410.238	432.06
410.461	461.06
410.685	439.06
410.908	450.06
411.132	480.06
411.355	507.06
411.578	463.06
411.802	441.06
412.025	431.06
412.249	422.06
412.472	450.06
412.695	482.06
412.919	470.06
413.142	439.06
413.365	416.06
413.589	409.06
413.812	429.06
414.035	419.06
414.258	389.06
414.482	369.06
414.705	403.06
414.928	409.06
415.151	398.06
415.374	381.06
415.597	413.06
415.821	413.06
416.044	408.06
416.267	407.06
416.49	392.06
416.713	414.06
416.936	409.06
417.159	403.06
417.382	425.06
417.605	431.06
417.828	425.06
418.051	422.06
418.274	433.06
418.497	409.06
418.72	414.06
418.943	413.06
419.166	406.06
419.389	419.06
419.611	435.06
419.834	406.06
420.057	431.06
420.28	415.06
420.503	432.06
420.726	429.06
420.948	457.06
421.171	478.06
421.394	485.06
421.617	457.06
421.839	463.06
422.062	436.06
422.285	415.06
422.507	478.06
422.73	554.06
422.953	518.06
423.175	473.06
423.398	447.06
423.621	434.06
423.843	472.06
424.066	460.06
424.288	451.06
424.511	461.06
424.733	510.06
424.956	567.06
425.178	577.06
425.401	543.06
425.623	559.06
425.846	485.06
426.068	449.06
426.291	462.06
426.513	459.06
426.735	479.06
426.958	506.06
427.18	563.06
427.402	660.06
427.625	738.06
427.847	642.06
428.069	560.06
428.292	494.06
428.514	447.06
428.736	430.06
428.958	437.06
429.181	421.06
429.403	403.06
429.625	404.06
429.847	467.06
430.069	510.06
430.292	500.06
430.514	447.06
430.736	437.06
430.958	427.06
431.18	401.06
431.402	389.06
431.624	390.06
431.846	361.06
432.068	391.06
432.29	375.06
432.512	390.06
432.734	403.06
432.956	417.06
433.178	400.06
433.4	405.06
433.622	406.06
433.844	394.06
434.066	391.06
434.287	409.06
434.509	393.06
434.731	413.06
434.953	407.06
435.175	435.06
435.397	458.06
435.618	447.06
435.84	487.06
436.062	579.06
436.284	616.06
436.505	520.06
436.727	467.06
436.949	425.06
437.17	426.06
437.392	425.06
437.614	429.06
437.835	476.06
438.057	551.06
438.278	597.06
438.5	609.06
438.721	680.06
438.943	639.06
439.165	544.06
439.386	465.06
439.608	472.06
439.829	472.06
440.05	472.06
440.272	538.06
440.493	482.06
440.715	456.06
440.936	452.06
441.158	447.06
441.379	410.06
441.6	448.06
441.822	445.06
442.043	495.06
442.264	537.06
442.486	589.06
442.707	512.06
442.928	466.06
443.149	475.06
443.371	483.06
443.592	507.06
443.813	607.06
444.034	627.06
444.255	526.06
444.476	505.06
444.698	474.06
444.919	449.06
445.14	541.06
445.361	509.06
445.582	487.06
445.803	536.06
446.024	612.06
446.245	650.06
446.466	592.06
446.687	470.06
446.908	455.06
447.129	446.06
447.35	422.06
447.571	412.06
447.792	419.06
448.013	432.06
448.234	430.06
448.455	493.06
448.675	566.06
448.896	667.06
449.117	570.06
449.338	545.06
449.559	628.06
449.779	718.06
450	559.06
450.221	473.06
450.442	447.06
450.662	427.06
450.883	420.06
451.104	435.06
451.324	408.06
451.545	403.06
451.766	381.06
451.986	373.06
452.207	368.06
452.428	382.06
452.648	366.06
452.869	379.06
453.089	389.06
453.31	389.06
453.53	367.06
453.751	358.06
453.971	371.06
454.192	389.06
454.412	375.06
454.633	376.06
454.853	354.06
455.073	378.06
455.294	391.06
455.514	441.06
455.734	431.06
455.955	378.06
456.175	370.06
456.395	358.06
456.616	352.06
456.836	341.06
457.056	341.06
457.276	366.06
457.497	362.06
457.717	349.06
457.937	346.06
458.157	349.06
458.377	369.06
458.598	398.06
458.818	442.06
459.038	492.06
459.258	491.06
459.478	413.06
459.698	394.06
459.918	391.06
460.138	391.06
460.358	387.06
460.578	398.06
460.798	388.06
461.018	391.06
461.238	392.06
461.458	388.06
461.678	386.06
461.898	392.06
462.118	400.06
462.338	394.06
462.558	377.06
462.777	419.06
462.997	423.06
463.217	413.06
463.437	426.06
463.657	429.06
463.876	404.06
464.096	414.06
464.316	409.06
464.536	421.06
464.755	422.06
464.975	415.06
465.195	433.06
465.414	509.06
465.634	447.06
465.854	419.06
466.073	386.06
466.293	395.06
466.512	395.06
466.732	386.06
466.951	381.06
467.171	374.06
467.391	390.06
467.61	383.06
467.829	398.06
468.049	402.06
468.268	392.06
468.488	394.06
468.707	359.06
468.927	367.06
469.146	362.06
469.365	367.06
469.585	370.06
469.804	369.06
470.023	372.06
470.243	388.06
470.462	394.06
470.681	413.06
470.901	386.06
471.12	380.06
471.339	367.06
471.558	381.06
471.777	387.06
471.997	370.06
472.216	395.06
472.435	413.06
472.654	423.06
472.873	390.06
473.092	378.06
473.311	395.06
473.53	405.06
473.749	395.06
473.968	437.06
474.187	515.06
474.406	515.06
474.625	435.06
474.844	407.06
475.063	389.06
475.282	391.06
475.501	407.06
475.72	384.06
475.939	405.06
476.158	412.06
476.377	392.06
476.596	380.06
476.814	404.06
477.033	405.06
477.252	394.06
477.471	393.06
477.69	433.06
477.908	402.06
478.127	414.06
478.346	416.06
478.564	433.06
478.783	428.06
479.002	440.06
479.22	430.06
479.439	453.06
479.658	466.06
479.876	455.06
480.095	472.06
480.313	506.06
480.532	477.06
480.751	477.06
480.969	468.06
481.188	514.06
481.406	521.06
481.624	482.06
481.843	454.06
482.061	472.06
482.28	448.06
482.498	474.06
482.717	459.06
482.935	440.06
483.153	459.06
483.372	438.06
483.59	490.06
483.808	459.06
484.027	436.06
484.245	470.06
484.463	435.06
484.681	453.06
484.9	462.06
485.118	449.06
485.336	456.06
485.554	452.06
485.772	451.06
485.99	472.06
486.209	463.06
486.427	466.06
486.645	470.06
486.863	486.06
487.081	489.06
487.299	486.06
487.517	480.06
487.735	478.06
487.953	498.06
488.171	477.06
488.389	498.06
488.607	493.06
488.825	496.06
489.043	498.06
489.261	485.06
489.479	490.06
489.696	491.06
489.914	508.06
490.132	495.06
490.35	517.06
490.568	522.06
490.786	538.06
491.003	518.06
491.221	558.06
491.439	530.06
491.657	568.06
491.874	543.06
492.092	561.06
492.31	575.06
492.527	565.06
492.745	569.06
492.963	567.06
493.18	558.06
493.398	559.06
493.615	574.06
493.833	558.06
494.05	586.06
494.268	568.06
494.485	563.06
494.703	572.06
494.92	554.06
495.138	570.06
495.355	569.06
495.573	577.06
495.79	565.06
496.008	574.06
496.225	563.06
496.442	586.06
496.66	559.06
496.877	570.06
497.094	563.06
497.312	586.06
497.529	589.06
497.746	596.06
497.963	610.06
498.181	637.06
498.398	617.06
498.615	613.06
498.832	624.06
499.049	625.06
499.267	649.06
499.484	650.06
499.701	680.06
499.918	695.06
500.135	729.06
500.352	741.06
500.569	759.06
500.786	744.06
501.003	729.06
501.22	739.06
501.437	701.06
501.654	720.06
501.871	695.06
502.088	704.06
