Data from 1971.PennyLincolnUp.Lamp.En5.5.200Scan.071719.P1._HRD10591_15-18-10-841.txt Node
Date: Thu Jul 18 15:18:10 EDT 2019
User: cochatt
Spectrometer: HR+D1059
Trigger mode: 1
Integration Time (sec): 1.000000E-1
Scans to average: 1
Electric dark correction enabled: true
Nonlinearity correction enabled: false
Boxcar width: 0
XAxis mode: Wavelengths
Number of Pixels in Spectrum: 2048
>>>>>Begin Spectral Data<<<<<
223.165	-17.19
223.4	-17.19
223.635	-17.19
223.869	-26.19
224.104	-6.19
224.338	-16.19
224.573	-26.19
224.808	-8.19
225.042	-5.19
225.277	-5.19
225.511	0.81
225.746	-8.19
225.98	6.81
226.215	12.81
226.449	10.81
226.683	34.81
226.918	15.81
227.152	36.81
227.387	40.81
227.621	40.81
227.856	44.81
228.09	35.81
228.324	46.81
228.559	55.81
228.793	52.81
229.027	99.81
229.262	103.81
229.496	99.81
229.73	111.81
229.964	123.81
230.199	110.81
230.433	109.81
230.667	99.81
230.901	111.81
231.136	103.81
231.37	102.81
231.604	98.81
231.838	108.81
232.072	94.81
232.306	96.81
232.541	95.81
232.775	103.81
233.009	116.81
233.243	111.81
233.477	116.81
233.711	104.81
233.945	90.81
234.179	126.81
234.413	122.81
234.647	123.81
234.881	116.81
235.115	106.81
235.349	106.81
235.583	112.81
235.817	113.81
236.051	118.81
236.285	112.81
236.519	122.81
236.753	128.81
236.987	126.81
237.221	152.81
237.455	188.81
237.689	155.81
237.922	127.81
238.156	117.81
238.39	136.81
238.624	107.81
238.858	124.81
239.091	98.81
239.325	113.81
239.559	110.81
239.793	122.81
240.027	122.81
240.26	136.81
240.494	136.81
240.728	131.81
240.961	134.81
241.195	123.81
241.429	126.81
241.662	123.81
241.896	125.81
242.13	114.81
242.363	129.81
242.597	124.81
242.83	129.81
243.064	136.81
243.298	130.81
243.531	132.81
243.765	119.81
243.998	117.81
244.232	142.81
244.465	136.81
244.699	144.81
244.932	146.81
245.166	145.81
245.399	141.81
245.633	143.81
245.866	128.81
246.099	139.81
246.333	128.81
246.566	138.81
246.8	130.81
247.033	139.81
247.266	136.81
247.5	153.81
247.733	166.81
247.966	172.81
248.2	163.81
248.433	160.81
248.666	166.81
248.899	171.81
249.133	181.81
249.366	208.81
249.599	187.81
249.832	175.81
250.066	163.81
250.299	171.81
250.532	179.81
250.765	189.81
250.998	191.81
251.231	181.81
251.465	202.81
251.698	176.81
251.931	188.81
252.164	190.81
252.397	197.81
252.63	197.81
252.863	203.81
253.096	192.81
253.329	214.81
253.562	223.81
253.795	212.81
254.028	208.81
254.261	202.81
254.494	205.81
254.727	240.81
254.96	235.81
255.193	252.81
255.426	228.81
255.659	216.81
255.892	215.81
256.124	199.81
256.357	212.81
256.59	200.81
256.823	194.81
257.056	196.81
257.289	207.81
257.521	218.81
257.754	201.81
257.987	190.81
258.22	199.81
258.452	219.81
258.685	199.81
258.918	193.81
259.151	215.81
259.383	202.81
259.616	214.81
259.849	219.81
260.081	229.81
260.314	227.81
260.547	238.81
260.779	213.81
261.012	221.81
261.244	206.81
261.477	199.81
261.71	221.81
261.942	204.81
262.175	198.81
262.407	195.81
262.64	202.81
262.872	197.81
263.105	206.81
263.337	198.81
263.57	211.81
263.802	199.81
264.035	202.81
264.267	211.81
264.499	209.81
264.732	196.81
264.964	207.81
265.197	200.81
265.429	196.81
265.661	198.81
265.894	226.81
266.126	205.81
266.358	205.81
266.591	214.81
266.823	200.81
267.055	196.81
267.287	228.81
267.52	222.81
267.752	220.81
267.984	211.81
268.216	220.81
268.448	234.81
268.681	223.81
268.913	230.81
269.145	246.81
269.377	246.81
269.609	255.81
269.841	261.81
270.073	232.81
270.306	261.81
270.538	282.81
270.77	287.81
271.002	293.81
271.234	261.81
271.466	266.81
271.698	290.81
271.93	280.81
272.162	292.81
272.394	292.81
272.626	273.81
272.858	267.81
273.09	280.81
273.322	267.81
273.553	254.81
273.785	242.81
274.017	267.81
274.249	258.81
274.481	247.81
274.713	245.81
274.945	240.81
275.176	264.81
275.408	254.81
275.64	243.81
275.872	232.81
276.104	250.81
276.335	256.81
276.567	252.81
276.799	266.81
277.031	288.81
277.262	293.81
277.494	283.81
277.726	280.81
277.957	271.81
278.189	261.81
278.421	249.81
278.652	262.81
278.884	248.81
279.115	270.81
279.347	262.81
279.579	231.81
279.81	252.81
280.042	252.81
280.273	272.81
280.505	271.81
280.736	236.81
280.968	262.81
281.199	247.81
281.431	258.81
281.662	261.81
281.894	246.81
282.125	273.81
282.356	280.81
282.588	293.81
282.819	279.81
283.051	272.81
283.282	260.81
283.513	259.81
283.745	259.81
283.976	280.81
284.207	272.81
284.439	258.81
284.67	252.81
284.901	279.81
285.132	271.81
285.364	267.81
285.595	269.81
285.826	271.81
286.057	253.81
286.288	261.81
286.52	270.81
286.751	263.81
286.982	261.81
287.213	256.81
287.444	268.81
287.675	260.81
287.906	287.81
288.138	289.81
288.369	291.81
288.6	273.81
288.831	280.81
289.062	259.81
289.293	251.81
289.524	280.81
289.755	276.81
289.986	285.81
290.217	278.81
290.448	271.81
290.679	255.81
290.91	283.81
291.141	294.81
291.371	267.81
291.602	276.81
291.833	288.81
292.064	281.81
292.295	266.81
292.526	272.81
292.757	266.81
292.987	274.81
293.218	266.81
293.449	262.81
293.68	279.81
293.91	276.81
294.141	280.81
294.372	271.81
294.603	268.81
294.833	275.81
295.064	262.81
295.295	283.81
295.525	280.81
295.756	288.81
295.987	284.81
296.217	296.81
296.448	291.81
296.679	281.81
296.909	284.81
297.14	277.81
297.37	297.81
297.601	292.81
297.831	276.81
298.062	275.81
298.292	280.81
298.523	297.81
298.753	287.81
298.984	294.81
299.214	291.81
299.445	300.81
299.675	287.81
299.905	290.81
300.136	293.81
300.366	278.81
300.597	299.81
300.827	290.81
301.057	300.81
301.288	323.81
301.518	298.81
301.748	289.81
301.979	292.81
302.209	301.81
302.439	288.81
302.669	318.81
302.9	313.81
303.13	299.81
303.36	290.81
303.59	306.81
303.82	296.81
304.051	314.81
304.281	310.81
304.511	315.81
304.741	306.81
304.971	299.81
305.201	306.81
305.431	292.81
305.661	299.81
305.891	308.81
306.121	306.81
306.352	304.81
306.582	306.81
306.812	300.81
307.042	323.81
307.272	330.81
307.502	312.81
307.731	306.81
307.961	299.81
308.191	314.81
308.421	323.81
308.651	340.81
308.881	322.81
309.111	331.81
309.341	314.81
309.571	311.81
309.8	342.81
310.03	342.81
310.26	351.81
310.49	356.81
310.72	371.81
310.949	362.81
311.179	356.81
311.409	339.81
311.639	341.81
311.868	360.81
312.098	357.81
312.328	358.81
312.557	368.81
312.787	357.81
313.017	346.81
313.246	364.81
313.476	334.81
313.706	355.81
313.935	363.81
314.165	361.81
314.394	355.81
314.624	356.81
314.853	335.81
315.083	344.81
315.312	350.81
315.542	335.81
315.771	344.81
316.001	351.81
316.23	351.81
316.46	343.81
316.689	383.81
316.919	356.81
317.148	366.81
317.377	355.81
317.607	348.81
317.836	347.81
318.065	356.81
318.295	341.81
318.524	348.81
318.753	349.81
318.983	342.81
319.212	348.81
319.441	357.81
319.67	360.81
319.9	337.81
320.129	346.81
320.358	337.81
320.587	344.81
320.816	367.81
321.046	378.81
321.275	368.81
321.504	370.81
321.733	376.81
321.962	375.81
322.191	380.81
322.42	380.81
322.649	394.81
322.878	399.81
323.108	404.81
323.337	408.81
323.566	421.81
323.795	453.81
324.024	491.81
324.253	565.81
324.482	784.81
324.71	1157.81
324.939	1566.81
325.168	1340.81
325.397	724.81
325.626	538.81
325.855	454.81
326.084	427.81
326.313	428.81
326.542	437.81
326.77	475.81
326.999	556.81
327.228	707.81
327.457	1024.81
327.686	1202.81
327.914	809.81
328.143	562.81
328.372	510.81
328.6	483.81
328.829	472.81
329.058	473.81
329.287	488.81
329.515	446.81
329.744	437.81
329.972	456.81
330.201	446.81
330.43	472.81
330.658	476.81
330.887	482.81
331.115	482.81
331.344	455.81
331.572	433.81
331.801	412.81
332.03	423.81
332.258	392.81
332.486	387.81
332.715	403.81
332.943	411.81
333.172	398.81
333.4	402.81
333.629	406.81
333.857	388.81
334.085	420.81
334.314	434.81
334.542	430.81
334.771	462.81
334.999	431.81
335.227	426.81
335.455	402.81
335.684	384.81
335.912	391.81
336.14	409.81
336.369	404.81
336.597	411.81
336.825	412.81
337.053	384.81
337.281	392.81
337.51	388.81
337.738	401.81
337.966	390.81
338.194	392.81
338.422	393.81
338.65	378.81
338.878	404.81
339.106	394.81
339.334	401.81
339.562	364.81
339.79	396.81
340.018	386.81
340.246	403.81
340.474	386.81
340.702	364.81
340.93	355.81
341.158	378.81
341.386	390.81
341.614	387.81
341.842	400.81
342.07	377.81
342.298	372.81
342.526	367.81
342.754	372.81
342.981	361.81
343.209	370.81
343.437	374.81
343.665	384.81
343.893	376.81
344.12	393.81
344.348	387.81
344.576	377.81
344.804	391.81
345.031	387.81
345.259	382.81
345.487	384.81
345.714	400.81
345.942	372.81
346.17	378.81
346.397	370.81
346.625	382.81
346.853	377.81
347.08	395.81
347.308	365.81
347.535	384.81
347.763	381.81
347.99	374.81
348.218	381.81
348.445	370.81
348.673	364.81
348.9	358.81
349.128	372.81
349.355	344.81
349.583	364.81
349.81	371.81
350.037	351.81
350.265	364.81
350.492	363.81
350.72	348.81
350.947	356.81
351.174	370.81
351.402	343.81
351.629	341.81
351.856	361.81
352.083	381.81
352.311	372.81
352.538	378.81
352.765	367.81
352.992	362.81
353.22	358.81
353.447	362.81
353.674	346.81
353.901	362.81
354.128	359.81
354.355	343.81
354.583	335.81
354.81	332.81
355.037	337.81
355.264	320.81
355.491	344.81
355.718	359.81
355.945	313.81
356.172	349.81
356.399	347.81
356.626	343.81
356.853	354.81
357.08	340.81
357.307	328.81
357.534	359.81
357.761	327.81
357.988	342.81
358.215	345.81
358.441	332.81
358.668	347.81
358.895	325.81
359.122	347.81
359.349	340.81
359.576	360.81
359.802	377.81
360.029	366.81
360.256	376.81
360.483	381.81
360.709	350.81
360.936	338.81
361.163	326.81
361.39	350.81
361.616	354.81
361.843	358.81
362.07	367.81
362.296	341.81
362.523	366.81
362.749	357.81
362.976	351.81
363.203	354.81
363.429	350.81
363.656	353.81
363.882	355.81
364.109	356.81
364.335	331.81
364.562	327.81
364.788	340.81
365.015	349.81
365.241	334.81
365.468	342.81
365.694	359.81
365.92	361.81
366.147	334.81
366.373	343.81
366.599	330.81
366.826	344.81
367.052	321.81
367.278	333.81
367.505	346.81
367.731	364.81
367.957	350.81
368.184	336.81
368.41	354.81
368.636	328.81
368.862	351.81
369.089	336.81
369.315	344.81
369.541	343.81
369.767	343.81
369.993	346.81
370.219	333.81
370.445	334.81
370.672	324.81
370.898	324.81
371.124	339.81
371.35	334.81
371.576	330.81
371.802	328.81
372.028	353.81
372.254	343.81
372.48	332.81
372.706	343.81
372.932	341.81
373.158	342.81
373.384	346.81
373.61	354.81
373.835	324.81
374.061	348.81
374.287	336.81
374.513	356.81
374.739	350.81
374.965	342.81
375.191	329.81
375.416	347.81
375.642	366.81
375.868	355.81
376.094	342.81
376.319	347.81
376.545	356.81
376.771	316.81
376.997	323.81
377.222	349.81
377.448	331.81
377.674	327.81
377.899	316.81
378.125	319.81
378.35	326.81
378.576	335.81
378.802	314.81
379.027	350.81
379.253	326.81
379.478	316.81
379.704	319.81
379.929	349.81
380.155	323.81
380.38	345.81
380.606	325.81
380.831	335.81
381.057	327.81
381.282	335.81
381.507	333.81
381.733	335.81
381.958	315.81
382.184	343.81
382.409	342.81
382.634	334.81
382.86	328.81
383.085	335.81
383.31	339.81
383.535	351.81
383.761	352.81
383.986	341.81
384.211	358.81
384.436	328.81
384.662	346.81
384.887	339.81
385.112	346.81
385.337	348.81
385.562	346.81
385.787	346.81
386.013	356.81
386.238	346.81
386.463	364.81
386.688	346.81
386.913	341.81
387.138	357.81
387.363	347.81
387.588	362.81
387.813	354.81
388.038	349.81
388.263	352.81
388.488	343.81
388.713	352.81
388.938	366.81
389.163	331.81
389.387	363.81
389.612	350.81
389.837	343.81
390.062	336.81
390.287	333.81
390.512	354.81
390.736	363.81
390.961	334.81
391.186	351.81
391.411	365.81
391.636	355.81
391.86	374.81
392.085	383.81
392.31	372.81
392.534	351.81
392.759	345.81
392.984	362.81
393.208	356.81
393.433	363.81
393.658	363.81
393.882	346.81
394.107	340.81
394.331	347.81
394.556	347.81
394.78	355.81
395.005	345.81
395.229	348.81
395.454	373.81
395.678	358.81
395.903	349.81
396.127	387.81
396.352	388.81
396.576	375.81
396.801	351.81
397.025	370.81
397.249	367.81
397.474	366.81
397.698	365.81
397.922	373.81
398.147	392.81
398.371	391.81
398.595	379.81
398.82	369.81
399.044	400.81
399.268	402.81
399.492	400.81
399.717	434.81
399.941	430.81
400.165	467.81
400.389	466.81
400.613	426.81
400.837	413.81
401.062	396.81
401.286	414.81
401.51	391.81
401.734	393.81
401.958	383.81
402.182	396.81
402.406	388.81
402.63	399.81
402.854	398.81
403.078	418.81
403.302	386.81
403.526	408.81
403.75	402.81
403.974	401.81
404.198	404.81
404.422	408.81
404.645	405.81
404.869	421.81
405.093	415.81
405.317	429.81
405.541	455.81
405.765	448.81
405.988	421.81
406.212	400.81
406.436	422.81
406.66	430.81
406.883	422.81
407.107	444.81
407.331	466.81
407.555	529.81
407.778	522.81
408.002	468.81
408.226	467.81
408.449	453.81
408.673	430.81
408.896	457.81
409.12	476.81
409.344	454.81
409.567	412.81
409.791	402.81
410.014	395.81
410.238	388.81
410.461	423.81
410.685	426.81
410.908	436.81
411.132	426.81
411.355	438.81
411.578	441.81
411.802	386.81
412.025	395.81
412.249	415.81
412.472	401.81
412.695	438.81
412.919	437.81
413.142	403.81
413.365	386.81
413.589	384.81
413.812	375.81
414.035	377.81
414.258	374.81
414.482	372.81
414.705	386.81
414.928	373.81
415.151	380.81
415.374	369.81
415.597	358.81
415.821	370.81
416.044	374.81
416.267	390.81
416.49	371.81
416.713	366.81
416.936	372.81
417.159	363.81
417.382	377.81
417.605	388.81
417.828	394.81
418.051	394.81
418.274	396.81
418.497	379.81
418.72	407.81
418.943	367.81
419.166	388.81
419.389	399.81
419.611	395.81
419.834	391.81
420.057	376.81
420.28	399.81
420.503	383.81
420.726	403.81
420.948	396.81
421.171	444.81
421.394	429.81
421.617	398.81
421.839	390.81
422.062	400.81
422.285	414.81
422.507	445.81
422.73	488.81
422.953	483.81
423.175	405.81
423.398	397.81
423.621	400.81
423.843	419.81
424.066	423.81
424.288	420.81
424.511	448.81
424.733	459.81
424.956	521.81
425.178	502.81
425.401	498.81
425.623	512.81
425.846	450.81
426.068	444.81
426.291	416.81
426.513	428.81
426.735	434.81
426.958	454.81
427.18	502.81
427.402	606.81
427.625	655.81
427.847	572.81
428.069	493.81
428.292	459.81
428.514	423.81
428.736	412.81
428.958	415.81
429.181	372.81
429.403	378.81
429.625	362.81
429.847	422.81
430.069	468.81
430.292	465.81
430.514	396.81
430.736	394.81
430.958	375.81
431.18	392.81
431.402	370.81
431.624	374.81
431.846	361.81
432.068	360.81
432.29	361.81
432.512	381.81
432.734	372.81
432.956	351.81
433.178	378.81
433.4	380.81
433.622	375.81
433.844	367.81
434.066	344.81
434.287	360.81
434.509	388.81
434.731	385.81
434.953	399.81
435.175	383.81
435.397	403.81
435.618	428.81
435.84	432.81
436.062	514.81
436.284	574.81
436.505	472.81
436.727	421.81
436.949	406.81
437.17	406.81
437.392	385.81
437.614	390.81
437.835	409.81
438.057	484.81
438.278	562.81
438.5	568.81
438.721	623.81
438.943	593.81
439.165	495.81
439.386	448.81
439.608	447.81
439.829	430.81
440.05	432.81
440.272	468.81
440.493	445.81
440.715	426.81
440.936	409.81
441.158	386.81
441.379	383.81
441.6	390.81
441.822	412.81
442.043	446.81
442.264	492.81
442.486	516.81
442.707	453.81
442.928	431.81
443.149	436.81
443.371	420.81
443.592	490.81
443.813	537.81
444.034	572.81
444.255	502.81
444.476	431.81
444.698	423.81
444.919	405.81
445.14	569.81
445.361	477.81
445.582	450.81
445.803	509.81
446.024	570.81
446.245	570.81
446.466	521.81
446.687	444.81
446.908	406.81
447.129	391.81
447.35	389.81
447.571	387.81
447.792	376.81
448.013	384.81
448.234	403.81
448.455	449.81
448.675	531.81
448.896	579.81
449.117	521.81
449.338	500.81
449.559	563.81
449.779	610.81
450	479.81
450.221	423.81
450.442	408.81
450.662	360.81
450.883	378.81
451.104	404.81
451.324	370.81
451.545	348.81
451.766	338.81
451.986	337.81
452.207	342.81
452.428	342.81
452.648	370.81
452.869	378.81
453.089	352.81
453.31	348.81
453.53	347.81
453.751	335.81
453.971	354.81
454.192	364.81
454.412	341.81
454.633	341.81
454.853	336.81
455.073	354.81
455.294	373.81
455.514	404.81
455.734	380.81
455.955	323.81
456.175	325.81
456.395	331.81
456.616	331.81
456.836	311.81
457.056	308.81
457.276	318.81
457.497	328.81
457.717	317.81
457.937	305.81
458.157	335.81
458.377	329.81
458.598	334.81
458.818	382.81
459.038	415.81
459.258	431.81
459.478	376.81
459.698	367.81
459.918	349.81
460.138	349.81
460.358	362.81
460.578	341.81
460.798	354.81
461.018	358.81
461.238	357.81
461.458	365.81
461.678	353.81
461.898	343.81
462.118	358.81
462.338	376.81
462.558	368.81
462.777	383.81
462.997	396.81
463.217	372.81
463.437	383.81
463.657	391.81
463.876	370.81
464.096	391.81
464.316	374.81
464.536	385.81
464.755	388.81
464.975	382.81
465.195	407.81
465.414	453.81
465.634	398.81
465.854	363.81
466.073	357.81
466.293	344.81
466.512	358.81
466.732	344.81
466.951	375.81
467.171	360.81
467.391	352.81
467.61	377.81
467.829	342.81
468.049	360.81
468.268	365.81
468.488	348.81
468.707	345.81
468.927	320.81
469.146	344.81
469.365	336.81
469.585	330.81
469.804	353.81
470.023	350.81
470.243	356.81
470.462	354.81
470.681	352.81
470.901	360.81
471.12	353.81
471.339	361.81
471.558	356.81
471.777	348.81
471.997	357.81
472.216	364.81
472.435	365.81
472.654	371.81
472.873	354.81
473.092	355.81
473.311	351.81
473.53	356.81
473.749	376.81
473.968	382.81
474.187	448.81
474.406	472.81
474.625	391.81
474.844	371.81
475.063	377.81
475.282	346.81
475.501	358.81
475.72	349.81
475.939	370.81
476.158	383.81
476.377	370.81
476.596	371.81
476.814	382.81
477.033	360.81
477.252	361.81
477.471	379.81
477.69	379.81
477.908	399.81
478.127	392.81
478.346	387.81
478.564	392.81
478.783	396.81
479.002	403.81
479.22	397.81
479.439	396.81
479.658	396.81
479.876	384.81
480.095	418.81
480.313	426.81
480.532	412.81
480.751	435.81
480.969	434.81
481.188	446.81
481.406	467.81
481.624	434.81
481.843	404.81
482.061	388.81
482.28	415.81
482.498	406.81
482.717	397.81
482.935	392.81
483.153	422.81
483.372	415.81
483.59	412.81
483.808	422.81
484.027	393.81
484.245	416.81
484.463	403.81
484.681	427.81
484.9	412.81
485.118	423.81
485.336	424.81
485.554	428.81
485.772	428.81
485.99	404.81
486.209	438.81
486.427	423.81
486.645	406.81
486.863	439.81
487.081	422.81
487.299	450.81
487.517	461.81
487.735	422.81
487.953	448.81
488.171	447.81
488.389	448.81
488.607	443.81
488.825	430.81
489.043	439.81
489.261	431.81
489.479	451.81
489.696	454.81
489.914	439.81
490.132	468.81
490.35	447.81
490.568	466.81
490.786	470.81
491.003	466.81
491.221	479.81
491.439	499.81
491.657	500.81
491.874	508.81
492.092	499.81
492.31	547.81
492.527	486.81
492.745	506.81
492.963	493.81
493.18	524.81
493.398	519.81
493.615	510.81
493.833	532.81
494.05	507.81
494.268	501.81
494.485	522.81
494.703	504.81
494.92	518.81
495.138	534.81
495.355	525.81
495.573	496.81
495.79	520.81
496.008	528.81
496.225	507.81
496.442	525.81
496.66	522.81
496.877	510.81
497.094	548.81
497.312	525.81
497.529	532.81
497.746	541.81
497.963	546.81
498.181	536.81
498.398	538.81
498.615	544.81
498.832	559.81
499.049	587.81
499.267	586.81
499.484	621.81
499.701	623.81
499.918	640.81
500.135	681.81
500.352	695.81
500.569	722.81
500.786	720.81
501.003	704.81
501.22	675.81
501.437	660.81
501.654	635.81
501.871	637.81
502.088	613.81
