Data from 1971.PennyLincolnUp.Lamp.En5.5.200Scan.071719.P1._HRD10591_15-21-03-842.txt Node
Date: Thu Jul 18 15:21:03 EDT 2019
User: cochatt
Spectrometer: HR+D1059
Trigger mode: 1
Integration Time (sec): 1.000000E-1
Scans to average: 1
Electric dark correction enabled: true
Nonlinearity correction enabled: false
Boxcar width: 0
XAxis mode: Wavelengths
Number of Pixels in Spectrum: 2048
>>>>>Begin Spectral Data<<<<<
223.165	-5.94
223.4	-5.94
223.635	-5.94
223.869	-21.94
224.104	-8.94
224.338	-26.94
224.573	-16.94
224.808	-16.94
225.042	-13.94
225.277	5.06
225.511	7.06
225.746	3.06
225.98	5.06
226.215	5.06
226.449	20.06
226.683	17.06
226.918	22.06
227.152	27.06
227.387	23.06
227.621	26.06
227.856	45.06
228.09	40.06
228.324	41.06
228.559	44.06
228.793	63.06
229.027	87.06
229.262	101.06
229.496	115.06
229.73	130.06
229.964	144.06
230.199	111.06
230.433	116.06
230.667	108.06
230.901	113.06
231.136	89.06
231.37	108.06
231.604	121.06
231.838	99.06
232.072	111.06
232.306	113.06
232.541	115.06
232.775	106.06
233.009	121.06
233.243	120.06
233.477	107.06
233.711	129.06
233.945	128.06
234.179	112.06
234.413	112.06
234.647	123.06
234.881	109.06
235.115	117.06
235.349	108.06
235.583	122.06
235.817	116.06
236.051	123.06
236.285	128.06
236.519	124.06
236.753	119.06
236.987	132.06
237.221	183.06
237.455	210.06
237.689	186.06
237.922	153.06
238.156	126.06
238.39	137.06
238.624	127.06
238.858	113.06
239.091	123.06
239.325	124.06
239.559	129.06
239.793	133.06
240.027	140.06
240.26	147.06
240.494	167.06
240.728	148.06
240.961	155.06
241.195	138.06
241.429	135.06
241.662	152.06
241.896	133.06
242.13	120.06
242.363	125.06
242.597	140.06
242.83	118.06
243.064	139.06
243.298	134.06
243.531	133.06
243.765	146.06
243.998	148.06
244.232	145.06
244.465	141.06
244.699	155.06
244.932	149.06
245.166	146.06
245.399	147.06
245.633	144.06
245.866	149.06
246.099	147.06
246.333	135.06
246.566	150.06
246.8	137.06
247.033	141.06
247.266	163.06
247.5	155.06
247.733	159.06
247.966	177.06
248.2	181.06
248.433	170.06
248.666	191.06
248.899	168.06
249.133	185.06
249.366	203.06
249.599	197.06
249.832	193.06
250.066	180.06
250.299	201.06
250.532	186.06
250.765	216.06
250.998	232.06
251.231	214.06
251.465	239.06
251.698	211.06
251.931	204.06
252.164	202.06
252.397	214.06
252.63	215.06
252.863	208.06
253.096	235.06
253.329	251.06
253.562	246.06
253.795	223.06
254.028	232.06
254.261	240.06
254.494	238.06
254.727	267.06
254.96	276.06
255.193	273.06
255.426	249.06
255.659	241.06
255.892	228.06
256.124	241.06
256.357	228.06
256.59	237.06
256.823	204.06
257.056	217.06
257.289	220.06
257.521	230.06
257.754	223.06
257.987	226.06
258.22	208.06
258.452	220.06
258.685	220.06
258.918	203.06
259.151	221.06
259.383	238.06
259.616	219.06
259.849	244.06
260.081	249.06
260.314	261.06
260.547	263.06
260.779	254.06
261.012	236.06
261.244	239.06
261.477	246.06
261.71	223.06
261.942	239.06
262.175	236.06
262.407	227.06
262.64	215.06
262.872	212.06
263.105	218.06
263.337	217.06
263.57	230.06
263.802	230.06
264.035	212.06
264.267	215.06
264.499	217.06
264.732	220.06
264.964	226.06
265.197	221.06
265.429	217.06
265.661	228.06
265.894	230.06
266.126	223.06
266.358	244.06
266.591	234.06
266.823	216.06
267.055	242.06
267.287	229.06
267.52	239.06
267.752	230.06
267.984	218.06
268.216	221.06
268.448	227.06
268.681	233.06
268.913	256.06
269.145	263.06
269.377	289.06
269.609	280.06
269.841	274.06
270.073	296.06
270.306	302.06
270.538	298.06
270.77	323.06
271.002	333.06
271.234	318.06
271.466	303.06
271.698	330.06
271.93	321.06
272.162	312.06
272.394	350.06
272.626	325.06
272.858	314.06
273.09	300.06
273.322	304.06
273.553	269.06
273.785	288.06
274.017	284.06
274.249	286.06
274.481	269.06
274.713	270.06
274.945	268.06
275.176	284.06
275.408	284.06
275.64	279.06
275.872	280.06
276.104	291.06
276.335	291.06
276.567	296.06
276.799	294.06
277.031	307.06
277.262	341.06
277.494	318.06
277.726	314.06
277.957	309.06
278.189	303.06
278.421	302.06
278.652	288.06
278.884	301.06
279.115	297.06
279.347	282.06
279.579	263.06
279.81	281.06
280.042	295.06
280.273	291.06
280.505	290.06
280.736	273.06
280.968	281.06
281.199	292.06
281.431	293.06
281.662	276.06
281.894	297.06
282.125	281.06
282.356	309.06
282.588	311.06
282.819	335.06
283.051	298.06
283.282	277.06
283.513	301.06
283.745	292.06
283.976	298.06
284.207	303.06
284.439	297.06
284.67	309.06
284.901	298.06
285.132	281.06
285.364	277.06
285.595	292.06
285.826	298.06
286.057	300.06
286.288	312.06
286.52	290.06
286.751	285.06
286.982	309.06
287.213	283.06
287.444	297.06
287.675	308.06
287.906	319.06
288.138	327.06
288.369	308.06
288.6	316.06
288.831	298.06
289.062	305.06
289.293	307.06
289.524	297.06
289.755	286.06
289.986	303.06
290.217	304.06
290.448	296.06
290.679	313.06
290.91	301.06
291.141	315.06
291.371	311.06
291.602	294.06
291.833	296.06
292.064	288.06
292.295	296.06
292.526	311.06
292.757	301.06
292.987	309.06
293.218	311.06
293.449	315.06
293.68	319.06
293.91	311.06
294.141	308.06
294.372	298.06
294.603	316.06
294.833	307.06
295.064	311.06
295.295	323.06
295.525	303.06
295.756	327.06
295.987	312.06
296.217	337.06
296.448	340.06
296.679	331.06
296.909	311.06
297.14	305.06
297.37	320.06
297.601	321.06
297.831	312.06
298.062	322.06
298.292	312.06
298.523	329.06
298.753	305.06
298.984	301.06
299.214	317.06
299.445	311.06
299.675	322.06
299.905	323.06
300.136	325.06
300.366	309.06
300.597	318.06
300.827	327.06
301.057	342.06
301.288	342.06
301.518	345.06
301.748	346.06
301.979	347.06
302.209	333.06
302.439	337.06
302.669	347.06
302.9	343.06
303.13	331.06
303.36	345.06
303.59	324.06
303.82	349.06
304.051	360.06
304.281	351.06
304.511	350.06
304.741	362.06
304.971	351.06
305.201	345.06
305.431	341.06
305.661	347.06
305.891	342.06
306.121	352.06
306.352	357.06
306.582	353.06
306.812	357.06
307.042	348.06
307.272	335.06
307.502	344.06
307.731	330.06
307.961	339.06
308.191	354.06
308.421	358.06
308.651	366.06
308.881	375.06
309.111	361.06
309.341	352.06
309.571	357.06
309.8	362.06
310.03	382.06
310.26	393.06
310.49	383.06
310.72	384.06
310.949	421.06
311.179	427.06
311.409	386.06
311.639	387.06
311.868	376.06
312.098	397.06
312.328	391.06
312.557	413.06
312.787	426.06
313.017	407.06
313.246	395.06
313.476	383.06
313.706	412.06
313.935	388.06
314.165	393.06
314.394	412.06
314.624	400.06
314.853	408.06
315.083	397.06
315.312	394.06
315.542	379.06
315.771	373.06
316.001	385.06
316.23	380.06
316.46	387.06
316.689	393.06
316.919	395.06
317.148	422.06
317.377	419.06
317.607	397.06
317.836	370.06
318.065	396.06
318.295	372.06
318.524	378.06
318.753	380.06
318.983	400.06
319.212	375.06
319.441	417.06
319.67	418.06
319.9	382.06
320.129	392.06
320.358	413.06
320.587	401.06
320.816	424.06
321.046	405.06
321.275	415.06
321.504	417.06
321.733	434.06
321.962	431.06
322.191	432.06
322.42	432.06
322.649	427.06
322.878	456.06
323.108	457.06
323.337	504.06
323.566	538.06
323.795	534.06
324.024	567.06
324.253	723.06
324.482	1013.06
324.71	1541.06
324.939	2026.06
325.168	1745.06
325.397	919.06
325.626	643.06
325.855	553.06
326.084	536.06
326.313	544.06
326.542	528.06
326.77	592.06
326.999	679.06
327.228	907.06
327.457	1334.06
327.686	1533.06
327.914	1037.06
328.143	707.06
328.372	613.06
328.6	587.06
328.829	569.06
329.058	592.06
329.287	578.06
329.515	552.06
329.744	522.06
329.972	509.06
330.201	547.06
330.43	575.06
330.658	578.06
330.887	602.06
331.115	583.06
331.344	512.06
331.572	489.06
331.801	498.06
332.03	489.06
332.258	485.06
332.486	461.06
332.715	452.06
332.943	448.06
333.172	473.06
333.4	467.06
333.629	456.06
333.857	496.06
334.085	493.06
334.314	521.06
334.542	531.06
334.771	523.06
334.999	491.06
335.227	487.06
335.455	489.06
335.684	483.06
335.912	467.06
336.14	465.06
336.369	438.06
336.597	439.06
336.825	455.06
337.053	454.06
337.281	426.06
337.51	438.06
337.738	443.06
337.966	453.06
338.194	448.06
338.422	431.06
338.65	451.06
338.878	436.06
339.106	414.06
339.334	421.06
339.562	406.06
339.79	425.06
340.018	428.06
340.246	439.06
340.474	443.06
340.702	409.06
340.93	424.06
341.158	420.06
341.386	425.06
341.614	442.06
341.842	441.06
342.07	428.06
342.298	415.06
342.526	424.06
342.754	431.06
342.981	419.06
343.209	402.06
343.437	423.06
343.665	440.06
343.893	423.06
344.12	437.06
344.348	425.06
344.576	431.06
344.804	432.06
345.031	442.06
345.259	442.06
345.487	438.06
345.714	426.06
345.942	429.06
346.17	408.06
346.397	417.06
346.625	421.06
346.853	409.06
347.08	407.06
347.308	424.06
347.535	430.06
347.763	435.06
347.99	429.06
348.218	415.06
348.445	423.06
348.673	406.06
348.9	416.06
349.128	399.06
349.355	395.06
349.583	401.06
349.81	364.06
350.037	395.06
350.265	412.06
350.492	398.06
350.72	395.06
350.947	400.06
351.174	413.06
351.402	410.06
351.629	410.06
351.856	431.06
352.083	406.06
352.311	395.06
352.538	429.06
352.765	427.06
352.992	404.06
353.22	419.06
353.447	392.06
353.674	403.06
353.901	392.06
354.128	383.06
354.355	380.06
354.583	381.06
354.81	367.06
355.037	383.06
355.264	371.06
355.491	392.06
355.718	369.06
355.945	379.06
356.172	376.06
356.399	365.06
356.626	394.06
356.853	380.06
357.08	386.06
357.307	367.06
357.534	364.06
357.761	367.06
357.988	379.06
358.215	378.06
358.441	370.06
358.668	376.06
358.895	380.06
359.122	377.06
359.349	357.06
359.576	392.06
359.802	439.06
360.029	446.06
360.256	426.06
360.483	417.06
360.709	395.06
360.936	392.06
361.163	389.06
361.39	396.06
361.616	387.06
361.843	394.06
362.07	404.06
362.296	411.06
362.523	381.06
362.749	383.06
362.976	381.06
363.203	417.06
363.429	365.06
363.656	375.06
363.882	363.06
364.109	383.06
364.335	350.06
364.562	371.06
364.788	397.06
365.015	415.06
365.241	379.06
365.468	387.06
365.694	375.06
365.92	390.06
366.147	385.06
366.373	369.06
366.599	376.06
366.826	360.06
367.052	377.06
367.278	372.06
367.505	372.06
367.731	377.06
367.957	365.06
368.184	368.06
368.41	357.06
368.636	387.06
368.862	363.06
369.089	381.06
369.315	381.06
369.541	359.06
369.767	376.06
369.993	362.06
370.219	369.06
370.445	359.06
370.672	357.06
370.898	367.06
371.124	371.06
371.35	369.06
371.576	367.06
371.802	377.06
372.028	360.06
372.254	363.06
372.48	377.06
372.706	356.06
372.932	373.06
373.158	377.06
373.384	341.06
373.61	370.06
373.835	375.06
374.061	361.06
374.287	360.06
374.513	371.06
374.739	357.06
374.965	365.06
375.191	364.06
375.416	379.06
375.642	368.06
375.868	358.06
376.094	377.06
376.319	374.06
376.545	367.06
376.771	362.06
376.997	366.06
377.222	355.06
377.448	391.06
377.674	361.06
377.899	364.06
378.125	382.06
378.35	360.06
378.576	355.06
378.802	340.06
379.027	379.06
379.253	344.06
379.478	354.06
379.704	353.06
379.929	357.06
380.155	349.06
380.38	361.06
380.606	363.06
380.831	374.06
381.057	343.06
381.282	362.06
381.507	371.06
381.733	375.06
381.958	377.06
382.184	373.06
382.409	374.06
382.634	374.06
382.86	371.06
383.085	365.06
383.31	370.06
383.535	362.06
383.761	375.06
383.986	362.06
384.211	375.06
384.436	379.06
384.662	375.06
384.887	393.06
385.112	379.06
385.337	403.06
385.562	369.06
385.787	389.06
386.013	384.06
386.238	390.06
386.463	380.06
386.688	387.06
386.913	374.06
387.138	367.06
387.363	374.06
387.588	373.06
387.813	378.06
388.038	378.06
388.263	376.06
388.488	395.06
388.713	368.06
388.938	375.06
389.163	405.06
389.387	398.06
389.612	398.06
389.837	371.06
390.062	368.06
390.287	389.06
390.512	389.06
390.736	390.06
390.961	386.06
391.186	395.06
391.411	347.06
391.636	376.06
391.86	387.06
392.085	385.06
392.31	397.06
392.534	391.06
392.759	394.06
392.984	376.06
393.208	373.06
393.433	379.06
393.658	384.06
393.882	386.06
394.107	394.06
394.331	395.06
394.556	391.06
394.78	412.06
395.005	378.06
395.229	382.06
395.454	380.06
395.678	379.06
395.903	385.06
396.127	405.06
396.352	411.06
396.576	391.06
396.801	395.06
397.025	383.06
397.249	378.06
397.474	420.06
397.698	393.06
397.922	404.06
398.147	435.06
398.371	430.06
398.595	441.06
398.82	421.06
399.044	417.06
399.268	423.06
399.492	456.06
399.717	488.06
399.941	510.06
400.165	499.06
400.389	516.06
400.613	486.06
400.837	439.06
401.062	461.06
401.286	436.06
401.51	412.06
401.734	435.06
401.958	423.06
402.182	433.06
402.406	448.06
402.63	423.06
402.854	424.06
403.078	420.06
403.302	423.06
403.526	452.06
403.75	435.06
403.974	449.06
404.198	418.06
404.422	439.06
404.645	433.06
404.869	428.06
405.093	496.06
405.317	509.06
405.541	521.06
405.765	471.06
405.988	482.06
406.212	459.06
406.436	480.06
406.66	502.06
406.883	471.06
407.107	507.06
407.331	514.06
407.555	569.06
407.778	562.06
408.002	509.06
408.226	492.06
408.449	469.06
408.673	466.06
408.896	489.06
409.12	518.06
409.344	496.06
409.567	464.06
409.791	465.06
410.014	444.06
410.238	417.06
410.461	449.06
410.685	420.06
410.908	449.06
411.132	496.06
411.355	513.06
411.578	480.06
411.802	446.06
412.025	441.06
412.249	436.06
412.472	445.06
412.695	488.06
412.919	466.06
413.142	448.06
413.365	408.06
413.589	434.06
413.812	415.06
414.035	435.06
414.258	401.06
414.482	412.06
414.705	426.06
414.928	401.06
415.151	378.06
415.374	417.06
415.597	406.06
415.821	387.06
416.044	417.06
416.267	403.06
416.49	417.06
416.713	398.06
416.936	400.06
417.159	408.06
417.382	416.06
417.605	420.06
417.828	434.06
418.051	423.06
418.274	443.06
418.497	407.06
418.72	413.06
418.943	402.06
419.166	427.06
419.389	463.06
419.611	440.06
419.834	460.06
420.057	447.06
420.28	428.06
420.503	425.06
420.726	423.06
420.948	446.06
421.171	473.06
421.394	516.06
421.617	471.06
421.839	437.06
422.062	428.06
422.285	446.06
422.507	498.06
422.73	552.06
422.953	530.06
423.175	472.06
423.398	461.06
423.621	458.06
423.843	468.06
424.066	469.06
424.288	446.06
424.511	461.06
424.733	520.06
424.956	592.06
425.178	586.06
425.401	551.06
425.623	572.06
425.846	471.06
426.068	470.06
426.291	460.06
426.513	458.06
426.735	441.06
426.958	517.06
427.18	568.06
427.402	685.06
427.625	734.06
427.847	637.06
428.069	562.06
428.292	503.06
428.514	455.06
428.736	451.06
428.958	435.06
429.181	447.06
429.403	417.06
429.625	443.06
429.847	448.06
430.069	506.06
430.292	489.06
430.514	446.06
430.736	444.06
430.958	422.06
431.18	415.06
431.402	419.06
431.624	426.06
431.846	389.06
432.068	398.06
432.29	383.06
432.512	394.06
432.734	407.06
432.956	428.06
433.178	427.06
433.4	415.06
433.622	406.06
433.844	397.06
434.066	401.06
434.287	404.06
434.509	402.06
434.731	415.06
434.953	407.06
435.175	432.06
435.397	441.06
435.618	451.06
435.84	502.06
436.062	568.06
436.284	621.06
436.505	527.06
436.727	475.06
436.949	455.06
437.17	427.06
437.392	445.06
437.614	442.06
437.835	461.06
438.057	549.06
438.278	612.06
438.5	650.06
438.721	693.06
438.943	657.06
439.165	520.06
439.386	473.06
439.608	473.06
439.829	450.06
440.05	483.06
440.272	541.06
440.493	532.06
440.715	473.06
440.936	453.06
441.158	452.06
441.379	414.06
441.6	429.06
441.822	464.06
442.043	495.06
442.264	565.06
442.486	611.06
442.707	519.06
442.928	478.06
443.149	482.06
443.371	500.06
443.592	545.06
443.813	618.06
444.034	652.06
444.255	557.06
444.476	486.06
444.698	456.06
444.919	457.06
445.14	544.06
445.361	503.06
445.582	518.06
445.803	557.06
446.024	641.06
446.245	609.06
446.466	580.06
446.687	529.06
446.908	447.06
447.129	448.06
447.35	432.06
447.571	415.06
447.792	429.06
448.013	419.06
448.234	453.06
448.455	499.06
448.675	589.06
448.896	676.06
449.117	578.06
449.338	542.06
449.559	633.06
449.779	707.06
450	587.06
450.221	473.06
450.442	452.06
450.662	435.06
450.883	419.06
451.104	445.06
451.324	413.06
451.545	397.06
451.766	391.06
451.986	396.06
452.207	380.06
452.428	379.06
452.648	362.06
452.869	383.06
453.089	397.06
453.31	398.06
453.53	367.06
453.751	373.06
453.971	372.06
454.192	370.06
454.412	392.06
454.633	384.06
454.853	385.06
455.073	373.06
455.294	407.06
455.514	470.06
455.734	435.06
455.955	388.06
456.175	387.06
456.395	360.06
456.616	373.06
456.836	365.06
457.056	371.06
457.276	364.06
457.497	348.06
457.717	362.06
457.937	353.06
458.157	346.06
458.377	367.06
458.598	397.06
458.818	425.06
459.038	479.06
459.258	511.06
459.478	435.06
459.698	424.06
459.918	394.06
460.138	383.06
460.358	397.06
460.578	393.06
460.798	392.06
461.018	392.06
461.238	398.06
461.458	374.06
461.678	401.06
461.898	386.06
462.118	395.06
462.338	415.06
462.558	426.06
462.777	416.06
462.997	395.06
463.217	425.06
463.437	444.06
463.657	420.06
463.876	428.06
464.096	420.06
464.316	417.06
464.536	407.06
464.755	415.06
464.975	424.06
465.195	453.06
465.414	495.06
465.634	454.06
465.854	430.06
466.073	401.06
466.293	395.06
466.512	375.06
466.732	371.06
466.951	374.06
467.171	368.06
467.391	398.06
467.61	393.06
467.829	377.06
468.049	388.06
468.268	371.06
468.488	391.06
468.707	385.06
468.927	379.06
469.146	379.06
469.365	376.06
469.585	377.06
469.804	360.06
470.023	395.06
470.243	388.06
470.462	388.06
470.681	423.06
470.901	411.06
471.12	385.06
471.339	389.06
471.558	378.06
471.777	379.06
471.997	380.06
472.216	394.06
472.435	415.06
472.654	409.06
472.873	392.06
473.092	386.06
473.311	397.06
473.53	403.06
473.749	409.06
473.968	425.06
474.187	514.06
474.406	547.06
474.625	424.06
474.844	429.06
475.063	392.06
475.282	385.06
475.501	403.06
475.72	412.06
475.939	401.06
476.158	409.06
476.377	394.06
476.596	380.06
476.814	390.06
477.033	405.06
477.252	405.06
477.471	409.06
477.69	400.06
477.908	418.06
478.127	423.06
478.346	425.06
478.564	425.06
478.783	438.06
479.002	434.06
479.22	425.06
479.439	434.06
479.658	447.06
479.876	466.06
480.095	442.06
480.313	496.06
480.532	459.06
480.751	480.06
480.969	489.06
481.188	509.06
481.406	556.06
481.624	466.06
481.843	477.06
482.061	459.06
482.28	445.06
482.498	459.06
482.717	453.06
482.935	439.06
483.153	460.06
483.372	445.06
483.59	460.06
483.808	440.06
484.027	446.06
484.245	445.06
484.463	459.06
484.681	459.06
484.9	460.06
485.118	448.06
485.336	471.06
485.554	454.06
485.772	459.06
485.99	449.06
486.209	457.06
486.427	472.06
486.645	469.06
486.863	501.06
487.081	489.06
487.299	519.06
487.517	476.06
487.735	497.06
487.953	496.06
488.171	484.06
488.389	505.06
488.607	493.06
488.825	495.06
489.043	489.06
489.261	505.06
489.479	479.06
489.696	487.06
489.914	496.06
490.132	518.06
490.35	507.06
490.568	521.06
490.786	526.06
491.003	538.06
491.221	565.06
491.439	556.06
491.657	557.06
491.874	556.06
492.092	564.06
492.31	555.06
492.527	586.06
492.745	568.06
492.963	583.06
493.18	593.06
493.398	583.06
493.615	571.06
493.833	588.06
494.05	573.06
494.268	559.06
494.485	589.06
494.703	581.06
494.92	571.06
495.138	594.06
495.355	570.06
495.573	578.06
495.79	586.06
496.008	576.06
496.225	574.06
496.442	592.06
496.66	582.06
496.877	586.06
497.094	591.06
497.312	604.06
497.529	611.06
497.746	593.06
497.963	592.06
498.181	636.06
498.398	623.06
498.615	624.06
498.832	615.06
499.049	647.06
499.267	651.06
499.484	663.06
499.701	712.06
499.918	718.06
500.135	741.06
500.352	742.06
500.569	748.06
500.786	776.06
501.003	736.06
501.22	733.06
501.437	688.06
501.654	717.06
501.871	716.06
502.088	672.06
