Data from 1971.PennyLincolnUp.Lamp.En5.5.200Scan.071719.P1._HRD10591_15-19-35-842.txt Node
Date: Thu Jul 18 15:19:35 EDT 2019
User: cochatt
Spectrometer: HR+D1059
Trigger mode: 1
Integration Time (sec): 1.000000E-1
Scans to average: 1
Electric dark correction enabled: true
Nonlinearity correction enabled: false
Boxcar width: 0
XAxis mode: Wavelengths
Number of Pixels in Spectrum: 2048
>>>>>Begin Spectral Data<<<<<
223.165	-10.12
223.4	-10.12
223.635	-10.12
223.869	-20.12
224.104	-27.12
224.338	-9.12
224.573	-15.12
224.808	3.88
225.042	-16.12
225.277	-10.12
225.511	-15.12
225.746	-1.12
225.98	1.88
226.215	22.88
226.449	17.88
226.683	25.88
226.918	18.88
227.152	32.88
227.387	30.88
227.621	33.88
227.856	48.88
228.09	42.88
228.324	49.88
228.559	60.88
228.793	75.88
229.027	100.88
229.262	105.88
229.496	119.88
229.73	124.88
229.964	141.88
230.199	116.88
230.433	119.88
230.667	128.88
230.901	126.88
231.136	122.88
231.37	99.88
231.604	116.88
231.838	110.88
232.072	104.88
232.306	101.88
232.541	100.88
232.775	92.88
233.009	113.88
233.243	113.88
233.477	121.88
233.711	120.88
233.945	120.88
234.179	119.88
234.413	109.88
234.647	122.88
234.881	120.88
235.115	126.88
235.349	125.88
235.583	110.88
235.817	120.88
236.051	126.88
236.285	127.88
236.519	136.88
236.753	125.88
236.987	141.88
237.221	172.88
237.455	216.88
237.689	182.88
237.922	140.88
238.156	140.88
238.39	133.88
238.624	133.88
238.858	121.88
239.091	126.88
239.325	133.88
239.559	129.88
239.793	123.88
240.027	128.88
240.26	130.88
240.494	159.88
240.728	145.88
240.961	146.88
241.195	141.88
241.429	135.88
241.662	142.88
241.896	142.88
242.13	136.88
242.363	133.88
242.597	126.88
242.83	133.88
243.064	144.88
243.298	139.88
243.531	138.88
243.765	144.88
243.998	144.88
244.232	118.88
244.465	137.88
244.699	150.88
244.932	139.88
245.166	152.88
245.399	142.88
245.633	147.88
245.866	142.88
246.099	156.88
246.333	155.88
246.566	156.88
246.8	161.88
247.033	166.88
247.266	170.88
247.5	166.88
247.733	180.88
247.966	179.88
248.2	158.88
248.433	166.88
248.666	184.88
248.899	192.88
249.133	181.88
249.366	218.88
249.599	205.88
249.832	170.88
250.066	196.88
250.299	180.88
250.532	187.88
250.765	194.88
250.998	233.88
251.231	234.88
251.465	220.88
251.698	205.88
251.931	212.88
252.164	198.88
252.397	214.88
252.63	211.88
252.863	221.88
253.096	222.88
253.329	223.88
253.562	231.88
253.795	232.88
254.028	235.88
254.261	228.88
254.494	225.88
254.727	267.88
254.96	276.88
255.193	277.88
255.426	246.88
255.659	233.88
255.892	248.88
256.124	249.88
256.357	228.88
256.59	244.88
256.823	232.88
257.056	218.88
257.289	230.88
257.521	221.88
257.754	231.88
257.987	230.88
258.22	219.88
258.452	222.88
258.685	220.88
258.918	219.88
259.151	203.88
259.383	243.88
259.616	244.88
259.849	215.88
260.081	238.88
260.314	272.88
260.547	270.88
260.779	252.88
261.012	246.88
261.244	220.88
261.477	233.88
261.71	233.88
261.942	234.88
262.175	249.88
262.407	218.88
262.64	222.88
262.872	227.88
263.105	230.88
263.337	219.88
263.57	235.88
263.802	224.88
264.035	211.88
264.267	204.88
264.499	221.88
264.732	216.88
264.964	209.88
265.197	216.88
265.429	216.88
265.661	223.88
265.894	233.88
266.126	232.88
266.358	225.88
266.591	226.88
266.823	239.88
267.055	233.88
267.287	238.88
267.52	252.88
267.752	240.88
267.984	242.88
268.216	239.88
268.448	254.88
268.681	237.88
268.913	280.88
269.145	279.88
269.377	278.88
269.609	264.88
269.841	273.88
270.073	290.88
270.306	296.88
270.538	309.88
270.77	334.88
271.002	301.88
271.234	311.88
271.466	313.88
271.698	319.88
271.93	313.88
272.162	327.88
272.394	331.88
272.626	316.88
272.858	314.88
273.09	288.88
273.322	262.88
273.553	270.88
273.785	282.88
274.017	264.88
274.249	270.88
274.481	294.88
274.713	282.88
274.945	277.88
275.176	286.88
275.408	280.88
275.64	287.88
275.872	264.88
276.104	264.88
276.335	289.88
276.567	273.88
276.799	297.88
277.031	305.88
277.262	314.88
277.494	321.88
277.726	316.88
277.957	301.88
278.189	304.88
278.421	280.88
278.652	287.88
278.884	277.88
279.115	275.88
279.347	283.88
279.579	282.88
279.81	270.88
280.042	297.88
280.273	289.88
280.505	270.88
280.736	286.88
280.968	286.88
281.199	288.88
281.431	294.88
281.662	281.88
281.894	287.88
282.125	279.88
282.356	291.88
282.588	298.88
282.819	306.88
283.051	277.88
283.282	281.88
283.513	286.88
283.745	279.88
283.976	290.88
284.207	303.88
284.439	293.88
284.67	308.88
284.901	278.88
285.132	282.88
285.364	283.88
285.595	293.88
285.826	286.88
286.057	307.88
286.288	297.88
286.52	300.88
286.751	297.88
286.982	303.88
287.213	286.88
287.444	306.88
287.675	296.88
287.906	306.88
288.138	309.88
288.369	300.88
288.6	328.88
288.831	319.88
289.062	315.88
289.293	286.88
289.524	295.88
289.755	308.88
289.986	288.88
290.217	284.88
290.448	301.88
290.679	302.88
290.91	299.88
291.141	304.88
291.371	315.88
291.602	272.88
291.833	288.88
292.064	291.88
292.295	298.88
292.526	301.88
292.757	296.88
292.987	288.88
293.218	295.88
293.449	289.88
293.68	287.88
293.91	301.88
294.141	300.88
294.372	300.88
294.603	309.88
294.833	296.88
295.064	284.88
295.295	298.88
295.525	308.88
295.756	304.88
295.987	316.88
296.217	328.88
296.448	325.88
296.679	328.88
296.909	297.88
297.14	312.88
297.37	293.88
297.601	291.88
297.831	309.88
298.062	323.88
298.292	296.88
298.523	305.88
298.753	320.88
298.984	306.88
299.214	316.88
299.445	313.88
299.675	325.88
299.905	320.88
300.136	319.88
300.366	333.88
300.597	332.88
300.827	319.88
301.057	311.88
301.288	327.88
301.518	326.88
301.748	328.88
301.979	346.88
302.209	339.88
302.439	333.88
302.669	344.88
302.9	335.88
303.13	321.88
303.36	336.88
303.59	323.88
303.82	333.88
304.051	337.88
304.281	323.88
304.511	328.88
304.741	333.88
304.971	347.88
305.201	341.88
305.431	321.88
305.661	337.88
305.891	355.88
306.121	345.88
306.352	341.88
306.582	358.88
306.812	344.88
307.042	357.88
307.272	332.88
307.502	337.88
307.731	348.88
307.961	344.88
308.191	358.88
308.421	347.88
308.651	340.88
308.881	345.88
309.111	347.88
309.341	393.88
309.571	360.88
309.8	372.88
310.03	373.88
310.26	394.88
310.49	383.88
310.72	390.88
310.949	392.88
311.179	393.88
311.409	383.88
311.639	376.88
311.868	378.88
312.098	398.88
312.328	396.88
312.557	399.88
312.787	424.88
313.017	422.88
313.246	402.88
313.476	377.88
313.706	393.88
313.935	387.88
314.165	388.88
314.394	386.88
314.624	393.88
314.853	403.88
315.083	394.88
315.312	384.88
315.542	380.88
315.771	373.88
316.001	398.88
316.23	382.88
316.46	379.88
316.689	389.88
316.919	382.88
317.148	382.88
317.377	386.88
317.607	383.88
317.836	405.88
318.065	381.88
318.295	405.88
318.524	393.88
318.753	403.88
318.983	400.88
319.212	392.88
319.441	381.88
319.67	380.88
319.9	385.88
320.129	387.88
320.358	408.88
320.587	409.88
320.816	395.88
321.046	397.88
321.275	416.88
321.504	408.88
321.733	408.88
321.962	411.88
322.191	432.88
322.42	428.88
322.649	452.88
322.878	438.88
323.108	450.88
323.337	478.88
323.566	495.88
323.795	513.88
324.024	569.88
324.253	680.88
324.482	945.88
324.71	1405.88
324.939	1895.88
325.168	1616.88
325.397	872.88
325.626	616.88
325.855	529.88
326.084	540.88
326.313	497.88
326.542	507.88
326.77	564.88
326.999	658.88
327.228	875.88
327.457	1292.88
327.686	1428.88
327.914	948.88
328.143	670.88
328.372	596.88
328.6	554.88
328.829	528.88
329.058	570.88
329.287	561.88
329.515	541.88
329.744	505.88
329.972	508.88
330.201	502.88
330.43	546.88
330.658	553.88
330.887	576.88
331.115	562.88
331.344	512.88
331.572	482.88
331.801	477.88
332.03	487.88
332.258	454.88
332.486	471.88
332.715	460.88
332.943	445.88
333.172	459.88
333.4	456.88
333.629	454.88
333.857	495.88
334.085	488.88
334.314	487.88
334.542	514.88
334.771	504.88
334.999	481.88
335.227	471.88
335.455	452.88
335.684	456.88
335.912	449.88
336.14	449.88
336.369	450.88
336.597	453.88
336.825	450.88
337.053	423.88
337.281	434.88
337.51	424.88
337.738	424.88
337.966	417.88
338.194	419.88
338.422	426.88
338.65	421.88
338.878	461.88
339.106	422.88
339.334	441.88
339.562	402.88
339.79	427.88
340.018	419.88
340.246	424.88
340.474	428.88
340.702	409.88
340.93	433.88
341.158	420.88
341.386	428.88
341.614	428.88
341.842	399.88
342.07	422.88
342.298	422.88
342.526	434.88
342.754	411.88
342.981	398.88
343.209	398.88
343.437	411.88
343.665	428.88
343.893	432.88
344.12	432.88
344.348	413.88
344.576	414.88
344.804	426.88
345.031	433.88
345.259	441.88
345.487	433.88
345.714	416.88
345.942	403.88
346.17	394.88
346.397	416.88
346.625	416.88
346.853	398.88
347.08	384.88
347.308	414.88
347.535	418.88
347.763	397.88
347.99	403.88
348.218	391.88
348.445	426.88
348.673	405.88
348.9	380.88
349.128	410.88
349.355	394.88
349.583	407.88
349.81	402.88
350.037	398.88
350.265	392.88
350.492	386.88
350.72	378.88
350.947	369.88
351.174	392.88
351.402	398.88
351.629	401.88
351.856	406.88
352.083	404.88
352.311	411.88
352.538	410.88
352.765	403.88
352.992	393.88
353.22	413.88
353.447	415.88
353.674	370.88
353.901	363.88
354.128	382.88
354.355	395.88
354.583	392.88
354.81	389.88
355.037	405.88
355.264	364.88
355.491	360.88
355.718	373.88
355.945	382.88
356.172	368.88
356.399	378.88
356.626	367.88
356.853	382.88
357.08	384.88
357.307	370.88
357.534	371.88
357.761	373.88
357.988	376.88
358.215	378.88
358.441	373.88
358.668	370.88
358.895	390.88
359.122	369.88
359.349	393.88
359.576	396.88
359.802	425.88
360.029	422.88
360.256	430.88
360.483	420.88
360.709	385.88
360.936	393.88
361.163	384.88
361.39	385.88
361.616	398.88
361.843	391.88
362.07	385.88
362.296	388.88
362.523	381.88
362.749	396.88
362.976	390.88
363.203	391.88
363.429	369.88
363.656	393.88
363.882	358.88
364.109	379.88
364.335	396.88
364.562	364.88
364.788	381.88
365.015	388.88
365.241	375.88
365.468	390.88
365.694	389.88
365.92	394.88
366.147	358.88
366.373	380.88
366.599	347.88
366.826	357.88
367.052	384.88
367.278	368.88
367.505	362.88
367.731	369.88
367.957	372.88
368.184	352.88
368.41	380.88
368.636	394.88
368.862	384.88
369.089	377.88
369.315	388.88
369.541	357.88
369.767	366.88
369.993	370.88
370.219	361.88
370.445	375.88
370.672	377.88
370.898	365.88
371.124	359.88
371.35	362.88
371.576	361.88
371.802	366.88
372.028	361.88
372.254	384.88
372.48	356.88
372.706	376.88
372.932	357.88
373.158	359.88
373.384	368.88
373.61	361.88
373.835	370.88
374.061	366.88
374.287	369.88
374.513	372.88
374.739	374.88
374.965	354.88
375.191	381.88
375.416	379.88
375.642	361.88
375.868	358.88
376.094	364.88
376.319	369.88
376.545	363.88
376.771	377.88
376.997	355.88
377.222	380.88
377.448	362.88
377.674	364.88
377.899	362.88
378.125	343.88
378.35	346.88
378.576	373.88
378.802	350.88
379.027	342.88
379.253	378.88
379.478	376.88
379.704	365.88
379.929	374.88
380.155	353.88
380.38	348.88
380.606	350.88
380.831	353.88
381.057	365.88
381.282	366.88
381.507	342.88
381.733	354.88
381.958	356.88
382.184	350.88
382.409	381.88
382.634	364.88
382.86	348.88
383.085	338.88
383.31	368.88
383.535	380.88
383.761	348.88
383.986	372.88
384.211	366.88
384.436	370.88
384.662	359.88
384.887	372.88
385.112	382.88
385.337	375.88
385.562	388.88
385.787	363.88
386.013	381.88
386.238	416.88
386.463	379.88
386.688	392.88
386.913	386.88
387.138	378.88
387.363	393.88
387.588	398.88
387.813	381.88
388.038	380.88
388.263	390.88
388.488	394.88
388.713	358.88
388.938	370.88
389.163	368.88
389.387	390.88
389.612	388.88
389.837	389.88
390.062	369.88
390.287	372.88
390.512	352.88
390.736	384.88
390.961	382.88
391.186	372.88
391.411	364.88
391.636	386.88
391.86	381.88
392.085	378.88
392.31	376.88
392.534	380.88
392.759	402.88
392.984	383.88
393.208	389.88
393.433	378.88
393.658	374.88
393.882	375.88
394.107	369.88
394.331	360.88
394.556	376.88
394.78	380.88
395.005	392.88
395.229	372.88
395.454	381.88
395.678	389.88
395.903	420.88
396.127	401.88
396.352	436.88
396.576	385.88
396.801	398.88
397.025	399.88
397.249	398.88
397.474	401.88
397.698	392.88
397.922	416.88
398.147	427.88
398.371	423.88
398.595	424.88
398.82	402.88
399.044	424.88
399.268	452.88
399.492	474.88
399.717	481.88
399.941	490.88
400.165	519.88
400.389	513.88
400.613	475.88
400.837	458.88
401.062	424.88
401.286	426.88
401.51	408.88
401.734	414.88
401.958	405.88
402.182	425.88
402.406	434.88
402.63	432.88
402.854	417.88
403.078	432.88
403.302	441.88
403.526	450.88
403.75	424.88
403.974	438.88
404.198	426.88
404.422	430.88
404.645	454.88
404.869	436.88
405.093	476.88
405.317	502.88
405.541	500.88
405.765	481.88
405.988	460.88
406.212	465.88
406.436	481.88
406.66	470.88
406.883	462.88
407.107	472.88
407.331	500.88
407.555	540.88
407.778	554.88
408.002	518.88
408.226	469.88
408.449	483.88
408.673	466.88
408.896	487.88
409.12	544.88
409.344	464.88
409.567	456.88
409.791	447.88
410.014	424.88
410.238	430.88
410.461	436.88
410.685	427.88
410.908	446.88
411.132	468.88
411.355	489.88
411.578	488.88
411.802	434.88
412.025	421.88
412.249	447.88
412.472	442.88
412.695	477.88
412.919	480.88
413.142	437.88
413.365	428.88
413.589	415.88
413.812	425.88
414.035	414.88
414.258	427.88
414.482	413.88
414.705	414.88
414.928	379.88
415.151	410.88
415.374	406.88
415.597	399.88
415.821	415.88
416.044	392.88
416.267	440.88
416.49	406.88
416.713	403.88
416.936	412.88
417.159	396.88
417.382	420.88
417.605	400.88
417.828	410.88
418.051	436.88
418.274	425.88
418.497	423.88
418.72	414.88
418.943	418.88
419.166	424.88
419.389	447.88
419.611	451.88
419.834	423.88
420.057	451.88
420.28	443.88
420.503	439.88
420.726	423.88
420.948	444.88
421.171	459.88
421.394	492.88
421.617	452.88
421.839	412.88
422.062	440.88
422.285	448.88
422.507	478.88
422.73	526.88
422.953	505.88
423.175	471.88
423.398	447.88
423.621	452.88
423.843	467.88
424.066	440.88
424.288	445.88
424.511	474.88
424.733	542.88
424.956	557.88
425.178	550.88
425.401	544.88
425.623	561.88
425.846	494.88
426.068	466.88
426.291	469.88
426.513	463.88
426.735	482.88
426.958	509.88
427.18	556.88
427.402	654.88
427.625	731.88
427.847	625.88
428.069	538.88
428.292	514.88
428.514	461.88
428.736	432.88
428.958	414.88
429.181	401.88
429.403	424.88
429.625	423.88
429.847	457.88
430.069	489.88
430.292	509.88
430.514	432.88
430.736	409.88
430.958	413.88
431.18	402.88
431.402	392.88
431.624	383.88
431.846	390.88
432.068	377.88
432.29	394.88
432.512	400.88
432.734	407.88
432.956	406.88
433.178	416.88
433.4	409.88
433.622	399.88
433.844	393.88
434.066	403.88
434.287	389.88
434.509	418.88
434.731	398.88
434.953	404.88
435.175	431.88
435.397	448.88
435.618	452.88
435.84	473.88
436.062	545.88
436.284	604.88
436.505	518.88
436.727	448.88
436.949	422.88
437.17	438.88
437.392	433.88
437.614	436.88
437.835	467.88
438.057	544.88
438.278	608.88
438.5	608.88
438.721	666.88
438.943	616.88
439.165	514.88
439.386	485.88
439.608	462.88
439.829	447.88
440.05	472.88
440.272	504.88
440.493	464.88
440.715	450.88
440.936	432.88
441.158	424.88
441.379	423.88
441.6	427.88
441.822	451.88
442.043	466.88
442.264	551.88
442.486	582.88
442.707	504.88
442.928	456.88
443.149	476.88
443.371	484.88
443.592	522.88
443.813	592.88
444.034	636.88
444.255	508.88
444.476	471.88
444.698	470.88
444.919	451.88
445.14	577.88
445.361	531.88
445.582	509.88
445.803	550.88
446.024	604.88
446.245	610.88
446.466	585.88
446.687	485.88
446.908	450.88
447.129	431.88
447.35	445.88
447.571	423.88
447.792	418.88
448.013	421.88
448.234	446.88
448.455	473.88
448.675	572.88
448.896	632.88
449.117	560.88
449.338	510.88
449.559	627.88
449.779	704.88
450	559.88
450.221	465.88
450.442	440.88
450.662	419.88
450.883	431.88
451.104	431.88
451.324	418.88
451.545	397.88
451.766	408.88
451.986	397.88
452.207	386.88
452.428	382.88
452.648	384.88
452.869	383.88
453.089	375.88
453.31	386.88
453.53	357.88
453.751	365.88
453.971	376.88
454.192	396.88
454.412	373.88
454.633	368.88
454.853	372.88
455.073	377.88
455.294	388.88
455.514	450.88
455.734	426.88
455.955	378.88
456.175	368.88
456.395	344.88
456.616	357.88
456.836	341.88
457.056	354.88
457.276	356.88
457.497	355.88
457.717	361.88
457.937	360.88
458.157	374.88
458.377	374.88
458.598	379.88
458.818	431.88
459.038	480.88
459.258	492.88
459.478	403.88
459.698	416.88
459.918	384.88
460.138	376.88
460.358	391.88
460.578	386.88
460.798	393.88
461.018	390.88
461.238	393.88
461.458	389.88
461.678	395.88
461.898	394.88
462.118	413.88
462.338	394.88
462.558	387.88
462.777	406.88
462.997	434.88
463.217	448.88
463.437	432.88
463.657	412.88
463.876	424.88
464.096	416.88
464.316	406.88
464.536	416.88
464.755	418.88
464.975	406.88
465.195	454.88
465.414	487.88
465.634	424.88
465.854	393.88
466.073	405.88
466.293	373.88
466.512	378.88
466.732	384.88
466.951	380.88
467.171	390.88
467.391	388.88
467.61	395.88
467.829	393.88
468.049	378.88
468.268	389.88
468.488	387.88
468.707	381.88
468.927	357.88
469.146	365.88
469.365	377.88
469.585	371.88
469.804	384.88
470.023	388.88
470.243	384.88
470.462	380.88
470.681	400.88
470.901	386.88
471.12	383.88
471.339	367.88
471.558	396.88
471.777	406.88
471.997	380.88
472.216	395.88
472.435	394.88
472.654	401.88
472.873	373.88
473.092	388.88
473.311	398.88
473.53	389.88
473.749	397.88
473.968	429.88
474.187	527.88
474.406	524.88
474.625	445.88
474.844	390.88
475.063	392.88
475.282	404.88
475.501	382.88
475.72	393.88
475.939	405.88
476.158	407.88
476.377	398.88
476.596	377.88
476.814	392.88
477.033	413.88
477.252	421.88
477.471	413.88
477.69	400.88
477.908	409.88
478.127	403.88
478.346	413.88
478.564	436.88
478.783	422.88
479.002	420.88
479.22	424.88
479.439	465.88
479.658	439.88
479.876	455.88
480.095	456.88
480.313	457.88
480.532	489.88
480.751	447.88
480.969	456.88
481.188	501.88
481.406	496.88
481.624	492.88
481.843	442.88
482.061	432.88
482.28	428.88
482.498	465.88
482.717	420.88
482.935	460.88
483.153	459.88
483.372	433.88
483.59	461.88
483.808	430.88
484.027	442.88
484.245	453.88
484.463	448.88
484.681	446.88
484.9	455.88
485.118	453.88
485.336	450.88
485.554	454.88
485.772	464.88
485.99	462.88
486.209	441.88
486.427	444.88
486.645	461.88
486.863	475.88
487.081	484.88
487.299	478.88
487.517	490.88
487.735	467.88
487.953	469.88
488.171	489.88
488.389	469.88
488.607	486.88
488.825	462.88
489.043	492.88
489.261	479.88
489.479	469.88
489.696	480.88
489.914	492.88
490.132	501.88
490.35	526.88
490.568	509.88
490.786	487.88
491.003	524.88
491.221	541.88
491.439	552.88
491.657	550.88
491.874	524.88
492.092	571.88
492.31	538.88
492.527	558.88
492.745	576.88
492.963	568.88
493.18	555.88
493.398	574.88
493.615	573.88
493.833	584.88
494.05	566.88
494.268	570.88
494.485	567.88
494.703	575.88
494.92	574.88
495.138	557.88
495.355	560.88
495.573	575.88
495.79	580.88
496.008	571.88
496.225	573.88
496.442	572.88
496.66	564.88
496.877	543.88
497.094	564.88
497.312	574.88
497.529	576.88
497.746	583.88
497.963	582.88
498.181	594.88
498.398	585.88
498.615	609.88
498.832	636.88
499.049	605.88
499.267	652.88
499.484	644.88
499.701	694.88
499.918	666.88
500.135	745.88
500.352	730.88
500.569	764.88
500.786	770.88
501.003	749.88
501.22	726.88
501.437	693.88
501.654	708.88
501.871	678.88
