Data from 1971.PennyLincolnUp.Lamp.En5.5.200Scan.071719.P1.Scan 2. Changed Angle._HRD10591_15-24-04-842.txt Node
Date: Thu Jul 18 15:24:04 EDT 2019
User: cochatt
Spectrometer: HR+D1059
Trigger mode: 1
Integration Time (sec): 1.000000E-1
Scans to average: 1
Electric dark correction enabled: true
Nonlinearity correction enabled: false
Boxcar width: 0
XAxis mode: Wavelengths
Number of Pixels in Spectrum: 2048
>>>>>Begin Spectral Data<<<<<
223.165	-11.81
223.4	-11.81
223.635	-11.81
223.869	-3.81
224.104	-18.81
224.338	-16.81
224.573	-21.81
224.808	-20.81
225.042	-6.81
225.277	0.19
225.511	1.19
225.746	9.19
225.98	12.19
226.215	10.19
226.449	12.19
226.683	17.19
226.918	16.19
227.152	22.19
227.387	26.19
227.621	41.19
227.856	30.19
228.09	51.19
228.324	61.19
228.559	44.19
228.793	68.19
229.027	110.19
229.262	122.19
229.496	140.19
229.73	146.19
229.964	176.19
230.199	151.19
230.433	133.19
230.667	122.19
230.901	119.19
231.136	112.19
231.37	112.19
231.604	115.19
231.838	129.19
232.072	119.19
232.306	133.19
232.541	112.19
232.775	115.19
233.009	125.19
233.243	121.19
233.477	120.19
233.711	113.19
233.945	131.19
234.179	128.19
234.413	123.19
234.647	128.19
234.881	125.19
235.115	130.19
235.349	99.19
235.583	135.19
235.817	135.19
236.051	128.19
236.285	129.19
236.519	137.19
236.753	138.19
236.987	163.19
237.221	209.19
237.455	268.19
237.689	225.19
237.922	161.19
238.156	158.19
238.39	133.19
238.624	157.19
238.858	142.19
239.091	128.19
239.325	135.19
239.559	145.19
239.793	141.19
240.027	147.19
240.26	140.19
240.494	173.19
240.728	148.19
240.961	159.19
241.195	154.19
241.429	151.19
241.662	149.19
241.896	159.19
242.13	153.19
242.363	150.19
242.597	146.19
242.83	158.19
243.064	153.19
243.298	152.19
243.531	148.19
243.765	157.19
243.998	157.19
244.232	151.19
244.465	155.19
244.699	155.19
244.932	151.19
245.166	154.19
245.399	171.19
245.633	158.19
245.866	160.19
246.099	160.19
246.333	164.19
246.566	155.19
246.8	167.19
247.033	167.19
247.266	168.19
247.5	155.19
247.733	172.19
247.966	191.19
248.2	193.19
248.433	190.19
248.666	191.19
248.899	208.19
249.133	214.19
249.366	223.19
249.599	222.19
249.832	200.19
250.066	210.19
250.299	191.19
250.532	214.19
250.765	215.19
250.998	255.19
251.231	244.19
251.465	235.19
251.698	240.19
251.931	217.19
252.164	222.19
252.397	220.19
252.63	234.19
252.863	231.19
253.096	237.19
253.329	258.19
253.562	268.19
253.795	261.19
254.028	251.19
254.261	248.19
254.494	244.19
254.727	293.19
254.96	322.19
255.193	307.19
255.426	287.19
255.659	275.19
255.892	247.19
256.124	265.19
256.357	263.19
256.59	247.19
256.823	243.19
257.056	235.19
257.289	222.19
257.521	225.19
257.754	261.19
257.987	227.19
258.22	225.19
258.452	228.19
258.685	232.19
258.918	223.19
259.151	246.19
259.383	254.19
259.616	246.19
259.849	251.19
260.081	251.19
260.314	267.19
260.547	277.19
260.779	279.19
261.012	259.19
261.244	259.19
261.477	250.19
261.71	248.19
261.942	250.19
262.175	267.19
262.407	252.19
262.64	224.19
262.872	237.19
263.105	230.19
263.337	246.19
263.57	221.19
263.802	233.19
264.035	239.19
264.267	234.19
264.499	216.19
264.732	212.19
264.964	232.19
265.197	241.19
265.429	220.19
265.661	232.19
265.894	232.19
266.126	228.19
266.358	226.19
266.591	231.19
266.823	229.19
267.055	243.19
267.287	232.19
267.52	246.19
267.752	226.19
267.984	243.19
268.216	243.19
268.448	246.19
268.681	265.19
268.913	252.19
269.145	288.19
269.377	305.19
269.609	279.19
269.841	270.19
270.073	287.19
270.306	328.19
270.538	347.19
270.77	347.19
271.002	335.19
271.234	320.19
271.466	315.19
271.698	353.19
271.93	361.19
272.162	347.19
272.394	360.19
272.626	333.19
272.858	319.19
273.09	315.19
273.322	302.19
273.553	283.19
273.785	297.19
274.017	256.19
274.249	293.19
274.481	284.19
274.713	274.19
274.945	283.19
275.176	283.19
275.408	271.19
275.64	287.19
275.872	280.19
276.104	286.19
276.335	281.19
276.567	281.19
276.799	302.19
277.031	341.19
277.262	327.19
277.494	337.19
277.726	317.19
277.957	305.19
278.189	296.19
278.421	299.19
278.652	266.19
278.884	291.19
279.115	271.19
279.347	277.19
279.579	275.19
279.81	276.19
280.042	269.19
280.273	265.19
280.505	279.19
280.736	267.19
280.968	265.19
281.199	263.19
281.431	277.19
281.662	283.19
281.894	273.19
282.125	274.19
282.356	320.19
282.588	321.19
282.819	334.19
283.051	291.19
283.282	274.19
283.513	290.19
283.745	279.19
283.976	261.19
284.207	294.19
284.439	296.19
284.67	295.19
284.901	285.19
285.132	276.19
285.364	270.19
285.595	263.19
285.826	279.19
286.057	286.19
286.288	271.19
286.52	285.19
286.751	287.19
286.982	286.19
287.213	276.19
287.444	280.19
287.675	318.19
287.906	301.19
288.138	312.19
288.369	291.19
288.6	307.19
288.831	299.19
289.062	291.19
289.293	296.19
289.524	286.19
289.755	297.19
289.986	282.19
290.217	299.19
290.448	279.19
290.679	286.19
290.91	291.19
291.141	303.19
291.371	291.19
291.602	296.19
291.833	291.19
292.064	284.19
292.295	293.19
292.526	291.19
292.757	270.19
292.987	277.19
293.218	274.19
293.449	285.19
293.68	294.19
293.91	268.19
294.141	273.19
294.372	285.19
294.603	293.19
294.833	302.19
295.064	291.19
295.295	283.19
295.525	277.19
295.756	295.19
295.987	303.19
296.217	328.19
296.448	346.19
296.679	324.19
296.909	285.19
297.14	293.19
297.37	320.19
297.601	288.19
297.831	284.19
298.062	302.19
298.292	292.19
298.523	310.19
298.753	305.19
298.984	315.19
299.214	294.19
299.445	315.19
299.675	312.19
299.905	331.19
300.136	315.19
300.366	320.19
300.597	303.19
300.827	310.19
301.057	333.19
301.288	324.19
301.518	346.19
301.748	335.19
301.979	316.19
302.209	305.19
302.439	332.19
302.669	347.19
302.9	311.19
303.13	318.19
303.36	329.19
303.59	317.19
303.82	355.19
304.051	343.19
304.281	341.19
304.511	319.19
304.741	329.19
304.971	316.19
305.201	320.19
305.431	312.19
305.661	328.19
305.891	348.19
306.121	327.19
306.352	323.19
306.582	337.19
306.812	349.19
307.042	325.19
307.272	337.19
307.502	342.19
307.731	323.19
307.961	339.19
308.191	341.19
308.421	327.19
308.651	342.19
308.881	343.19
309.111	322.19
309.341	360.19
309.571	370.19
309.8	387.19
310.03	388.19
310.26	396.19
310.49	399.19
310.72	405.19
310.949	433.19
311.179	409.19
311.409	391.19
311.639	385.19
311.868	387.19
312.098	385.19
312.328	417.19
312.557	441.19
312.787	421.19
313.017	449.19
313.246	407.19
313.476	401.19
313.706	399.19
313.935	405.19
314.165	427.19
314.394	422.19
314.624	407.19
314.853	411.19
315.083	382.19
315.312	391.19
315.542	382.19
315.771	407.19
316.001	391.19
316.23	385.19
316.46	397.19
316.689	383.19
316.919	393.19
317.148	419.19
317.377	413.19
317.607	415.19
317.836	397.19
318.065	383.19
318.295	394.19
318.524	397.19
318.753	380.19
318.983	381.19
319.212	407.19
319.441	397.19
319.67	432.19
319.9	404.19
320.129	397.19
320.358	387.19
320.587	413.19
320.816	412.19
321.046	432.19
321.275	438.19
321.504	433.19
321.733	441.19
321.962	421.19
322.191	462.19
322.42	472.19
322.649	496.19
322.878	504.19
323.108	500.19
323.337	540.19
323.566	588.19
323.795	612.19
324.024	684.19
324.253	858.19
324.482	1267.19
324.71	1973.19
324.939	2837.19
325.168	2397.19
325.397	1234.19
325.626	804.19
325.855	661.19
326.084	611.19
326.313	591.19
326.542	591.19
326.77	658.19
326.999	785.19
327.228	1111.19
327.457	1723.19
327.686	2084.19
327.914	1391.19
328.143	887.19
328.372	732.19
328.6	719.19
328.829	661.19
329.058	677.19
329.287	688.19
329.515	630.19
329.744	571.19
329.972	585.19
330.201	604.19
330.43	653.19
330.658	712.19
330.887	720.19
331.115	720.19
331.344	615.19
331.572	539.19
331.801	543.19
332.03	542.19
332.258	521.19
332.486	531.19
332.715	495.19
332.943	500.19
333.172	498.19
333.4	474.19
333.629	507.19
333.857	524.19
334.085	527.19
334.314	538.19
334.542	577.19
334.771	571.19
334.999	525.19
335.227	499.19
335.455	490.19
335.684	451.19
335.912	464.19
336.14	443.19
336.369	460.19
336.597	473.19
336.825	477.19
337.053	463.19
337.281	465.19
337.51	479.19
337.738	449.19
337.966	468.19
338.194	455.19
338.422	468.19
338.65	450.19
338.878	433.19
339.106	449.19
339.334	443.19
339.562	441.19
339.79	421.19
340.018	436.19
340.246	465.19
340.474	449.19
340.702	448.19
340.93	438.19
341.158	465.19
341.386	448.19
341.614	460.19
341.842	457.19
342.07	451.19
342.298	444.19
342.526	450.19
342.754	413.19
342.981	443.19
343.209	433.19
343.437	443.19
343.665	411.19
343.893	426.19
344.12	435.19
344.348	438.19
344.576	469.19
344.804	448.19
345.031	477.19
345.259	511.19
345.487	475.19
345.714	458.19
345.942	449.19
346.17	463.19
346.397	432.19
346.625	439.19
346.853	441.19
347.08	448.19
347.308	437.19
347.535	490.19
347.763	458.19
347.99	472.19
348.218	460.19
348.445	461.19
348.673	454.19
348.9	455.19
349.128	441.19
349.355	434.19
349.583	422.19
349.81	443.19
350.037	429.19
350.265	421.19
350.492	427.19
350.72	428.19
350.947	438.19
351.174	475.19
351.402	484.19
351.629	447.19
351.856	445.19
352.083	471.19
352.311	477.19
352.538	456.19
352.765	478.19
352.992	484.19
353.22	480.19
353.447	447.19
353.674	426.19
353.901	433.19
354.128	406.19
354.355	406.19
354.583	408.19
354.81	405.19
355.037	423.19
355.264	403.19
355.491	396.19
355.718	396.19
355.945	391.19
356.172	391.19
356.399	407.19
356.626	408.19
356.853	418.19
357.08	405.19
357.307	413.19
357.534	405.19
357.761	400.19
357.988	416.19
358.215	423.19
358.441	431.19
358.668	425.19
358.895	416.19
359.122	437.19
359.349	419.19
359.576	445.19
359.802	479.19
360.029	513.19
360.256	558.19
360.483	531.19
360.709	476.19
360.936	472.19
361.163	451.19
361.39	475.19
361.616	463.19
361.843	456.19
362.07	449.19
362.296	467.19
362.523	452.19
362.749	456.19
362.976	459.19
363.203	419.19
363.429	437.19
363.656	428.19
363.882	435.19
364.109	435.19
364.335	404.19
364.562	421.19
364.788	439.19
365.015	447.19
365.241	426.19
365.468	435.19
365.694	443.19
365.92	458.19
366.147	435.19
366.373	420.19
366.599	425.19
366.826	424.19
367.052	398.19
367.278	408.19
367.505	422.19
367.731	437.19
367.957	450.19
368.184	424.19
368.41	447.19
368.636	435.19
368.862	455.19
369.089	445.19
369.315	433.19
369.541	423.19
369.767	439.19
369.993	428.19
370.219	428.19
370.445	420.19
370.672	439.19
370.898	403.19
371.124	422.19
371.35	422.19
371.576	425.19
371.802	408.19
372.028	428.19
372.254	416.19
372.48	407.19
372.706	434.19
372.932	434.19
373.158	419.19
373.384	423.19
373.61	441.19
373.835	437.19
374.061	420.19
374.287	443.19
374.513	425.19
374.739	409.19
374.965	423.19
375.191	439.19
375.416	438.19
375.642	431.19
375.868	425.19
376.094	421.19
376.319	422.19
376.545	439.19
376.771	421.19
376.997	412.19
377.222	419.19
377.448	415.19
377.674	419.19
377.899	405.19
378.125	405.19
378.35	436.19
378.576	416.19
378.802	417.19
379.027	413.19
379.253	419.19
379.478	400.19
379.704	428.19
379.929	407.19
380.155	441.19
380.38	433.19
380.606	435.19
380.831	438.19
381.057	419.19
381.282	420.19
381.507	397.19
381.733	431.19
381.958	416.19
382.184	450.19
382.409	441.19
382.634	441.19
382.86	416.19
383.085	430.19
383.31	428.19
383.535	441.19
383.761	443.19
383.986	449.19
384.211	449.19
384.436	447.19
384.662	448.19
384.887	457.19
385.112	448.19
385.337	435.19
385.562	432.19
385.787	453.19
386.013	460.19
386.238	453.19
386.463	467.19
386.688	471.19
386.913	466.19
387.138	457.19
387.363	424.19
387.588	461.19
387.813	459.19
388.038	448.19
388.263	447.19
388.488	460.19
388.713	448.19
388.938	455.19
389.163	481.19
389.387	443.19
389.612	452.19
389.837	471.19
390.062	456.19
390.287	456.19
390.512	454.19
390.736	444.19
390.961	472.19
391.186	457.19
391.411	447.19
391.636	459.19
391.86	461.19
392.085	475.19
392.31	453.19
392.534	451.19
392.759	469.19
392.984	475.19
393.208	456.19
393.433	480.19
393.658	491.19
393.882	467.19
394.107	476.19
394.331	461.19
394.556	439.19
394.78	457.19
395.005	456.19
395.229	465.19
395.454	477.19
395.678	464.19
395.903	487.19
396.127	508.19
396.352	517.19
396.576	507.19
396.801	490.19
397.025	493.19
397.249	500.19
397.474	492.19
397.698	488.19
397.922	517.19
398.147	529.19
398.371	514.19
398.595	522.19
398.82	505.19
399.044	511.19
399.268	536.19
399.492	524.19
399.717	588.19
399.941	620.19
400.165	641.19
400.389	649.19
400.613	594.19
400.837	539.19
401.062	537.19
401.286	547.19
401.51	506.19
401.734	533.19
401.958	517.19
402.182	533.19
402.406	544.19
402.63	507.19
402.854	533.19
403.078	551.19
403.302	548.19
403.526	545.19
403.75	539.19
403.974	551.19
404.198	519.19
404.422	553.19
404.645	562.19
404.869	539.19
405.093	592.19
405.317	618.19
405.541	645.19
405.765	605.19
405.988	600.19
406.212	616.19
406.436	633.19
406.66	651.19
406.883	606.19
407.107	631.19
407.331	683.19
407.555	751.19
407.778	743.19
408.002	689.19
408.226	631.19
408.449	635.19
408.673	629.19
408.896	642.19
409.12	700.19
409.344	650.19
409.567	581.19
409.791	572.19
410.014	576.19
410.238	544.19
410.461	570.19
410.685	575.19
410.908	590.19
411.132	640.19
411.355	665.19
411.578	632.19
411.802	574.19
412.025	557.19
412.249	570.19
412.472	604.19
412.695	627.19
412.919	607.19
413.142	591.19
413.365	571.19
413.589	543.19
413.812	539.19
414.035	519.19
414.258	528.19
414.482	521.19
414.705	521.19
414.928	506.19
415.151	530.19
415.374	524.19
415.597	549.19
415.821	537.19
416.044	532.19
416.267	519.19
416.49	547.19
416.713	549.19
416.936	513.19
417.159	529.19
417.382	528.19
417.605	540.19
417.828	557.19
418.051	573.19
418.274	547.19
418.497	551.19
418.72	549.19
418.943	531.19
419.166	587.19
419.389	553.19
419.611	557.19
419.834	552.19
420.057	566.19
420.28	575.19
420.503	562.19
420.726	555.19
420.948	573.19
421.171	639.19
421.394	651.19
421.617	585.19
421.839	592.19
422.062	584.19
422.285	601.19
422.507	663.19
422.73	730.19
422.953	696.19
423.175	639.19
423.398	590.19
423.621	597.19
423.843	615.19
424.066	639.19
424.288	612.19
424.511	639.19
424.733	695.19
424.956	787.19
425.178	747.19
425.401	758.19
425.623	809.19
425.846	658.19
426.068	619.19
426.291	641.19
426.513	621.19
426.735	656.19
426.958	707.19
427.18	808.19
427.402	895.19
427.625	1045.19
427.847	943.19
428.069	811.19
428.292	707.19
428.514	644.19
428.736	592.19
428.958	611.19
429.181	567.19
429.403	604.19
429.625	609.19
429.847	650.19
430.069	707.19
430.292	711.19
430.514	619.19
430.736	585.19
430.958	571.19
431.18	555.19
431.402	558.19
431.624	535.19
431.846	522.19
432.068	544.19
432.29	548.19
432.512	551.19
432.734	569.19
432.956	579.19
433.178	582.19
433.4	582.19
433.622	567.19
433.844	543.19
434.066	532.19
434.287	544.19
434.509	565.19
434.731	553.19
434.953	564.19
435.175	576.19
435.397	613.19
435.618	625.19
435.84	688.19
436.062	816.19
436.284	862.19
436.505	747.19
436.727	671.19
436.949	616.19
437.17	590.19
437.392	594.19
437.614	631.19
437.835	680.19
438.057	802.19
438.278	916.19
438.5	887.19
438.721	969.19
438.943	921.19
439.165	745.19
439.386	675.19
439.608	671.19
439.829	674.19
440.05	716.19
440.272	753.19
440.493	701.19
440.715	631.19
440.936	622.19
441.158	592.19
441.379	595.19
441.6	589.19
441.822	633.19
442.043	677.19
442.264	784.19
442.486	827.19
442.707	727.19
442.928	650.19
443.149	664.19
443.371	718.19
443.592	756.19
443.813	822.19
444.034	923.19
444.255	750.19
444.476	657.19
444.698	634.19
444.919	637.19
445.14	731.19
445.361	725.19
445.582	699.19
445.803	784.19
446.024	909.19
446.245	903.19
446.466	829.19
446.687	708.19
446.908	663.19
447.129	638.19
447.35	583.19
447.571	597.19
447.792	573.19
448.013	607.19
448.234	627.19
448.455	719.19
448.675	811.19
448.896	939.19
449.117	825.19
449.338	739.19
449.559	891.19
449.779	973.19
450	788.19
450.221	682.19
450.442	622.19
450.662	603.19
450.883	620.19
451.104	632.19
451.324	629.19
451.545	571.19
451.766	553.19
451.986	535.19
452.207	548.19
452.428	554.19
452.648	546.19
452.869	531.19
453.089	542.19
453.31	564.19
453.53	548.19
453.751	523.19
453.971	573.19
454.192	576.19
454.412	548.19
454.633	540.19
454.853	544.19
455.073	525.19
455.294	581.19
455.514	636.19
455.734	633.19
455.955	557.19
456.175	521.19
456.395	515.19
456.616	482.19
456.836	497.19
457.056	484.19
457.276	493.19
457.497	497.19
457.717	484.19
457.937	491.19
458.157	496.19
458.377	508.19
458.598	521.19
458.818	629.19
459.038	740.19
459.258	744.19
459.478	628.19
459.698	559.19
459.918	547.19
460.138	529.19
460.358	526.19
460.578	564.19
460.798	530.19
461.018	548.19
461.238	545.19
461.458	527.19
461.678	546.19
461.898	535.19
462.118	512.19
462.338	537.19
462.558	563.19
462.777	563.19
462.997	555.19
463.217	559.19
463.437	556.19
463.657	549.19
463.876	571.19
464.096	567.19
464.316	585.19
464.536	556.19
464.755	579.19
464.975	592.19
465.195	674.19
465.414	759.19
465.634	679.19
465.854	627.19
466.073	593.19
466.293	580.19
466.512	553.19
466.732	529.19
466.951	524.19
467.171	536.19
467.391	525.19
467.61	554.19
467.829	578.19
468.049	578.19
468.268	563.19
468.488	535.19
468.707	532.19
468.927	533.19
469.146	513.19
469.365	527.19
469.585	513.19
469.804	557.19
470.023	555.19
470.243	574.19
470.462	586.19
470.681	576.19
470.901	583.19
471.12	559.19
471.339	576.19
471.558	567.19
471.777	548.19
471.997	542.19
472.216	574.19
472.435	611.19
472.654	580.19
472.873	562.19
473.092	558.19
473.311	538.19
473.53	544.19
473.749	561.19
473.968	615.19
474.187	750.19
474.406	755.19
474.625	624.19
474.844	562.19
475.063	547.19
475.282	548.19
475.501	558.19
475.72	575.19
475.939	558.19
476.158	587.19
476.377	598.19
476.596	569.19
476.814	576.19
477.033	588.19
477.252	593.19
477.471	605.19
477.69	594.19
477.908	580.19
478.127	588.19
478.346	587.19
478.564	600.19
478.783	594.19
479.002	627.19
479.22	608.19
479.439	620.19
479.658	655.19
479.876	671.19
480.095	654.19
480.313	684.19
480.532	683.19
480.751	662.19
480.969	689.19
481.188	752.19
481.406	805.19
481.624	730.19
481.843	695.19
482.061	667.19
482.28	655.19
482.498	631.19
482.717	648.19
482.935	647.19
483.153	662.19
483.372	661.19
483.59	662.19
483.808	637.19
484.027	663.19
484.245	641.19
484.463	661.19
484.681	671.19
484.9	656.19
485.118	692.19
485.336	657.19
485.554	659.19
485.772	683.19
485.99	672.19
486.209	687.19
486.427	706.19
486.645	699.19
486.863	723.19
487.081	702.19
487.299	712.19
487.517	709.19
487.735	710.19
487.953	714.19
488.171	703.19
488.389	702.19
488.607	704.19
488.825	717.19
489.043	705.19
489.261	723.19
489.479	736.19
489.696	724.19
489.914	720.19
490.132	734.19
490.35	758.19
490.568	734.19
490.786	779.19
491.003	767.19
491.221	768.19
491.439	800.19
491.657	803.19
491.874	832.19
492.092	815.19
492.31	866.19
492.527	857.19
492.745	855.19
492.963	854.19
493.18	850.19
493.398	849.19
493.615	891.19
493.833	838.19
494.05	838.19
494.268	859.19
494.485	865.19
494.703	857.19
494.92	851.19
495.138	855.19
495.355	879.19
495.573	857.19
495.79	873.19
496.008	861.19
496.225	857.19
496.442	853.19
496.66	853.19
496.877	868.19
497.094	868.19
497.312	887.19
497.529	849.19
497.746	897.19
497.963	873.19
498.181	922.19
498.398	919.19
498.615	903.19
498.832	947.19
499.049	926.19
499.267	960.19
499.484	944.19
499.701	972.19
499.918	981.19
500.135	1020.19
500.352	1045.19
500.569	1064.19
500.786	1041.19
501.003	1112.19
501.22	1061.19
501.437	1045.19
