Data from 1971.PennyLincolnUp.Lamp.En5.5.200Scan.071719.P1.Scan 2. Changed Angle._HRD10591_15-23-09-841.txt Node
Date: Thu Jul 18 15:23:09 EDT 2019
User: cochatt
Spectrometer: HR+D1059
Trigger mode: 1
Integration Time (sec): 1.000000E-1
Scans to average: 1
Electric dark correction enabled: true
Nonlinearity correction enabled: false
Boxcar width: 0
XAxis mode: Wavelengths
Number of Pixels in Spectrum: 2048
>>>>>Begin Spectral Data<<<<<
223.165	-27.25
223.4	-27.25
223.635	-27.25
223.869	-16.25
224.104	-0.25
224.338	-21.25
224.573	-23.25
224.808	-31.25
225.042	-10.25
225.277	-8.25
225.511	4.75
225.746	14.75
225.98	1.75
226.215	14.75
226.449	9.75
226.683	20.75
226.918	36.75
227.152	34.75
227.387	23.75
227.621	44.75
227.856	28.75
228.09	47.75
228.324	45.75
228.559	56.75
228.793	60.75
229.027	111.75
229.262	125.75
229.496	119.75
229.73	135.75
229.964	169.75
230.199	130.75
230.433	122.75
230.667	115.75
230.901	112.75
231.136	122.75
231.37	126.75
231.604	100.75
231.838	122.75
232.072	106.75
232.306	121.75
232.541	112.75
232.775	115.75
233.009	118.75
233.243	122.75
233.477	126.75
233.711	110.75
233.945	120.75
234.179	107.75
234.413	117.75
234.647	103.75
234.881	127.75
235.115	108.75
235.349	125.75
235.583	101.75
235.817	122.75
236.051	134.75
236.285	125.75
236.519	127.75
236.753	137.75
236.987	169.75
237.221	202.75
237.455	247.75
237.689	205.75
237.922	149.75
238.156	124.75
238.39	126.75
238.624	122.75
238.858	121.75
239.091	113.75
239.325	124.75
239.559	125.75
239.793	126.75
240.027	146.75
240.26	150.75
240.494	131.75
240.728	153.75
240.961	156.75
241.195	165.75
241.429	132.75
241.662	126.75
241.896	146.75
242.13	129.75
242.363	133.75
242.597	125.75
242.83	142.75
243.064	140.75
243.298	145.75
243.531	139.75
243.765	152.75
243.998	141.75
244.232	136.75
244.465	146.75
244.699	154.75
244.932	142.75
245.166	141.75
245.399	129.75
245.633	143.75
245.866	147.75
246.099	135.75
246.333	163.75
246.566	147.75
246.8	152.75
247.033	168.75
247.266	161.75
247.5	164.75
247.733	157.75
247.966	181.75
248.2	158.75
248.433	164.75
248.666	186.75
248.899	189.75
249.133	204.75
249.366	220.75
249.599	199.75
249.832	197.75
250.066	193.75
250.299	182.75
250.532	203.75
250.765	201.75
250.998	228.75
251.231	236.75
251.465	212.75
251.698	206.75
251.931	202.75
252.164	207.75
252.397	209.75
252.63	203.75
252.863	219.75
253.096	221.75
253.329	237.75
253.562	235.75
253.795	230.75
254.028	219.75
254.261	222.75
254.494	230.75
254.727	262.75
254.96	308.75
255.193	289.75
255.426	269.75
255.659	247.75
255.892	220.75
256.124	232.75
256.357	260.75
256.59	235.75
256.823	222.75
257.056	204.75
257.289	216.75
257.521	215.75
257.754	211.75
257.987	214.75
258.22	210.75
258.452	210.75
258.685	208.75
258.918	222.75
259.151	192.75
259.383	239.75
259.616	202.75
259.849	242.75
260.081	230.75
260.314	251.75
260.547	271.75
260.779	237.75
261.012	228.75
261.244	229.75
261.477	227.75
261.71	227.75
261.942	230.75
262.175	247.75
262.407	233.75
262.64	217.75
262.872	205.75
263.105	204.75
263.337	211.75
263.57	191.75
263.802	205.75
264.035	211.75
264.267	196.75
264.499	210.75
264.732	215.75
264.964	206.75
265.197	217.75
265.429	227.75
265.661	205.75
265.894	212.75
266.126	211.75
266.358	206.75
266.591	222.75
266.823	218.75
267.055	221.75
267.287	234.75
267.52	216.75
267.752	214.75
267.984	224.75
268.216	205.75
268.448	214.75
268.681	236.75
268.913	241.75
269.145	251.75
269.377	279.75
269.609	274.75
269.841	260.75
270.073	263.75
270.306	278.75
270.538	299.75
270.77	284.75
271.002	285.75
271.234	269.75
271.466	296.75
271.698	284.75
271.93	318.75
272.162	305.75
272.394	304.75
272.626	297.75
272.858	295.75
273.09	279.75
273.322	284.75
273.553	255.75
273.785	260.75
274.017	252.75
274.249	253.75
274.481	271.75
274.713	266.75
274.945	254.75
275.176	240.75
275.408	257.75
275.64	236.75
275.872	257.75
276.104	256.75
276.335	266.75
276.567	256.75
276.799	282.75
277.031	308.75
277.262	296.75
277.494	296.75
277.726	295.75
277.957	275.75
278.189	263.75
278.421	269.75
278.652	274.75
278.884	252.75
279.115	277.75
279.347	268.75
279.579	243.75
279.81	268.75
280.042	249.75
280.273	235.75
280.505	238.75
280.736	259.75
280.968	265.75
281.199	239.75
281.431	259.75
281.662	236.75
281.894	228.75
282.125	250.75
282.356	274.75
282.588	285.75
282.819	286.75
283.051	259.75
283.282	238.75
283.513	254.75
283.745	262.75
283.976	256.75
284.207	271.75
284.439	249.75
284.67	273.75
284.901	246.75
285.132	246.75
285.364	246.75
285.595	249.75
285.826	259.75
286.057	248.75
286.288	261.75
286.52	250.75
286.751	254.75
286.982	257.75
287.213	255.75
287.444	246.75
287.675	259.75
287.906	274.75
288.138	271.75
288.369	275.75
288.6	271.75
288.831	252.75
289.062	261.75
289.293	275.75
289.524	269.75
289.755	259.75
289.986	255.75
290.217	267.75
290.448	258.75
290.679	261.75
290.91	277.75
291.141	278.75
291.371	259.75
291.602	259.75
291.833	263.75
292.064	261.75
292.295	259.75
292.526	250.75
292.757	281.75
292.987	259.75
293.218	280.75
293.449	259.75
293.68	272.75
293.91	249.75
294.141	263.75
294.372	250.75
294.603	267.75
294.833	272.75
295.064	272.75
295.295	275.75
295.525	261.75
295.756	272.75
295.987	281.75
296.217	301.75
296.448	290.75
296.679	297.75
296.909	268.75
297.14	266.75
297.37	288.75
297.601	273.75
297.831	280.75
298.062	266.75
298.292	257.75
298.523	255.75
298.753	267.75
298.984	280.75
299.214	279.75
299.445	291.75
299.675	283.75
299.905	278.75
300.136	294.75
300.366	278.75
300.597	272.75
300.827	271.75
301.057	275.75
301.288	302.75
301.518	332.75
301.748	293.75
301.979	286.75
302.209	284.75
302.439	290.75
302.669	302.75
302.9	298.75
303.13	292.75
303.36	298.75
303.59	298.75
303.82	321.75
304.051	293.75
304.281	294.75
304.511	296.75
304.741	293.75
304.971	285.75
305.201	284.75
305.431	297.75
305.661	280.75
305.891	274.75
306.121	301.75
306.352	307.75
306.582	317.75
306.812	291.75
307.042	309.75
307.272	310.75
307.502	281.75
307.731	296.75
307.961	305.75
308.191	303.75
308.421	299.75
308.651	308.75
308.881	289.75
309.111	330.75
309.341	328.75
309.571	318.75
309.8	330.75
310.03	344.75
310.26	371.75
310.49	347.75
310.72	371.75
310.949	377.75
311.179	386.75
311.409	354.75
311.639	338.75
311.868	360.75
312.098	350.75
312.328	378.75
312.557	371.75
312.787	413.75
313.017	395.75
313.246	368.75
313.476	362.75
313.706	346.75
313.935	362.75
314.165	364.75
314.394	392.75
314.624	373.75
314.853	367.75
315.083	368.75
315.312	355.75
315.542	346.75
315.771	358.75
316.001	350.75
316.23	348.75
316.46	344.75
316.689	343.75
316.919	348.75
317.148	378.75
317.377	366.75
317.607	360.75
317.836	366.75
318.065	343.75
318.295	385.75
318.524	326.75
318.753	348.75
318.983	361.75
319.212	334.75
319.441	341.75
319.67	363.75
319.9	378.75
320.129	346.75
320.358	365.75
320.587	345.75
320.816	382.75
321.046	389.75
321.275	377.75
321.504	381.75
321.733	380.75
321.962	385.75
322.191	399.75
322.42	404.75
322.649	422.75
322.878	456.75
323.108	452.75
323.337	468.75
323.566	523.75
323.795	533.75
324.024	580.75
324.253	729.75
324.482	1021.75
324.71	1621.75
324.939	2303.75
325.168	2019.75
325.397	1079.75
325.626	697.75
325.855	582.75
326.084	521.75
326.313	494.75
326.542	519.75
326.77	558.75
326.999	665.75
327.228	921.75
327.457	1455.75
327.686	1779.75
327.914	1194.75
328.143	772.75
328.372	659.75
328.6	612.75
328.829	585.75
329.058	565.75
329.287	613.75
329.515	558.75
329.744	528.75
329.972	490.75
330.201	526.75
330.43	553.75
330.658	586.75
330.887	629.75
331.115	613.75
331.344	531.75
331.572	476.75
331.801	478.75
332.03	485.75
332.258	460.75
332.486	412.75
332.715	418.75
332.943	423.75
333.172	413.75
333.4	437.75
333.629	427.75
333.857	443.75
334.085	457.75
334.314	466.75
334.542	485.75
334.771	518.75
334.999	475.75
335.227	430.75
335.455	421.75
335.684	423.75
335.912	431.75
336.14	405.75
336.369	407.75
336.597	415.75
336.825	421.75
337.053	414.75
337.281	398.75
337.51	406.75
337.738	417.75
337.966	405.75
338.194	406.75
338.422	396.75
338.65	406.75
338.878	409.75
339.106	389.75
339.334	397.75
339.562	366.75
339.79	385.75
340.018	409.75
340.246	412.75
340.474	405.75
340.702	404.75
340.93	411.75
341.158	407.75
341.386	392.75
341.614	421.75
341.842	425.75
342.07	378.75
342.298	400.75
342.526	414.75
342.754	381.75
342.981	392.75
343.209	379.75
343.437	375.75
343.665	382.75
343.893	390.75
344.12	400.75
344.348	403.75
344.576	399.75
344.804	423.75
345.031	429.75
345.259	420.75
345.487	414.75
345.714	417.75
345.942	395.75
346.17	373.75
346.397	410.75
346.625	403.75
346.853	392.75
347.08	407.75
347.308	423.75
347.535	426.75
347.763	423.75
347.99	433.75
348.218	414.75
348.445	423.75
348.673	423.75
348.9	402.75
349.128	388.75
349.355	389.75
349.583	390.75
349.81	387.75
350.037	374.75
350.265	379.75
350.492	360.75
350.72	366.75
350.947	408.75
351.174	422.75
351.402	392.75
351.629	403.75
351.856	407.75
352.083	442.75
352.311	420.75
352.538	426.75
352.765	419.75
352.992	424.75
353.22	416.75
353.447	394.75
353.674	378.75
353.901	388.75
354.128	380.75
354.355	370.75
354.583	373.75
354.81	360.75
355.037	381.75
355.264	357.75
355.491	363.75
355.718	375.75
355.945	387.75
356.172	382.75
356.399	364.75
356.626	389.75
356.853	361.75
357.08	359.75
357.307	369.75
357.534	359.75
357.761	367.75
357.988	389.75
358.215	364.75
358.441	367.75
358.668	380.75
358.895	377.75
359.122	385.75
359.349	392.75
359.576	423.75
359.802	442.75
360.029	455.75
360.256	471.75
360.483	448.75
360.709	417.75
360.936	412.75
361.163	417.75
361.39	417.75
361.616	435.75
361.843	423.75
362.07	418.75
362.296	408.75
362.523	413.75
362.749	402.75
362.976	414.75
363.203	395.75
363.429	371.75
363.656	399.75
363.882	387.75
364.109	406.75
364.335	400.75
364.562	387.75
364.788	397.75
365.015	387.75
365.241	420.75
365.468	388.75
365.694	399.75
365.92	411.75
366.147	385.75
366.373	391.75
366.599	377.75
366.826	381.75
367.052	392.75
367.278	370.75
367.505	373.75
367.731	402.75
367.957	393.75
368.184	387.75
368.41	404.75
368.636	411.75
368.862	403.75
369.089	410.75
369.315	383.75
369.541	389.75
369.767	395.75
369.993	405.75
370.219	382.75
370.445	418.75
370.672	385.75
370.898	373.75
371.124	373.75
371.35	386.75
371.576	373.75
371.802	385.75
372.028	387.75
372.254	392.75
372.48	395.75
372.706	383.75
372.932	378.75
373.158	395.75
373.384	385.75
373.61	378.75
373.835	387.75
374.061	388.75
374.287	401.75
374.513	403.75
374.739	397.75
374.965	389.75
375.191	391.75
375.416	379.75
375.642	389.75
375.868	395.75
376.094	412.75
376.319	400.75
376.545	416.75
376.771	390.75
376.997	399.75
377.222	375.75
377.448	383.75
377.674	400.75
377.899	390.75
378.125	389.75
378.35	389.75
378.576	382.75
378.802	378.75
379.027	375.75
379.253	383.75
379.478	383.75
379.704	372.75
379.929	385.75
380.155	381.75
380.38	396.75
380.606	392.75
380.831	388.75
381.057	394.75
381.282	398.75
381.507	404.75
381.733	412.75
381.958	393.75
382.184	398.75
382.409	400.75
382.634	398.75
382.86	386.75
383.085	400.75
383.31	399.75
383.535	403.75
383.761	395.75
383.986	402.75
384.211	396.75
384.436	418.75
384.662	410.75
384.887	422.75
385.112	403.75
385.337	394.75
385.562	408.75
385.787	423.75
386.013	437.75
386.238	416.75
386.463	433.75
386.688	411.75
386.913	400.75
387.138	413.75
387.363	407.75
387.588	404.75
387.813	414.75
388.038	397.75
388.263	395.75
388.488	403.75
388.713	406.75
388.938	404.75
389.163	410.75
389.387	413.75
389.612	410.75
389.837	421.75
390.062	439.75
390.287	442.75
390.512	430.75
390.736	417.75
390.961	428.75
391.186	403.75
391.411	407.75
391.636	397.75
391.86	427.75
392.085	420.75
392.31	419.75
392.534	419.75
392.759	411.75
392.984	412.75
393.208	421.75
393.433	455.75
393.658	447.75
393.882	417.75
394.107	427.75
394.331	405.75
394.556	425.75
394.78	426.75
395.005	444.75
395.229	424.75
395.454	433.75
395.678	450.75
395.903	448.75
396.127	453.75
396.352	486.75
396.576	438.75
396.801	430.75
397.025	449.75
397.249	447.75
397.474	434.75
397.698	451.75
397.922	449.75
398.147	468.75
398.371	467.75
398.595	467.75
398.82	463.75
399.044	460.75
399.268	493.75
399.492	491.75
399.717	530.75
399.941	553.75
400.165	568.75
400.389	575.75
400.613	564.75
400.837	485.75
401.062	485.75
401.286	487.75
401.51	494.75
401.734	495.75
401.958	486.75
402.182	492.75
402.406	476.75
402.63	519.75
402.854	488.75
403.078	468.75
403.302	492.75
403.526	492.75
403.75	505.75
403.974	490.75
404.198	487.75
404.422	520.75
404.645	494.75
404.869	525.75
405.093	526.75
405.317	573.75
405.541	604.75
405.765	562.75
405.988	543.75
406.212	542.75
406.436	584.75
406.66	584.75
406.883	561.75
407.107	574.75
407.331	600.75
407.555	665.75
407.778	666.75
408.002	611.75
408.226	569.75
408.449	561.75
408.673	557.75
408.896	604.75
409.12	628.75
409.344	582.75
409.567	531.75
409.791	527.75
410.014	504.75
410.238	494.75
410.461	508.75
410.685	545.75
410.908	541.75
411.132	569.75
411.355	588.75
411.578	575.75
411.802	524.75
412.025	537.75
412.249	526.75
412.472	533.75
412.695	581.75
412.919	565.75
413.142	531.75
413.365	518.75
413.589	518.75
413.812	484.75
414.035	477.75
414.258	493.75
414.482	486.75
414.705	456.75
414.928	467.75
415.151	470.75
415.374	503.75
415.597	475.75
415.821	479.75
416.044	469.75
416.267	489.75
416.49	478.75
416.713	487.75
416.936	489.75
417.159	481.75
417.382	468.75
417.605	485.75
417.828	533.75
418.051	522.75
418.274	501.75
418.497	494.75
418.72	473.75
418.943	492.75
419.166	502.75
419.389	521.75
419.611	523.75
419.834	527.75
420.057	530.75
420.28	508.75
420.503	523.75
420.726	533.75
420.948	514.75
421.171	579.75
421.394	597.75
421.617	534.75
421.839	522.75
422.062	503.75
422.285	543.75
422.507	604.75
422.73	692.75
422.953	651.75
423.175	572.75
423.398	524.75
423.621	541.75
423.843	580.75
424.066	565.75
424.288	553.75
424.511	591.75
424.733	632.75
424.956	708.75
425.178	691.75
425.401	701.75
425.623	721.75
425.846	626.75
426.068	581.75
426.291	582.75
426.513	591.75
426.735	588.75
426.958	621.75
427.18	696.75
427.402	829.75
427.625	957.75
427.847	821.75
428.069	723.75
428.292	666.75
428.514	599.75
428.736	551.75
428.958	552.75
429.181	559.75
429.403	550.75
429.625	562.75
429.847	582.75
430.069	647.75
430.292	643.75
430.514	552.75
430.736	536.75
430.958	542.75
431.18	511.75
431.402	507.75
431.624	488.75
431.846	488.75
432.068	498.75
432.29	525.75
432.512	495.75
432.734	507.75
432.956	520.75
433.178	520.75
433.4	539.75
433.622	510.75
433.844	515.75
434.066	511.75
434.287	508.75
434.509	512.75
434.731	518.75
434.953	514.75
435.175	526.75
435.397	569.75
435.618	571.75
435.84	626.75
436.062	729.75
436.284	789.75
436.505	665.75
436.727	582.75
436.949	554.75
437.17	567.75
437.392	537.75
437.614	557.75
437.835	583.75
438.057	702.75
438.278	775.75
438.5	813.75
438.721	858.75
438.943	826.75
439.165	690.75
439.386	599.75
439.608	606.75
439.829	586.75
440.05	618.75
440.272	673.75
440.493	634.75
440.715	568.75
440.936	554.75
441.158	543.75
441.379	534.75
441.6	555.75
441.822	588.75
442.043	605.75
442.264	714.75
442.486	747.75
442.707	650.75
442.928	605.75
443.149	581.75
443.371	597.75
443.592	678.75
443.813	773.75
444.034	821.75
444.255	700.75
444.476	600.75
444.698	581.75
444.919	567.75
445.14	683.75
445.361	645.75
445.582	633.75
445.803	722.75
446.024	793.75
446.245	796.75
446.466	719.75
446.687	638.75
446.908	580.75
447.129	585.75
447.35	540.75
447.571	572.75
447.792	541.75
448.013	546.75
448.234	596.75
448.455	631.75
448.675	747.75
448.896	812.75
449.117	707.75
449.338	696.75
449.559	797.75
449.779	888.75
450	736.75
450.221	612.75
450.442	568.75
450.662	548.75
450.883	549.75
451.104	585.75
451.324	571.75
451.545	517.75
451.766	514.75
451.986	481.75
452.207	483.75
452.428	486.75
452.648	487.75
452.869	491.75
453.089	508.75
453.31	511.75
453.53	514.75
453.751	475.75
453.971	485.75
454.192	527.75
454.412	507.75
454.633	492.75
454.853	472.75
455.073	481.75
455.294	498.75
455.514	584.75
455.734	585.75
455.955	488.75
456.175	474.75
456.395	462.75
456.616	459.75
456.836	461.75
457.056	452.75
457.276	441.75
457.497	473.75
457.717	461.75
457.937	458.75
458.157	459.75
458.377	464.75
458.598	515.75
458.818	579.75
459.038	619.75
459.258	678.75
459.478	557.75
459.698	514.75
459.918	490.75
460.138	469.75
460.358	483.75
460.578	488.75
460.798	504.75
461.018	517.75
461.238	489.75
461.458	469.75
461.678	475.75
461.898	485.75
462.118	498.75
462.338	515.75
462.558	502.75
462.777	531.75
462.997	514.75
463.217	508.75
463.437	505.75
463.657	515.75
463.876	515.75
464.096	509.75
464.316	502.75
464.536	528.75
464.755	527.75
464.975	524.75
465.195	602.75
465.414	673.75
465.634	612.75
465.854	565.75
466.073	540.75
466.293	514.75
466.512	491.75
466.732	478.75
466.951	498.75
467.171	493.75
467.391	500.75
467.61	492.75
467.829	533.75
468.049	503.75
468.268	527.75
468.488	494.75
468.707	480.75
468.927	474.75
469.146	472.75
469.365	462.75
469.585	472.75
469.804	515.75
470.023	505.75
470.243	489.75
470.462	501.75
470.681	513.75
470.901	511.75
471.12	502.75
471.339	513.75
471.558	489.75
471.777	504.75
471.997	497.75
472.216	517.75
472.435	533.75
472.654	519.75
472.873	506.75
473.092	493.75
473.311	494.75
473.53	496.75
473.749	517.75
473.968	545.75
474.187	671.75
474.406	703.75
474.625	570.75
474.844	515.75
475.063	515.75
475.282	495.75
475.501	492.75
475.72	523.75
475.939	516.75
476.158	502.75
476.377	527.75
476.596	510.75
476.814	515.75
477.033	513.75
477.252	523.75
477.471	546.75
477.69	551.75
477.908	544.75
478.127	535.75
478.346	549.75
478.564	554.75
478.783	552.75
479.002	542.75
479.22	556.75
479.439	579.75
479.658	611.75
479.876	588.75
480.095	589.75
480.313	628.75
480.532	601.75
480.751	602.75
480.969	606.75
481.188	668.75
481.406	706.75
481.624	637.75
481.843	615.75
482.061	633.75
482.28	615.75
482.498	606.75
482.717	615.75
482.935	587.75
483.153	567.75
483.372	607.75
483.59	589.75
483.808	571.75
484.027	583.75
484.245	593.75
484.463	575.75
484.681	612.75
484.9	610.75
485.118	629.75
485.336	616.75
485.554	628.75
485.772	617.75
485.99	607.75
486.209	614.75
486.427	617.75
486.645	623.75
486.863	660.75
487.081	651.75
487.299	648.75
487.517	655.75
487.735	647.75
487.953	650.75
488.171	641.75
488.389	637.75
488.607	650.75
488.825	652.75
489.043	623.75
489.261	665.75
489.479	667.75
489.696	664.75
489.914	682.75
490.132	649.75
490.35	675.75
490.568	686.75
490.786	707.75
491.003	686.75
491.221	735.75
491.439	726.75
491.657	737.75
491.874	750.75
492.092	786.75
492.31	747.75
492.527	737.75
492.745	748.75
492.963	774.75
493.18	766.75
493.398	777.75
493.615	760.75
493.833	775.75
494.05	761.75
494.268	769.75
494.485	782.75
494.703	773.75
494.92	754.75
495.138	802.75
495.355	790.75
495.573	780.75
495.79	752.75
496.008	776.75
496.225	799.75
496.442	776.75
496.66	763.75
496.877	771.75
497.094	772.75
497.312	777.75
497.529	807.75
497.746	797.75
497.963	820.75
498.181	806.75
498.398	826.75
498.615	836.75
498.832	843.75
499.049	859.75
499.267	837.75
499.484	886.75
499.701	905.75
499.918	889.75
500.135	917.75
500.352	939.75
500.569	931.75
500.786	956.75
501.003	953.75
501.22	932.75
501.437	923.75
501.654	952.75
