Data from 1971.PennyLincolnUp.Lamp.En5.5.200Scan.071719.P1._HRD10591_15-20-57-842.txt Node
Date: Thu Jul 18 15:20:57 EDT 2019
User: cochatt
Spectrometer: HR+D1059
Trigger mode: 1
Integration Time (sec): 1.000000E-1
Scans to average: 1
Electric dark correction enabled: true
Nonlinearity correction enabled: false
Boxcar width: 0
XAxis mode: Wavelengths
Number of Pixels in Spectrum: 2048
>>>>>Begin Spectral Data<<<<<
223.165	-15.38
223.4	-15.38
223.635	-15.38
223.869	-16.38
224.104	-17.38
224.338	-18.38
224.573	-12.38
224.808	2.62
225.042	-18.38
225.277	-10.38
225.511	-13.38
225.746	5.62
225.98	2.62
226.215	18.62
226.449	14.62
226.683	17.62
226.918	26.62
227.152	33.62
227.387	34.62
227.621	37.62
227.856	50.62
228.09	25.62
228.324	43.62
228.559	48.62
228.793	84.62
229.027	102.62
229.262	101.62
229.496	116.62
229.73	120.62
229.964	143.62
230.199	139.62
230.433	107.62
230.667	119.62
230.901	102.62
231.136	109.62
231.37	116.62
231.604	118.62
231.838	126.62
232.072	99.62
232.306	114.62
232.541	112.62
232.775	116.62
233.009	118.62
233.243	104.62
233.477	105.62
233.711	108.62
233.945	99.62
234.179	117.62
234.413	127.62
234.647	121.62
234.881	123.62
235.115	121.62
235.349	124.62
235.583	124.62
235.817	122.62
236.051	137.62
236.285	131.62
236.519	127.62
236.753	142.62
236.987	134.62
237.221	182.62
237.455	211.62
237.689	184.62
237.922	151.62
238.156	141.62
238.39	131.62
238.624	117.62
238.858	126.62
239.091	131.62
239.325	129.62
239.559	116.62
239.793	124.62
240.027	143.62
240.26	150.62
240.494	154.62
240.728	159.62
240.961	153.62
241.195	143.62
241.429	133.62
241.662	148.62
241.896	136.62
242.13	141.62
242.363	132.62
242.597	132.62
242.83	138.62
243.064	130.62
243.298	141.62
243.531	148.62
243.765	139.62
243.998	134.62
244.232	130.62
244.465	136.62
244.699	150.62
244.932	153.62
245.166	163.62
245.399	160.62
245.633	159.62
245.866	130.62
246.099	153.62
246.333	156.62
246.566	158.62
246.8	165.62
247.033	145.62
247.266	154.62
247.5	163.62
247.733	175.62
247.966	171.62
248.2	170.62
248.433	187.62
248.666	191.62
248.899	186.62
249.133	202.62
249.366	208.62
249.599	192.62
249.832	199.62
250.066	184.62
250.299	191.62
250.532	186.62
250.765	225.62
250.998	231.62
251.231	240.62
251.465	235.62
251.698	235.62
251.931	222.62
252.164	207.62
252.397	199.62
252.63	218.62
252.863	207.62
253.096	223.62
253.329	245.62
253.562	256.62
253.795	217.62
254.028	235.62
254.261	247.62
254.494	250.62
254.727	252.62
254.96	275.62
255.193	261.62
255.426	252.62
255.659	246.62
255.892	230.62
256.124	249.62
256.357	235.62
256.59	250.62
256.823	232.62
257.056	235.62
257.289	235.62
257.521	251.62
257.754	235.62
257.987	214.62
258.22	212.62
258.452	221.62
258.685	207.62
258.918	212.62
259.151	217.62
259.383	226.62
259.616	243.62
259.849	244.62
260.081	248.62
260.314	271.62
260.547	268.62
260.779	260.62
261.012	264.62
261.244	253.62
261.477	244.62
261.71	222.62
261.942	223.62
262.175	223.62
262.407	228.62
262.64	235.62
262.872	244.62
263.105	220.62
263.337	222.62
263.57	224.62
263.802	223.62
264.035	229.62
264.267	220.62
264.499	208.62
264.732	234.62
264.964	220.62
265.197	213.62
265.429	232.62
265.661	237.62
265.894	227.62
266.126	232.62
266.358	233.62
266.591	229.62
266.823	255.62
267.055	229.62
267.287	247.62
267.52	238.62
267.752	227.62
267.984	259.62
268.216	253.62
268.448	244.62
268.681	245.62
268.913	258.62
269.145	272.62
269.377	284.62
269.609	280.62
269.841	295.62
270.073	298.62
270.306	302.62
270.538	326.62
270.77	341.62
271.002	325.62
271.234	309.62
271.466	323.62
271.698	323.62
271.93	339.62
272.162	338.62
272.394	326.62
272.626	321.62
272.858	303.62
273.09	304.62
273.322	299.62
273.553	292.62
273.785	274.62
274.017	274.62
274.249	284.62
274.481	277.62
274.713	286.62
274.945	292.62
275.176	274.62
275.408	277.62
275.64	279.62
275.872	266.62
276.104	275.62
276.335	264.62
276.567	284.62
276.799	318.62
277.031	307.62
277.262	350.62
277.494	342.62
277.726	302.62
277.957	295.62
278.189	298.62
278.421	294.62
278.652	271.62
278.884	293.62
279.115	279.62
279.347	284.62
279.579	288.62
279.81	275.62
280.042	276.62
280.273	278.62
280.505	277.62
280.736	284.62
280.968	289.62
281.199	292.62
281.431	289.62
281.662	284.62
281.894	300.62
282.125	285.62
282.356	288.62
282.588	330.62
282.819	321.62
283.051	297.62
283.282	277.62
283.513	287.62
283.745	311.62
283.976	287.62
284.207	276.62
284.439	290.62
284.67	300.62
284.901	301.62
285.132	279.62
285.364	289.62
285.595	287.62
285.826	285.62
286.057	274.62
286.288	286.62
286.52	297.62
286.751	316.62
286.982	298.62
287.213	308.62
287.444	295.62
287.675	291.62
287.906	299.62
288.138	319.62
288.369	344.62
288.6	292.62
288.831	320.62
289.062	298.62
289.293	300.62
289.524	290.62
289.755	312.62
289.986	296.62
290.217	314.62
290.448	304.62
290.679	330.62
290.91	312.62
291.141	310.62
291.371	311.62
291.602	302.62
291.833	297.62
292.064	319.62
292.295	297.62
292.526	310.62
292.757	303.62
292.987	314.62
293.218	292.62
293.449	306.62
293.68	325.62
293.91	310.62
294.141	302.62
294.372	317.62
294.603	296.62
294.833	292.62
295.064	323.62
295.295	301.62
295.525	311.62
295.756	319.62
295.987	307.62
296.217	326.62
296.448	322.62
296.679	318.62
296.909	311.62
297.14	328.62
297.37	332.62
297.601	331.62
297.831	312.62
298.062	311.62
298.292	316.62
298.523	317.62
298.753	338.62
298.984	314.62
299.214	315.62
299.445	303.62
299.675	315.62
299.905	333.62
300.136	340.62
300.366	322.62
300.597	325.62
300.827	360.62
301.057	348.62
301.288	348.62
301.518	341.62
301.748	334.62
301.979	331.62
302.209	347.62
302.439	348.62
302.669	347.62
302.9	318.62
303.13	326.62
303.36	336.62
303.59	333.62
303.82	350.62
304.051	350.62
304.281	337.62
304.511	314.62
304.741	336.62
304.971	351.62
305.201	326.62
305.431	332.62
305.661	331.62
305.891	327.62
306.121	348.62
306.352	353.62
306.582	348.62
306.812	360.62
307.042	355.62
307.272	350.62
307.502	355.62
307.731	330.62
307.961	345.62
308.191	336.62
308.421	354.62
308.651	355.62
308.881	341.62
309.111	364.62
309.341	340.62
309.571	363.62
309.8	389.62
310.03	391.62
310.26	376.62
310.49	373.62
310.72	392.62
310.949	410.62
311.179	426.62
311.409	390.62
311.639	361.62
311.868	394.62
312.098	396.62
312.328	418.62
312.557	406.62
312.787	424.62
313.017	415.62
313.246	398.62
313.476	384.62
313.706	403.62
313.935	396.62
314.165	399.62
314.394	401.62
314.624	418.62
314.853	404.62
315.083	387.62
315.312	392.62
315.542	394.62
315.771	398.62
316.001	380.62
316.23	395.62
316.46	395.62
316.689	387.62
316.919	392.62
317.148	391.62
317.377	421.62
317.607	391.62
317.836	400.62
318.065	397.62
318.295	419.62
318.524	395.62
318.753	388.62
318.983	392.62
319.212	390.62
319.441	378.62
319.67	415.62
319.9	397.62
320.129	405.62
320.358	393.62
320.587	398.62
320.816	410.62
321.046	391.62
321.275	426.62
321.504	385.62
321.733	409.62
321.962	415.62
322.191	434.62
322.42	447.62
322.649	451.62
322.878	469.62
323.108	483.62
323.337	504.62
323.566	522.62
323.795	535.62
324.024	579.62
324.253	726.62
324.482	1010.62
324.71	1581.62
324.939	2082.62
325.168	1762.62
325.397	945.62
325.626	664.62
325.855	555.62
326.084	532.62
326.313	513.62
326.542	538.62
326.77	581.62
326.999	687.62
327.228	900.62
327.457	1326.62
327.686	1564.62
327.914	1038.62
328.143	713.62
328.372	626.62
328.6	570.62
328.829	567.62
329.058	551.62
329.287	568.62
329.515	544.62
329.744	538.62
329.972	536.62
330.201	542.62
330.43	568.62
330.658	577.62
330.887	586.62
331.115	575.62
331.344	518.62
331.572	478.62
331.801	486.62
332.03	486.62
332.258	471.62
332.486	480.62
332.715	469.62
332.943	469.62
333.172	452.62
333.4	458.62
333.629	468.62
333.857	459.62
334.085	487.62
334.314	498.62
334.542	504.62
334.771	524.62
334.999	476.62
335.227	447.62
335.455	472.62
335.684	476.62
335.912	468.62
336.14	437.62
336.369	420.62
336.597	460.62
336.825	474.62
337.053	424.62
337.281	448.62
337.51	423.62
337.738	450.62
337.966	460.62
338.194	446.62
338.422	455.62
338.65	440.62
338.878	441.62
339.106	419.62
339.334	422.62
339.562	403.62
339.79	423.62
340.018	433.62
340.246	440.62
340.474	434.62
340.702	425.62
340.93	432.62
341.158	401.62
341.386	427.62
341.614	453.62
341.842	423.62
342.07	408.62
342.298	403.62
342.526	410.62
342.754	414.62
342.981	388.62
343.209	436.62
343.437	439.62
343.665	420.62
343.893	419.62
344.12	435.62
344.348	406.62
344.576	442.62
344.804	440.62
345.031	425.62
345.259	446.62
345.487	421.62
345.714	418.62
345.942	428.62
346.17	424.62
346.397	399.62
346.625	423.62
346.853	436.62
347.08	436.62
347.308	410.62
347.535	434.62
347.763	435.62
347.99	418.62
348.218	419.62
348.445	422.62
348.673	416.62
348.9	416.62
349.128	400.62
349.355	402.62
349.583	380.62
349.81	404.62
350.037	397.62
350.265	390.62
350.492	388.62
350.72	407.62
350.947	415.62
351.174	412.62
351.402	406.62
351.629	395.62
351.856	406.62
352.083	419.62
352.311	405.62
352.538	420.62
352.765	424.62
352.992	412.62
353.22	402.62
353.447	402.62
353.674	409.62
353.901	378.62
354.128	375.62
354.355	370.62
354.583	372.62
354.81	382.62
355.037	373.62
355.264	378.62
355.491	368.62
355.718	367.62
355.945	380.62
356.172	372.62
356.399	362.62
356.626	383.62
356.853	370.62
357.08	375.62
357.307	382.62
357.534	359.62
357.761	377.62
357.988	378.62
358.215	379.62
358.441	366.62
358.668	382.62
358.895	397.62
359.122	378.62
359.349	362.62
359.576	392.62
359.802	412.62
360.029	437.62
360.256	426.62
360.483	425.62
360.709	407.62
360.936	405.62
361.163	375.62
361.39	384.62
361.616	381.62
361.843	380.62
362.07	390.62
362.296	406.62
362.523	388.62
362.749	399.62
362.976	378.62
363.203	363.62
363.429	390.62
363.656	376.62
363.882	373.62
364.109	380.62
364.335	382.62
364.562	362.62
364.788	380.62
365.015	364.62
365.241	387.62
365.468	386.62
365.694	377.62
365.92	388.62
366.147	388.62
366.373	382.62
366.599	374.62
366.826	352.62
367.052	364.62
367.278	370.62
367.505	381.62
367.731	380.62
367.957	371.62
368.184	382.62
368.41	363.62
368.636	381.62
368.862	382.62
369.089	374.62
369.315	380.62
369.541	355.62
369.767	362.62
369.993	371.62
370.219	366.62
370.445	380.62
370.672	377.62
370.898	363.62
371.124	373.62
371.35	374.62
371.576	382.62
371.802	357.62
372.028	338.62
372.254	357.62
372.48	378.62
372.706	374.62
372.932	363.62
373.158	362.62
373.384	379.62
373.61	353.62
373.835	366.62
374.061	368.62
374.287	359.62
374.513	375.62
374.739	364.62
374.965	353.62
375.191	377.62
375.416	382.62
375.642	356.62
375.868	361.62
376.094	377.62
376.319	352.62
376.545	390.62
376.771	374.62
376.997	361.62
377.222	372.62
377.448	361.62
377.674	365.62
377.899	367.62
378.125	357.62
378.35	349.62
378.576	372.62
378.802	360.62
379.027	349.62
379.253	368.62
379.478	344.62
379.704	339.62
379.929	375.62
380.155	354.62
380.38	373.62
380.606	370.62
380.831	362.62
381.057	354.62
381.282	365.62
381.507	363.62
381.733	367.62
381.958	370.62
382.184	348.62
382.409	348.62
382.634	354.62
382.86	361.62
383.085	351.62
383.31	371.62
383.535	358.62
383.761	349.62
383.986	380.62
384.211	364.62
384.436	392.62
384.662	370.62
384.887	396.62
385.112	372.62
385.337	358.62
385.562	378.62
385.787	371.62
386.013	393.62
386.238	390.62
386.463	399.62
386.688	384.62
386.913	395.62
387.138	373.62
387.363	388.62
387.588	381.62
387.813	388.62
388.038	351.62
388.263	395.62
388.488	378.62
388.713	367.62
388.938	383.62
389.163	380.62
389.387	371.62
389.612	398.62
389.837	376.62
390.062	382.62
390.287	373.62
390.512	378.62
390.736	372.62
390.961	385.62
391.186	374.62
391.411	380.62
391.636	386.62
391.86	378.62
392.085	387.62
392.31	393.62
392.534	382.62
392.759	395.62
392.984	358.62
393.208	386.62
393.433	376.62
393.658	379.62
393.882	371.62
394.107	391.62
394.331	363.62
394.556	386.62
394.78	370.62
395.005	381.62
395.229	388.62
395.454	362.62
395.678	375.62
395.903	400.62
396.127	411.62
396.352	428.62
396.576	415.62
396.801	385.62
397.025	396.62
397.249	397.62
397.474	381.62
397.698	392.62
397.922	407.62
398.147	414.62
398.371	454.62
398.595	414.62
398.82	423.62
399.044	430.62
399.268	443.62
399.492	448.62
399.717	464.62
399.941	513.62
400.165	522.62
400.389	531.62
400.613	476.62
400.837	463.62
401.062	429.62
401.286	423.62
401.51	423.62
401.734	407.62
401.958	406.62
402.182	410.62
402.406	418.62
402.63	455.62
402.854	434.62
403.078	421.62
403.302	426.62
403.526	435.62
403.75	440.62
403.974	417.62
404.198	442.62
404.422	441.62
404.645	443.62
404.869	458.62
405.093	468.62
405.317	510.62
405.541	510.62
405.765	474.62
405.988	455.62
406.212	475.62
406.436	477.62
406.66	489.62
406.883	484.62
407.107	491.62
407.331	538.62
407.555	551.62
407.778	571.62
408.002	533.62
408.226	486.62
408.449	488.62
408.673	487.62
408.896	510.62
409.12	524.62
409.344	502.62
409.567	461.62
409.791	455.62
410.014	432.62
410.238	442.62
410.461	454.62
410.685	454.62
410.908	461.62
411.132	450.62
411.355	463.62
411.578	485.62
411.802	449.62
412.025	450.62
412.249	458.62
412.472	476.62
412.695	476.62
412.919	482.62
413.142	460.62
413.365	438.62
413.589	398.62
413.812	418.62
414.035	406.62
414.258	420.62
414.482	430.62
414.705	401.62
414.928	406.62
415.151	426.62
415.374	416.62
415.597	411.62
415.821	424.62
416.044	419.62
416.267	416.62
416.49	411.62
416.713	419.62
416.936	409.62
417.159	410.62
417.382	424.62
417.605	408.62
417.828	440.62
418.051	416.62
418.274	413.62
418.497	418.62
418.72	408.62
418.943	392.62
419.166	414.62
419.389	432.62
419.611	438.62
419.834	430.62
420.057	444.62
420.28	426.62
420.503	404.62
420.726	420.62
420.948	444.62
421.171	460.62
421.394	496.62
421.617	461.62
421.839	424.62
422.062	457.62
422.285	440.62
422.507	502.62
422.73	535.62
422.953	528.62
423.175	464.62
423.398	426.62
423.621	457.62
423.843	438.62
424.066	453.62
424.288	456.62
424.511	484.62
424.733	528.62
424.956	590.62
425.178	558.62
425.401	539.62
425.623	589.62
425.846	504.62
426.068	478.62
426.291	442.62
426.513	452.62
426.735	479.62
426.958	486.62
427.18	572.62
427.402	685.62
427.625	732.62
427.847	644.62
428.069	560.62
428.292	504.62
428.514	462.62
428.736	442.62
428.958	442.62
429.181	413.62
429.403	438.62
429.625	444.62
429.847	456.62
430.069	512.62
430.292	498.62
430.514	435.62
430.736	422.62
430.958	416.62
431.18	394.62
431.402	407.62
431.624	388.62
431.846	383.62
432.068	394.62
432.29	391.62
432.512	380.62
432.734	386.62
432.956	432.62
433.178	401.62
433.4	403.62
433.622	419.62
433.844	410.62
434.066	391.62
434.287	390.62
434.509	396.62
434.731	401.62
434.953	395.62
435.175	423.62
435.397	453.62
435.618	463.62
435.84	506.62
436.062	566.62
436.284	644.62
436.505	522.62
436.727	478.62
436.949	448.62
437.17	407.62
437.392	431.62
437.614	452.62
437.835	458.62
438.057	554.62
438.278	642.62
438.5	637.62
438.721	658.62
438.943	670.62
439.165	537.62
439.386	486.62
439.608	484.62
439.829	479.62
440.05	497.62
440.272	540.62
440.493	495.62
440.715	481.62
440.936	440.62
441.158	437.62
441.379	443.62
441.6	436.62
441.822	473.62
442.043	494.62
442.264	568.62
442.486	589.62
442.707	502.62
442.928	485.62
443.149	492.62
443.371	506.62
443.592	524.62
443.813	618.62
444.034	644.62
444.255	557.62
444.476	493.62
444.698	457.62
444.919	475.62
445.14	568.62
445.361	500.62
445.582	489.62
445.803	564.62
446.024	653.62
446.245	646.62
446.466	600.62
446.687	500.62
446.908	470.62
447.129	422.62
447.35	450.62
447.571	423.62
447.792	425.62
448.013	434.62
448.234	455.62
448.455	478.62
448.675	592.62
448.896	674.62
449.117	574.62
449.338	562.62
449.559	646.62
449.779	712.62
450	554.62
450.221	476.62
450.442	426.62
450.662	432.62
450.883	436.62
451.104	418.62
451.324	416.62
451.545	397.62
451.766	405.62
451.986	384.62
452.207	383.62
452.428	373.62
452.648	372.62
452.869	378.62
453.089	374.62
453.31	395.62
453.53	399.62
453.751	402.62
453.971	381.62
454.192	394.62
454.412	384.62
454.633	374.62
454.853	368.62
455.073	370.62
455.294	388.62
455.514	460.62
455.734	452.62
455.955	386.62
456.175	400.62
456.395	370.62
456.616	364.62
456.836	362.62
457.056	341.62
457.276	363.62
457.497	348.62
457.717	364.62
457.937	356.62
458.157	372.62
458.377	367.62
458.598	378.62
458.818	442.62
459.038	505.62
459.258	492.62
459.478	445.62
459.698	401.62
459.918	397.62
460.138	380.62
460.358	396.62
460.578	406.62
460.798	392.62
461.018	410.62
461.238	400.62
461.458	390.62
461.678	400.62
461.898	386.62
462.118	398.62
462.338	396.62
462.558	410.62
462.777	407.62
462.997	428.62
463.217	410.62
463.437	419.62
463.657	424.62
463.876	410.62
464.096	407.62
464.316	418.62
464.536	430.62
464.755	426.62
464.975	427.62
465.195	466.62
465.414	516.62
465.634	453.62
465.854	421.62
466.073	398.62
466.293	375.62
466.512	378.62
466.732	381.62
466.951	370.62
467.171	396.62
467.391	380.62
467.61	399.62
467.829	402.62
468.049	400.62
468.268	378.62
468.488	362.62
468.707	366.62
468.927	383.62
469.146	376.62
469.365	390.62
469.585	388.62
469.804	379.62
470.023	404.62
470.243	411.62
470.462	404.62
470.681	414.62
470.901	412.62
471.12	388.62
471.339	396.62
471.558	381.62
471.777	388.62
471.997	376.62
472.216	394.62
472.435	412.62
472.654	399.62
472.873	393.62
473.092	392.62
473.311	394.62
473.53	400.62
473.749	417.62
473.968	436.62
474.187	515.62
474.406	528.62
474.625	444.62
474.844	398.62
475.063	406.62
475.282	383.62
475.501	423.62
475.72	376.62
475.939	414.62
476.158	411.62
476.377	403.62
476.596	401.62
476.814	405.62
477.033	424.62
477.252	404.62
477.471	387.62
477.69	408.62
477.908	412.62
478.127	442.62
478.346	422.62
478.564	425.62
478.783	445.62
479.002	423.62
479.22	450.62
479.439	443.62
479.658	470.62
479.876	470.62
480.095	475.62
480.313	503.62
480.532	492.62
480.751	468.62
480.969	461.62
481.188	533.62
481.406	540.62
481.624	480.62
481.843	468.62
482.061	462.62
482.28	447.62
482.498	475.62
482.717	436.62
482.935	452.62
483.153	456.62
483.372	444.62
483.59	462.62
483.808	439.62
484.027	439.62
484.245	437.62
484.463	468.62
484.681	442.62
484.9	469.62
485.118	459.62
485.336	456.62
485.554	449.62
485.772	466.62
485.99	455.62
486.209	479.62
486.427	470.62
486.645	466.62
486.863	495.62
487.081	480.62
487.299	470.62
487.517	488.62
487.735	491.62
487.953	483.62
488.171	499.62
488.389	487.62
488.607	514.62
488.825	504.62
489.043	494.62
489.261	495.62
489.479	515.62
489.696	499.62
489.914	509.62
490.132	488.62
490.35	508.62
490.568	509.62
490.786	512.62
491.003	538.62
491.221	557.62
491.439	530.62
491.657	552.62
491.874	552.62
492.092	570.62
492.31	578.62
492.527	563.62
492.745	598.62
492.963	590.62
493.18	580.62
493.398	572.62
493.615	579.62
493.833	572.62
494.05	589.62
494.268	563.62
494.485	561.62
494.703	571.62
494.92	575.62
495.138	591.62
495.355	570.62
495.573	583.62
495.79	578.62
496.008	591.62
496.225	578.62
496.442	562.62
496.66	568.62
496.877	568.62
497.094	609.62
497.312	579.62
497.529	608.62
497.746	579.62
497.963	606.62
498.181	617.62
498.398	603.62
498.615	646.62
498.832	622.62
499.049	621.62
499.267	631.62
499.484	673.62
499.701	664.62
499.918	694.62
500.135	720.62
500.352	767.62
500.569	754.62
500.786	743.62
501.003	771.62
501.22	721.62
501.437	724.62
501.654	722.62
501.871	714.62
