Data from 1971.PennyLincolnUp.Lamp.En5.5.200Scan.071719.P1.Scan 2. Changed Angle._HRD10591_15-23-10-841.txt Node
Date: Thu Jul 18 15:23:10 EDT 2019
User: cochatt
Spectrometer: HR+D1059
Trigger mode: 1
Integration Time (sec): 1.000000E-1
Scans to average: 1
Electric dark correction enabled: true
Nonlinearity correction enabled: false
Boxcar width: 0
XAxis mode: Wavelengths
Number of Pixels in Spectrum: 2048
>>>>>Begin Spectral Data<<<<<
223.165	-5.75
223.4	-5.75
223.635	-5.75
223.869	-10.75
224.104	-13.75
224.338	-17.75
224.573	-18.75
224.808	-2.75
225.042	-12.75
225.277	-23.75
225.511	7.25
225.746	3.25
225.98	15.25
226.215	5.25
226.449	7.25
226.683	13.25
226.918	20.25
227.152	34.25
227.387	31.25
227.621	28.25
227.856	30.25
228.09	31.25
228.324	61.25
228.559	53.25
228.793	51.25
229.027	103.25
229.262	121.25
229.496	113.25
229.73	147.25
229.964	180.25
230.199	151.25
230.433	129.25
230.667	129.25
230.901	109.25
231.136	121.25
231.37	118.25
231.604	119.25
231.838	108.25
232.072	125.25
232.306	115.25
232.541	120.25
232.775	116.25
233.009	120.25
233.243	124.25
233.477	103.25
233.711	117.25
233.945	122.25
234.179	123.25
234.413	127.25
234.647	126.25
234.881	116.25
235.115	119.25
235.349	113.25
235.583	133.25
235.817	112.25
236.051	130.25
236.285	126.25
236.519	135.25
236.753	146.25
236.987	161.25
237.221	205.25
237.455	263.25
237.689	216.25
237.922	142.25
238.156	129.25
238.39	141.25
238.624	130.25
238.858	126.25
239.091	127.25
239.325	135.25
239.559	133.25
239.793	146.25
240.027	137.25
240.26	146.25
240.494	159.25
240.728	145.25
240.961	151.25
241.195	140.25
241.429	147.25
241.662	151.25
241.896	143.25
242.13	144.25
242.363	133.25
242.597	148.25
242.83	131.25
243.064	138.25
243.298	150.25
243.531	141.25
243.765	149.25
243.998	134.25
244.232	140.25
244.465	143.25
244.699	151.25
244.932	161.25
245.166	135.25
245.399	141.25
245.633	144.25
245.866	154.25
246.099	157.25
246.333	161.25
246.566	150.25
246.8	169.25
247.033	153.25
247.266	162.25
247.5	169.25
247.733	172.25
247.966	176.25
248.2	165.25
248.433	161.25
248.666	169.25
248.899	201.25
249.133	205.25
249.366	217.25
249.599	203.25
249.832	191.25
250.066	187.25
250.299	183.25
250.532	187.25
250.765	195.25
250.998	230.25
251.231	241.25
251.465	234.25
251.698	203.25
251.931	197.25
252.164	212.25
252.397	197.25
252.63	214.25
252.863	193.25
253.096	212.25
253.329	244.25
253.562	220.25
253.795	242.25
254.028	230.25
254.261	227.25
254.494	233.25
254.727	283.25
254.96	286.25
255.193	284.25
255.426	263.25
255.659	229.25
255.892	229.25
256.124	234.25
256.357	212.25
256.59	224.25
256.823	220.25
257.056	238.25
257.289	214.25
257.521	223.25
257.754	217.25
257.987	215.25
258.22	205.25
258.452	217.25
258.685	209.25
258.918	198.25
259.151	228.25
259.383	233.25
259.616	238.25
259.849	220.25
260.081	241.25
260.314	245.25
260.547	269.25
260.779	250.25
261.012	246.25
261.244	217.25
261.477	234.25
261.71	230.25
261.942	239.25
262.175	246.25
262.407	242.25
262.64	225.25
262.872	217.25
263.105	222.25
263.337	215.25
263.57	220.25
263.802	206.25
264.035	201.25
264.267	212.25
264.499	213.25
264.732	215.25
264.964	210.25
265.197	213.25
265.429	190.25
265.661	206.25
265.894	206.25
266.126	208.25
266.358	201.25
266.591	197.25
266.823	206.25
267.055	223.25
267.287	222.25
267.52	215.25
267.752	220.25
267.984	205.25
268.216	228.25
268.448	235.25
268.681	228.25
268.913	249.25
269.145	261.25
269.377	264.25
269.609	251.25
269.841	276.25
270.073	282.25
270.306	281.25
270.538	309.25
270.77	311.25
271.002	292.25
271.234	300.25
271.466	291.25
271.698	309.25
271.93	308.25
272.162	304.25
272.394	319.25
272.626	291.25
272.858	281.25
273.09	281.25
273.322	268.25
273.553	268.25
273.785	258.25
274.017	257.25
274.249	247.25
274.481	244.25
274.713	241.25
274.945	266.25
275.176	259.25
275.408	245.25
275.64	259.25
275.872	249.25
276.104	257.25
276.335	254.25
276.567	252.25
276.799	252.25
277.031	282.25
277.262	324.25
277.494	305.25
277.726	293.25
277.957	277.25
278.189	278.25
278.421	251.25
278.652	270.25
278.884	259.25
279.115	252.25
279.347	238.25
279.579	255.25
279.81	237.25
280.042	250.25
280.273	230.25
280.505	245.25
280.736	256.25
280.968	258.25
281.199	246.25
281.431	239.25
281.662	264.25
281.894	255.25
282.125	270.25
282.356	269.25
282.588	268.25
282.819	290.25
283.051	265.25
283.282	261.25
283.513	275.25
283.745	262.25
283.976	263.25
284.207	264.25
284.439	246.25
284.67	258.25
284.901	261.25
285.132	260.25
285.364	257.25
285.595	270.25
285.826	265.25
286.057	258.25
286.288	265.25
286.52	271.25
286.751	254.25
286.982	263.25
287.213	256.25
287.444	262.25
287.675	270.25
287.906	282.25
288.138	283.25
288.369	298.25
288.6	282.25
288.831	273.25
289.062	278.25
289.293	268.25
289.524	261.25
289.755	270.25
289.986	271.25
290.217	270.25
290.448	261.25
290.679	268.25
290.91	248.25
291.141	260.25
291.371	270.25
291.602	272.25
291.833	269.25
292.064	285.25
292.295	285.25
292.526	255.25
292.757	252.25
292.987	267.25
293.218	267.25
293.449	277.25
293.68	274.25
293.91	244.25
294.141	265.25
294.372	264.25
294.603	283.25
294.833	271.25
295.064	271.25
295.295	277.25
295.525	269.25
295.756	261.25
295.987	271.25
296.217	301.25
296.448	310.25
296.679	253.25
296.909	272.25
297.14	275.25
297.37	278.25
297.601	289.25
297.831	297.25
298.062	290.25
298.292	271.25
298.523	289.25
298.753	290.25
298.984	271.25
299.214	271.25
299.445	293.25
299.675	279.25
299.905	296.25
300.136	298.25
300.366	285.25
300.597	300.25
300.827	275.25
301.057	289.25
301.288	300.25
301.518	294.25
301.748	290.25
301.979	312.25
302.209	307.25
302.439	303.25
302.669	309.25
302.9	302.25
303.13	290.25
303.36	303.25
303.59	301.25
303.82	315.25
304.051	329.25
304.281	316.25
304.511	314.25
304.741	310.25
304.971	309.25
305.201	290.25
305.431	299.25
305.661	306.25
305.891	318.25
306.121	296.25
306.352	310.25
306.582	311.25
306.812	299.25
307.042	318.25
307.272	314.25
307.502	298.25
307.731	320.25
307.961	308.25
308.191	322.25
308.421	320.25
308.651	299.25
308.881	325.25
309.111	334.25
309.341	334.25
309.571	342.25
309.8	353.25
310.03	372.25
310.26	360.25
310.49	358.25
310.72	366.25
310.949	398.25
311.179	399.25
311.409	381.25
311.639	346.25
311.868	363.25
312.098	358.25
312.328	366.25
312.557	377.25
312.787	381.25
313.017	409.25
313.246	380.25
313.476	347.25
313.706	364.25
313.935	366.25
314.165	381.25
314.394	369.25
314.624	391.25
314.853	357.25
315.083	362.25
315.312	359.25
315.542	355.25
315.771	349.25
316.001	369.25
316.23	343.25
316.46	361.25
316.689	350.25
316.919	347.25
317.148	383.25
317.377	378.25
317.607	379.25
317.836	353.25
318.065	363.25
318.295	364.25
318.524	360.25
318.753	334.25
318.983	349.25
319.212	356.25
319.441	366.25
319.67	394.25
319.9	365.25
320.129	358.25
320.358	351.25
320.587	380.25
320.816	398.25
321.046	388.25
321.275	387.25
321.504	374.25
321.733	382.25
321.962	395.25
322.191	407.25
322.42	434.25
322.649	449.25
322.878	443.25
323.108	467.25
323.337	486.25
323.566	515.25
323.795	532.25
324.024	599.25
324.253	747.25
324.482	1060.25
324.71	1654.25
324.939	2401.25
325.168	2041.25
325.397	1070.25
325.626	716.25
325.855	578.25
326.084	546.25
326.313	527.25
326.542	509.25
326.77	554.25
326.999	667.25
327.228	928.25
327.457	1436.25
327.686	1793.25
327.914	1205.25
328.143	782.25
328.372	659.25
328.6	636.25
328.829	602.25
329.058	603.25
329.287	642.25
329.515	561.25
329.744	526.25
329.972	510.25
330.201	523.25
330.43	570.25
330.658	614.25
330.887	630.25
331.115	615.25
331.344	535.25
331.572	490.25
331.801	484.25
332.03	501.25
332.258	467.25
332.486	438.25
332.715	417.25
332.943	430.25
333.172	439.25
333.4	439.25
333.629	434.25
333.857	463.25
334.085	447.25
334.314	467.25
334.542	514.25
334.771	545.25
334.999	492.25
335.227	433.25
335.455	430.25
335.684	440.25
335.912	428.25
336.14	403.25
336.369	414.25
336.597	433.25
336.825	433.25
337.053	414.25
337.281	403.25
337.51	407.25
337.738	427.25
337.966	424.25
338.194	419.25
338.422	421.25
338.65	407.25
338.878	425.25
339.106	411.25
339.334	384.25
339.562	407.25
339.79	418.25
340.018	398.25
340.246	405.25
340.474	411.25
340.702	425.25
340.93	410.25
341.158	402.25
341.386	406.25
341.614	427.25
341.842	409.25
342.07	411.25
342.298	388.25
342.526	395.25
342.754	389.25
342.981	389.25
343.209	375.25
343.437	377.25
343.665	410.25
343.893	398.25
344.12	418.25
344.348	405.25
344.576	423.25
344.804	430.25
345.031	441.25
345.259	437.25
345.487	452.25
345.714	422.25
345.942	417.25
346.17	410.25
346.397	421.25
346.625	424.25
346.853	407.25
347.08	411.25
347.308	414.25
347.535	414.25
347.763	430.25
347.99	433.25
348.218	414.25
348.445	425.25
348.673	420.25
348.9	415.25
349.128	405.25
349.355	388.25
349.583	402.25
349.81	403.25
350.037	399.25
350.265	386.25
350.492	396.25
350.72	390.25
350.947	400.25
351.174	407.25
351.402	433.25
351.629	422.25
351.856	403.25
352.083	418.25
352.311	438.25
352.538	446.25
352.765	445.25
352.992	418.25
353.22	419.25
353.447	423.25
353.674	400.25
353.901	382.25
354.128	389.25
354.355	362.25
354.583	397.25
354.81	384.25
355.037	369.25
355.264	394.25
355.491	385.25
355.718	368.25
355.945	391.25
356.172	366.25
356.399	377.25
356.626	375.25
356.853	371.25
357.08	391.25
357.307	385.25
357.534	385.25
357.761	370.25
357.988	381.25
358.215	361.25
358.441	377.25
358.668	380.25
358.895	393.25
359.122	404.25
359.349	408.25
359.576	421.25
359.802	439.25
360.029	494.25
360.256	484.25
360.483	476.25
360.709	424.25
360.936	427.25
361.163	438.25
361.39	417.25
361.616	439.25
361.843	422.25
362.07	397.25
362.296	419.25
362.523	426.25
362.749	420.25
362.976	401.25
363.203	397.25
363.429	386.25
363.656	421.25
363.882	406.25
364.109	405.25
364.335	400.25
364.562	402.25
364.788	404.25
365.015	385.25
365.241	401.25
365.468	407.25
365.694	407.25
365.92	411.25
366.147	408.25
366.373	386.25
366.599	392.25
366.826	386.25
367.052	392.25
367.278	382.25
367.505	399.25
367.731	397.25
367.957	399.25
368.184	411.25
368.41	410.25
368.636	406.25
368.862	428.25
369.089	415.25
369.315	398.25
369.541	407.25
369.767	379.25
369.993	398.25
370.219	402.25
370.445	391.25
370.672	392.25
370.898	378.25
371.124	374.25
371.35	374.25
371.576	403.25
371.802	409.25
372.028	405.25
372.254	381.25
372.48	410.25
372.706	392.25
372.932	385.25
373.158	410.25
373.384	374.25
373.61	382.25
373.835	400.25
374.061	393.25
374.287	396.25
374.513	407.25
374.739	388.25
374.965	408.25
375.191	419.25
375.416	402.25
375.642	401.25
375.868	391.25
376.094	402.25
376.319	385.25
376.545	395.25
376.771	395.25
376.997	377.25
377.222	370.25
377.448	399.25
377.674	401.25
377.899	403.25
378.125	385.25
378.35	384.25
378.576	385.25
378.802	408.25
379.027	394.25
379.253	380.25
379.478	385.25
379.704	390.25
379.929	394.25
380.155	406.25
380.38	386.25
380.606	394.25
380.831	390.25
381.057	390.25
381.282	387.25
381.507	390.25
381.733	399.25
381.958	391.25
382.184	395.25
382.409	411.25
382.634	411.25
382.86	418.25
383.085	390.25
383.31	396.25
383.535	414.25
383.761	417.25
383.986	400.25
384.211	397.25
384.436	397.25
384.662	427.25
384.887	439.25
385.112	407.25
385.337	436.25
385.562	423.25
385.787	433.25
386.013	430.25
386.238	447.25
386.463	442.25
386.688	423.25
386.913	420.25
387.138	461.25
387.363	442.25
387.588	426.25
387.813	421.25
388.038	435.25
388.263	436.25
388.488	413.25
388.713	424.25
388.938	423.25
389.163	456.25
389.387	424.25
389.612	409.25
389.837	402.25
390.062	439.25
390.287	442.25
390.512	429.25
390.736	415.25
390.961	408.25
391.186	411.25
391.411	414.25
391.636	431.25
391.86	442.25
392.085	432.25
392.31	433.25
392.534	425.25
392.759	427.25
392.984	437.25
393.208	453.25
393.433	454.25
393.658	468.25
393.882	451.25
394.107	433.25
394.331	426.25
394.556	455.25
394.78	440.25
395.005	447.25
395.229	447.25
395.454	431.25
395.678	446.25
395.903	460.25
396.127	485.25
396.352	462.25
396.576	475.25
396.801	456.25
397.025	467.25
397.249	459.25
397.474	462.25
397.698	446.25
397.922	475.25
398.147	488.25
398.371	473.25
398.595	479.25
398.82	478.25
399.044	500.25
399.268	492.25
399.492	514.25
399.717	547.25
399.941	577.25
400.165	584.25
400.389	590.25
400.613	545.25
400.837	526.25
401.062	515.25
401.286	486.25
401.51	488.25
401.734	471.25
401.958	493.25
402.182	509.25
402.406	523.25
402.63	516.25
402.854	506.25
403.078	493.25
403.302	509.25
403.526	513.25
403.75	504.25
403.974	506.25
404.198	515.25
404.422	491.25
404.645	524.25
404.869	526.25
405.093	553.25
405.317	609.25
405.541	625.25
405.765	586.25
405.988	555.25
406.212	574.25
406.436	593.25
406.66	619.25
406.883	576.25
407.107	596.25
407.331	657.25
407.555	696.25
407.778	702.25
408.002	635.25
408.226	588.25
408.449	579.25
408.673	562.25
408.896	603.25
409.12	654.25
409.344	626.25
409.567	577.25
409.791	540.25
410.014	528.25
410.238	530.25
410.461	539.25
410.685	533.25
410.908	541.25
411.132	607.25
411.355	634.25
411.578	595.25
411.802	548.25
412.025	545.25
412.249	539.25
412.472	550.25
412.695	595.25
412.919	567.25
413.142	545.25
413.365	503.25
413.589	495.25
413.812	506.25
414.035	488.25
414.258	480.25
414.482	483.25
414.705	503.25
414.928	492.25
415.151	490.25
415.374	488.25
415.597	488.25
415.821	501.25
416.044	491.25
416.267	491.25
416.49	494.25
416.713	480.25
416.936	493.25
417.159	510.25
417.382	506.25
417.605	499.25
417.828	481.25
418.051	533.25
418.274	505.25
418.497	485.25
418.72	497.25
418.943	501.25
419.166	522.25
419.389	538.25
419.611	533.25
419.834	519.25
420.057	516.25
420.28	519.25
420.503	520.25
420.726	538.25
420.948	535.25
421.171	584.25
421.394	640.25
421.617	566.25
421.839	525.25
422.062	535.25
422.285	546.25
422.507	596.25
422.73	692.25
422.953	663.25
423.175	592.25
423.398	565.25
423.621	570.25
423.843	556.25
424.066	582.25
424.288	588.25
424.511	567.25
424.733	641.25
424.956	731.25
425.178	705.25
425.401	697.25
425.623	732.25
425.846	652.25
426.068	613.25
426.291	591.25
426.513	582.25
426.735	578.25
426.958	642.25
427.18	711.25
427.402	879.25
427.625	956.25
427.847	867.25
428.069	755.25
428.292	661.25
428.514	594.25
428.736	571.25
428.958	553.25
429.181	549.25
429.403	545.25
429.625	540.25
429.847	596.25
430.069	683.25
430.292	657.25
430.514	590.25
430.736	547.25
430.958	549.25
431.18	518.25
431.402	525.25
431.624	516.25
431.846	499.25
432.068	492.25
432.29	515.25
432.512	527.25
432.734	519.25
432.956	512.25
433.178	518.25
433.4	545.25
433.622	500.25
433.844	517.25
434.066	497.25
434.287	516.25
434.509	510.25
434.731	502.25
434.953	522.25
435.175	532.25
435.397	565.25
435.618	582.25
435.84	610.25
436.062	714.25
436.284	812.25
436.505	690.25
436.727	613.25
436.949	578.25
437.17	547.25
437.392	570.25
437.614	577.25
437.835	605.25
438.057	716.25
438.278	842.25
438.5	803.25
438.721	874.25
438.943	841.25
439.165	704.25
439.386	604.25
439.608	621.25
439.829	595.25
440.05	622.25
440.272	674.25
440.493	646.25
440.715	609.25
440.936	571.25
441.158	562.25
441.379	550.25
441.6	571.25
441.822	581.25
442.043	650.25
442.264	721.25
442.486	782.25
442.707	618.25
442.928	613.25
443.149	622.25
443.371	638.25
443.592	679.25
443.813	767.25
444.034	829.25
444.255	699.25
444.476	657.25
444.698	599.25
444.919	584.25
445.14	681.25
445.361	678.25
445.582	640.25
445.803	723.25
446.024	841.25
446.245	845.25
446.466	743.25
446.687	640.25
446.908	577.25
447.129	579.25
447.35	553.25
447.571	553.25
447.792	542.25
448.013	569.25
448.234	583.25
448.455	637.25
448.675	749.25
448.896	869.25
449.117	730.25
449.338	711.25
449.559	814.25
449.779	883.25
450	741.25
450.221	632.25
450.442	567.25
450.662	561.25
450.883	564.25
451.104	591.25
451.324	577.25
451.545	535.25
451.766	527.25
451.986	520.25
452.207	513.25
452.428	483.25
452.648	476.25
452.869	486.25
453.089	485.25
453.31	526.25
453.53	525.25
453.751	501.25
453.971	508.25
454.192	521.25
454.412	510.25
454.633	483.25
454.853	482.25
455.073	492.25
455.294	532.25
455.514	577.25
455.734	588.25
455.955	491.25
456.175	447.25
456.395	454.25
456.616	462.25
456.836	449.25
457.056	463.25
457.276	457.25
457.497	460.25
457.717	446.25
457.937	444.25
458.157	450.25
458.377	471.25
458.598	499.25
458.818	573.25
459.038	650.25
459.258	666.25
459.478	581.25
459.698	521.25
459.918	536.25
460.138	512.25
460.358	541.25
460.578	510.25
460.798	539.25
461.018	517.25
461.238	510.25
461.458	515.25
461.678	507.25
461.898	501.25
462.118	501.25
462.338	509.25
462.558	521.25
462.777	518.25
462.997	545.25
463.217	533.25
463.437	538.25
463.657	535.25
463.876	546.25
464.096	534.25
464.316	549.25
464.536	540.25
464.755	533.25
464.975	565.25
465.195	611.25
465.414	702.25
465.634	628.25
465.854	571.25
466.073	545.25
466.293	533.25
466.512	491.25
466.732	490.25
466.951	499.25
467.171	502.25
467.391	518.25
467.61	498.25
467.829	524.25
468.049	509.25
468.268	530.25
468.488	493.25
468.707	489.25
468.927	488.25
469.146	487.25
469.365	510.25
469.585	485.25
469.804	494.25
470.023	509.25
470.243	515.25
470.462	526.25
470.681	538.25
470.901	533.25
471.12	528.25
471.339	520.25
471.558	499.25
471.777	525.25
471.997	497.25
472.216	508.25
472.435	544.25
472.654	527.25
472.873	527.25
473.092	526.25
473.311	501.25
473.53	494.25
473.749	545.25
473.968	598.25
474.187	665.25
474.406	720.25
474.625	588.25
474.844	527.25
475.063	520.25
475.282	499.25
475.501	540.25
475.72	519.25
475.939	503.25
476.158	519.25
476.377	518.25
476.596	505.25
476.814	550.25
477.033	528.25
477.252	542.25
477.471	525.25
477.69	543.25
477.908	531.25
478.127	549.25
478.346	562.25
478.564	550.25
478.783	573.25
479.002	547.25
479.22	570.25
479.439	592.25
479.658	591.25
479.876	608.25
480.095	627.25
480.313	645.25
480.532	614.25
480.751	618.25
480.969	634.25
481.188	695.25
481.406	719.25
481.624	678.25
481.843	617.25
482.061	611.25
482.28	614.25
482.498	602.25
482.717	573.25
482.935	631.25
483.153	626.25
483.372	604.25
483.59	629.25
483.808	603.25
484.027	586.25
484.245	612.25
484.463	613.25
484.681	610.25
484.9	603.25
485.118	632.25
485.336	638.25
485.554	633.25
485.772	618.25
485.99	644.25
486.209	616.25
486.427	637.25
486.645	647.25
486.863	666.25
487.081	648.25
487.299	659.25
487.517	654.25
487.735	678.25
487.953	678.25
488.171	669.25
488.389	667.25
488.607	660.25
488.825	667.25
489.043	678.25
489.261	677.25
489.479	674.25
489.696	699.25
489.914	685.25
490.132	679.25
490.35	698.25
490.568	705.25
490.786	697.25
491.003	719.25
491.221	742.25
491.439	744.25
491.657	725.25
491.874	748.25
492.092	737.25
492.31	769.25
492.527	779.25
492.745	794.25
492.963	802.25
493.18	792.25
493.398	777.25
493.615	798.25
493.833	769.25
494.05	805.25
494.268	786.25
494.485	769.25
494.703	803.25
494.92	823.25
495.138	799.25
495.355	790.25
495.573	817.25
495.79	784.25
496.008	779.25
496.225	794.25
496.442	833.25
496.66	803.25
496.877	798.25
497.094	792.25
497.312	783.25
497.529	803.25
497.746	808.25
497.963	824.25
498.181	836.25
498.398	835.25
498.615	853.25
498.832	860.25
499.049	887.25
499.267	874.25
499.484	870.25
499.701	912.25
499.918	938.25
500.135	958.25
500.352	1020.25
500.569	1016.25
500.786	998.25
501.003	985.25
501.22	999.25
501.437	942.25
501.654	977.25
