Data from 1971.PennyLincolnUp.Lamp.En5.5.200Scan.071719.P1.Scan 2. Changed Angle._HRD10591_15-25-01-842.txt Node
Date: Thu Jul 18 15:25:01 EDT 2019
User: cochatt
Spectrometer: HR+D1059
Trigger mode: 1
Integration Time (sec): 1.000000E-1
Scans to average: 1
Electric dark correction enabled: true
Nonlinearity correction enabled: false
Boxcar width: 0
XAxis mode: Wavelengths
Number of Pixels in Spectrum: 2048
>>>>>Begin Spectral Data<<<<<
223.165	-9.81
223.4	-9.81
223.635	-9.81
223.869	-11.81
224.104	-12.81
224.338	-7.81
224.573	-23.81
224.808	-12.81
225.042	5.19
225.277	-8.81
225.511	-12.81
225.746	-2.81
225.98	5.19
226.215	27.19
226.449	9.19
226.683	14.19
226.918	12.19
227.152	30.19
227.387	51.19
227.621	47.19
227.856	44.19
228.09	48.19
228.324	56.19
228.559	59.19
228.793	64.19
229.027	112.19
229.262	132.19
229.496	127.19
229.73	139.19
229.964	183.19
230.199	155.19
230.433	140.19
230.667	140.19
230.901	138.19
231.136	120.19
231.37	119.19
231.604	124.19
231.838	125.19
232.072	117.19
232.306	139.19
232.541	111.19
232.775	121.19
233.009	127.19
233.243	127.19
233.477	119.19
233.711	124.19
233.945	119.19
234.179	126.19
234.413	122.19
234.647	128.19
234.881	131.19
235.115	131.19
235.349	124.19
235.583	123.19
235.817	132.19
236.051	127.19
236.285	130.19
236.519	137.19
236.753	155.19
236.987	159.19
237.221	194.19
237.455	268.19
237.689	204.19
237.922	158.19
238.156	137.19
238.39	141.19
238.624	130.19
238.858	137.19
239.091	144.19
239.325	137.19
239.559	137.19
239.793	160.19
240.027	141.19
240.26	158.19
240.494	174.19
240.728	159.19
240.961	167.19
241.195	160.19
241.429	161.19
241.662	163.19
241.896	143.19
242.13	145.19
242.363	140.19
242.597	131.19
242.83	138.19
243.064	153.19
243.298	165.19
243.531	149.19
243.765	140.19
243.998	146.19
244.232	144.19
244.465	166.19
244.699	157.19
244.932	155.19
245.166	151.19
245.399	155.19
245.633	160.19
245.866	148.19
246.099	151.19
246.333	184.19
246.566	154.19
246.8	164.19
247.033	151.19
247.266	164.19
247.5	185.19
247.733	182.19
247.966	191.19
248.2	192.19
248.433	188.19
248.666	209.19
248.899	216.19
249.133	229.19
249.366	245.19
249.599	235.19
249.832	213.19
250.066	208.19
250.299	200.19
250.532	221.19
250.765	217.19
250.998	235.19
251.231	262.19
251.465	243.19
251.698	249.19
251.931	224.19
252.164	241.19
252.397	230.19
252.63	216.19
252.863	234.19
253.096	263.19
253.329	269.19
253.562	241.19
253.795	241.19
254.028	263.19
254.261	244.19
254.494	267.19
254.727	292.19
254.96	313.19
255.193	324.19
255.426	275.19
255.659	273.19
255.892	290.19
256.124	267.19
256.357	266.19
256.59	251.19
256.823	237.19
257.056	232.19
257.289	246.19
257.521	253.19
257.754	236.19
257.987	242.19
258.22	232.19
258.452	230.19
258.685	243.19
258.918	223.19
259.151	224.19
259.383	249.19
259.616	225.19
259.849	249.19
260.081	251.19
260.314	275.19
260.547	307.19
260.779	265.19
261.012	260.19
261.244	243.19
261.477	243.19
261.71	265.19
261.942	263.19
262.175	275.19
262.407	267.19
262.64	241.19
262.872	234.19
263.105	221.19
263.337	236.19
263.57	240.19
263.802	222.19
264.035	239.19
264.267	222.19
264.499	232.19
264.732	241.19
264.964	226.19
265.197	215.19
265.429	219.19
265.661	231.19
265.894	231.19
266.126	230.19
266.358	237.19
266.591	234.19
266.823	231.19
267.055	246.19
267.287	250.19
267.52	241.19
267.752	248.19
267.984	237.19
268.216	239.19
268.448	273.19
268.681	261.19
268.913	259.19
269.145	279.19
269.377	295.19
269.609	295.19
269.841	289.19
270.073	298.19
270.306	316.19
270.538	364.19
270.77	372.19
271.002	326.19
271.234	323.19
271.466	329.19
271.698	356.19
271.93	357.19
272.162	355.19
272.394	355.19
272.626	322.19
272.858	317.19
273.09	315.19
273.322	294.19
273.553	313.19
273.785	299.19
274.017	274.19
274.249	285.19
274.481	263.19
274.713	279.19
274.945	287.19
275.176	272.19
275.408	279.19
275.64	270.19
275.872	272.19
276.104	294.19
276.335	301.19
276.567	282.19
276.799	307.19
277.031	323.19
277.262	321.19
277.494	343.19
277.726	323.19
277.957	299.19
278.189	307.19
278.421	299.19
278.652	292.19
278.884	276.19
279.115	273.19
279.347	285.19
279.579	281.19
279.81	264.19
280.042	280.19
280.273	277.19
280.505	283.19
280.736	271.19
280.968	269.19
281.199	268.19
281.431	280.19
281.662	276.19
281.894	250.19
282.125	292.19
282.356	325.19
282.588	329.19
282.819	322.19
283.051	289.19
283.282	277.19
283.513	263.19
283.745	289.19
283.976	287.19
284.207	284.19
284.439	279.19
284.67	294.19
284.901	309.19
285.132	281.19
285.364	271.19
285.595	291.19
285.826	289.19
286.057	278.19
286.288	292.19
286.52	267.19
286.751	289.19
286.982	284.19
287.213	297.19
287.444	287.19
287.675	268.19
287.906	304.19
288.138	305.19
288.369	313.19
288.6	296.19
288.831	321.19
289.062	296.19
289.293	309.19
289.524	309.19
289.755	299.19
289.986	296.19
290.217	298.19
290.448	293.19
290.679	307.19
290.91	292.19
291.141	287.19
291.371	273.19
291.602	288.19
291.833	301.19
292.064	291.19
292.295	268.19
292.526	286.19
292.757	282.19
292.987	293.19
293.218	283.19
293.449	279.19
293.68	307.19
293.91	273.19
294.141	301.19
294.372	301.19
294.603	298.19
294.833	284.19
295.064	298.19
295.295	296.19
295.525	291.19
295.756	303.19
295.987	303.19
296.217	332.19
296.448	363.19
296.679	313.19
296.909	291.19
297.14	291.19
297.37	313.19
297.601	300.19
297.831	299.19
298.062	317.19
298.292	322.19
298.523	323.19
298.753	310.19
298.984	304.19
299.214	300.19
299.445	317.19
299.675	325.19
299.905	333.19
300.136	325.19
300.366	321.19
300.597	328.19
300.827	332.19
301.057	345.19
301.288	325.19
301.518	340.19
301.748	325.19
301.979	304.19
302.209	316.19
302.439	322.19
302.669	351.19
302.9	327.19
303.13	328.19
303.36	345.19
303.59	327.19
303.82	346.19
304.051	343.19
304.281	336.19
304.511	332.19
304.741	319.19
304.971	314.19
305.201	318.19
305.431	310.19
305.661	340.19
305.891	326.19
306.121	351.19
306.352	341.19
306.582	338.19
306.812	334.19
307.042	309.19
307.272	332.19
307.502	341.19
307.731	333.19
307.961	338.19
308.191	339.19
308.421	342.19
308.651	347.19
308.881	341.19
309.111	340.19
309.341	348.19
309.571	363.19
309.8	380.19
310.03	393.19
310.26	413.19
310.49	399.19
310.72	411.19
310.949	423.19
311.179	447.19
311.409	413.19
311.639	397.19
311.868	422.19
312.098	405.19
312.328	419.19
312.557	411.19
312.787	464.19
313.017	428.19
313.246	424.19
313.476	412.19
313.706	397.19
313.935	398.19
314.165	423.19
314.394	428.19
314.624	407.19
314.853	401.19
315.083	411.19
315.312	401.19
315.542	389.19
315.771	399.19
316.001	399.19
316.23	400.19
316.46	392.19
316.689	390.19
316.919	405.19
317.148	416.19
317.377	388.19
317.607	411.19
317.836	417.19
318.065	412.19
318.295	376.19
318.524	386.19
318.753	377.19
318.983	390.19
319.212	380.19
319.441	407.19
319.67	411.19
319.9	391.19
320.129	389.19
320.358	404.19
320.587	420.19
320.816	428.19
321.046	423.19
321.275	407.19
321.504	434.19
321.733	425.19
321.962	441.19
322.191	439.19
322.42	485.19
322.649	487.19
322.878	491.19
323.108	483.19
323.337	549.19
323.566	581.19
323.795	618.19
324.024	696.19
324.253	864.19
324.482	1235.19
324.71	1952.19
324.939	2887.19
325.168	2430.19
325.397	1264.19
325.626	807.19
325.855	661.19
326.084	601.19
326.313	590.19
326.542	589.19
326.77	669.19
326.999	791.19
327.228	1093.19
327.457	1715.19
327.686	2101.19
327.914	1405.19
328.143	906.19
328.372	771.19
328.6	717.19
328.829	659.19
329.058	669.19
329.287	714.19
329.515	671.19
329.744	590.19
329.972	565.19
330.201	607.19
330.43	669.19
330.658	724.19
330.887	768.19
331.115	712.19
331.344	591.19
331.572	545.19
331.801	555.19
332.03	535.19
332.258	504.19
332.486	496.19
332.715	493.19
332.943	480.19
333.172	473.19
333.4	488.19
333.629	495.19
333.857	511.19
334.085	523.19
334.314	550.19
334.542	599.19
334.771	579.19
334.999	529.19
335.227	493.19
335.455	492.19
335.684	479.19
335.912	469.19
336.14	473.19
336.369	470.19
336.597	447.19
336.825	503.19
337.053	465.19
337.281	476.19
337.51	452.19
337.738	468.19
337.966	434.19
338.194	472.19
338.422	476.19
338.65	451.19
338.878	444.19
339.106	435.19
339.334	440.19
339.562	439.19
339.79	451.19
340.018	473.19
340.246	459.19
340.474	451.19
340.702	433.19
340.93	447.19
341.158	441.19
341.386	452.19
341.614	468.19
341.842	438.19
342.07	444.19
342.298	451.19
342.526	437.19
342.754	453.19
342.981	423.19
343.209	423.19
343.437	402.19
343.665	423.19
343.893	415.19
344.12	447.19
344.348	458.19
344.576	458.19
344.804	460.19
345.031	465.19
345.259	486.19
345.487	488.19
345.714	461.19
345.942	430.19
346.17	455.19
346.397	440.19
346.625	452.19
346.853	449.19
347.08	441.19
347.308	448.19
347.535	471.19
347.763	476.19
347.99	469.19
348.218	453.19
348.445	466.19
348.673	471.19
348.9	456.19
349.128	451.19
349.355	401.19
349.583	427.19
349.81	438.19
350.037	414.19
350.265	429.19
350.492	435.19
350.72	428.19
350.947	456.19
351.174	453.19
351.402	491.19
351.629	473.19
351.856	445.19
352.083	462.19
352.311	469.19
352.538	479.19
352.765	469.19
352.992	477.19
353.22	462.19
353.447	448.19
353.674	450.19
353.901	441.19
354.128	441.19
354.355	445.19
354.583	405.19
354.81	431.19
355.037	412.19
355.264	398.19
355.491	403.19
355.718	402.19
355.945	401.19
356.172	401.19
356.399	406.19
356.626	400.19
356.853	401.19
357.08	414.19
357.307	404.19
357.534	420.19
357.761	401.19
357.988	416.19
358.215	439.19
358.441	406.19
358.668	437.19
358.895	407.19
359.122	435.19
359.349	422.19
359.576	451.19
359.802	481.19
360.029	562.19
360.256	558.19
360.483	519.19
360.709	488.19
360.936	470.19
361.163	451.19
361.39	436.19
361.616	455.19
361.843	446.19
362.07	460.19
362.296	453.19
362.523	460.19
362.749	433.19
362.976	435.19
363.203	408.19
363.429	452.19
363.656	435.19
363.882	441.19
364.109	425.19
364.335	444.19
364.562	419.19
364.788	439.19
365.015	424.19
365.241	451.19
365.468	439.19
365.694	447.19
365.92	444.19
366.147	445.19
366.373	428.19
366.599	441.19
366.826	428.19
367.052	431.19
367.278	421.19
367.505	427.19
367.731	435.19
367.957	415.19
368.184	439.19
368.41	424.19
368.636	455.19
368.862	443.19
369.089	456.19
369.315	442.19
369.541	405.19
369.767	419.19
369.993	430.19
370.219	408.19
370.445	419.19
370.672	437.19
370.898	436.19
371.124	422.19
371.35	419.19
371.576	425.19
371.802	407.19
372.028	434.19
372.254	415.19
372.48	406.19
372.706	414.19
372.932	419.19
373.158	430.19
373.384	431.19
373.61	400.19
373.835	430.19
374.061	404.19
374.287	440.19
374.513	423.19
374.739	414.19
374.965	417.19
375.191	414.19
375.416	426.19
375.642	413.19
375.868	437.19
376.094	424.19
376.319	421.19
376.545	429.19
376.771	408.19
376.997	410.19
377.222	430.19
377.448	413.19
377.674	410.19
377.899	408.19
378.125	418.19
378.35	433.19
378.576	428.19
378.802	413.19
379.027	422.19
379.253	427.19
379.478	417.19
379.704	425.19
379.929	415.19
380.155	442.19
380.38	436.19
380.606	436.19
380.831	407.19
381.057	423.19
381.282	439.19
381.507	433.19
381.733	409.19
381.958	429.19
382.184	434.19
382.409	459.19
382.634	431.19
382.86	443.19
383.085	447.19
383.31	432.19
383.535	435.19
383.761	417.19
383.986	443.19
384.211	444.19
384.436	446.19
384.662	442.19
384.887	445.19
385.112	452.19
385.337	437.19
385.562	443.19
385.787	437.19
386.013	463.19
386.238	462.19
386.463	456.19
386.688	461.19
386.913	460.19
387.138	470.19
387.363	438.19
387.588	466.19
387.813	459.19
388.038	445.19
388.263	452.19
388.488	450.19
388.713	447.19
388.938	449.19
389.163	473.19
389.387	468.19
389.612	452.19
389.837	448.19
390.062	450.19
390.287	453.19
390.512	460.19
390.736	459.19
390.961	449.19
391.186	458.19
391.411	476.19
391.636	455.19
391.86	466.19
392.085	473.19
392.31	469.19
392.534	468.19
392.759	464.19
392.984	460.19
393.208	472.19
393.433	469.19
393.658	469.19
393.882	448.19
394.107	474.19
394.331	456.19
394.556	457.19
394.78	455.19
395.005	469.19
395.229	448.19
395.454	469.19
395.678	450.19
395.903	492.19
396.127	515.19
396.352	512.19
396.576	487.19
396.801	485.19
397.025	487.19
397.249	495.19
397.474	465.19
397.698	524.19
397.922	527.19
398.147	535.19
398.371	531.19
398.595	524.19
398.82	525.19
399.044	527.19
399.268	533.19
399.492	550.19
399.717	565.19
399.941	605.19
400.165	624.19
400.389	636.19
400.613	593.19
400.837	556.19
401.062	545.19
401.286	536.19
401.51	538.19
401.734	528.19
401.958	523.19
402.182	546.19
402.406	553.19
402.63	551.19
402.854	533.19
403.078	557.19
403.302	559.19
403.526	552.19
403.75	557.19
403.974	543.19
404.198	536.19
404.422	558.19
404.645	584.19
404.869	566.19
405.093	579.19
405.317	639.19
405.541	659.19
405.765	631.19
405.988	608.19
406.212	602.19
406.436	636.19
406.66	632.19
406.883	627.19
407.107	638.19
407.331	662.19
407.555	763.19
407.778	722.19
408.002	676.19
408.226	633.19
408.449	615.19
408.673	622.19
408.896	646.19
409.12	703.19
409.344	667.19
409.567	588.19
409.791	587.19
410.014	560.19
410.238	534.19
410.461	548.19
410.685	547.19
410.908	588.19
411.132	597.19
411.355	671.19
411.578	635.19
411.802	581.19
412.025	549.19
412.249	587.19
412.472	618.19
412.695	629.19
412.919	635.19
413.142	586.19
413.365	574.19
413.589	556.19
413.812	543.19
414.035	529.19
414.258	539.19
414.482	516.19
414.705	529.19
414.928	507.19
415.151	536.19
415.374	517.19
415.597	552.19
415.821	527.19
416.044	518.19
416.267	559.19
416.49	536.19
416.713	536.19
416.936	516.19
417.159	522.19
417.382	553.19
417.605	535.19
417.828	558.19
418.051	558.19
418.274	572.19
418.497	535.19
418.72	539.19
418.943	534.19
419.166	559.19
419.389	588.19
419.611	567.19
419.834	556.19
420.057	548.19
420.28	578.19
420.503	559.19
420.726	553.19
420.948	599.19
421.171	646.19
421.394	652.19
421.617	628.19
421.839	579.19
422.062	591.19
422.285	595.19
422.507	664.19
422.73	734.19
422.953	723.19
423.175	632.19
423.398	593.19
423.621	609.19
423.843	607.19
424.066	630.19
424.288	635.19
424.511	651.19
424.733	716.19
424.956	797.19
425.178	813.19
425.401	790.19
425.623	796.19
425.846	707.19
426.068	647.19
426.291	620.19
426.513	637.19
426.735	627.19
426.958	692.19
427.18	788.19
427.402	917.19
427.625	1075.19
427.847	924.19
428.069	812.19
428.292	693.19
428.514	647.19
428.736	627.19
428.958	598.19
429.181	592.19
429.403	573.19
429.625	607.19
429.847	631.19
430.069	761.19
430.292	712.19
430.514	611.19
430.736	580.19
430.958	590.19
431.18	573.19
431.402	559.19
431.624	552.19
431.846	553.19
432.068	551.19
432.29	532.19
432.512	545.19
432.734	547.19
432.956	547.19
433.178	575.19
433.4	561.19
433.622	569.19
433.844	563.19
434.066	523.19
434.287	538.19
434.509	570.19
434.731	555.19
434.953	584.19
435.175	587.19
435.397	615.19
435.618	642.19
435.84	675.19
436.062	804.19
436.284	899.19
436.505	731.19
436.727	672.19
436.949	595.19
437.17	599.19
437.392	599.19
437.614	609.19
437.835	650.19
438.057	773.19
438.278	901.19
438.5	903.19
438.721	944.19
438.943	921.19
439.165	757.19
439.386	668.19
439.608	681.19
439.829	647.19
440.05	706.19
440.272	774.19
440.493	707.19
440.715	648.19
440.936	651.19
441.158	599.19
441.379	621.19
441.6	635.19
441.822	635.19
442.043	711.19
442.264	779.19
442.486	849.19
442.707	714.19
442.928	682.19
443.149	669.19
443.371	695.19
443.592	745.19
443.813	874.19
444.034	921.19
444.255	760.19
444.476	655.19
444.698	615.19
444.919	628.19
445.14	748.19
445.361	709.19
445.582	721.19
445.803	806.19
446.024	911.19
446.245	925.19
446.466	845.19
446.687	716.19
446.908	661.19
447.129	631.19
447.35	616.19
447.571	595.19
447.792	590.19
448.013	603.19
448.234	633.19
448.455	653.19
448.675	812.19
448.896	922.19
449.117	789.19
449.338	777.19
449.559	877.19
449.779	961.19
450	793.19
450.221	679.19
450.442	613.19
450.662	624.19
450.883	614.19
451.104	614.19
451.324	601.19
451.545	589.19
451.766	579.19
451.986	554.19
452.207	563.19
452.428	533.19
452.648	530.19
452.869	549.19
453.089	537.19
453.31	566.19
453.53	544.19
453.751	540.19
453.971	530.19
454.192	570.19
454.412	545.19
454.633	563.19
454.853	541.19
455.073	522.19
455.294	573.19
455.514	679.19
455.734	631.19
455.955	527.19
456.175	509.19
456.395	478.19
456.616	487.19
456.836	483.19
457.056	466.19
457.276	490.19
457.497	499.19
457.717	481.19
457.937	515.19
458.157	516.19
458.377	513.19
458.598	552.19
458.818	631.19
459.038	741.19
459.258	757.19
459.478	622.19
459.698	578.19
459.918	552.19
460.138	518.19
460.358	540.19
460.578	539.19
460.798	546.19
461.018	537.19
461.238	549.19
461.458	544.19
461.678	523.19
461.898	531.19
462.118	541.19
462.338	538.19
462.558	571.19
462.777	543.19
462.997	557.19
463.217	560.19
463.437	586.19
463.657	575.19
463.876	559.19
464.096	576.19
464.316	563.19
464.536	567.19
464.755	564.19
464.975	593.19
465.195	648.19
465.414	783.19
465.634	671.19
465.854	630.19
466.073	600.19
466.293	541.19
466.512	542.19
466.732	571.19
466.951	553.19
467.171	525.19
467.391	552.19
467.61	556.19
467.829	571.19
468.049	571.19
468.268	570.19
468.488	536.19
468.707	525.19
468.927	523.19
469.146	518.19
469.365	538.19
469.585	542.19
469.804	531.19
470.023	560.19
470.243	547.19
470.462	556.19
470.681	592.19
470.901	587.19
471.12	541.19
471.339	538.19
471.558	555.19
471.777	560.19
471.997	524.19
472.216	569.19
472.435	595.19
472.654	578.19
472.873	567.19
473.092	553.19
473.311	557.19
473.53	566.19
473.749	569.19
473.968	604.19
474.187	733.19
474.406	782.19
474.625	661.19
474.844	571.19
475.063	571.19
475.282	566.19
475.501	535.19
475.72	560.19
475.939	579.19
476.158	575.19
476.377	589.19
476.596	552.19
476.814	569.19
477.033	599.19
477.252	590.19
477.471	597.19
477.69	605.19
477.908	587.19
478.127	581.19
478.346	598.19
478.564	596.19
478.783	583.19
479.002	629.19
479.22	620.19
479.439	614.19
479.658	678.19
479.876	696.19
480.095	680.19
480.313	689.19
480.532	661.19
480.751	646.19
480.969	676.19
481.188	780.19
481.406	829.19
481.624	714.19
481.843	700.19
482.061	656.19
482.28	662.19
482.498	661.19
482.717	642.19
482.935	624.19
483.153	651.19
483.372	660.19
483.59	677.19
483.808	649.19
484.027	650.19
484.245	656.19
484.463	653.19
484.681	678.19
484.9	664.19
485.118	676.19
485.336	685.19
485.554	680.19
485.772	697.19
485.99	673.19
486.209	671.19
486.427	687.19
486.645	717.19
486.863	727.19
487.081	747.19
487.299	730.19
487.517	713.19
487.735	717.19
487.953	715.19
488.171	718.19
488.389	728.19
488.607	730.19
488.825	705.19
489.043	713.19
489.261	737.19
489.479	746.19
489.696	707.19
489.914	714.19
490.132	763.19
490.35	775.19
490.568	781.19
490.786	759.19
491.003	783.19
491.221	791.19
491.439	825.19
491.657	829.19
491.874	816.19
492.092	820.19
492.31	853.19
492.527	853.19
492.745	833.19
492.963	848.19
493.18	813.19
493.398	867.19
493.615	891.19
493.833	853.19
494.05	877.19
494.268	887.19
494.485	844.19
494.703	855.19
494.92	860.19
495.138	857.19
495.355	851.19
495.573	864.19
495.79	832.19
496.008	839.19
496.225	863.19
496.442	869.19
496.66	861.19
496.877	837.19
497.094	855.19
497.312	881.19
497.529	895.19
497.746	901.19
497.963	901.19
498.181	918.19
498.398	933.19
498.615	918.19
498.832	917.19
499.049	930.19
499.267	933.19
499.484	983.19
499.701	983.19
499.918	996.19
500.135	1048.19
500.352	1045.19
500.569	1060.19
500.786	1081.19
501.003	1068.19
501.22	1035.19
501.437	1019.19
