Data from 1971.PennyLincolnUp.Lamp.En5.5.200Scan.071719.P1._HRD10591_15-20-15-842.txt Node
Date: Thu Jul 18 15:20:15 EDT 2019
User: cochatt
Spectrometer: HR+D1059
Trigger mode: 1
Integration Time (sec): 1.000000E-1
Scans to average: 1
Electric dark correction enabled: true
Nonlinearity correction enabled: false
Boxcar width: 0
XAxis mode: Wavelengths
Number of Pixels in Spectrum: 2048
>>>>>Begin Spectral Data<<<<<
223.165	-15.5
223.4	-15.5
223.635	-15.5
223.869	-15.5
224.104	-18.5
224.338	-19.5
224.573	-24.5
224.808	-15.5
225.042	-3.5
225.277	-1.5
225.511	3.5
225.746	9.5
225.98	-2.5
226.215	24.5
226.449	20.5
226.683	13.5
226.918	19.5
227.152	25.5
227.387	42.5
227.621	37.5
227.856	61.5
228.09	40.5
228.324	63.5
228.559	51.5
228.793	73.5
229.027	88.5
229.262	107.5
229.496	104.5
229.73	129.5
229.964	138.5
230.199	123.5
230.433	114.5
230.667	122.5
230.901	108.5
231.136	111.5
231.37	96.5
231.604	124.5
231.838	107.5
232.072	125.5
232.306	118.5
232.541	114.5
232.775	91.5
233.009	106.5
233.243	108.5
233.477	123.5
233.711	113.5
233.945	122.5
234.179	115.5
234.413	111.5
234.647	103.5
234.881	106.5
235.115	117.5
235.349	129.5
235.583	110.5
235.817	135.5
236.051	138.5
236.285	122.5
236.519	126.5
236.753	129.5
236.987	142.5
237.221	165.5
237.455	225.5
237.689	179.5
237.922	132.5
238.156	136.5
238.39	132.5
238.624	124.5
238.858	144.5
239.091	134.5
239.325	137.5
239.559	122.5
239.793	135.5
240.027	151.5
240.26	154.5
240.494	179.5
240.728	135.5
240.961	144.5
241.195	129.5
241.429	147.5
241.662	141.5
241.896	139.5
242.13	131.5
242.363	142.5
242.597	132.5
242.83	141.5
243.064	141.5
243.298	139.5
243.531	142.5
243.765	152.5
243.998	154.5
244.232	143.5
244.465	151.5
244.699	161.5
244.932	151.5
245.166	139.5
245.399	147.5
245.633	167.5
245.866	154.5
246.099	148.5
246.333	150.5
246.566	159.5
246.8	165.5
247.033	153.5
247.266	150.5
247.5	162.5
247.733	173.5
247.966	174.5
248.2	176.5
248.433	187.5
248.666	190.5
248.899	192.5
249.133	219.5
249.366	210.5
249.599	195.5
249.832	179.5
250.066	176.5
250.299	196.5
250.532	183.5
250.765	195.5
250.998	223.5
251.231	232.5
251.465	210.5
251.698	212.5
251.931	207.5
252.164	209.5
252.397	197.5
252.63	207.5
252.863	208.5
253.096	220.5
253.329	223.5
253.562	236.5
253.795	213.5
254.028	235.5
254.261	218.5
254.494	231.5
254.727	272.5
254.96	298.5
255.193	295.5
255.426	254.5
255.659	234.5
255.892	235.5
256.124	244.5
256.357	243.5
256.59	231.5
256.823	226.5
257.056	236.5
257.289	222.5
257.521	233.5
257.754	222.5
257.987	214.5
258.22	214.5
258.452	219.5
258.685	227.5
258.918	215.5
259.151	217.5
259.383	219.5
259.616	232.5
259.849	263.5
260.081	264.5
260.314	248.5
260.547	271.5
260.779	279.5
261.012	239.5
261.244	242.5
261.477	220.5
261.71	222.5
261.942	251.5
262.175	237.5
262.407	243.5
262.64	219.5
262.872	221.5
263.105	249.5
263.337	226.5
263.57	241.5
263.802	241.5
264.035	235.5
264.267	220.5
264.499	216.5
264.732	196.5
264.964	216.5
265.197	232.5
265.429	215.5
265.661	213.5
265.894	221.5
266.126	204.5
266.358	212.5
266.591	223.5
266.823	231.5
267.055	234.5
267.287	262.5
267.52	258.5
267.752	243.5
267.984	238.5
268.216	245.5
268.448	249.5
268.681	234.5
268.913	250.5
269.145	265.5
269.377	312.5
269.609	300.5
269.841	285.5
270.073	292.5
270.306	292.5
270.538	329.5
270.77	313.5
271.002	328.5
271.234	311.5
271.466	294.5
271.698	326.5
271.93	339.5
272.162	339.5
272.394	339.5
272.626	327.5
272.858	304.5
273.09	291.5
273.322	288.5
273.553	291.5
273.785	283.5
274.017	280.5
274.249	277.5
274.481	271.5
274.713	285.5
274.945	285.5
275.176	279.5
275.408	278.5
275.64	273.5
275.872	265.5
276.104	278.5
276.335	277.5
276.567	282.5
276.799	295.5
277.031	320.5
277.262	344.5
277.494	312.5
277.726	312.5
277.957	323.5
278.189	296.5
278.421	283.5
278.652	297.5
278.884	280.5
279.115	280.5
279.347	281.5
279.579	283.5
279.81	279.5
280.042	277.5
280.273	280.5
280.505	270.5
280.736	263.5
280.968	265.5
281.199	280.5
281.431	279.5
281.662	289.5
281.894	293.5
282.125	281.5
282.356	312.5
282.588	321.5
282.819	308.5
283.051	292.5
283.282	274.5
283.513	287.5
283.745	291.5
283.976	307.5
284.207	304.5
284.439	291.5
284.67	284.5
284.901	295.5
285.132	279.5
285.364	309.5
285.595	291.5
285.826	283.5
286.057	310.5
286.288	310.5
286.52	304.5
286.751	293.5
286.982	290.5
287.213	305.5
287.444	283.5
287.675	285.5
287.906	314.5
288.138	310.5
288.369	316.5
288.6	301.5
288.831	311.5
289.062	316.5
289.293	325.5
289.524	311.5
289.755	299.5
289.986	301.5
290.217	291.5
290.448	303.5
290.679	291.5
290.91	303.5
291.141	299.5
291.371	294.5
291.602	300.5
291.833	297.5
292.064	316.5
292.295	297.5
292.526	311.5
292.757	312.5
292.987	294.5
293.218	314.5
293.449	301.5
293.68	303.5
293.91	301.5
294.141	320.5
294.372	312.5
294.603	320.5
294.833	296.5
295.064	324.5
295.295	312.5
295.525	311.5
295.756	309.5
295.987	303.5
296.217	337.5
296.448	355.5
296.679	314.5
296.909	297.5
297.14	327.5
297.37	322.5
297.601	315.5
297.831	302.5
298.062	316.5
298.292	327.5
298.523	299.5
298.753	312.5
298.984	309.5
299.214	325.5
299.445	328.5
299.675	304.5
299.905	307.5
300.136	317.5
300.366	324.5
300.597	311.5
300.827	336.5
301.057	345.5
301.288	337.5
301.518	342.5
301.748	344.5
301.979	330.5
302.209	342.5
302.439	336.5
302.669	350.5
302.9	358.5
303.13	338.5
303.36	343.5
303.59	351.5
303.82	340.5
304.051	357.5
304.281	348.5
304.511	346.5
304.741	337.5
304.971	341.5
305.201	333.5
305.431	331.5
305.661	342.5
305.891	336.5
306.121	337.5
306.352	332.5
306.582	364.5
306.812	361.5
307.042	331.5
307.272	334.5
307.502	364.5
307.731	347.5
307.961	332.5
308.191	341.5
308.421	331.5
308.651	347.5
308.881	362.5
309.111	365.5
309.341	357.5
309.571	360.5
309.8	377.5
310.03	381.5
310.26	390.5
310.49	402.5
310.72	382.5
310.949	409.5
311.179	409.5
311.409	388.5
311.639	390.5
311.868	382.5
312.098	398.5
312.328	416.5
312.557	411.5
312.787	415.5
313.017	422.5
313.246	406.5
313.476	398.5
313.706	374.5
313.935	375.5
314.165	416.5
314.394	425.5
314.624	398.5
314.853	391.5
315.083	386.5
315.312	384.5
315.542	378.5
315.771	369.5
316.001	366.5
316.23	394.5
316.46	387.5
316.689	400.5
316.919	399.5
317.148	402.5
317.377	413.5
317.607	404.5
317.836	402.5
318.065	385.5
318.295	397.5
318.524	396.5
318.753	387.5
318.983	406.5
319.212	382.5
319.441	424.5
319.67	405.5
319.9	401.5
320.129	396.5
320.358	403.5
320.587	411.5
320.816	395.5
321.046	419.5
321.275	412.5
321.504	409.5
321.733	417.5
321.962	432.5
322.191	418.5
322.42	425.5
322.649	461.5
322.878	460.5
323.108	468.5
323.337	484.5
323.566	542.5
323.795	546.5
324.024	608.5
324.253	724.5
324.482	1018.5
324.71	1517.5
324.939	2035.5
325.168	1756.5
325.397	909.5
325.626	643.5
325.855	547.5
326.084	528.5
326.313	522.5
326.542	530.5
326.77	561.5
326.999	663.5
327.228	895.5
327.457	1299.5
327.686	1515.5
327.914	1020.5
328.143	711.5
328.372	614.5
328.6	570.5
328.829	567.5
329.058	572.5
329.287	585.5
329.515	533.5
329.744	525.5
329.972	516.5
330.201	517.5
330.43	568.5
330.658	577.5
330.887	615.5
331.115	553.5
331.344	505.5
331.572	499.5
331.801	496.5
332.03	488.5
332.258	469.5
332.486	456.5
332.715	449.5
332.943	446.5
333.172	484.5
333.4	463.5
333.629	457.5
333.857	493.5
334.085	489.5
334.314	519.5
334.542	510.5
334.771	510.5
334.999	493.5
335.227	455.5
335.455	474.5
335.684	464.5
335.912	457.5
336.14	444.5
336.369	461.5
336.597	462.5
336.825	436.5
337.053	405.5
337.281	440.5
337.51	449.5
337.738	427.5
337.966	439.5
338.194	431.5
338.422	440.5
338.65	429.5
338.878	413.5
339.106	420.5
339.334	429.5
339.562	415.5
339.79	430.5
340.018	416.5
340.246	419.5
340.474	435.5
340.702	431.5
340.93	432.5
341.158	411.5
341.386	407.5
341.614	422.5
341.842	416.5
342.07	435.5
342.298	418.5
342.526	419.5
342.754	393.5
342.981	420.5
343.209	419.5
343.437	440.5
343.665	421.5
343.893	423.5
344.12	422.5
344.348	427.5
344.576	437.5
344.804	439.5
345.031	451.5
345.259	439.5
345.487	430.5
345.714	421.5
345.942	414.5
346.17	413.5
346.397	409.5
346.625	403.5
346.853	414.5
347.08	426.5
347.308	413.5
347.535	412.5
347.763	405.5
347.99	415.5
348.218	428.5
348.445	409.5
348.673	416.5
348.9	404.5
349.128	401.5
349.355	391.5
349.583	394.5
349.81	402.5
350.037	396.5
350.265	399.5
350.492	404.5
350.72	415.5
350.947	406.5
351.174	401.5
351.402	397.5
351.629	393.5
351.856	408.5
352.083	411.5
352.311	431.5
352.538	394.5
352.765	413.5
352.992	436.5
353.22	398.5
353.447	406.5
353.674	409.5
353.901	374.5
354.128	383.5
354.355	411.5
354.583	358.5
354.81	357.5
355.037	369.5
355.264	392.5
355.491	379.5
355.718	364.5
355.945	395.5
356.172	379.5
356.399	371.5
356.626	356.5
356.853	359.5
357.08	373.5
357.307	385.5
357.534	358.5
357.761	359.5
357.988	379.5
358.215	368.5
358.441	364.5
358.668	377.5
358.895	371.5
359.122	393.5
359.349	383.5
359.576	389.5
359.802	411.5
360.029	443.5
360.256	439.5
360.483	427.5
360.709	405.5
360.936	399.5
361.163	394.5
361.39	405.5
361.616	401.5
361.843	392.5
362.07	389.5
362.296	399.5
362.523	379.5
362.749	411.5
362.976	384.5
363.203	368.5
363.429	379.5
363.656	379.5
363.882	376.5
364.109	382.5
364.335	382.5
364.562	388.5
364.788	361.5
365.015	351.5
365.241	379.5
365.468	375.5
365.694	369.5
365.92	356.5
366.147	365.5
366.373	375.5
366.599	366.5
366.826	368.5
367.052	382.5
367.278	364.5
367.505	376.5
367.731	373.5
367.957	362.5
368.184	367.5
368.41	368.5
368.636	393.5
368.862	379.5
369.089	365.5
369.315	366.5
369.541	383.5
369.767	387.5
369.993	358.5
370.219	372.5
370.445	366.5
370.672	372.5
370.898	363.5
371.124	369.5
371.35	367.5
371.576	379.5
371.802	367.5
372.028	359.5
372.254	373.5
372.48	366.5
372.706	373.5
372.932	349.5
373.158	351.5
373.384	356.5
373.61	363.5
373.835	355.5
374.061	358.5
374.287	371.5
374.513	377.5
374.739	360.5
374.965	365.5
375.191	351.5
375.416	373.5
375.642	364.5
375.868	359.5
376.094	360.5
376.319	350.5
376.545	359.5
376.771	356.5
376.997	360.5
377.222	364.5
377.448	374.5
377.674	364.5
377.899	348.5
378.125	372.5
378.35	342.5
378.576	340.5
378.802	349.5
379.027	363.5
379.253	347.5
379.478	357.5
379.704	347.5
379.929	357.5
380.155	346.5
380.38	355.5
380.606	355.5
380.831	354.5
381.057	355.5
381.282	357.5
381.507	367.5
381.733	355.5
381.958	375.5
382.184	359.5
382.409	371.5
382.634	359.5
382.86	362.5
383.085	353.5
383.31	368.5
383.535	344.5
383.761	371.5
383.986	355.5
384.211	378.5
384.436	359.5
384.662	373.5
384.887	362.5
385.112	387.5
385.337	374.5
385.562	383.5
385.787	375.5
386.013	400.5
386.238	403.5
386.463	387.5
386.688	392.5
386.913	377.5
387.138	379.5
387.363	396.5
387.588	387.5
387.813	378.5
388.038	380.5
388.263	384.5
388.488	389.5
388.713	367.5
388.938	375.5
389.163	378.5
389.387	373.5
389.612	386.5
389.837	385.5
390.062	393.5
390.287	382.5
390.512	361.5
390.736	358.5
390.961	381.5
391.186	383.5
391.411	386.5
391.636	380.5
391.86	392.5
392.085	379.5
392.31	388.5
392.534	377.5
392.759	374.5
392.984	383.5
393.208	386.5
393.433	381.5
393.658	395.5
393.882	375.5
394.107	376.5
394.331	364.5
394.556	385.5
394.78	373.5
395.005	389.5
395.229	393.5
395.454	380.5
395.678	399.5
395.903	394.5
396.127	407.5
396.352	409.5
396.576	386.5
396.801	397.5
397.025	384.5
397.249	409.5
397.474	397.5
397.698	396.5
397.922	415.5
398.147	399.5
398.371	437.5
398.595	406.5
398.82	408.5
399.044	430.5
399.268	440.5
399.492	459.5
399.717	454.5
399.941	487.5
400.165	519.5
400.389	542.5
400.613	490.5
400.837	453.5
401.062	429.5
401.286	457.5
401.51	449.5
401.734	431.5
401.958	407.5
402.182	404.5
402.406	438.5
402.63	442.5
402.854	425.5
403.078	431.5
403.302	443.5
403.526	447.5
403.75	431.5
403.974	443.5
404.198	422.5
404.422	424.5
404.645	454.5
404.869	456.5
405.093	446.5
405.317	487.5
405.541	512.5
405.765	481.5
405.988	464.5
406.212	446.5
406.436	475.5
406.66	476.5
406.883	479.5
407.107	474.5
407.331	501.5
407.555	581.5
407.778	561.5
408.002	521.5
408.226	477.5
408.449	462.5
408.673	456.5
408.896	499.5
409.12	519.5
409.344	486.5
409.567	449.5
409.791	419.5
410.014	437.5
410.238	423.5
410.461	411.5
410.685	429.5
410.908	444.5
411.132	452.5
411.355	505.5
411.578	476.5
411.802	449.5
412.025	413.5
412.249	432.5
412.472	448.5
412.695	478.5
412.919	479.5
413.142	448.5
413.365	429.5
413.589	425.5
413.812	420.5
414.035	422.5
414.258	408.5
414.482	427.5
414.705	399.5
414.928	407.5
415.151	408.5
415.374	396.5
415.597	397.5
415.821	384.5
416.044	411.5
416.267	409.5
416.49	411.5
416.713	416.5
416.936	414.5
417.159	408.5
417.382	416.5
417.605	423.5
417.828	420.5
418.051	427.5
418.274	443.5
418.497	430.5
418.72	415.5
418.943	409.5
419.166	419.5
419.389	426.5
419.611	417.5
419.834	441.5
420.057	417.5
420.28	440.5
420.503	429.5
420.726	421.5
420.948	428.5
421.171	472.5
421.394	505.5
421.617	430.5
421.839	433.5
422.062	423.5
422.285	459.5
422.507	486.5
422.73	571.5
422.953	525.5
423.175	456.5
423.398	447.5
423.621	424.5
423.843	462.5
424.066	447.5
424.288	439.5
424.511	479.5
424.733	515.5
424.956	595.5
425.178	571.5
425.401	568.5
425.623	592.5
425.846	524.5
426.068	460.5
426.291	472.5
426.513	460.5
426.735	459.5
426.958	504.5
427.18	570.5
427.402	664.5
427.625	730.5
427.847	626.5
428.069	546.5
428.292	488.5
428.514	440.5
428.736	445.5
428.958	424.5
429.181	424.5
429.403	413.5
429.625	436.5
429.847	473.5
430.069	530.5
430.292	496.5
430.514	427.5
430.736	425.5
430.958	409.5
431.18	410.5
431.402	380.5
431.624	391.5
431.846	382.5
432.068	387.5
432.29	396.5
432.512	385.5
432.734	407.5
432.956	410.5
433.178	413.5
433.4	399.5
433.622	402.5
433.844	430.5
434.066	407.5
434.287	405.5
434.509	417.5
434.731	407.5
434.953	424.5
435.175	422.5
435.397	437.5
435.618	439.5
435.84	485.5
436.062	575.5
436.284	615.5
436.505	512.5
436.727	462.5
436.949	454.5
437.17	446.5
437.392	414.5
437.614	428.5
437.835	457.5
438.057	526.5
438.278	613.5
438.5	639.5
438.721	691.5
438.943	628.5
439.165	526.5
439.386	475.5
439.608	483.5
439.829	460.5
440.05	492.5
440.272	560.5
440.493	500.5
440.715	455.5
440.936	447.5
441.158	431.5
441.379	433.5
441.6	456.5
441.822	451.5
442.043	487.5
442.264	565.5
442.486	587.5
442.707	508.5
442.928	457.5
443.149	472.5
443.371	494.5
443.592	528.5
443.813	613.5
444.034	649.5
444.255	526.5
444.476	494.5
444.698	468.5
444.919	457.5
445.14	571.5
445.361	507.5
445.582	516.5
445.803	560.5
446.024	640.5
446.245	623.5
446.466	584.5
446.687	515.5
446.908	467.5
447.129	450.5
447.35	448.5
447.571	441.5
447.792	410.5
448.013	417.5
448.234	469.5
448.455	491.5
448.675	579.5
448.896	662.5
449.117	573.5
449.338	551.5
449.559	623.5
449.779	704.5
450	567.5
450.221	468.5
450.442	436.5
450.662	431.5
450.883	407.5
451.104	427.5
451.324	432.5
451.545	420.5
451.766	402.5
451.986	385.5
452.207	369.5
452.428	387.5
452.648	365.5
452.869	364.5
453.089	372.5
453.31	401.5
453.53	389.5
453.751	389.5
453.971	374.5
454.192	387.5
454.412	375.5
454.633	365.5
454.853	389.5
455.073	392.5
455.294	409.5
455.514	458.5
455.734	463.5
455.955	387.5
456.175	360.5
456.395	354.5
456.616	342.5
456.836	338.5
457.056	343.5
457.276	352.5
457.497	350.5
457.717	358.5
457.937	365.5
458.157	361.5
458.377	377.5
458.598	386.5
458.818	445.5
459.038	488.5
459.258	486.5
459.478	410.5
459.698	393.5
459.918	393.5
460.138	386.5
460.358	411.5
460.578	408.5
460.798	391.5
461.018	401.5
461.238	402.5
461.458	397.5
461.678	391.5
461.898	398.5
462.118	387.5
462.338	380.5
462.558	399.5
462.777	401.5
462.997	430.5
463.217	428.5
463.437	429.5
463.657	427.5
463.876	421.5
464.096	412.5
464.316	422.5
464.536	395.5
464.755	415.5
464.975	425.5
465.195	447.5
465.414	494.5
465.634	463.5
465.854	415.5
466.073	386.5
466.293	397.5
466.512	376.5
466.732	373.5
466.951	390.5
467.171	391.5
467.391	368.5
467.61	399.5
467.829	399.5
468.049	388.5
468.268	403.5
468.488	385.5
468.707	390.5
468.927	382.5
469.146	361.5
469.365	371.5
469.585	385.5
469.804	384.5
470.023	393.5
470.243	368.5
470.462	395.5
470.681	423.5
470.901	377.5
471.12	383.5
471.339	388.5
471.558	397.5
471.777	391.5
471.997	396.5
472.216	393.5
472.435	401.5
472.654	406.5
472.873	368.5
473.092	399.5
473.311	397.5
473.53	385.5
473.749	388.5
473.968	444.5
474.187	520.5
474.406	548.5
474.625	454.5
474.844	418.5
475.063	393.5
475.282	405.5
475.501	404.5
475.72	406.5
475.939	401.5
476.158	377.5
476.377	395.5
476.596	399.5
476.814	408.5
477.033	415.5
477.252	413.5
477.471	393.5
477.69	410.5
477.908	406.5
478.127	422.5
478.346	415.5
478.564	425.5
478.783	421.5
479.002	428.5
479.22	443.5
479.439	467.5
479.658	460.5
479.876	450.5
480.095	470.5
480.313	475.5
480.532	500.5
480.751	469.5
480.969	486.5
481.188	521.5
481.406	530.5
481.624	494.5
481.843	478.5
482.061	456.5
482.28	432.5
482.498	457.5
482.717	459.5
482.935	460.5
483.153	450.5
483.372	453.5
483.59	462.5
483.808	466.5
484.027	459.5
484.245	454.5
484.463	451.5
484.681	462.5
484.9	463.5
485.118	471.5
485.336	461.5
485.554	451.5
485.772	457.5
485.99	444.5
486.209	452.5
486.427	468.5
486.645	477.5
486.863	485.5
487.081	471.5
487.299	484.5
487.517	471.5
487.735	472.5
487.953	471.5
488.171	502.5
488.389	484.5
488.607	452.5
488.825	487.5
489.043	484.5
489.261	483.5
489.479	477.5
489.696	510.5
489.914	499.5
490.132	496.5
490.35	519.5
490.568	494.5
490.786	499.5
491.003	540.5
491.221	551.5
491.439	531.5
491.657	532.5
491.874	542.5
492.092	555.5
492.31	560.5
492.527	566.5
492.745	596.5
492.963	563.5
493.18	571.5
493.398	537.5
493.615	557.5
493.833	559.5
494.05	554.5
494.268	571.5
494.485	589.5
494.703	585.5
494.92	581.5
495.138	576.5
495.355	582.5
495.573	612.5
495.79	559.5
496.008	579.5
496.225	581.5
496.442	603.5
496.66	584.5
496.877	567.5
497.094	579.5
497.312	563.5
497.529	595.5
497.746	588.5
497.963	614.5
498.181	620.5
498.398	618.5
498.615	604.5
498.832	660.5
499.049	636.5
499.267	645.5
499.484	676.5
499.701	669.5
499.918	680.5
500.135	700.5
500.352	747.5
500.569	730.5
500.786	739.5
501.003	754.5
501.22	736.5
501.437	733.5
501.654	695.5
501.871	711.5
502.088	679.5
502.305	660.5
502.522	645.5
502.739	636.5
502.956	604.5
503.172	594.5
503.389	565.5
503.606	600.5
503.823	569.5
504.04	592.5
504.256	568.5
504.473	539.5
504.69	541.5
504.907	587.5
505.123	568.5
505.34	547.5
505.557	546.5
505.773	544.5
505.99	538.5
506.207	554.5
506.423	547.5
506.64	547.5
506.856	526.5
507.073	559.5
507.289	543.5
507.506	524.5
507.722	533.5
507.939	547.5
508.155	531.5
508.372	502.5
508.588	505.5
508.805	502.5
509.021	514.5
509.238	535.5
509.454	531.5
509.67	523.5
509.887	526.5
510.103	512.5
510.319	563.5
510.536	601.5
510.752	939.5
510.968	739.5
511.184	525.5
511.401	489.5
511.617	485.5
511.833	480.5
512.049	496.5
512.265	483.5
512.481	484.5
512.698	473.5
512.914	475.5
513.13	476.5
513.346	475.5
513.562	502.5
513.778	496.5
513.994	489.5
514.21	511.5
514.426	519.5
514.642	539.5
514.858	539.5
515.074	591.5
515.29	717.5
515.506	983.5
515.721	802.5
515.937	573.5
516.153	541.5
516.369	517.5
516.585	499.5
516.801	515.5
517.016	502.5
517.232	496.5
517.448	511.5
517.664	518.5
517.879	504.5
518.095	500.5
518.311	471.5
518.527	476.5
518.742	478.5
518.958	475.5
519.173	489.5
519.389	485.5
519.605	467.5
519.82	491.5
