Data from 1971.PennyLincolnUp.Lamp.En5.5.200Scan.071719.P1._HRD10591_15-19-25-842.txt Node
Date: Thu Jul 18 15:19:25 EDT 2019
User: cochatt
Spectrometer: HR+D1059
Trigger mode: 1
Integration Time (sec): 1.000000E-1
Scans to average: 1
Electric dark correction enabled: true
Nonlinearity correction enabled: false
Boxcar width: 0
XAxis mode: Wavelengths
Number of Pixels in Spectrum: 2048
>>>>>Begin Spectral Data<<<<<
223.165	-20.5
223.4	-20.5
223.635	-20.5
223.869	-18.5
224.104	-24.5
224.338	-14.5
224.573	-5.5
224.808	-14.5
225.042	-3.5
225.277	-4.5
225.511	-11.5
225.746	2.5
225.98	7.5
226.215	17.5
226.449	-1.5
226.683	23.5
226.918	34.5
227.152	33.5
227.387	30.5
227.621	21.5
227.856	28.5
228.09	51.5
228.324	47.5
228.559	54.5
228.793	72.5
229.027	84.5
229.262	121.5
229.496	114.5
229.73	123.5
229.964	150.5
230.199	123.5
230.433	103.5
230.667	98.5
230.901	101.5
231.136	98.5
231.37	107.5
231.604	111.5
231.838	135.5
232.072	108.5
232.306	102.5
232.541	91.5
232.775	111.5
233.009	110.5
233.243	105.5
233.477	102.5
233.711	120.5
233.945	122.5
234.179	101.5
234.413	119.5
234.647	113.5
234.881	121.5
235.115	111.5
235.349	111.5
235.583	113.5
235.817	120.5
236.051	118.5
236.285	125.5
236.519	129.5
236.753	120.5
236.987	133.5
237.221	158.5
237.455	200.5
237.689	162.5
237.922	130.5
238.156	145.5
238.39	130.5
238.624	122.5
238.858	137.5
239.091	126.5
239.325	128.5
239.559	122.5
239.793	124.5
240.027	132.5
240.26	141.5
240.494	150.5
240.728	147.5
240.961	126.5
241.195	128.5
241.429	131.5
241.662	123.5
241.896	126.5
242.13	127.5
242.363	133.5
242.597	141.5
242.83	128.5
243.064	143.5
243.298	133.5
243.531	127.5
243.765	145.5
243.998	154.5
244.232	173.5
244.465	140.5
244.699	132.5
244.932	152.5
245.166	136.5
245.399	129.5
245.633	140.5
245.866	140.5
246.099	142.5
246.333	163.5
246.566	148.5
246.8	160.5
247.033	147.5
247.266	153.5
247.5	167.5
247.733	178.5
247.966	171.5
248.2	160.5
248.433	197.5
248.666	170.5
248.899	188.5
249.133	192.5
249.366	202.5
249.599	193.5
249.832	187.5
250.066	182.5
250.299	186.5
250.532	197.5
250.765	206.5
250.998	228.5
251.231	227.5
251.465	207.5
251.698	205.5
251.931	205.5
252.164	213.5
252.397	199.5
252.63	189.5
252.863	214.5
253.096	234.5
253.329	229.5
253.562	248.5
253.795	231.5
254.028	227.5
254.261	222.5
254.494	211.5
254.727	258.5
254.96	276.5
255.193	262.5
255.426	240.5
255.659	230.5
255.892	245.5
256.124	253.5
256.357	216.5
256.59	229.5
256.823	211.5
257.056	207.5
257.289	214.5
257.521	233.5
257.754	225.5
257.987	225.5
258.22	215.5
258.452	207.5
258.685	219.5
258.918	215.5
259.151	215.5
259.383	194.5
259.616	217.5
259.849	229.5
260.081	250.5
260.314	258.5
260.547	269.5
260.779	255.5
261.012	240.5
261.244	235.5
261.477	227.5
261.71	238.5
261.942	235.5
262.175	231.5
262.407	240.5
262.64	229.5
262.872	229.5
263.105	220.5
263.337	212.5
263.57	220.5
263.802	219.5
264.035	235.5
264.267	216.5
264.499	233.5
264.732	225.5
264.964	221.5
265.197	222.5
265.429	220.5
265.661	211.5
265.894	218.5
266.126	218.5
266.358	231.5
266.591	219.5
266.823	231.5
267.055	236.5
267.287	229.5
267.52	232.5
267.752	239.5
267.984	236.5
268.216	239.5
268.448	248.5
268.681	244.5
268.913	226.5
269.145	250.5
269.377	282.5
269.609	270.5
269.841	279.5
270.073	280.5
270.306	285.5
270.538	314.5
270.77	337.5
271.002	323.5
271.234	301.5
271.466	313.5
271.698	329.5
271.93	320.5
272.162	341.5
272.394	318.5
272.626	311.5
272.858	292.5
273.09	298.5
273.322	277.5
273.553	276.5
273.785	267.5
274.017	255.5
274.249	278.5
274.481	279.5
274.713	283.5
274.945	285.5
275.176	278.5
275.408	266.5
275.64	264.5
275.872	286.5
276.104	258.5
276.335	283.5
276.567	278.5
276.799	288.5
277.031	311.5
277.262	292.5
277.494	323.5
277.726	333.5
277.957	316.5
278.189	289.5
278.421	286.5
278.652	265.5
278.884	275.5
279.115	287.5
279.347	282.5
279.579	291.5
279.81	286.5
280.042	279.5
280.273	297.5
280.505	293.5
280.736	267.5
280.968	274.5
281.199	270.5
281.431	285.5
281.662	283.5
281.894	280.5
282.125	292.5
282.356	294.5
282.588	307.5
282.819	315.5
283.051	266.5
283.282	280.5
283.513	276.5
283.745	277.5
283.976	268.5
284.207	304.5
284.439	300.5
284.67	299.5
284.901	309.5
285.132	303.5
285.364	282.5
285.595	290.5
285.826	283.5
286.057	276.5
286.288	272.5
286.52	295.5
286.751	297.5
286.982	291.5
287.213	301.5
287.444	292.5
287.675	300.5
287.906	302.5
288.138	296.5
288.369	311.5
288.6	295.5
288.831	310.5
289.062	298.5
289.293	306.5
289.524	293.5
289.755	304.5
289.986	307.5
290.217	296.5
290.448	304.5
290.679	294.5
290.91	300.5
291.141	296.5
291.371	297.5
291.602	299.5
291.833	295.5
292.064	307.5
292.295	287.5
292.526	290.5
292.757	310.5
292.987	303.5
293.218	288.5
293.449	315.5
293.68	301.5
293.91	298.5
294.141	299.5
294.372	300.5
294.603	295.5
294.833	304.5
295.064	312.5
295.295	276.5
295.525	290.5
295.756	318.5
295.987	309.5
296.217	336.5
296.448	331.5
296.679	296.5
296.909	291.5
297.14	314.5
297.37	298.5
297.601	324.5
297.831	313.5
298.062	304.5
298.292	304.5
298.523	328.5
298.753	330.5
298.984	315.5
299.214	314.5
299.445	324.5
299.675	316.5
299.905	325.5
300.136	312.5
300.366	324.5
300.597	339.5
300.827	325.5
301.057	336.5
301.288	349.5
301.518	353.5
301.748	335.5
301.979	318.5
302.209	338.5
302.439	347.5
302.669	340.5
302.9	343.5
303.13	339.5
303.36	349.5
303.59	341.5
303.82	332.5
304.051	348.5
304.281	344.5
304.511	318.5
304.741	359.5
304.971	345.5
305.201	364.5
305.431	340.5
305.661	349.5
305.891	318.5
306.121	326.5
306.352	344.5
306.582	330.5
306.812	335.5
307.042	347.5
307.272	345.5
307.502	334.5
307.731	351.5
307.961	351.5
308.191	337.5
308.421	329.5
308.651	355.5
308.881	346.5
309.111	354.5
309.341	359.5
309.571	367.5
309.8	370.5
310.03	354.5
310.26	379.5
310.49	385.5
310.72	384.5
310.949	402.5
311.179	406.5
311.409	386.5
311.639	372.5
311.868	388.5
312.098	390.5
312.328	388.5
312.557	396.5
312.787	407.5
313.017	396.5
313.246	390.5
313.476	390.5
313.706	389.5
313.935	386.5
314.165	391.5
314.394	400.5
314.624	391.5
314.853	387.5
315.083	387.5
315.312	398.5
315.542	392.5
315.771	366.5
316.001	372.5
316.23	382.5
316.46	378.5
316.689	388.5
316.919	376.5
317.148	399.5
317.377	379.5
317.607	396.5
317.836	405.5
318.065	365.5
318.295	380.5
318.524	371.5
318.753	376.5
318.983	372.5
319.212	407.5
319.441	384.5
319.67	397.5
319.9	394.5
320.129	372.5
320.358	384.5
320.587	391.5
320.816	412.5
321.046	401.5
321.275	403.5
321.504	400.5
321.733	399.5
321.962	403.5
322.191	416.5
322.42	435.5
322.649	424.5
322.878	442.5
323.108	461.5
323.337	477.5
323.566	487.5
323.795	510.5
324.024	574.5
324.253	674.5
324.482	959.5
324.71	1413.5
324.939	1960.5
325.168	1640.5
325.397	868.5
325.626	617.5
325.855	528.5
326.084	501.5
326.313	490.5
326.542	510.5
326.77	547.5
326.999	627.5
327.228	867.5
327.457	1224.5
327.686	1436.5
327.914	976.5
328.143	667.5
328.372	605.5
328.6	548.5
328.829	543.5
329.058	536.5
329.287	546.5
329.515	515.5
329.744	500.5
329.972	485.5
330.201	520.5
330.43	533.5
330.658	552.5
330.887	572.5
331.115	570.5
331.344	504.5
331.572	477.5
331.801	493.5
332.03	501.5
332.258	470.5
332.486	461.5
332.715	450.5
332.943	440.5
333.172	448.5
333.4	447.5
333.629	457.5
333.857	477.5
334.085	465.5
334.314	487.5
334.542	486.5
334.771	530.5
334.999	497.5
335.227	462.5
335.455	454.5
335.684	464.5
335.912	431.5
336.14	445.5
336.369	458.5
336.597	474.5
336.825	437.5
337.053	445.5
337.281	409.5
337.51	431.5
337.738	450.5
337.966	432.5
338.194	435.5
338.422	410.5
338.65	422.5
338.878	439.5
339.106	414.5
339.334	434.5
339.562	422.5
339.79	402.5
340.018	419.5
340.246	428.5
340.474	422.5
340.702	408.5
340.93	423.5
341.158	410.5
341.386	420.5
341.614	426.5
341.842	438.5
342.07	411.5
342.298	406.5
342.526	403.5
342.754	401.5
342.981	410.5
343.209	407.5
343.437	415.5
343.665	410.5
343.893	421.5
344.12	434.5
344.348	429.5
344.576	426.5
344.804	448.5
345.031	432.5
345.259	434.5
345.487	413.5
345.714	412.5
345.942	423.5
346.17	406.5
346.397	405.5
346.625	417.5
346.853	410.5
347.08	406.5
347.308	399.5
347.535	406.5
347.763	420.5
347.99	409.5
348.218	412.5
348.445	424.5
348.673	410.5
348.9	423.5
349.128	400.5
349.355	380.5
349.583	393.5
349.81	377.5
350.037	390.5
350.265	369.5
350.492	390.5
350.72	387.5
350.947	396.5
351.174	387.5
351.402	410.5
351.629	411.5
351.856	397.5
352.083	408.5
352.311	399.5
352.538	414.5
352.765	396.5
352.992	397.5
353.22	391.5
353.447	399.5
353.674	389.5
353.901	395.5
354.128	374.5
354.355	350.5
354.583	365.5
354.81	378.5
355.037	377.5
355.264	366.5
355.491	363.5
355.718	365.5
355.945	379.5
356.172	361.5
356.399	378.5
356.626	372.5
356.853	370.5
357.08	358.5
357.307	368.5
357.534	379.5
357.761	362.5
357.988	379.5
358.215	373.5
358.441	371.5
358.668	362.5
358.895	364.5
359.122	371.5
359.349	382.5
359.576	389.5
359.802	406.5
360.029	410.5
360.256	419.5
360.483	417.5
360.709	390.5
360.936	382.5
361.163	373.5
361.39	395.5
361.616	398.5
361.843	378.5
362.07	379.5
362.296	397.5
362.523	384.5
362.749	397.5
362.976	406.5
363.203	371.5
363.429	358.5
363.656	365.5
363.882	367.5
364.109	360.5
364.335	372.5
364.562	357.5
364.788	368.5
365.015	388.5
365.241	374.5
365.468	365.5
365.694	378.5
365.92	364.5
366.147	373.5
366.373	374.5
366.599	347.5
366.826	377.5
367.052	364.5
367.278	363.5
367.505	350.5
367.731	374.5
367.957	365.5
368.184	376.5
368.41	367.5
368.636	382.5
368.862	375.5
369.089	397.5
369.315	364.5
369.541	354.5
369.767	378.5
369.993	346.5
370.219	374.5
370.445	352.5
370.672	372.5
370.898	348.5
371.124	372.5
371.35	357.5
371.576	378.5
371.802	346.5
372.028	364.5
372.254	354.5
372.48	345.5
372.706	365.5
372.932	357.5
373.158	368.5
373.384	357.5
373.61	373.5
373.835	356.5
374.061	373.5
374.287	369.5
374.513	364.5
374.739	361.5
374.965	355.5
375.191	366.5
375.416	365.5
375.642	372.5
375.868	362.5
376.094	362.5
376.319	352.5
376.545	362.5
376.771	366.5
376.997	355.5
377.222	347.5
377.448	371.5
377.674	358.5
377.899	346.5
378.125	345.5
378.35	345.5
378.576	366.5
378.802	340.5
379.027	342.5
379.253	357.5
379.478	346.5
379.704	344.5
379.929	356.5
380.155	368.5
380.38	361.5
380.606	375.5
380.831	347.5
381.057	352.5
381.282	360.5
381.507	347.5
381.733	357.5
381.958	358.5
382.184	358.5
382.409	347.5
382.634	352.5
382.86	346.5
383.085	359.5
383.31	362.5
383.535	362.5
383.761	377.5
383.986	374.5
384.211	336.5
384.436	359.5
384.662	366.5
384.887	375.5
385.112	384.5
385.337	370.5
385.562	366.5
385.787	361.5
386.013	380.5
386.238	372.5
386.463	388.5
386.688	376.5
386.913	387.5
387.138	389.5
387.363	387.5
387.588	380.5
387.813	389.5
388.038	376.5
388.263	384.5
388.488	357.5
388.713	358.5
388.938	382.5
389.163	370.5
389.387	407.5
389.612	384.5
389.837	359.5
390.062	368.5
390.287	399.5
390.512	392.5
390.736	364.5
390.961	392.5
391.186	380.5
391.411	385.5
391.636	362.5
391.86	374.5
392.085	374.5
392.31	410.5
392.534	375.5
392.759	378.5
392.984	382.5
393.208	357.5
393.433	394.5
393.658	378.5
393.882	373.5
394.107	351.5
394.331	371.5
394.556	370.5
394.78	376.5
395.005	386.5
395.229	378.5
395.454	384.5
395.678	385.5
395.903	377.5
396.127	404.5
396.352	406.5
396.576	388.5
396.801	406.5
397.025	392.5
397.249	412.5
397.474	393.5
397.698	392.5
397.922	417.5
398.147	431.5
398.371	443.5
398.595	418.5
398.82	425.5
399.044	430.5
399.268	422.5
399.492	463.5
399.717	458.5
399.941	516.5
400.165	531.5
400.389	514.5
400.613	479.5
400.837	448.5
401.062	434.5
401.286	412.5
401.51	429.5
401.734	421.5
401.958	437.5
402.182	402.5
402.406	414.5
402.63	445.5
402.854	425.5
403.078	412.5
403.302	415.5
403.526	410.5
403.75	422.5
403.974	438.5
404.198	415.5
404.422	440.5
404.645	433.5
404.869	436.5
405.093	475.5
405.317	493.5
405.541	532.5
405.765	481.5
405.988	446.5
406.212	451.5
406.436	463.5
406.66	471.5
406.883	469.5
407.107	480.5
407.331	509.5
407.555	543.5
407.778	555.5
408.002	499.5
408.226	477.5
408.449	469.5
408.673	474.5
408.896	524.5
409.12	515.5
409.344	483.5
409.567	443.5
409.791	427.5
410.014	426.5
410.238	430.5
410.461	418.5
410.685	421.5
410.908	430.5
411.132	455.5
411.355	480.5
411.578	474.5
411.802	458.5
412.025	423.5
412.249	431.5
412.472	442.5
412.695	488.5
412.919	476.5
413.142	454.5
413.365	428.5
413.589	405.5
413.812	410.5
414.035	401.5
414.258	398.5
414.482	394.5
414.705	392.5
414.928	405.5
415.151	393.5
415.374	433.5
415.597	402.5
415.821	410.5
416.044	388.5
416.267	394.5
416.49	384.5
416.713	392.5
416.936	400.5
417.159	394.5
417.382	406.5
417.605	410.5
417.828	415.5
418.051	434.5
418.274	416.5
418.497	420.5
418.72	395.5
418.943	401.5
419.166	422.5
419.389	422.5
419.611	426.5
419.834	418.5
420.057	412.5
420.28	402.5
420.503	416.5
420.726	430.5
420.948	431.5
421.171	426.5
421.394	480.5
421.617	437.5
421.839	428.5
422.062	416.5
422.285	435.5
422.507	494.5
422.73	546.5
422.953	512.5
423.175	444.5
423.398	452.5
423.621	454.5
423.843	446.5
424.066	457.5
424.288	427.5
424.511	482.5
424.733	520.5
424.956	576.5
425.178	539.5
425.401	536.5
425.623	564.5
425.846	463.5
426.068	461.5
426.291	455.5
426.513	454.5
426.735	444.5
426.958	495.5
427.18	580.5
427.402	676.5
427.625	733.5
427.847	619.5
428.069	543.5
428.292	484.5
428.514	452.5
428.736	448.5
428.958	429.5
429.181	422.5
429.403	424.5
429.625	435.5
429.847	466.5
430.069	491.5
430.292	480.5
430.514	401.5
430.736	412.5
430.958	395.5
431.18	391.5
431.402	409.5
431.624	416.5
431.846	388.5
432.068	379.5
432.29	384.5
432.512	388.5
432.734	404.5
432.956	382.5
433.178	395.5
433.4	407.5
433.622	404.5
433.844	391.5
434.066	376.5
434.287	393.5
434.509	384.5
434.731	408.5
434.953	429.5
435.175	437.5
435.397	453.5
435.618	462.5
435.84	482.5
436.062	595.5
436.284	608.5
436.505	524.5
436.727	468.5
436.949	434.5
437.17	414.5
437.392	437.5
437.614	430.5
437.835	456.5
438.057	531.5
438.278	602.5
438.5	598.5
438.721	653.5
438.943	640.5
439.165	521.5
439.386	459.5
439.608	475.5
439.829	471.5
440.05	498.5
440.272	540.5
440.493	513.5
440.715	464.5
440.936	440.5
441.158	419.5
441.379	419.5
441.6	429.5
441.822	452.5
442.043	476.5
442.264	545.5
442.486	584.5
442.707	520.5
442.928	469.5
443.149	461.5
443.371	492.5
443.592	534.5
443.813	590.5
444.034	643.5
444.255	531.5
444.476	458.5
444.698	450.5
444.919	465.5
445.14	563.5
445.361	510.5
445.582	506.5
445.803	564.5
446.024	624.5
446.245	626.5
446.466	575.5
446.687	504.5
446.908	476.5
447.129	442.5
447.35	423.5
447.571	414.5
447.792	419.5
448.013	429.5
448.234	456.5
448.455	478.5
448.675	563.5
448.896	648.5
449.117	557.5
449.338	533.5
449.559	622.5
449.779	677.5
450	555.5
450.221	455.5
450.442	434.5
450.662	432.5
450.883	421.5
451.104	424.5
451.324	391.5
451.545	400.5
451.766	397.5
451.986	365.5
452.207	372.5
452.428	393.5
452.648	374.5
452.869	379.5
453.089	382.5
453.31	382.5
453.53	390.5
453.751	356.5
453.971	362.5
454.192	398.5
454.412	375.5
454.633	364.5
454.853	370.5
455.073	367.5
455.294	417.5
455.514	446.5
455.734	400.5
455.955	366.5
456.175	362.5
456.395	349.5
456.616	341.5
456.836	347.5
457.056	350.5
457.276	334.5
457.497	348.5
457.717	353.5
457.937	357.5
458.157	346.5
458.377	353.5
458.598	375.5
458.818	406.5
459.038	474.5
459.258	499.5
459.478	430.5
459.698	386.5
459.918	390.5
460.138	378.5
460.358	390.5
460.578	379.5
460.798	376.5
461.018	393.5
461.238	382.5
461.458	391.5
461.678	378.5
461.898	388.5
462.118	396.5
462.338	407.5
462.558	404.5
462.777	406.5
462.997	422.5
463.217	403.5
463.437	436.5
463.657	418.5
463.876	412.5
464.096	422.5
464.316	396.5
464.536	407.5
464.755	421.5
464.975	413.5
465.195	441.5
465.414	497.5
465.634	454.5
465.854	396.5
466.073	389.5
466.293	396.5
466.512	384.5
466.732	355.5
466.951	367.5
467.171	361.5
467.391	384.5
467.61	373.5
467.829	376.5
468.049	375.5
468.268	389.5
468.488	383.5
468.707	353.5
468.927	359.5
469.146	361.5
469.365	367.5
469.585	352.5
469.804	379.5
470.023	372.5
470.243	383.5
470.462	404.5
470.681	406.5
470.901	397.5
471.12	376.5
471.339	378.5
471.558	397.5
471.777	401.5
471.997	388.5
472.216	367.5
472.435	403.5
472.654	382.5
472.873	390.5
473.092	395.5
473.311	383.5
473.53	379.5
473.749	392.5
473.968	427.5
474.187	526.5
474.406	529.5
474.625	420.5
474.844	410.5
475.063	393.5
475.282	400.5
475.501	377.5
475.72	376.5
475.939	378.5
476.158	399.5
476.377	401.5
476.596	399.5
476.814	406.5
477.033	405.5
477.252	390.5
477.471	416.5
477.69	402.5
477.908	441.5
478.127	421.5
478.346	419.5
478.564	411.5
478.783	424.5
479.002	438.5
479.22	434.5
479.439	436.5
479.658	439.5
479.876	458.5
480.095	464.5
480.313	498.5
480.532	470.5
480.751	475.5
480.969	477.5
481.188	494.5
481.406	535.5
481.624	480.5
481.843	456.5
482.061	451.5
482.28	450.5
482.498	442.5
482.717	451.5
482.935	454.5
483.153	439.5
483.372	457.5
483.59	423.5
483.808	417.5
484.027	429.5
484.245	442.5
484.463	456.5
484.681	440.5
484.9	430.5
485.118	456.5
485.336	445.5
485.554	462.5
485.772	462.5
485.99	453.5
486.209	438.5
486.427	466.5
486.645	453.5
486.863	487.5
487.081	474.5
487.299	468.5
487.517	472.5
487.735	477.5
487.953	475.5
488.171	502.5
488.389	468.5
488.607	475.5
488.825	489.5
489.043	481.5
489.261	487.5
489.479	471.5
489.696	490.5
489.914	484.5
490.132	499.5
490.35	492.5
490.568	493.5
490.786	518.5
491.003	515.5
491.221	509.5
491.439	545.5
491.657	543.5
491.874	548.5
492.092	538.5
492.31	556.5
492.527	549.5
492.745	549.5
492.963	545.5
493.18	551.5
493.398	563.5
493.615	592.5
493.833	582.5
494.05	564.5
494.268	567.5
494.485	559.5
494.703	555.5
494.92	563.5
495.138	575.5
495.355	547.5
495.573	553.5
495.79	554.5
496.008	558.5
496.225	572.5
496.442	567.5
496.66	560.5
496.877	581.5
497.094	566.5
497.312	557.5
497.529	559.5
497.746	585.5
497.963	580.5
498.181	596.5
498.398	608.5
498.615	618.5
498.832	621.5
499.049	623.5
499.267	633.5
499.484	667.5
499.701	651.5
499.918	697.5
500.135	728.5
500.352	714.5
500.569	727.5
500.786	756.5
501.003	758.5
501.22	738.5
501.437	715.5
501.654	710.5
501.871	696.5
502.088	655.5
502.305	650.5
502.522	626.5
502.739	594.5
502.956	588.5
503.172	586.5
503.389	572.5
503.606	585.5
503.823	554.5
504.04	566.5
504.256	587.5
504.473	542.5
504.69	568.5
504.907	561.5
505.123	544.5
505.34	538.5
505.557	519.5
505.773	525.5
505.99	537.5
506.207	525.5
506.423	536.5
506.64	526.5
506.856	523.5
507.073	506.5
507.289	521.5
507.506	530.5
507.722	526.5
507.939	527.5
508.155	538.5
508.372	509.5
508.588	496.5
508.805	506.5
509.021	506.5
509.238	526.5
509.454	525.5
509.67	543.5
509.887	495.5
510.103	491.5
510.319	518.5
510.536	602.5
510.752	887.5
510.968	716.5
511.184	526.5
511.401	492.5
511.617	471.5
511.833	477.5
512.049	472.5
512.265	448.5
512.481	491.5
512.698	456.5
512.914	458.5
513.13	466.5
513.346	479.5
513.562	452.5
513.778	484.5
513.994	460.5
514.21	456.5
514.426	490.5
514.642	518.5
514.858	544.5
515.074	581.5
515.29	677.5
515.506	920.5
515.721	790.5
515.937	562.5
516.153	516.5
516.369	516.5
516.585	496.5
516.801	471.5
517.016	485.5
517.232	495.5
517.448	463.5
517.664	476.5
517.879	479.5
518.095	482.5
518.311	503.5
518.527	464.5
518.742	502.5
518.958	468.5
519.173	480.5
519.389	492.5
519.605	485.5
519.82	474.5
