Data from 1971.PennyLincolnUp.Lamp.En5.5.200Scan.071719.P1.Scan 2. Changed Angle._HRD10591_15-24-47-842.txt Node
Date: Thu Jul 18 15:24:47 EDT 2019
User: cochatt
Spectrometer: HR+D1059
Trigger mode: 1
Integration Time (sec): 1.000000E-1
Scans to average: 1
Electric dark correction enabled: true
Nonlinearity correction enabled: false
Boxcar width: 0
XAxis mode: Wavelengths
Number of Pixels in Spectrum: 2048
>>>>>Begin Spectral Data<<<<<
223.165	-24.25
223.4	-24.25
223.635	-24.25
223.869	-6.25
224.104	-6.25
224.338	-10.25
224.573	-20.25
224.808	-21.25
225.042	-3.25
225.277	5.75
225.511	-7.25
225.746	2.75
225.98	-2.25
226.215	7.75
226.449	12.75
226.683	16.75
226.918	27.75
227.152	27.75
227.387	51.75
227.621	35.75
227.856	44.75
228.09	45.75
228.324	53.75
228.559	56.75
228.793	82.75
229.027	110.75
229.262	125.75
229.496	137.75
229.73	161.75
229.964	199.75
230.199	127.75
230.433	120.75
230.667	131.75
230.901	114.75
231.136	121.75
231.37	118.75
231.604	125.75
231.838	136.75
232.072	121.75
232.306	126.75
232.541	105.75
232.775	119.75
233.009	126.75
233.243	117.75
233.477	114.75
233.711	118.75
233.945	130.75
234.179	119.75
234.413	127.75
234.647	124.75
234.881	125.75
235.115	114.75
235.349	120.75
235.583	125.75
235.817	127.75
236.051	144.75
236.285	129.75
236.519	127.75
236.753	165.75
236.987	163.75
237.221	216.75
237.455	275.75
237.689	225.75
237.922	170.75
238.156	156.75
238.39	148.75
238.624	142.75
238.858	125.75
239.091	141.75
239.325	138.75
239.559	129.75
239.793	143.75
240.027	127.75
240.26	156.75
240.494	184.75
240.728	161.75
240.961	177.75
241.195	172.75
241.429	143.75
241.662	149.75
241.896	149.75
242.13	141.75
242.363	147.75
242.597	146.75
242.83	136.75
243.064	152.75
243.298	149.75
243.531	161.75
243.765	144.75
243.998	155.75
244.232	147.75
244.465	142.75
244.699	142.75
244.932	158.75
245.166	151.75
245.399	141.75
245.633	155.75
245.866	151.75
246.099	161.75
246.333	157.75
246.566	155.75
246.8	160.75
247.033	162.75
247.266	178.75
247.5	171.75
247.733	181.75
247.966	189.75
248.2	170.75
248.433	195.75
248.666	201.75
248.899	211.75
249.133	229.75
249.366	228.75
249.599	199.75
249.832	199.75
250.066	210.75
250.299	195.75
250.532	201.75
250.765	211.75
250.998	243.75
251.231	274.75
251.465	247.75
251.698	244.75
251.931	209.75
252.164	232.75
252.397	221.75
252.63	220.75
252.863	235.75
253.096	233.75
253.329	244.75
253.562	251.75
253.795	238.75
254.028	250.75
254.261	245.75
254.494	267.75
254.727	297.75
254.96	312.75
255.193	318.75
255.426	289.75
255.659	249.75
255.892	259.75
256.124	276.75
256.357	261.75
256.59	249.75
256.823	279.75
257.056	236.75
257.289	230.75
257.521	223.75
257.754	239.75
257.987	238.75
258.22	222.75
258.452	238.75
258.685	218.75
258.918	230.75
259.151	215.75
259.383	241.75
259.616	248.75
259.849	257.75
260.081	269.75
260.314	287.75
260.547	278.75
260.779	268.75
261.012	258.75
261.244	252.75
261.477	237.75
261.71	243.75
261.942	259.75
262.175	261.75
262.407	259.75
262.64	237.75
262.872	226.75
263.105	214.75
263.337	229.75
263.57	215.75
263.802	231.75
264.035	222.75
264.267	215.75
264.499	214.75
264.732	224.75
264.964	220.75
265.197	230.75
265.429	233.75
265.661	220.75
265.894	214.75
266.126	219.75
266.358	221.75
266.591	238.75
266.823	235.75
267.055	216.75
267.287	235.75
267.52	231.75
267.752	263.75
267.984	252.75
268.216	217.75
268.448	234.75
268.681	243.75
268.913	249.75
269.145	272.75
269.377	304.75
269.609	293.75
269.841	289.75
270.073	302.75
270.306	330.75
270.538	347.75
270.77	358.75
271.002	327.75
271.234	326.75
271.466	337.75
271.698	337.75
271.93	352.75
272.162	370.75
272.394	341.75
272.626	334.75
272.858	326.75
273.09	305.75
273.322	308.75
273.553	254.75
273.785	259.75
274.017	286.75
274.249	317.75
274.481	281.75
274.713	283.75
274.945	281.75
275.176	281.75
275.408	276.75
275.64	285.75
275.872	284.75
276.104	266.75
276.335	296.75
276.567	273.75
276.799	315.75
277.031	329.75
277.262	353.75
277.494	346.75
277.726	333.75
277.957	318.75
278.189	292.75
278.421	277.75
278.652	282.75
278.884	281.75
279.115	278.75
279.347	276.75
279.579	279.75
279.81	277.75
280.042	283.75
280.273	275.75
280.505	251.75
280.736	275.75
280.968	270.75
281.199	255.75
281.431	263.75
281.662	290.75
281.894	278.75
282.125	266.75
282.356	290.75
282.588	327.75
282.819	327.75
283.051	302.75
283.282	281.75
283.513	289.75
283.745	294.75
283.976	285.75
284.207	297.75
284.439	281.75
284.67	293.75
284.901	279.75
285.132	275.75
285.364	265.75
285.595	265.75
285.826	278.75
286.057	268.75
286.288	273.75
286.52	284.75
286.751	279.75
286.982	285.75
287.213	278.75
287.444	286.75
287.675	286.75
287.906	312.75
288.138	294.75
288.369	310.75
288.6	306.75
288.831	297.75
289.062	303.75
289.293	302.75
289.524	286.75
289.755	282.75
289.986	290.75
290.217	275.75
290.448	297.75
290.679	302.75
290.91	289.75
291.141	285.75
291.371	277.75
291.602	295.75
291.833	292.75
292.064	291.75
292.295	278.75
292.526	294.75
292.757	287.75
292.987	293.75
293.218	295.75
293.449	274.75
293.68	270.75
293.91	278.75
294.141	274.75
294.372	281.75
294.603	292.75
294.833	285.75
295.064	285.75
295.295	288.75
295.525	290.75
295.756	303.75
295.987	315.75
296.217	326.75
296.448	348.75
296.679	315.75
296.909	305.75
297.14	290.75
297.37	293.75
297.601	316.75
297.831	307.75
298.062	298.75
298.292	313.75
298.523	305.75
298.753	307.75
298.984	315.75
299.214	302.75
299.445	309.75
299.675	313.75
299.905	300.75
300.136	325.75
300.366	308.75
300.597	290.75
300.827	321.75
301.057	330.75
301.288	338.75
301.518	314.75
301.748	318.75
301.979	330.75
302.209	319.75
302.439	335.75
302.669	336.75
302.9	322.75
303.13	314.75
303.36	305.75
303.59	330.75
303.82	339.75
304.051	341.75
304.281	328.75
304.511	317.75
304.741	323.75
304.971	322.75
305.201	321.75
305.431	315.75
305.661	315.75
305.891	337.75
306.121	315.75
306.352	325.75
306.582	335.75
306.812	328.75
307.042	350.75
307.272	339.75
307.502	346.75
307.731	332.75
307.961	338.75
308.191	311.75
308.421	336.75
308.651	332.75
308.881	333.75
309.111	339.75
309.341	352.75
309.571	345.75
309.8	356.75
310.03	389.75
310.26	401.75
310.49	403.75
310.72	393.75
310.949	403.75
311.179	397.75
311.409	401.75
311.639	411.75
311.868	398.75
312.098	394.75
312.328	408.75
312.557	422.75
312.787	437.75
313.017	433.75
313.246	416.75
313.476	383.75
313.706	379.75
313.935	396.75
314.165	406.75
314.394	429.75
314.624	424.75
314.853	418.75
315.083	411.75
315.312	387.75
315.542	381.75
315.771	398.75
316.001	373.75
316.23	384.75
316.46	389.75
316.689	395.75
316.919	399.75
317.148	417.75
317.377	405.75
317.607	419.75
317.836	387.75
318.065	390.75
318.295	397.75
318.524	354.75
318.753	371.75
318.983	381.75
319.212	411.75
319.441	397.75
319.67	424.75
319.9	394.75
320.129	396.75
320.358	398.75
320.587	397.75
320.816	413.75
321.046	421.75
321.275	423.75
321.504	436.75
321.733	438.75
321.962	431.75
322.191	459.75
322.42	487.75
322.649	510.75
322.878	513.75
323.108	529.75
323.337	550.75
323.566	583.75
323.795	605.75
324.024	673.75
324.253	852.75
324.482	1250.75
324.71	1972.75
324.939	2858.75
325.168	2471.75
325.397	1287.75
325.626	850.75
325.855	652.75
326.084	607.75
326.313	599.75
326.542	568.75
326.77	656.75
326.999	819.75
327.228	1121.75
327.457	1763.75
327.686	2131.75
327.914	1443.75
328.143	905.75
328.372	795.75
328.6	724.75
328.829	679.75
329.058	685.75
329.287	718.75
329.515	666.75
329.744	601.75
329.972	598.75
330.201	618.75
330.43	678.75
330.658	731.75
330.887	739.75
331.115	718.75
331.344	612.75
331.572	562.75
331.801	551.75
332.03	532.75
332.258	513.75
332.486	485.75
332.715	476.75
332.943	486.75
333.172	437.75
333.4	495.75
333.629	485.75
333.857	475.75
334.085	526.75
334.314	537.75
334.542	549.75
334.771	603.75
334.999	546.75
335.227	489.75
335.455	490.75
335.684	464.75
335.912	479.75
336.14	465.75
336.369	458.75
336.597	491.75
336.825	471.75
337.053	462.75
337.281	462.75
337.51	453.75
337.738	467.75
337.966	466.75
338.194	457.75
338.422	454.75
338.65	454.75
338.878	450.75
339.106	452.75
339.334	433.75
339.562	451.75
339.79	444.75
340.018	445.75
340.246	445.75
340.474	455.75
340.702	462.75
340.93	458.75
341.158	451.75
341.386	435.75
341.614	457.75
341.842	454.75
342.07	449.75
342.298	430.75
342.526	433.75
342.754	445.75
342.981	426.75
343.209	446.75
343.437	428.75
343.665	436.75
343.893	434.75
344.12	417.75
344.348	434.75
344.576	441.75
344.804	453.75
345.031	485.75
345.259	478.75
345.487	466.75
345.714	478.75
345.942	455.75
346.17	462.75
346.397	456.75
346.625	439.75
346.853	423.75
347.08	430.75
347.308	444.75
347.535	458.75
347.763	458.75
347.99	460.75
348.218	479.75
348.445	463.75
348.673	486.75
348.9	458.75
349.128	436.75
349.355	434.75
349.583	416.75
349.81	437.75
350.037	399.75
350.265	408.75
350.492	424.75
350.72	433.75
350.947	425.75
351.174	436.75
351.402	463.75
351.629	456.75
351.856	470.75
352.083	459.75
352.311	477.75
352.538	481.75
352.765	471.75
352.992	473.75
353.22	441.75
353.447	449.75
353.674	439.75
353.901	409.75
354.128	402.75
354.355	409.75
354.583	430.75
354.81	409.75
355.037	412.75
355.264	404.75
355.491	396.75
355.718	403.75
355.945	409.75
356.172	397.75
356.399	402.75
356.626	389.75
356.853	402.75
357.08	399.75
357.307	412.75
357.534	398.75
357.761	407.75
357.988	411.75
358.215	406.75
358.441	410.75
358.668	427.75
358.895	422.75
359.122	414.75
359.349	420.75
359.576	492.75
359.802	478.75
360.029	515.75
360.256	552.75
360.483	504.75
360.709	481.75
360.936	447.75
361.163	446.75
361.39	456.75
361.616	453.75
361.843	467.75
362.07	465.75
362.296	451.75
362.523	456.75
362.749	439.75
362.976	430.75
363.203	445.75
363.429	430.75
363.656	453.75
363.882	412.75
364.109	437.75
364.335	408.75
364.562	440.75
364.788	414.75
365.015	418.75
365.241	431.75
365.468	441.75
365.694	447.75
365.92	433.75
366.147	417.75
366.373	409.75
366.599	453.75
366.826	407.75
367.052	421.75
367.278	433.75
367.505	410.75
367.731	438.75
367.957	421.75
368.184	419.75
368.41	433.75
368.636	455.75
368.862	459.75
369.089	418.75
369.315	437.75
369.541	415.75
369.767	415.75
369.993	430.75
370.219	437.75
370.445	404.75
370.672	430.75
370.898	424.75
371.124	424.75
371.35	412.75
371.576	431.75
371.802	421.75
372.028	416.75
372.254	411.75
372.48	409.75
372.706	417.75
372.932	428.75
373.158	418.75
373.384	432.75
373.61	398.75
373.835	426.75
374.061	413.75
374.287	441.75
374.513	439.75
374.739	427.75
374.965	432.75
375.191	417.75
375.416	434.75
375.642	413.75
375.868	412.75
376.094	402.75
376.319	398.75
376.545	413.75
376.771	400.75
376.997	399.75
377.222	399.75
377.448	426.75
377.674	406.75
377.899	430.75
378.125	417.75
378.35	424.75
378.576	422.75
378.802	423.75
379.027	425.75
379.253	415.75
379.478	421.75
379.704	417.75
379.929	416.75
380.155	405.75
380.38	401.75
380.606	409.75
380.831	427.75
381.057	420.75
381.282	430.75
381.507	415.75
381.733	417.75
381.958	428.75
382.184	427.75
382.409	424.75
382.634	429.75
382.86	419.75
383.085	448.75
383.31	435.75
383.535	438.75
383.761	435.75
383.986	443.75
384.211	437.75
384.436	428.75
384.662	431.75
384.887	443.75
385.112	446.75
385.337	454.75
385.562	434.75
385.787	465.75
386.013	466.75
386.238	459.75
386.463	452.75
386.688	456.75
386.913	424.75
387.138	440.75
387.363	456.75
387.588	461.75
387.813	454.75
388.038	457.75
388.263	442.75
388.488	455.75
388.713	435.75
388.938	449.75
389.163	468.75
389.387	450.75
389.612	458.75
389.837	448.75
390.062	449.75
390.287	431.75
390.512	462.75
390.736	473.75
390.961	455.75
391.186	446.75
391.411	449.75
391.636	448.75
391.86	449.75
392.085	459.75
392.31	471.75
392.534	482.75
392.759	460.75
392.984	459.75
393.208	447.75
393.433	467.75
393.658	445.75
393.882	453.75
394.107	453.75
394.331	449.75
394.556	444.75
394.78	462.75
395.005	459.75
395.229	459.75
395.454	468.75
395.678	483.75
395.903	488.75
396.127	514.75
396.352	522.75
396.576	482.75
396.801	470.75
397.025	464.75
397.249	482.75
397.474	481.75
397.698	489.75
397.922	505.75
398.147	507.75
398.371	534.75
398.595	494.75
398.82	495.75
399.044	512.75
399.268	511.75
399.492	552.75
399.717	541.75
399.941	577.75
400.165	621.75
400.389	655.75
400.613	583.75
400.837	546.75
401.062	547.75
401.286	553.75
401.51	549.75
401.734	538.75
401.958	519.75
402.182	531.75
402.406	540.75
402.63	542.75
402.854	555.75
403.078	555.75
403.302	545.75
403.526	544.75
403.75	557.75
403.974	540.75
404.198	570.75
404.422	535.75
404.645	546.75
404.869	562.75
405.093	587.75
405.317	639.75
405.541	670.75
405.765	629.75
405.988	585.75
406.212	609.75
406.436	635.75
406.66	653.75
406.883	619.75
407.107	647.75
407.331	662.75
407.555	727.75
407.778	734.75
408.002	673.75
408.226	627.75
408.449	617.75
408.673	642.75
408.896	635.75
409.12	693.75
409.344	667.75
409.567	601.75
409.791	585.75
410.014	542.75
410.238	555.75
410.461	542.75
410.685	570.75
410.908	551.75
411.132	615.75
411.355	645.75
411.578	622.75
411.802	574.75
412.025	568.75
412.249	556.75
412.472	598.75
412.695	637.75
412.919	615.75
413.142	579.75
413.365	546.75
413.589	526.75
413.812	526.75
414.035	527.75
414.258	528.75
414.482	537.75
414.705	514.75
414.928	527.75
415.151	520.75
415.374	522.75
415.597	508.75
415.821	502.75
416.044	520.75
416.267	546.75
416.49	537.75
416.713	517.75
416.936	515.75
417.159	554.75
417.382	530.75
417.605	551.75
417.828	536.75
418.051	555.75
418.274	548.75
418.497	521.75
418.72	536.75
418.943	532.75
419.166	522.75
419.389	569.75
419.611	551.75
419.834	561.75
420.057	562.75
420.28	573.75
420.503	557.75
420.726	543.75
420.948	612.75
421.171	622.75
421.394	656.75
421.617	615.75
421.839	581.75
422.062	573.75
422.285	601.75
422.507	636.75
422.73	737.75
422.953	707.75
423.175	622.75
423.398	602.75
423.621	606.75
423.843	623.75
424.066	631.75
424.288	615.75
424.511	652.75
424.733	706.75
424.956	791.75
425.178	768.75
425.401	753.75
425.623	802.75
425.846	707.75
426.068	653.75
426.291	615.75
426.513	639.75
426.735	635.75
426.958	681.75
427.18	783.75
427.402	929.75
427.625	1035.75
427.847	948.75
428.069	805.75
428.292	718.75
428.514	653.75
428.736	630.75
428.958	613.75
429.181	578.75
429.403	587.75
429.625	604.75
429.847	635.75
430.069	725.75
430.292	698.75
430.514	622.75
430.736	595.75
430.958	598.75
431.18	555.75
431.402	531.75
431.624	557.75
431.846	534.75
432.068	531.75
432.29	542.75
432.512	531.75
432.734	525.75
432.956	532.75
433.178	585.75
433.4	589.75
433.622	538.75
433.844	535.75
434.066	518.75
434.287	534.75
434.509	532.75
434.731	552.75
434.953	571.75
435.175	572.75
435.397	613.75
435.618	614.75
435.84	699.75
436.062	767.75
436.284	869.75
436.505	733.75
436.727	678.75
436.949	639.75
437.17	601.75
437.392	580.75
437.614	595.75
437.835	665.75
438.057	793.75
438.278	890.75
438.5	887.75
438.721	951.75
438.943	896.75
439.165	724.75
439.386	676.75
439.608	667.75
439.829	664.75
440.05	712.75
440.272	728.75
440.493	699.75
440.715	636.75
440.936	623.75
441.158	592.75
441.379	591.75
441.6	586.75
441.822	633.75
442.043	675.75
442.264	807.75
442.486	803.75
442.707	717.75
442.928	677.75
443.149	682.75
443.371	702.75
443.592	740.75
443.813	843.75
444.034	901.75
444.255	759.75
444.476	661.75
444.698	610.75
444.919	647.75
445.14	761.75
445.361	697.75
445.582	699.75
445.803	790.75
446.024	919.75
446.245	920.75
446.466	836.75
446.687	745.75
446.908	649.75
447.129	631.75
447.35	586.75
447.571	612.75
447.792	571.75
448.013	567.75
448.234	658.75
448.455	689.75
448.675	817.75
448.896	942.75
449.117	789.75
449.338	748.75
449.559	872.75
449.779	942.75
450	780.75
450.221	661.75
450.442	630.75
450.662	598.75
450.883	593.75
451.104	652.75
451.324	599.75
451.545	563.75
451.766	561.75
451.986	533.75
452.207	525.75
452.428	543.75
452.648	520.75
452.869	539.75
453.089	544.75
453.31	552.75
453.53	547.75
453.751	549.75
453.971	552.75
454.192	581.75
454.412	559.75
454.633	553.75
454.853	508.75
455.073	524.75
455.294	588.75
455.514	642.75
455.734	645.75
455.955	514.75
456.175	481.75
456.395	508.75
456.616	493.75
456.836	486.75
457.056	484.75
457.276	481.75
457.497	500.75
457.717	483.75
457.937	481.75
458.157	504.75
458.377	508.75
458.598	552.75
458.818	606.75
459.038	729.75
459.258	736.75
459.478	634.75
459.698	565.75
459.918	546.75
460.138	536.75
460.358	533.75
460.578	547.75
460.798	519.75
461.018	543.75
461.238	533.75
461.458	528.75
461.678	552.75
461.898	527.75
462.118	545.75
462.338	542.75
462.558	546.75
462.777	535.75
462.997	544.75
463.217	584.75
463.437	559.75
463.657	545.75
463.876	577.75
464.096	566.75
464.316	539.75
464.536	566.75
464.755	574.75
464.975	586.75
465.195	673.75
465.414	791.75
465.634	661.75
465.854	622.75
466.073	582.75
466.293	554.75
466.512	567.75
466.732	538.75
466.951	526.75
467.171	542.75
467.391	550.75
467.61	534.75
467.829	582.75
468.049	565.75
468.268	583.75
468.488	537.75
468.707	540.75
468.927	547.75
469.146	541.75
469.365	539.75
469.585	516.75
469.804	535.75
470.023	534.75
470.243	546.75
470.462	551.75
470.681	562.75
470.901	579.75
471.12	555.75
471.339	539.75
471.558	548.75
471.777	527.75
471.997	529.75
472.216	580.75
472.435	614.75
472.654	597.75
472.873	557.75
473.092	539.75
473.311	539.75
473.53	555.75
473.749	576.75
473.968	620.75
474.187	763.75
474.406	766.75
474.625	644.75
474.844	574.75
475.063	545.75
475.282	531.75
475.501	523.75
475.72	573.75
475.939	555.75
476.158	583.75
476.377	559.75
476.596	561.75
476.814	565.75
477.033	600.75
477.252	582.75
477.471	599.75
477.69	579.75
477.908	572.75
478.127	588.75
478.346	586.75
478.564	615.75
478.783	581.75
479.002	603.75
479.22	613.75
479.439	630.75
479.658	670.75
479.876	655.75
480.095	692.75
480.313	712.75
480.532	674.75
480.751	675.75
480.969	684.75
481.188	767.75
481.406	839.75
481.624	723.75
481.843	696.75
482.061	662.75
482.28	657.75
482.498	682.75
482.717	648.75
482.935	666.75
483.153	651.75
483.372	649.75
483.59	650.75
483.808	657.75
484.027	649.75
484.245	632.75
484.463	670.75
484.681	659.75
484.9	654.75
485.118	662.75
485.336	661.75
485.554	673.75
485.772	669.75
485.99	666.75
486.209	661.75
486.427	700.75
486.645	675.75
486.863	712.75
487.081	726.75
487.299	708.75
487.517	675.75
487.735	712.75
487.953	707.75
488.171	716.75
488.389	685.75
488.607	699.75
488.825	720.75
489.043	719.75
489.261	721.75
489.479	717.75
489.696	735.75
489.914	732.75
490.132	755.75
490.35	773.75
490.568	713.75
490.786	777.75
491.003	790.75
491.221	812.75
491.439	814.75
491.657	803.75
491.874	834.75
492.092	823.75
492.31	833.75
492.527	831.75
492.745	839.75
492.963	863.75
493.18	839.75
493.398	845.75
493.615	869.75
493.833	865.75
494.05	855.75
494.268	861.75
494.485	865.75
494.703	842.75
494.92	845.75
495.138	852.75
495.355	831.75
495.573	848.75
495.79	859.75
496.008	857.75
496.225	843.75
496.442	861.75
496.66	845.75
496.877	844.75
497.094	862.75
497.312	860.75
497.529	889.75
497.746	881.75
497.963	882.75
498.181	909.75
498.398	924.75
498.615	927.75
498.832	918.75
499.049	927.75
499.267	968.75
499.484	941.75
499.701	946.75
499.918	1000.75
500.135	1000.75
500.352	1021.75
500.569	1057.75
500.786	1060.75
501.003	1038.75
501.22	1014.75
501.437	1045.75
