Data from 1971.PennyLincolnUp.Lamp.En5.5.200Scan.071719.P1._HRD10591_15-20-56-843.txt Node
Date: Thu Jul 18 15:20:56 EDT 2019
User: cochatt
Spectrometer: HR+D1059
Trigger mode: 1
Integration Time (sec): 1.000000E-1
Scans to average: 1
Electric dark correction enabled: true
Nonlinearity correction enabled: false
Boxcar width: 0
XAxis mode: Wavelengths
Number of Pixels in Spectrum: 2048
>>>>>Begin Spectral Data<<<<<
223.165	-13
223.4	-13
223.635	-13
223.869	-10
224.104	-24
224.338	-16
224.573	-2
224.808	-20
225.042	-13
225.277	-12
225.511	-7
225.746	12
225.98	0
226.215	10
226.449	11
226.683	28
226.918	20
227.152	36
227.387	34
227.621	44
227.856	39
228.09	52
228.324	68
228.559	52
228.793	83
229.027	97
229.262	107
229.496	118
229.73	122
229.964	152
230.199	118
230.433	116
230.667	110
230.901	109
231.136	114
231.37	128
231.604	122
231.838	117
232.072	109
232.306	115
232.541	104
232.775	107
233.009	115
233.243	116
233.477	117
233.711	110
233.945	121
234.179	116
234.413	116
234.647	116
234.881	103
235.115	105
235.349	125
235.583	120
235.817	98
236.051	128
236.285	122
236.519	110
236.753	141
236.987	141
237.221	168
237.455	217
237.689	173
237.922	129
238.156	138
238.39	133
238.624	107
238.858	116
239.091	117
239.325	122
239.559	115
239.793	130
240.027	129
240.26	134
240.494	138
240.728	147
240.961	144
241.195	143
241.429	153
241.662	140
241.896	128
242.13	140
242.363	125
242.597	136
242.83	145
243.064	147
243.298	135
243.531	140
243.765	140
243.998	138
244.232	140
244.465	161
244.699	147
244.932	152
245.166	121
245.399	135
245.633	162
245.866	171
246.099	144
246.333	157
246.566	140
246.8	144
247.033	153
247.266	153
247.5	185
247.733	179
247.966	181
248.2	161
248.433	189
248.666	193
248.899	193
249.133	203
249.366	203
249.599	213
249.832	180
250.066	194
250.299	194
250.532	205
250.765	210
250.998	212
251.231	235
251.465	213
251.698	210
251.931	195
252.164	203
252.397	202
252.63	211
252.863	218
253.096	224
253.329	222
253.562	238
253.795	231
254.028	228
254.261	243
254.494	228
254.727	285
254.96	270
255.193	269
255.426	258
255.659	241
255.892	256
256.124	237
256.357	244
256.59	219
256.823	223
257.056	243
257.289	221
257.521	212
257.754	217
257.987	213
258.22	217
258.452	194
258.685	217
258.918	198
259.151	221
259.383	235
259.616	234
259.849	252
260.081	242
260.314	266
260.547	272
260.779	267
261.012	252
261.244	233
261.477	226
261.71	234
261.942	224
262.175	233
262.407	225
262.64	233
262.872	215
263.105	219
263.337	229
263.57	222
263.802	229
264.035	222
264.267	199
264.499	217
264.732	221
264.964	234
265.197	227
265.429	237
265.661	232
265.894	230
266.126	248
266.358	215
266.591	240
266.823	250
267.055	236
267.287	242
267.52	237
267.752	242
267.984	227
268.216	229
268.448	248
268.681	266
268.913	264
269.145	272
269.377	300
269.609	300
269.841	278
270.073	309
270.306	323
270.538	307
270.77	324
271.002	336
271.234	320
271.466	310
271.698	334
271.93	343
272.162	324
272.394	341
272.626	338
272.858	313
273.09	305
273.322	306
273.553	285
273.785	291
274.017	288
274.249	288
274.481	281
274.713	288
274.945	285
275.176	269
275.408	286
275.64	268
275.872	288
276.104	281
276.335	294
276.567	282
276.799	313
277.031	320
277.262	329
277.494	338
277.726	326
277.957	300
278.189	301
278.421	289
278.652	287
278.884	276
279.115	288
279.347	274
279.579	291
279.81	263
280.042	289
280.273	288
280.505	295
280.736	301
280.968	270
281.199	287
281.431	291
281.662	282
281.894	294
282.125	274
282.356	308
282.588	324
282.819	327
283.051	289
283.282	306
283.513	305
283.745	289
283.976	281
284.207	292
284.439	311
284.67	280
284.901	300
285.132	284
285.364	289
285.595	299
285.826	299
286.057	297
286.288	282
286.52	297
286.751	285
286.982	289
287.213	295
287.444	302
287.675	292
287.906	309
288.138	296
288.369	302
288.6	315
288.831	315
289.062	324
289.293	324
289.524	300
289.755	303
289.986	288
290.217	298
290.448	291
290.679	297
290.91	299
291.141	301
291.371	310
291.602	294
291.833	289
292.064	322
292.295	308
292.526	294
292.757	308
292.987	315
293.218	299
293.449	305
293.68	317
293.91	312
294.141	299
294.372	302
294.603	320
294.833	322
295.064	305
295.295	310
295.525	305
295.756	306
295.987	319
296.217	308
296.448	339
296.679	314
296.909	308
297.14	297
297.37	320
297.601	312
297.831	323
298.062	304
298.292	312
298.523	314
298.753	309
298.984	295
299.214	307
299.445	333
299.675	319
299.905	324
300.136	342
300.366	341
300.597	316
300.827	322
301.057	347
301.288	335
301.518	352
301.748	342
301.979	361
302.209	353
302.439	351
302.669	324
302.9	331
303.13	349
303.36	338
303.59	350
303.82	342
304.051	337
304.281	340
304.511	336
304.741	342
304.971	345
305.201	348
305.431	356
305.661	352
305.891	339
306.121	337
306.352	356
306.582	352
306.812	332
307.042	356
307.272	360
307.502	347
307.731	343
307.961	358
308.191	353
308.421	355
308.651	342
308.881	357
309.111	357
309.341	351
309.571	365
309.8	376
310.03	387
310.26	374
310.49	381
310.72	365
310.949	408
311.179	404
311.409	389
311.639	378
311.868	377
312.098	402
312.328	408
312.557	407
312.787	407
313.017	433
313.246	414
313.476	419
313.706	396
313.935	398
314.165	391
314.394	414
314.624	404
314.853	410
315.083	401
315.312	385
315.542	393
315.771	349
316.001	370
316.23	388
316.46	377
316.689	395
316.919	377
317.148	397
317.377	419
317.607	398
317.836	397
318.065	405
318.295	387
318.524	384
318.753	398
318.983	410
319.212	393
319.441	378
319.67	413
319.9	397
320.129	396
320.358	396
320.587	413
320.816	390
321.046	429
321.275	408
321.504	408
321.733	403
321.962	434
322.191	446
322.42	431
322.649	446
322.878	460
323.108	483
323.337	483
323.566	492
323.795	539
324.024	608
324.253	720
324.482	1047
324.71	1527
324.939	2039
325.168	1747
325.397	949
325.626	648
325.855	587
326.084	525
326.313	534
326.542	549
326.77	579
326.999	694
327.228	928
327.457	1317
327.686	1533
327.914	1033
328.143	708
328.372	629
328.6	582
328.829	566
329.058	598
329.287	577
329.515	542
329.744	529
329.972	498
330.201	517
330.43	569
330.658	585
330.887	602
331.115	592
331.344	530
331.572	509
331.801	497
332.03	488
332.258	496
332.486	461
332.715	464
332.943	452
333.172	484
333.4	467
333.629	455
333.857	478
334.085	475
334.314	489
334.542	508
334.771	531
334.999	503
335.227	457
335.455	475
335.684	458
335.912	466
336.14	458
336.369	446
336.597	463
336.825	460
337.053	438
337.281	436
337.51	435
337.738	440
337.966	430
338.194	461
338.422	440
338.65	428
338.878	416
339.106	428
339.334	445
339.562	453
339.79	438
340.018	422
340.246	426
340.474	429
340.702	427
340.93	410
341.158	421
341.386	427
341.614	435
341.842	415
342.07	425
342.298	423
342.526	415
342.754	412
342.981	407
343.209	418
343.437	396
343.665	425
343.893	426
344.12	437
344.348	417
344.576	435
344.804	420
345.031	430
345.259	452
345.487	428
345.714	406
345.942	408
346.17	417
346.397	410
346.625	426
346.853	421
347.08	410
347.308	421
347.535	425
347.763	424
347.99	417
348.218	428
348.445	428
348.673	425
348.9	417
349.128	406
349.355	410
349.583	401
349.81	403
350.037	382
350.265	399
350.492	389
350.72	392
350.947	409
351.174	402
351.402	414
351.629	402
351.856	412
352.083	404
352.311	410
352.538	418
352.765	399
352.992	416
353.22	413
353.447	391
353.674	393
353.901	388
354.128	396
354.355	370
354.583	390
354.81	387
355.037	370
355.264	375
355.491	378
355.718	378
355.945	369
356.172	370
356.399	362
356.626	359
356.853	374
357.08	376
357.307	364
357.534	380
357.761	368
357.988	360
358.215	371
358.441	360
358.668	369
358.895	372
359.122	370
359.349	376
359.576	394
359.802	414
360.029	439
360.256	440
360.483	420
360.709	396
360.936	417
361.163	410
361.39	396
361.616	387
361.843	412
362.07	409
362.296	378
362.523	394
362.749	387
362.976	388
363.203	375
363.429	372
363.656	368
363.882	387
364.109	372
364.335	376
364.562	379
364.788	390
365.015	378
365.241	384
365.468	385
365.694	379
365.92	374
366.147	389
366.373	380
366.599	371
366.826	353
367.052	357
367.278	371
367.505	347
367.731	357
367.957	380
368.184	370
368.41	388
368.636	379
368.862	386
369.089	376
369.315	375
369.541	388
369.767	381
369.993	377
370.219	362
370.445	368
370.672	373
370.898	373
371.124	379
371.35	357
371.576	372
371.802	365
372.028	365
372.254	362
372.48	364
372.706	370
372.932	384
373.158	373
373.384	366
373.61	365
373.835	378
374.061	355
374.287	369
374.513	368
374.739	388
374.965	376
375.191	378
375.416	360
375.642	360
375.868	387
376.094	366
376.319	355
376.545	372
376.771	365
376.997	331
377.222	346
377.448	368
377.674	373
377.899	353
378.125	361
378.35	347
378.576	356
378.802	350
379.027	351
379.253	346
379.478	357
379.704	360
379.929	353
380.155	368
380.38	350
380.606	360
380.831	342
381.057	350
381.282	346
381.507	338
381.733	369
381.958	355
382.184	364
382.409	370
382.634	363
382.86	378
383.085	373
383.31	355
383.535	381
383.761	353
383.986	382
384.211	374
384.436	362
384.662	388
384.887	363
385.112	370
385.337	370
385.562	357
385.787	378
386.013	388
386.238	386
386.463	352
386.688	368
386.913	379
387.138	362
387.363	376
387.588	382
387.813	398
388.038	385
388.263	395
388.488	373
388.713	382
388.938	379
389.163	362
389.387	365
389.612	376
389.837	364
390.062	375
390.287	380
390.512	380
390.736	389
390.961	360
391.186	358
391.411	375
391.636	384
391.86	387
392.085	377
392.31	397
392.534	390
392.759	394
392.984	378
393.208	358
393.433	381
393.658	372
393.882	384
394.107	380
394.331	391
394.556	390
394.78	382
395.005	389
395.229	379
395.454	398
395.678	411
395.903	386
396.127	404
396.352	415
396.576	411
396.801	408
397.025	385
397.249	393
397.474	394
397.698	395
397.922	407
398.147	409
398.371	436
398.595	423
398.82	416
399.044	409
399.268	450
399.492	438
399.717	459
399.941	492
400.165	482
400.389	499
400.613	466
400.837	424
401.062	431
401.286	413
401.51	428
401.734	396
401.958	416
402.182	413
402.406	416
402.63	424
402.854	434
403.078	424
403.302	422
403.526	433
403.75	440
403.974	421
404.198	420
404.422	443
404.645	434
404.869	442
405.093	465
405.317	492
405.541	538
405.765	480
405.988	457
406.212	474
406.436	482
406.66	497
406.883	475
407.107	509
407.331	535
407.555	588
407.778	551
408.002	513
408.226	481
408.449	439
408.673	482
408.896	496
409.12	510
409.344	505
409.567	469
409.791	438
410.014	427
410.238	437
410.461	406
410.685	441
410.908	444
411.132	509
411.355	512
411.578	518
411.802	449
412.025	424
412.249	449
412.472	442
412.695	478
412.919	465
413.142	428
413.365	444
413.589	433
413.812	432
414.035	408
414.258	411
414.482	410
414.705	412
414.928	416
415.151	397
415.374	422
415.597	380
415.821	411
416.044	409
416.267	409
416.49	398
416.713	396
416.936	422
417.159	378
417.382	413
417.605	405
417.828	417
418.051	428
418.274	425
418.497	405
418.72	415
418.943	399
419.166	415
419.389	445
419.611	427
419.834	420
420.057	435
420.28	427
420.503	417
420.726	425
420.948	429
421.171	486
421.394	482
421.617	458
421.839	429
422.062	434
422.285	459
422.507	507
422.73	526
422.953	548
423.175	500
423.398	454
423.621	441
423.843	481
424.066	457
424.288	452
424.511	467
424.733	531
424.956	576
425.178	547
425.401	552
425.623	579
425.846	498
426.068	442
426.291	456
426.513	463
426.735	469
426.958	498
427.18	576
427.402	672
427.625	732
427.847	618
428.069	558
428.292	492
428.514	440
428.736	456
428.958	435
429.181	420
429.403	434
429.625	436
429.847	461
430.069	525
430.292	479
430.514	454
430.736	428
430.958	406
431.18	404
431.402	389
431.624	389
431.846	390
432.068	392
432.29	395
432.512	391
432.734	395
432.956	397
433.178	417
433.4	403
433.622	406
433.844	420
434.066	401
434.287	393
434.509	418
434.731	402
434.953	418
435.175	437
435.397	462
435.618	457
435.84	483
436.062	568
436.284	640
436.505	529
436.727	454
436.949	428
437.17	423
437.392	432
437.614	455
437.835	470
438.057	551
438.278	644
438.5	637
438.721	688
438.943	677
439.165	538
439.386	469
439.608	488
439.829	473
440.05	513
440.272	544
440.493	504
440.715	476
440.936	439
441.158	436
441.379	426
441.6	449
441.822	464
442.043	520
442.264	563
442.486	590
442.707	534
442.928	470
443.149	498
443.371	492
443.592	538
443.813	598
444.034	617
444.255	560
444.476	490
444.698	459
444.919	457
445.14	561
445.361	524
445.582	498
445.803	569
446.024	638
446.245	637
446.466	566
446.687	492
446.908	477
447.129	455
447.35	434
447.571	429
447.792	407
448.013	408
448.234	435
448.455	510
448.675	581
448.896	666
449.117	586
449.338	554
449.559	626
449.779	680
450	571
450.221	480
450.442	453
450.662	443
450.883	417
451.104	423
451.324	405
451.545	406
451.766	388
451.986	380
452.207	384
452.428	378
452.648	361
452.869	382
453.089	377
453.31	395
453.53	374
453.751	382
453.971	372
454.192	390
454.412	380
454.633	388
454.853	374
455.073	369
455.294	397
455.514	459
455.734	449
455.955	381
456.175	378
456.395	354
456.616	351
456.836	354
457.056	344
457.276	334
457.497	351
457.717	336
457.937	345
458.157	365
458.377	350
458.598	366
458.818	443
459.038	493
459.258	503
459.478	424
459.698	398
459.918	397
460.138	405
460.358	414
460.578	387
460.798	400
461.018	398
461.238	406
461.458	390
461.678	386
461.898	401
462.118	381
462.338	391
462.558	394
462.777	426
462.997	412
463.217	417
463.437	397
463.657	420
463.876	400
464.096	418
464.316	415
464.536	430
464.755	425
464.975	419
465.195	429
465.414	499
465.634	450
465.854	421
466.073	407
466.293	387
466.512	386
466.732	399
466.951	406
467.171	386
467.391	383
467.61	399
467.829	412
468.049	389
468.268	392
468.488	390
468.707	371
468.927	382
469.146	370
469.365	374
469.585	374
469.804	381
470.023	385
470.243	394
470.462	401
470.681	420
470.901	402
471.12	397
471.339	399
471.558	402
471.777	408
471.997	377
472.216	359
472.435	386
472.654	388
472.873	360
473.092	392
473.311	377
473.53	402
473.749	398
473.968	433
474.187	546
474.406	549
474.625	439
474.844	406
475.063	397
475.282	398
475.501	404
475.72	394
475.939	385
476.158	402
476.377	414
476.596	406
476.814	416
477.033	410
477.252	407
477.471	421
477.69	414
477.908	428
478.127	410
478.346	418
478.564	448
478.783	417
479.002	438
479.22	418
479.439	452
479.658	438
479.876	478
480.095	450
480.313	470
480.532	462
480.751	468
480.969	476
481.188	537
481.406	538
481.624	503
481.843	473
482.061	471
482.28	465
482.498	454
482.717	452
482.935	472
483.153	456
483.372	442
483.59	447
483.808	430
484.027	467
484.245	427
484.463	442
484.681	484
484.9	457
485.118	453
485.336	468
485.554	460
485.772	458
485.99	457
486.209	455
486.427	466
486.645	464
486.863	472
487.081	490
487.299	490
487.517	480
487.735	498
487.953	478
488.171	479
488.389	497
488.607	473
488.825	500
489.043	492
489.261	476
489.479	486
489.696	497
489.914	483
490.132	503
490.35	504
490.568	537
490.786	534
491.003	546
491.221	556
491.439	544
491.657	525
491.874	543
492.092	569
492.31	574
492.527	567
492.745	578
492.963	576
493.18	577
493.398	562
493.615	556
493.833	568
494.05	591
494.268	598
494.485	562
494.703	564
494.92	594
495.138	562
495.355	575
495.573	569
495.79	590
496.008	583
496.225	569
496.442	560
496.66	584
496.877	579
497.094	582
497.312	576
497.529	602
497.746	594
497.963	584
498.181	607
498.398	620
498.615	620
498.832	649
499.049	629
499.267	660
499.484	670
499.701	663
499.918	686
500.135	725
500.352	760
500.569	784
500.786	763
501.003	730
501.22	718
501.437	710
501.654	693
501.871	707
502.088	686
502.305	669
502.522	642
502.739	628
502.956	625
503.172	593
503.389	584
503.606	585
503.823	591
504.04	574
504.256	577
504.473	581
504.69	566
504.907	556
505.123	544
505.34	551
505.557	577
505.773	549
505.99	548
506.207	550
506.423	543
506.64	536
506.856	541
507.073	531
507.289	538
507.506	545
507.722	543
507.939	536
508.155	534
508.372	510
508.588	507
508.805	514
509.021	510
509.238	537
509.454	542
509.67	579
509.887	546
510.103	520
510.319	523
510.536	585
510.752	968
510.968	757
511.184	536
511.401	512
511.617	486
511.833	488
512.049	491
512.265	501
512.481	501
512.698	473
512.914	481
513.13	486
513.346	492
513.562	488
513.778	468
513.994	500
514.21	507
514.426	488
514.642	524
514.858	557
515.074	593
515.29	678
515.506	950
515.721	782
515.937	578
516.153	536
516.369	526
516.585	501
516.801	494
517.016	510
517.232	507
517.448	499
517.664	493
517.879	485
518.095	483
518.311	496
518.527	475
518.742	476
518.958	462
519.173	481
519.389	487
519.605	481
519.82	502
520.036	515
520.251	513
520.467	533
520.682	528
520.898	536
521.113	568
521.329	577
521.544	629
521.76	792
521.975	1235
522.19	1175
522.406	699
522.621	542
522.836	516
523.052	490
523.267	484
523.482	447
523.698	466
523.913	452
524.128	454
524.343	448
524.559	446
524.774	422
524.989	421
525.204	417
525.419	433
525.634	405
525.849	413
526.064	402
526.28	405
526.495	406
526.71	417
526.925	394
527.14	396
527.355	404
527.57	385
527.785	394
527.999	393
528.214	399
528.429	389
528.644	403
528.859	395
529.074	400
529.289	423
529.503	470
529.718	480
529.933	426
530.148	411
530.363	404
530.577	400
530.792	391
531.007	394
531.221	383
531.436	384
531.651	384
531.865	379
532.08	389
532.295	381
532.509	386
532.724	392
532.938	397
533.153	391
533.367	364
533.582	380
533.796	367
534.011	379
534.225	370
534.44	376
534.654	376
534.868	386
535.083	371
535.297	388
535.511	357
535.726	379
535.94	380
536.154	388
536.369	382
536.583	358
536.797	370
537.011	360
537.225	364
537.44	364
537.654	372
537.868	362
538.082	357
538.296	363
538.51	362
538.724	371
538.938	381
539.153	368
539.367	376
539.581	389
539.795	354
540.009	332
540.222	368
540.436	365
540.65	360
540.864	364
541.078	391
541.292	374
541.506	369
541.72	387
541.934	377
542.147	380
542.361	387
542.575	368
542.789	360
543.002	367
543.216	398
543.43	377
543.644	383
543.857	372
544.071	389
544.285	380
544.498	373
544.712	357
544.925	356
545.139	352
545.352	354
545.566	372
545.779	380
545.993	352
546.206	384
546.42	374
546.633	369
546.847	382
547.06	374
547.274	368
547.487	372
547.7	365
547.914	365
548.127	356
548.34	348
548.554	358
548.767	360
548.98	333
549.193	355
549.407	353
549.62	369
549.833	357
550.046	355
550.259	370
550.473	340
550.686	360
550.899	346
551.112	360
551.325	350
551.538	333
551.751	341
551.964	340
552.177	349
552.39	349
552.603	346
552.816	363
553.029	347
553.242	349
553.455	348
553.667	355
553.88	394
554.093	356
554.306	351
554.519	338
554.732	364
554.944	343
555.157	346
555.37	338
555.583	341
555.795	353
556.008	345
556.221	333
556.433	329
556.646	337
556.859	340
557.071	325
557.284	323
557.496	324
557.709	334
557.921	312
558.134	338
558.346	318
558.559	316
558.771	318
558.984	324
559.196	304
559.409	315
559.621	315
559.833	316
560.046	302
560.258	307
560.47	321
560.683	321
560.895	321
561.107	295
561.32	308
561.532	326
561.744	316
561.956	328
562.168	315
562.381	314
562.593	311
562.805	315
563.017	317
563.229	312
563.441	310
