Data from 1971.PennyLincolnUp.Lamp.En5.5.200Scan.071719.P1.Scan 2. Changed Angle._HRD10591_15-24-44-842.txt Node
Date: Thu Jul 18 15:24:44 EDT 2019
User: cochatt
Spectrometer: HR+D1059
Trigger mode: 1
Integration Time (sec): 1.000000E-1
Scans to average: 1
Electric dark correction enabled: true
Nonlinearity correction enabled: false
Boxcar width: 0
XAxis mode: Wavelengths
Number of Pixels in Spectrum: 2048
>>>>>Begin Spectral Data<<<<<
223.165	-10.75
223.4	-10.75
223.635	-10.75
223.869	-21.75
224.104	-28.75
224.338	-7.75
224.573	-8.75
224.808	-1.75
225.042	2.25
225.277	-12.75
225.511	5.25
225.746	-6.75
225.98	4.25
226.215	8.25
226.449	9.25
226.683	16.25
226.918	18.25
227.152	35.25
227.387	30.25
227.621	44.25
227.856	35.25
228.09	36.25
228.324	52.25
228.559	62.25
228.793	68.25
229.027	105.25
229.262	116.25
229.496	130.25
229.73	164.25
229.964	191.25
230.199	143.25
230.433	118.25
230.667	117.25
230.901	121.25
231.136	121.25
231.37	112.25
231.604	124.25
231.838	126.25
232.072	114.25
232.306	118.25
232.541	130.25
232.775	125.25
233.009	120.25
233.243	119.25
233.477	127.25
233.711	125.25
233.945	111.25
234.179	116.25
234.413	128.25
234.647	118.25
234.881	128.25
235.115	151.25
235.349	122.25
235.583	132.25
235.817	133.25
236.051	144.25
236.285	138.25
236.519	142.25
236.753	124.25
236.987	149.25
237.221	217.25
237.455	282.25
237.689	216.25
237.922	158.25
238.156	134.25
238.39	143.25
238.624	132.25
238.858	130.25
239.091	137.25
239.325	140.25
239.559	136.25
239.793	132.25
240.027	134.25
240.26	150.25
240.494	189.25
240.728	176.25
240.961	180.25
241.195	158.25
241.429	125.25
241.662	157.25
241.896	149.25
242.13	127.25
242.363	135.25
242.597	150.25
242.83	154.25
243.064	140.25
243.298	144.25
243.531	143.25
243.765	166.25
243.998	154.25
244.232	142.25
244.465	146.25
244.699	143.25
244.932	151.25
245.166	163.25
245.399	155.25
245.633	156.25
245.866	148.25
246.099	158.25
246.333	162.25
246.566	160.25
246.8	146.25
247.033	157.25
247.266	163.25
247.5	180.25
247.733	186.25
247.966	171.25
248.2	168.25
248.433	196.25
248.666	176.25
248.899	206.25
249.133	209.25
249.366	225.25
249.599	221.25
249.832	208.25
250.066	217.25
250.299	186.25
250.532	202.25
250.765	222.25
250.998	224.25
251.231	234.25
251.465	240.25
251.698	226.25
251.931	210.25
252.164	232.25
252.397	233.25
252.63	213.25
252.863	222.25
253.096	254.25
253.329	262.25
253.562	247.25
253.795	247.25
254.028	258.25
254.261	235.25
254.494	252.25
254.727	304.25
254.96	335.25
255.193	327.25
255.426	286.25
255.659	278.25
255.892	280.25
256.124	264.25
256.357	252.25
256.59	248.25
256.823	247.25
257.056	255.25
257.289	226.25
257.521	229.25
257.754	233.25
257.987	225.25
258.22	231.25
258.452	228.25
258.685	213.25
258.918	227.25
259.151	230.25
259.383	234.25
259.616	230.25
259.849	236.25
260.081	248.25
260.314	268.25
260.547	287.25
260.779	266.25
261.012	248.25
261.244	236.25
261.477	248.25
261.71	246.25
261.942	260.25
262.175	293.25
262.407	262.25
262.64	248.25
262.872	232.25
263.105	216.25
263.337	216.25
263.57	210.25
263.802	221.25
264.035	236.25
264.267	217.25
264.499	218.25
264.732	221.25
264.964	222.25
265.197	242.25
265.429	212.25
265.661	209.25
265.894	233.25
266.126	231.25
266.358	229.25
266.591	221.25
266.823	222.25
267.055	233.25
267.287	234.25
267.52	231.25
267.752	236.25
267.984	241.25
268.216	233.25
268.448	240.25
268.681	258.25
268.913	264.25
269.145	300.25
269.377	289.25
269.609	300.25
269.841	294.25
270.073	287.25
270.306	320.25
270.538	356.25
270.77	348.25
271.002	328.25
271.234	320.25
271.466	321.25
271.698	347.25
271.93	352.25
272.162	352.25
272.394	356.25
272.626	340.25
272.858	315.25
273.09	298.25
273.322	313.25
273.553	282.25
273.785	276.25
274.017	280.25
274.249	288.25
274.481	270.25
274.713	276.25
274.945	296.25
275.176	288.25
275.408	281.25
275.64	269.25
275.872	270.25
276.104	268.25
276.335	270.25
276.567	298.25
276.799	312.25
277.031	313.25
277.262	341.25
277.494	333.25
277.726	298.25
277.957	320.25
278.189	299.25
278.421	280.25
278.652	280.25
278.884	268.25
279.115	285.25
279.347	279.25
279.579	266.25
279.81	278.25
280.042	269.25
280.273	266.25
280.505	269.25
280.736	242.25
280.968	269.25
281.199	247.25
281.431	270.25
281.662	271.25
281.894	290.25
282.125	290.25
282.356	298.25
282.588	336.25
282.819	325.25
283.051	262.25
283.282	265.25
283.513	279.25
283.745	280.25
283.976	272.25
284.207	284.25
284.439	278.25
284.67	299.25
284.901	279.25
285.132	278.25
285.364	268.25
285.595	265.25
285.826	269.25
286.057	276.25
286.288	275.25
286.52	251.25
286.751	268.25
286.982	282.25
287.213	275.25
287.444	285.25
287.675	296.25
287.906	282.25
288.138	314.25
288.369	315.25
288.6	314.25
288.831	297.25
289.062	306.25
289.293	288.25
289.524	299.25
289.755	270.25
289.986	295.25
290.217	277.25
290.448	275.25
290.679	296.25
290.91	275.25
291.141	293.25
291.371	276.25
291.602	288.25
291.833	284.25
292.064	282.25
292.295	311.25
292.526	281.25
292.757	290.25
292.987	301.25
293.218	276.25
293.449	285.25
293.68	307.25
293.91	294.25
294.141	292.25
294.372	299.25
294.603	279.25
294.833	293.25
295.064	289.25
295.295	304.25
295.525	305.25
295.756	306.25
295.987	303.25
296.217	314.25
296.448	344.25
296.679	310.25
296.909	293.25
297.14	288.25
297.37	307.25
297.601	293.25
297.831	290.25
298.062	307.25
298.292	293.25
298.523	294.25
298.753	312.25
298.984	316.25
299.214	310.25
299.445	300.25
299.675	315.25
299.905	300.25
300.136	304.25
300.366	312.25
300.597	294.25
300.827	319.25
301.057	308.25
301.288	327.25
301.518	322.25
301.748	330.25
301.979	320.25
302.209	323.25
302.439	325.25
302.669	321.25
302.9	331.25
303.13	328.25
303.36	313.25
303.59	350.25
303.82	350.25
304.051	344.25
304.281	340.25
304.511	319.25
304.741	315.25
304.971	324.25
305.201	334.25
305.431	324.25
305.661	333.25
305.891	333.25
306.121	336.25
306.352	328.25
306.582	336.25
306.812	347.25
307.042	328.25
307.272	355.25
307.502	318.25
307.731	337.25
307.961	335.25
308.191	322.25
308.421	333.25
308.651	341.25
308.881	332.25
309.111	338.25
309.341	337.25
309.571	351.25
309.8	381.25
310.03	397.25
310.26	382.25
310.49	377.25
310.72	411.25
310.949	441.25
311.179	412.25
311.409	404.25
311.639	397.25
311.868	409.25
312.098	390.25
312.328	400.25
312.557	425.25
312.787	460.25
313.017	446.25
313.246	413.25
313.476	382.25
313.706	390.25
313.935	392.25
314.165	405.25
314.394	436.25
314.624	411.25
314.853	418.25
315.083	404.25
315.312	391.25
315.542	387.25
315.771	373.25
316.001	367.25
316.23	378.25
316.46	395.25
316.689	393.25
316.919	393.25
317.148	415.25
317.377	390.25
317.607	379.25
317.836	388.25
318.065	400.25
318.295	361.25
318.524	385.25
318.753	379.25
318.983	390.25
319.212	389.25
319.441	397.25
319.67	403.25
319.9	401.25
320.129	406.25
320.358	391.25
320.587	390.25
320.816	398.25
321.046	420.25
321.275	416.25
321.504	441.25
321.733	432.25
321.962	450.25
322.191	461.25
322.42	485.25
322.649	493.25
322.878	472.25
323.108	516.25
323.337	530.25
323.566	590.25
323.795	644.25
324.024	700.25
324.253	826.25
324.482	1295.25
324.71	1982.25
324.939	2844.25
325.168	2424.25
325.397	1272.25
325.626	800.25
325.855	658.25
326.084	605.25
326.313	582.25
326.542	587.25
326.77	638.25
326.999	780.25
327.228	1073.25
327.457	1724.25
327.686	2096.25
327.914	1432.25
328.143	904.25
328.372	765.25
328.6	730.25
328.829	666.25
329.058	686.25
329.287	717.25
329.515	648.25
329.744	599.25
329.972	578.25
330.201	600.25
330.43	683.25
330.658	701.25
330.887	726.25
331.115	683.25
331.344	604.25
331.572	555.25
331.801	564.25
332.03	542.25
332.258	532.25
332.486	508.25
332.715	495.25
332.943	477.25
333.172	478.25
333.4	486.25
333.629	492.25
333.857	492.25
334.085	503.25
334.314	540.25
334.542	557.25
334.771	591.25
334.999	556.25
335.227	496.25
335.455	467.25
335.684	482.25
335.912	467.25
336.14	452.25
336.369	460.25
336.597	479.25
336.825	472.25
337.053	454.25
337.281	460.25
337.51	456.25
337.738	453.25
337.966	475.25
338.194	461.25
338.422	452.25
338.65	461.25
338.878	461.25
339.106	452.25
339.334	444.25
339.562	438.25
339.79	445.25
340.018	456.25
340.246	461.25
340.474	457.25
340.702	448.25
340.93	435.25
341.158	454.25
341.386	434.25
341.614	456.25
341.842	462.25
342.07	427.25
342.298	464.25
342.526	422.25
342.754	415.25
342.981	441.25
343.209	424.25
343.437	420.25
343.665	416.25
343.893	425.25
344.12	448.25
344.348	437.25
344.576	454.25
344.804	453.25
345.031	485.25
345.259	470.25
345.487	466.25
345.714	471.25
345.942	436.25
346.17	432.25
346.397	445.25
346.625	420.25
346.853	428.25
347.08	434.25
347.308	457.25
347.535	476.25
347.763	463.25
347.99	468.25
348.218	487.25
348.445	463.25
348.673	472.25
348.9	433.25
349.128	443.25
349.355	434.25
349.583	419.25
349.81	419.25
350.037	412.25
350.265	429.25
350.492	429.25
350.72	429.25
350.947	450.25
351.174	441.25
351.402	453.25
351.629	465.25
351.856	441.25
352.083	483.25
352.311	471.25
352.538	459.25
352.765	466.25
352.992	460.25
353.22	456.25
353.447	451.25
353.674	433.25
353.901	411.25
354.128	415.25
354.355	418.25
354.583	411.25
354.81	434.25
355.037	417.25
355.264	407.25
355.491	411.25
355.718	396.25
355.945	399.25
356.172	410.25
356.399	368.25
356.626	382.25
356.853	415.25
357.08	388.25
357.307	395.25
357.534	400.25
357.761	403.25
357.988	407.25
358.215	405.25
358.441	417.25
358.668	420.25
358.895	414.25
359.122	427.25
359.349	445.25
359.576	456.25
359.802	511.25
360.029	525.25
360.256	534.25
360.483	528.25
360.709	457.25
360.936	463.25
361.163	445.25
361.39	472.25
361.616	458.25
361.843	438.25
362.07	444.25
362.296	455.25
362.523	445.25
362.749	445.25
362.976	438.25
363.203	461.25
363.429	447.25
363.656	429.25
363.882	426.25
364.109	443.25
364.335	424.25
364.562	413.25
364.788	413.25
365.015	437.25
365.241	427.25
365.468	435.25
365.694	436.25
365.92	451.25
366.147	434.25
366.373	426.25
366.599	437.25
366.826	416.25
367.052	418.25
367.278	425.25
367.505	451.25
367.731	434.25
367.957	430.25
368.184	411.25
368.41	415.25
368.636	442.25
368.862	462.25
369.089	446.25
369.315	419.25
369.541	414.25
369.767	424.25
369.993	428.25
370.219	438.25
370.445	432.25
370.672	415.25
370.898	432.25
371.124	409.25
371.35	414.25
371.576	432.25
371.802	437.25
372.028	420.25
372.254	424.25
372.48	425.25
372.706	430.25
372.932	398.25
373.158	412.25
373.384	426.25
373.61	409.25
373.835	414.25
374.061	405.25
374.287	443.25
374.513	421.25
374.739	427.25
374.965	427.25
375.191	413.25
375.416	443.25
375.642	411.25
375.868	419.25
376.094	433.25
376.319	418.25
376.545	405.25
376.771	405.25
376.997	418.25
377.222	416.25
377.448	418.25
377.674	417.25
377.899	425.25
378.125	424.25
378.35	416.25
378.576	424.25
378.802	424.25
379.027	423.25
379.253	417.25
379.478	404.25
379.704	412.25
379.929	438.25
380.155	420.25
380.38	449.25
380.606	439.25
380.831	430.25
381.057	453.25
381.282	418.25
381.507	411.25
381.733	409.25
381.958	432.25
382.184	430.25
382.409	434.25
382.634	443.25
382.86	429.25
383.085	445.25
383.31	426.25
383.535	440.25
383.761	437.25
383.986	437.25
384.211	440.25
384.436	441.25
384.662	424.25
384.887	449.25
385.112	444.25
385.337	439.25
385.562	447.25
385.787	455.25
386.013	456.25
386.238	461.25
386.463	454.25
386.688	462.25
386.913	448.25
387.138	451.25
387.363	465.25
387.588	454.25
387.813	455.25
388.038	451.25
388.263	465.25
388.488	441.25
388.713	447.25
388.938	457.25
389.163	445.25
389.387	462.25
389.612	452.25
389.837	467.25
390.062	433.25
390.287	449.25
390.512	448.25
390.736	430.25
390.961	421.25
391.186	442.25
391.411	466.25
391.636	457.25
391.86	451.25
392.085	455.25
392.31	442.25
392.534	468.25
392.759	481.25
392.984	467.25
393.208	454.25
393.433	469.25
393.658	458.25
393.882	459.25
394.107	474.25
394.331	463.25
394.556	452.25
394.78	460.25
395.005	442.25
395.229	461.25
395.454	482.25
395.678	452.25
395.903	476.25
396.127	502.25
396.352	504.25
396.576	476.25
396.801	484.25
397.025	468.25
397.249	472.25
397.474	493.25
397.698	474.25
397.922	490.25
398.147	532.25
398.371	524.25
398.595	506.25
398.82	518.25
399.044	541.25
399.268	538.25
399.492	548.25
399.717	560.25
399.941	600.25
400.165	631.25
400.389	640.25
400.613	601.25
400.837	568.25
401.062	528.25
401.286	538.25
401.51	533.25
401.734	515.25
401.958	536.25
402.182	520.25
402.406	542.25
402.63	554.25
402.854	538.25
403.078	537.25
403.302	558.25
403.526	578.25
403.75	553.25
403.974	548.25
404.198	524.25
404.422	549.25
404.645	576.25
404.869	544.25
405.093	599.25
405.317	660.25
405.541	677.25
405.765	620.25
405.988	584.25
406.212	595.25
406.436	653.25
406.66	675.25
406.883	588.25
407.107	639.25
407.331	676.25
407.555	755.25
407.778	756.25
408.002	680.25
408.226	636.25
408.449	633.25
408.673	606.25
408.896	628.25
409.12	688.25
409.344	660.25
409.567	580.25
409.791	561.25
410.014	545.25
410.238	560.25
410.461	570.25
410.685	554.25
410.908	569.25
411.132	631.25
411.355	665.25
411.578	618.25
411.802	568.25
412.025	563.25
412.249	582.25
412.472	587.25
412.695	646.25
412.919	651.25
413.142	593.25
413.365	560.25
413.589	549.25
413.812	518.25
414.035	518.25
414.258	545.25
414.482	524.25
414.705	519.25
414.928	514.25
415.151	503.25
415.374	508.25
415.597	532.25
415.821	520.25
416.044	520.25
416.267	528.25
416.49	521.25
416.713	534.25
416.936	521.25
417.159	528.25
417.382	526.25
417.605	541.25
417.828	536.25
418.051	576.25
418.274	538.25
418.497	548.25
418.72	522.25
418.943	534.25
419.166	548.25
419.389	571.25
419.611	555.25
419.834	568.25
420.057	581.25
420.28	568.25
420.503	576.25
420.726	558.25
420.948	576.25
421.171	630.25
421.394	672.25
421.617	589.25
421.839	582.25
422.062	577.25
422.285	572.25
422.507	669.25
422.73	737.25
422.953	707.25
423.175	630.25
423.398	588.25
423.621	585.25
423.843	618.25
424.066	618.25
424.288	622.25
424.511	629.25
424.733	698.25
424.956	810.25
425.178	760.25
425.401	793.25
425.623	809.25
425.846	692.25
426.068	640.25
426.291	650.25
426.513	625.25
426.735	638.25
426.958	663.25
427.18	781.25
427.402	947.25
427.625	1032.25
427.847	941.25
428.069	826.25
428.292	716.25
428.514	617.25
428.736	629.25
428.958	611.25
429.181	588.25
429.403	581.25
429.625	613.25
429.847	642.25
430.069	702.25
430.292	723.25
430.514	620.25
430.736	593.25
430.958	579.25
431.18	550.25
431.402	576.25
431.624	529.25
431.846	542.25
432.068	514.25
432.29	544.25
432.512	536.25
432.734	550.25
432.956	572.25
433.178	572.25
433.4	587.25
433.622	543.25
433.844	555.25
434.066	546.25
434.287	550.25
434.509	553.25
434.731	549.25
434.953	571.25
435.175	569.25
435.397	613.25
435.618	627.25
435.84	700.25
436.062	821.25
436.284	873.25
436.505	731.25
436.727	662.25
436.949	595.25
437.17	596.25
437.392	585.25
437.614	617.25
437.835	662.25
438.057	783.25
438.278	905.25
438.5	880.25
438.721	972.25
438.943	932.25
439.165	780.25
439.386	665.25
439.608	660.25
439.829	657.25
440.05	698.25
440.272	758.25
440.493	701.25
440.715	644.25
440.936	614.25
441.158	586.25
441.379	609.25
441.6	609.25
441.822	642.25
442.043	674.25
442.264	778.25
442.486	822.25
442.707	712.25
442.928	680.25
443.149	666.25
443.371	706.25
443.592	756.25
443.813	868.25
444.034	930.25
444.255	776.25
444.476	669.25
444.698	621.25
444.919	611.25
445.14	741.25
445.361	709.25
445.582	708.25
445.803	789.25
446.024	897.25
446.245	949.25
446.466	845.25
446.687	698.25
446.908	646.25
447.129	617.25
447.35	587.25
447.571	570.25
447.792	602.25
448.013	617.25
448.234	635.25
448.455	698.25
448.675	829.25
448.896	932.25
449.117	804.25
449.338	774.25
449.559	896.25
449.779	991.25
450	826.25
450.221	685.25
450.442	610.25
450.662	595.25
450.883	609.25
451.104	622.25
451.324	612.25
451.545	582.25
451.766	542.25
451.986	547.25
452.207	529.25
452.428	531.25
452.648	545.25
452.869	523.25
453.089	508.25
453.31	569.25
453.53	566.25
453.751	543.25
453.971	547.25
454.192	562.25
454.412	572.25
454.633	520.25
454.853	516.25
455.073	526.25
455.294	560.25
455.514	670.25
455.734	642.25
455.955	557.25
456.175	504.25
456.395	482.25
456.616	485.25
456.836	489.25
457.056	478.25
457.276	476.25
457.497	496.25
457.717	502.25
457.937	502.25
458.157	514.25
458.377	526.25
458.598	545.25
458.818	618.25
459.038	732.25
459.258	733.25
459.478	625.25
459.698	573.25
459.918	579.25
460.138	535.25
460.358	554.25
460.578	532.25
460.798	545.25
461.018	542.25
461.238	544.25
461.458	538.25
461.678	521.25
461.898	553.25
462.118	546.25
462.338	562.25
462.558	542.25
462.777	532.25
462.997	546.25
463.217	558.25
463.437	556.25
463.657	559.25
463.876	571.25
464.096	562.25
464.316	582.25
464.536	604.25
464.755	566.25
464.975	577.25
465.195	676.25
465.414	778.25
465.634	706.25
465.854	608.25
466.073	579.25
466.293	560.25
466.512	545.25
466.732	552.25
466.951	523.25
467.171	530.25
467.391	533.25
467.61	562.25
467.829	562.25
468.049	560.25
468.268	552.25
468.488	524.25
468.707	523.25
468.927	519.25
469.146	523.25
469.365	527.25
469.585	519.25
469.804	526.25
470.023	548.25
470.243	550.25
470.462	549.25
470.681	587.25
470.901	600.25
471.12	560.25
471.339	556.25
471.558	542.25
471.777	566.25
471.997	520.25
472.216	545.25
472.435	604.25
472.654	585.25
472.873	542.25
473.092	557.25
473.311	539.25
473.53	564.25
473.749	557.25
473.968	648.25
474.187	775.25
474.406	759.25
474.625	645.25
474.844	572.25
475.063	564.25
475.282	546.25
475.501	550.25
475.72	567.25
475.939	546.25
476.158	554.25
476.377	560.25
476.596	563.25
476.814	561.25
477.033	583.25
477.252	569.25
477.471	570.25
477.69	573.25
477.908	591.25
478.127	580.25
478.346	608.25
478.564	598.25
478.783	614.25
479.002	625.25
479.22	638.25
479.439	618.25
479.658	661.25
479.876	664.25
480.095	688.25
480.313	716.25
480.532	656.25
480.751	662.25
480.969	658.25
481.188	759.25
481.406	833.25
481.624	741.25
481.843	664.25
482.061	678.25
482.28	701.25
482.498	663.25
482.717	645.25
482.935	664.25
483.153	636.25
483.372	637.25
483.59	678.25
483.808	666.25
484.027	642.25
484.245	648.25
484.463	670.25
484.681	672.25
484.9	654.25
485.118	668.25
485.336	665.25
485.554	678.25
485.772	666.25
485.99	637.25
486.209	681.25
486.427	681.25
486.645	694.25
486.863	708.25
487.081	735.25
487.299	678.25
487.517	680.25
487.735	711.25
487.953	695.25
488.171	731.25
488.389	712.25
488.607	725.25
488.825	728.25
489.043	724.25
489.261	726.25
489.479	744.25
489.696	754.25
489.914	729.25
490.132	751.25
490.35	772.25
490.568	764.25
490.786	774.25
491.003	798.25
491.221	820.25
491.439	819.25
491.657	821.25
491.874	827.25
492.092	837.25
492.31	794.25
492.527	857.25
492.745	837.25
492.963	863.25
493.18	842.25
493.398	850.25
493.615	861.25
493.833	868.25
494.05	867.25
494.268	848.25
494.485	845.25
494.703	864.25
494.92	848.25
495.138	860.25
495.355	846.25
495.573	860.25
495.79	854.25
496.008	849.25
496.225	852.25
496.442	884.25
496.66	861.25
496.877	834.25
497.094	865.25
497.312	857.25
497.529	867.25
497.746	871.25
497.963	880.25
498.181	905.25
498.398	903.25
498.615	915.25
498.832	924.25
499.049	914.25
499.267	941.25
499.484	977.25
499.701	998.25
499.918	987.25
500.135	1000.25
500.352	1051.25
500.569	1048.25
500.786	1039.25
501.003	1025.25
501.22	1053.25
501.437	1013.25
