Data from 1971.PennyLincolnUp.Lamp.En5.5.200Scan.071719.P1.Scan 2. Changed Angle._HRD10591_15-24-09-842.txt Node
Date: Thu Jul 18 15:24:09 EDT 2019
User: cochatt
Spectrometer: HR+D1059
Trigger mode: 1
Integration Time (sec): 1.000000E-1
Scans to average: 1
Electric dark correction enabled: true
Nonlinearity correction enabled: false
Boxcar width: 0
XAxis mode: Wavelengths
Number of Pixels in Spectrum: 2048
>>>>>Begin Spectral Data<<<<<
223.165	-21.75
223.4	-21.75
223.635	-21.75
223.869	-25.75
224.104	-13.75
224.338	-5.75
224.573	-7.75
224.808	-14.75
225.042	-8.75
225.277	-5.75
225.511	-11.75
225.746	3.25
225.98	10.25
226.215	6.25
226.449	20.25
226.683	14.25
226.918	31.25
227.152	30.25
227.387	21.25
227.621	41.25
227.856	48.25
228.09	52.25
228.324	30.25
228.559	55.25
228.793	72.25
229.027	111.25
229.262	119.25
229.496	117.25
229.73	146.25
229.964	165.25
230.199	148.25
230.433	127.25
230.667	117.25
230.901	107.25
231.136	123.25
231.37	116.25
231.604	118.25
231.838	123.25
232.072	112.25
232.306	103.25
232.541	130.25
232.775	108.25
233.009	106.25
233.243	129.25
233.477	124.25
233.711	123.25
233.945	123.25
234.179	114.25
234.413	114.25
234.647	118.25
234.881	115.25
235.115	116.25
235.349	118.25
235.583	115.25
235.817	117.25
236.051	135.25
236.285	149.25
236.519	121.25
236.753	129.25
236.987	150.25
237.221	197.25
237.455	273.25
237.689	200.25
237.922	148.25
238.156	154.25
238.39	141.25
238.624	144.25
238.858	153.25
239.091	127.25
239.325	116.25
239.559	138.25
239.793	121.25
240.027	138.25
240.26	145.25
240.494	173.25
240.728	154.25
240.961	177.25
241.195	159.25
241.429	155.25
241.662	150.25
241.896	144.25
242.13	150.25
242.363	145.25
242.597	124.25
242.83	144.25
243.064	136.25
243.298	151.25
243.531	148.25
243.765	148.25
243.998	130.25
244.232	141.25
244.465	134.25
244.699	147.25
244.932	143.25
245.166	141.25
245.399	130.25
245.633	157.25
245.866	143.25
246.099	155.25
246.333	153.25
246.566	148.25
246.8	166.25
247.033	139.25
247.266	164.25
247.5	186.25
247.733	164.25
247.966	202.25
248.2	200.25
248.433	191.25
248.666	186.25
248.899	194.25
249.133	223.25
249.366	216.25
249.599	231.25
249.832	196.25
250.066	184.25
250.299	198.25
250.532	226.25
250.765	235.25
250.998	240.25
251.231	263.25
251.465	233.25
251.698	222.25
251.931	205.25
252.164	215.25
252.397	214.25
252.63	225.25
252.863	223.25
253.096	235.25
253.329	244.25
253.562	228.25
253.795	227.25
254.028	224.25
254.261	234.25
254.494	229.25
254.727	268.25
254.96	313.25
255.193	294.25
255.426	283.25
255.659	258.25
255.892	259.25
256.124	249.25
256.357	243.25
256.59	220.25
256.823	220.25
257.056	248.25
257.289	228.25
257.521	216.25
257.754	216.25
257.987	200.25
258.22	218.25
258.452	209.25
258.685	221.25
258.918	202.25
259.151	203.25
259.383	227.25
259.616	229.25
259.849	247.25
260.081	242.25
260.314	266.25
260.547	269.25
260.779	269.25
261.012	255.25
261.244	231.25
261.477	241.25
261.71	233.25
261.942	240.25
262.175	249.25
262.407	263.25
262.64	223.25
262.872	227.25
263.105	213.25
263.337	208.25
263.57	218.25
263.802	230.25
264.035	216.25
264.267	197.25
264.499	222.25
264.732	223.25
264.964	211.25
265.197	210.25
265.429	210.25
265.661	217.25
265.894	226.25
266.126	226.25
266.358	214.25
266.591	215.25
266.823	219.25
267.055	215.25
267.287	224.25
267.52	203.25
267.752	232.25
267.984	232.25
268.216	238.25
268.448	248.25
268.681	233.25
268.913	229.25
269.145	272.25
269.377	304.25
269.609	284.25
269.841	274.25
270.073	275.25
270.306	316.25
270.538	322.25
270.77	330.25
271.002	308.25
271.234	318.25
271.466	313.25
271.698	323.25
271.93	338.25
272.162	357.25
272.394	325.25
272.626	314.25
272.858	297.25
273.09	304.25
273.322	295.25
273.553	265.25
273.785	263.25
274.017	278.25
274.249	262.25
274.481	262.25
274.713	255.25
274.945	280.25
275.176	264.25
275.408	278.25
275.64	268.25
275.872	270.25
276.104	266.25
276.335	272.25
276.567	261.25
276.799	283.25
277.031	323.25
277.262	338.25
277.494	315.25
277.726	309.25
277.957	308.25
278.189	273.25
278.421	284.25
278.652	264.25
278.884	277.25
279.115	267.25
279.347	259.25
279.579	260.25
279.81	271.25
280.042	259.25
280.273	247.25
280.505	261.25
280.736	238.25
280.968	250.25
281.199	243.25
281.431	266.25
281.662	276.25
281.894	238.25
282.125	272.25
282.356	298.25
282.588	293.25
282.819	329.25
283.051	264.25
283.282	257.25
283.513	275.25
283.745	278.25
283.976	278.25
284.207	276.25
284.439	274.25
284.67	282.25
284.901	288.25
285.132	266.25
285.364	255.25
285.595	263.25
285.826	277.25
286.057	266.25
286.288	271.25
286.52	268.25
286.751	273.25
286.982	280.25
287.213	256.25
287.444	270.25
287.675	284.25
287.906	288.25
288.138	299.25
288.369	304.25
288.6	282.25
288.831	282.25
289.062	295.25
289.293	310.25
289.524	261.25
289.755	289.25
289.986	277.25
290.217	290.25
290.448	279.25
290.679	266.25
290.91	266.25
291.141	269.25
291.371	282.25
291.602	277.25
291.833	277.25
292.064	276.25
292.295	282.25
292.526	283.25
292.757	271.25
292.987	287.25
293.218	282.25
293.449	283.25
293.68	284.25
293.91	273.25
294.141	298.25
294.372	281.25
294.603	276.25
294.833	281.25
295.064	283.25
295.295	276.25
295.525	282.25
295.756	295.25
295.987	307.25
296.217	330.25
296.448	327.25
296.679	311.25
296.909	295.25
297.14	298.25
297.37	288.25
297.601	284.25
297.831	275.25
298.062	295.25
298.292	276.25
298.523	296.25
298.753	298.25
298.984	303.25
299.214	280.25
299.445	300.25
299.675	304.25
299.905	288.25
300.136	314.25
300.366	302.25
300.597	308.25
300.827	308.25
301.057	323.25
301.288	306.25
301.518	316.25
301.748	315.25
301.979	304.25
302.209	326.25
302.439	319.25
302.669	316.25
302.9	326.25
303.13	340.25
303.36	321.25
303.59	305.25
303.82	315.25
304.051	330.25
304.281	327.25
304.511	316.25
304.741	320.25
304.971	307.25
305.201	308.25
305.431	308.25
305.661	300.25
305.891	315.25
306.121	314.25
306.352	312.25
306.582	328.25
306.812	311.25
307.042	326.25
307.272	318.25
307.502	329.25
307.731	318.25
307.961	341.25
308.191	343.25
308.421	296.25
308.651	318.25
308.881	327.25
309.111	342.25
309.341	358.25
309.571	354.25
309.8	368.25
310.03	374.25
310.26	397.25
310.49	375.25
310.72	382.25
310.949	393.25
311.179	414.25
311.409	375.25
311.639	374.25
311.868	384.25
312.098	371.25
312.328	404.25
312.557	420.25
312.787	441.25
313.017	412.25
313.246	388.25
313.476	385.25
313.706	366.25
313.935	385.25
314.165	383.25
314.394	402.25
314.624	411.25
314.853	381.25
315.083	383.25
315.312	394.25
315.542	371.25
315.771	361.25
316.001	355.25
316.23	379.25
316.46	374.25
316.689	370.25
316.919	379.25
317.148	380.25
317.377	389.25
317.607	382.25
317.836	383.25
318.065	385.25
318.295	374.25
318.524	372.25
318.753	358.25
318.983	374.25
319.212	381.25
319.441	388.25
319.67	395.25
319.9	389.25
320.129	380.25
320.358	386.25
320.587	372.25
320.816	406.25
321.046	418.25
321.275	405.25
321.504	388.25
321.733	397.25
321.962	421.25
322.191	434.25
322.42	458.25
322.649	467.25
322.878	494.25
323.108	491.25
323.337	524.25
323.566	522.25
323.795	598.25
324.024	656.25
324.253	807.25
324.482	1200.25
324.71	1918.25
324.939	2690.25
325.168	2348.25
325.397	1198.25
325.626	789.25
325.855	653.25
326.084	575.25
326.313	562.25
326.542	566.25
326.77	650.25
326.999	768.25
327.228	1056.25
327.457	1682.25
327.686	1991.25
327.914	1350.25
328.143	871.25
328.372	750.25
328.6	662.25
328.829	635.25
329.058	669.25
329.287	664.25
329.515	627.25
329.744	566.25
329.972	576.25
330.201	576.25
330.43	648.25
330.658	681.25
330.887	706.25
331.115	680.25
331.344	573.25
331.572	535.25
331.801	542.25
332.03	499.25
332.258	503.25
332.486	469.25
332.715	445.25
332.943	456.25
333.172	455.25
333.4	446.25
333.629	459.25
333.857	499.25
334.085	502.25
334.314	519.25
334.542	554.25
334.771	564.25
334.999	510.25
335.227	460.25
335.455	458.25
335.684	438.25
335.912	458.25
336.14	428.25
336.369	438.25
336.597	473.25
336.825	464.25
337.053	453.25
337.281	430.25
337.51	433.25
337.738	450.25
337.966	434.25
338.194	449.25
338.422	439.25
338.65	449.25
338.878	421.25
339.106	442.25
339.334	452.25
339.562	427.25
339.79	416.25
340.018	426.25
340.246	409.25
340.474	426.25
340.702	426.25
340.93	431.25
341.158	429.25
341.386	433.25
341.614	427.25
341.842	426.25
342.07	426.25
342.298	415.25
342.526	420.25
342.754	422.25
342.981	402.25
343.209	398.25
343.437	414.25
343.665	410.25
343.893	423.25
344.12	442.25
344.348	415.25
344.576	427.25
344.804	442.25
345.031	430.25
345.259	449.25
345.487	464.25
345.714	432.25
345.942	445.25
346.17	431.25
346.397	424.25
346.625	416.25
346.853	412.25
347.08	408.25
347.308	451.25
347.535	419.25
347.763	464.25
347.99	449.25
348.218	471.25
348.445	456.25
348.673	446.25
348.9	434.25
349.128	434.25
349.355	424.25
349.583	408.25
349.81	405.25
350.037	421.25
350.265	409.25
350.492	399.25
350.72	404.25
350.947	428.25
351.174	438.25
351.402	458.25
351.629	440.25
351.856	435.25
352.083	453.25
352.311	446.25
352.538	442.25
352.765	458.25
352.992	442.25
353.22	440.25
353.447	452.25
353.674	396.25
353.901	409.25
354.128	402.25
354.355	394.25
354.583	395.25
354.81	406.25
355.037	388.25
355.264	386.25
355.491	388.25
355.718	402.25
355.945	382.25
356.172	383.25
356.399	402.25
356.626	366.25
356.853	378.25
357.08	406.25
357.307	398.25
357.534	385.25
357.761	390.25
357.988	398.25
358.215	395.25
358.441	397.25
358.668	407.25
358.895	382.25
359.122	408.25
359.349	425.25
359.576	438.25
359.802	472.25
360.029	522.25
360.256	514.25
360.483	499.25
360.709	459.25
360.936	441.25
361.163	422.25
361.39	448.25
361.616	428.25
361.843	432.25
362.07	413.25
362.296	444.25
362.523	458.25
362.749	439.25
362.976	430.25
363.203	406.25
363.429	406.25
363.656	396.25
363.882	404.25
364.109	415.25
364.335	423.25
364.562	403.25
364.788	396.25
365.015	410.25
365.241	430.25
365.468	423.25
365.694	423.25
365.92	409.25
366.147	421.25
366.373	414.25
366.599	400.25
366.826	397.25
367.052	404.25
367.278	402.25
367.505	407.25
367.731	412.25
367.957	394.25
368.184	408.25
368.41	414.25
368.636	444.25
368.862	423.25
369.089	415.25
369.315	419.25
369.541	414.25
369.767	424.25
369.993	406.25
370.219	414.25
370.445	411.25
370.672	394.25
370.898	405.25
371.124	417.25
371.35	398.25
371.576	387.25
371.802	398.25
372.028	411.25
372.254	400.25
372.48	408.25
372.706	411.25
372.932	382.25
373.158	414.25
373.384	419.25
373.61	396.25
373.835	401.25
374.061	402.25
374.287	404.25
374.513	415.25
374.739	392.25
374.965	412.25
375.191	397.25
375.416	406.25
375.642	412.25
375.868	395.25
376.094	407.25
376.319	394.25
376.545	402.25
376.771	390.25
376.997	405.25
377.222	400.25
377.448	427.25
377.674	399.25
377.899	404.25
378.125	411.25
378.35	391.25
378.576	402.25
378.802	407.25
379.027	387.25
379.253	409.25
379.478	389.25
379.704	406.25
379.929	389.25
380.155	411.25
380.38	398.25
380.606	415.25
380.831	406.25
381.057	431.25
381.282	407.25
381.507	421.25
381.733	421.25
381.958	415.25
382.184	398.25
382.409	412.25
382.634	413.25
382.86	417.25
383.085	416.25
383.31	437.25
383.535	437.25
383.761	417.25
383.986	408.25
384.211	438.25
384.436	421.25
384.662	414.25
384.887	433.25
385.112	398.25
385.337	441.25
385.562	435.25
385.787	409.25
386.013	441.25
386.238	456.25
386.463	448.25
386.688	427.25
386.913	430.25
387.138	427.25
387.363	417.25
387.588	432.25
387.813	437.25
388.038	410.25
388.263	437.25
388.488	445.25
388.713	423.25
388.938	433.25
389.163	437.25
389.387	431.25
389.612	443.25
389.837	432.25
390.062	444.25
390.287	434.25
390.512	409.25
390.736	411.25
390.961	436.25
391.186	425.25
391.411	449.25
391.636	449.25
391.86	427.25
392.085	446.25
392.31	434.25
392.534	455.25
392.759	440.25
392.984	444.25
393.208	442.25
393.433	447.25
393.658	440.25
393.882	446.25
394.107	443.25
394.331	439.25
394.556	452.25
394.78	455.25
395.005	457.25
395.229	451.25
395.454	452.25
395.678	441.25
395.903	458.25
396.127	488.25
396.352	475.25
396.576	460.25
396.801	478.25
397.025	471.25
397.249	476.25
397.474	470.25
397.698	495.25
397.922	471.25
398.147	506.25
398.371	508.25
398.595	506.25
398.82	503.25
399.044	500.25
399.268	516.25
399.492	523.25
399.717	531.25
399.941	570.25
400.165	592.25
400.389	614.25
400.613	556.25
400.837	544.25
401.062	505.25
401.286	526.25
401.51	512.25
401.734	489.25
401.958	488.25
402.182	499.25
402.406	505.25
402.63	531.25
402.854	510.25
403.078	515.25
403.302	519.25
403.526	532.25
403.75	532.25
403.974	533.25
404.198	502.25
404.422	537.25
404.645	530.25
404.869	574.25
405.093	566.25
405.317	608.25
405.541	633.25
405.765	593.25
405.988	570.25
406.212	602.25
406.436	623.25
406.66	634.25
406.883	585.25
407.107	618.25
407.331	658.25
407.555	707.25
407.778	732.25
408.002	659.25
408.226	612.25
408.449	609.25
408.673	590.25
408.896	620.25
409.12	650.25
409.344	646.25
409.567	578.25
409.791	549.25
410.014	543.25
410.238	528.25
410.461	546.25
410.685	543.25
410.908	585.25
411.132	585.25
411.355	635.25
411.578	612.25
411.802	541.25
412.025	522.25
412.249	552.25
412.472	589.25
412.695	611.25
412.919	585.25
413.142	551.25
413.365	546.25
413.589	534.25
413.812	512.25
414.035	501.25
414.258	514.25
414.482	504.25
414.705	473.25
414.928	508.25
415.151	494.25
415.374	497.25
415.597	501.25
415.821	515.25
416.044	500.25
416.267	516.25
416.49	514.25
416.713	502.25
416.936	512.25
417.159	508.25
417.382	546.25
417.605	510.25
417.828	540.25
418.051	553.25
418.274	534.25
418.497	513.25
418.72	515.25
418.943	524.25
419.166	540.25
419.389	556.25
419.611	535.25
419.834	532.25
420.057	567.25
420.28	556.25
420.503	541.25
420.726	558.25
420.948	558.25
421.171	615.25
421.394	626.25
421.617	587.25
421.839	552.25
422.062	538.25
422.285	586.25
422.507	651.25
422.73	711.25
422.953	704.25
423.175	594.25
423.398	570.25
423.621	555.25
423.843	611.25
424.066	568.25
424.288	581.25
424.511	611.25
424.733	711.25
424.956	754.25
425.178	733.25
425.401	758.25
425.623	752.25
425.846	650.25
426.068	632.25
426.291	634.25
426.513	622.25
426.735	639.25
426.958	681.25
427.18	755.25
427.402	906.25
427.625	998.25
427.847	898.25
428.069	774.25
428.292	690.25
428.514	632.25
428.736	592.25
428.958	580.25
429.181	571.25
429.403	568.25
429.625	597.25
429.847	612.25
430.069	696.25
430.292	690.25
430.514	610.25
430.736	567.25
430.958	547.25
431.18	539.25
431.402	530.25
431.624	518.25
431.846	499.25
432.068	504.25
432.29	524.25
432.512	531.25
432.734	542.25
432.956	537.25
433.178	550.25
433.4	557.25
433.622	548.25
433.844	516.25
434.066	527.25
434.287	530.25
434.509	542.25
434.731	536.25
434.953	540.25
435.175	563.25
435.397	614.25
435.618	596.25
435.84	669.25
436.062	772.25
436.284	819.25
436.505	718.25
436.727	642.25
436.949	571.25
437.17	576.25
437.392	570.25
437.614	590.25
437.835	627.25
438.057	774.25
438.278	869.25
438.5	862.25
438.721	919.25
438.943	887.25
439.165	725.25
439.386	633.25
439.608	640.25
439.829	659.25
440.05	673.25
440.272	712.25
440.493	666.25
440.715	622.25
440.936	575.25
441.158	600.25
441.379	577.25
441.6	584.25
441.822	638.25
442.043	650.25
442.264	732.25
442.486	802.25
442.707	692.25
442.928	642.25
443.149	633.25
443.371	666.25
443.592	705.25
443.813	809.25
444.034	868.25
444.255	732.25
444.476	642.25
444.698	615.25
444.919	585.25
445.14	681.25
445.361	659.25
445.582	673.25
445.803	754.25
446.024	856.25
446.245	857.25
446.466	775.25
446.687	703.25
446.908	640.25
447.129	617.25
447.35	581.25
447.571	594.25
447.792	571.25
448.013	584.25
448.234	587.25
448.455	663.25
448.675	805.25
448.896	883.25
449.117	776.25
449.338	745.25
449.559	857.25
449.779	938.25
450	776.25
450.221	679.25
450.442	609.25
450.662	579.25
450.883	603.25
451.104	628.25
451.324	607.25
451.545	562.25
451.766	558.25
451.986	524.25
452.207	510.25
452.428	518.25
452.648	508.25
452.869	529.25
453.089	515.25
453.31	541.25
453.53	548.25
453.751	509.25
453.971	518.25
454.192	547.25
454.412	517.25
454.633	512.25
454.853	504.25
455.073	482.25
455.294	551.25
455.514	624.25
455.734	618.25
455.955	534.25
456.175	456.25
456.395	482.25
456.616	510.25
456.836	468.25
457.056	468.25
457.276	477.25
457.497	480.25
457.717	474.25
457.937	507.25
458.157	500.25
458.377	515.25
458.598	511.25
458.818	617.25
459.038	695.25
459.258	699.25
459.478	591.25
459.698	527.25
459.918	530.25
460.138	521.25
460.358	520.25
460.578	512.25
460.798	539.25
461.018	534.25
461.238	525.25
461.458	514.25
461.678	511.25
461.898	518.25
462.118	532.25
462.338	519.25
462.558	512.25
462.777	542.25
462.997	530.25
463.217	526.25
463.437	563.25
463.657	558.25
463.876	546.25
464.096	534.25
464.316	540.25
464.536	535.25
464.755	555.25
464.975	586.25
465.195	634.25
465.414	780.25
465.634	660.25
465.854	584.25
466.073	554.25
466.293	528.25
466.512	529.25
466.732	515.25
466.951	504.25
467.171	506.25
467.391	537.25
467.61	532.25
467.829	545.25
468.049	534.25
468.268	549.25
468.488	516.25
468.707	495.25
468.927	495.25
469.146	503.25
469.365	500.25
469.585	497.25
469.804	518.25
470.023	522.25
470.243	523.25
470.462	538.25
470.681	559.25
470.901	552.25
471.12	514.25
471.339	522.25
471.558	532.25
471.777	514.25
471.997	534.25
472.216	529.25
472.435	576.25
472.654	540.25
472.873	528.25
473.092	534.25
473.311	523.25
473.53	514.25
473.749	545.25
473.968	594.25
474.187	710.25
474.406	704.25
474.625	609.25
474.844	558.25
475.063	520.25
475.282	532.25
475.501	528.25
475.72	528.25
475.939	552.25
476.158	569.25
476.377	544.25
476.596	528.25
476.814	572.25
477.033	552.25
477.252	551.25
477.471	572.25
477.69	574.25
477.908	551.25
478.127	576.25
478.346	560.25
478.564	551.25
478.783	581.25
479.002	579.25
479.22	606.25
479.439	601.25
479.658	652.25
479.876	654.25
480.095	675.25
480.313	657.25
480.532	648.25
480.751	632.25
480.969	655.25
481.188	751.25
481.406	781.25
481.624	695.25
481.843	644.25
482.061	670.25
482.28	622.25
482.498	639.25
482.717	608.25
482.935	619.25
483.153	623.25
483.372	636.25
483.59	608.25
483.808	638.25
484.027	635.25
484.245	628.25
484.463	653.25
484.681	649.25
484.9	638.25
485.118	664.25
485.336	616.25
485.554	643.25
485.772	652.25
485.99	642.25
486.209	661.25
486.427	646.25
486.645	667.25
486.863	705.25
487.081	697.25
487.299	684.25
487.517	682.25
487.735	658.25
487.953	683.25
488.171	674.25
488.389	673.25
488.607	683.25
488.825	671.25
489.043	666.25
489.261	670.25
489.479	708.25
489.696	683.25
489.914	688.25
490.132	696.25
490.35	699.25
490.568	718.25
490.786	748.25
491.003	743.25
491.221	777.25
491.439	755.25
491.657	795.25
491.874	821.25
492.092	811.25
492.31	829.25
492.527	828.25
492.745	786.25
492.963	788.25
493.18	823.25
493.398	841.25
493.615	840.25
493.833	843.25
494.05	834.25
494.268	832.25
494.485	852.25
494.703	856.25
494.92	831.25
495.138	835.25
495.355	837.25
495.573	816.25
495.79	842.25
496.008	826.25
496.225	807.25
496.442	807.25
496.66	817.25
496.877	848.25
497.094	844.25
497.312	820.25
497.529	837.25
497.746	858.25
497.963	852.25
498.181	903.25
498.398	885.25
498.615	904.25
498.832	898.25
499.049	916.25
499.267	910.25
499.484	902.25
499.701	923.25
499.918	944.25
500.135	992.25
500.352	1015.25
500.569	990.25
500.786	1035.25
501.003	1009.25
501.22	983.25
501.437	968.25
