Data from 1971.PennyLincolnUp.Lamp.En5.5.200Scan.071719.P1.Scan 2. Changed Angle._HRD10591_15-25-05-844.txt Node
Date: Thu Jul 18 15:25:05 EDT 2019
User: cochatt
Spectrometer: HR+D1059
Trigger mode: 1
Integration Time (sec): 1.000000E-1
Scans to average: 1
Electric dark correction enabled: true
Nonlinearity correction enabled: false
Boxcar width: 0
XAxis mode: Wavelengths
Number of Pixels in Spectrum: 2048
>>>>>Begin Spectral Data<<<<<
223.165	-21.19
223.4	-21.19
223.635	-21.19
223.869	-4.19
224.104	-18.19
224.338	-18.19
224.573	-19.19
224.808	-18.19
225.042	7.81
225.277	-4.19
225.511	-15.19
225.746	-4.19
225.98	5.81
226.215	7.81
226.449	22.81
226.683	17.81
226.918	26.81
227.152	33.81
227.387	36.81
227.621	38.81
227.856	42.81
228.09	46.81
228.324	48.81
228.559	56.81
228.793	70.81
229.027	114.81
229.262	117.81
229.496	127.81
229.73	146.81
229.964	194.81
230.199	163.81
230.433	137.81
230.667	120.81
230.901	116.81
231.136	116.81
231.37	120.81
231.604	120.81
231.838	108.81
232.072	122.81
232.306	122.81
232.541	120.81
232.775	113.81
233.009	121.81
233.243	135.81
233.477	121.81
233.711	115.81
233.945	118.81
234.179	127.81
234.413	121.81
234.647	110.81
234.881	123.81
235.115	126.81
235.349	122.81
235.583	132.81
235.817	117.81
236.051	135.81
236.285	142.81
236.519	124.81
236.753	147.81
236.987	183.81
237.221	209.81
237.455	291.81
237.689	228.81
237.922	158.81
238.156	132.81
238.39	150.81
238.624	123.81
238.858	110.81
239.091	136.81
239.325	120.81
239.559	138.81
239.793	158.81
240.027	159.81
240.26	157.81
240.494	172.81
240.728	178.81
240.961	181.81
241.195	183.81
241.429	156.81
241.662	152.81
241.896	140.81
242.13	128.81
242.363	143.81
242.597	144.81
242.83	131.81
243.064	134.81
243.298	152.81
243.531	141.81
243.765	162.81
243.998	148.81
244.232	132.81
244.465	153.81
244.699	157.81
244.932	154.81
245.166	162.81
245.399	164.81
245.633	164.81
245.866	151.81
246.099	165.81
246.333	162.81
246.566	166.81
246.8	163.81
247.033	160.81
247.266	157.81
247.5	160.81
247.733	196.81
247.966	176.81
248.2	171.81
248.433	172.81
248.666	193.81
248.899	210.81
249.133	226.81
249.366	235.81
249.599	239.81
249.832	210.81
250.066	198.81
250.299	200.81
250.532	211.81
250.765	218.81
250.998	223.81
251.231	263.81
251.465	256.81
251.698	236.81
251.931	221.81
252.164	214.81
252.397	228.81
252.63	226.81
252.863	210.81
253.096	266.81
253.329	257.81
253.562	257.81
253.795	247.81
254.028	269.81
254.261	269.81
254.494	248.81
254.727	301.81
254.96	316.81
255.193	296.81
255.426	288.81
255.659	293.81
255.892	256.81
256.124	276.81
256.357	276.81
256.59	258.81
256.823	252.81
257.056	247.81
257.289	237.81
257.521	232.81
257.754	241.81
257.987	226.81
258.22	225.81
258.452	227.81
258.685	237.81
258.918	226.81
259.151	229.81
259.383	230.81
259.616	235.81
259.849	266.81
260.081	252.81
260.314	286.81
260.547	291.81
260.779	291.81
261.012	247.81
261.244	253.81
261.477	245.81
261.71	244.81
261.942	244.81
262.175	262.81
262.407	260.81
262.64	241.81
262.872	206.81
263.105	221.81
263.337	225.81
263.57	236.81
263.802	250.81
264.035	224.81
264.267	217.81
264.499	234.81
264.732	228.81
264.964	211.81
265.197	225.81
265.429	218.81
265.661	228.81
265.894	206.81
266.126	214.81
266.358	218.81
266.591	220.81
266.823	229.81
267.055	226.81
267.287	242.81
267.52	250.81
267.752	237.81
267.984	242.81
268.216	233.81
268.448	244.81
268.681	240.81
268.913	252.81
269.145	292.81
269.377	312.81
269.609	300.81
269.841	293.81
270.073	305.81
270.306	315.81
270.538	349.81
270.77	343.81
271.002	335.81
271.234	325.81
271.466	329.81
271.698	353.81
271.93	362.81
272.162	338.81
272.394	359.81
272.626	343.81
272.858	306.81
273.09	319.81
273.322	304.81
273.553	278.81
273.785	282.81
274.017	286.81
274.249	273.81
274.481	286.81
274.713	281.81
274.945	275.81
275.176	293.81
275.408	288.81
275.64	279.81
275.872	278.81
276.104	288.81
276.335	282.81
276.567	293.81
276.799	318.81
277.031	331.81
277.262	342.81
277.494	365.81
277.726	322.81
277.957	332.81
278.189	304.81
278.421	292.81
278.652	289.81
278.884	278.81
279.115	282.81
279.347	275.81
279.579	269.81
279.81	269.81
280.042	288.81
280.273	290.81
280.505	272.81
280.736	276.81
280.968	253.81
281.199	275.81
281.431	269.81
281.662	260.81
281.894	277.81
282.125	295.81
282.356	305.81
282.588	309.81
282.819	329.81
283.051	282.81
283.282	274.81
283.513	294.81
283.745	271.81
283.976	298.81
284.207	283.81
284.439	293.81
284.67	277.81
284.901	279.81
285.132	296.81
285.364	273.81
285.595	293.81
285.826	283.81
286.057	293.81
286.288	291.81
286.52	268.81
286.751	274.81
286.982	286.81
287.213	277.81
287.444	286.81
287.675	273.81
287.906	290.81
288.138	290.81
288.369	306.81
288.6	304.81
288.831	299.81
289.062	302.81
289.293	309.81
289.524	291.81
289.755	289.81
289.986	302.81
290.217	299.81
290.448	277.81
290.679	288.81
290.91	291.81
291.141	291.81
291.371	276.81
291.602	282.81
291.833	264.81
292.064	280.81
292.295	275.81
292.526	285.81
292.757	295.81
292.987	290.81
293.218	297.81
293.449	285.81
293.68	308.81
293.91	286.81
294.141	281.81
294.372	293.81
294.603	304.81
294.833	288.81
295.064	302.81
295.295	293.81
295.525	300.81
295.756	288.81
295.987	310.81
296.217	344.81
296.448	349.81
296.679	316.81
296.909	313.81
297.14	305.81
297.37	291.81
297.601	301.81
297.831	305.81
298.062	293.81
298.292	296.81
298.523	301.81
298.753	308.81
298.984	301.81
299.214	287.81
299.445	296.81
299.675	302.81
299.905	299.81
300.136	308.81
300.366	307.81
300.597	316.81
300.827	330.81
301.057	323.81
301.288	331.81
301.518	332.81
301.748	325.81
301.979	333.81
302.209	341.81
302.439	328.81
302.669	329.81
302.9	317.81
303.13	319.81
303.36	329.81
303.59	334.81
303.82	339.81
304.051	336.81
304.281	323.81
304.511	319.81
304.741	321.81
304.971	313.81
305.201	331.81
305.431	329.81
305.661	308.81
305.891	312.81
306.121	304.81
306.352	330.81
306.582	334.81
306.812	338.81
307.042	339.81
307.272	317.81
307.502	338.81
307.731	315.81
307.961	345.81
308.191	329.81
308.421	324.81
308.651	327.81
308.881	333.81
309.111	356.81
309.341	340.81
309.571	366.81
309.8	390.81
310.03	390.81
310.26	406.81
310.49	393.81
310.72	396.81
310.949	417.81
311.179	448.81
311.409	387.81
311.639	419.81
311.868	400.81
312.098	410.81
312.328	407.81
312.557	427.81
312.787	460.81
313.017	441.81
313.246	407.81
313.476	396.81
313.706	387.81
313.935	386.81
314.165	400.81
314.394	430.81
314.624	421.81
314.853	416.81
315.083	399.81
315.312	403.81
315.542	406.81
315.771	386.81
316.001	380.81
316.23	372.81
316.46	378.81
316.689	397.81
316.919	418.81
317.148	427.81
317.377	420.81
317.607	402.81
317.836	409.81
318.065	399.81
318.295	397.81
318.524	361.81
318.753	377.81
318.983	384.81
319.212	387.81
319.441	399.81
319.67	411.81
319.9	402.81
320.129	394.81
320.358	403.81
320.587	410.81
320.816	387.81
321.046	437.81
321.275	420.81
321.504	422.81
321.733	428.81
321.962	427.81
322.191	451.81
322.42	474.81
322.649	492.81
322.878	509.81
323.108	531.81
323.337	558.81
323.566	575.81
323.795	610.81
324.024	688.81
324.253	859.81
324.482	1288.81
324.71	2059.81
324.939	2962.81
325.168	2563.81
325.397	1304.81
325.626	846.81
325.855	676.81
326.084	600.81
326.313	575.81
326.542	602.81
326.77	675.81
326.999	795.81
327.228	1109.81
327.457	1792.81
327.686	2143.81
327.914	1435.81
328.143	918.81
328.372	792.81
328.6	733.81
328.829	689.81
329.058	692.81
329.287	702.81
329.515	616.81
329.744	596.81
329.972	580.81
330.201	614.81
330.43	673.81
330.658	694.81
330.887	746.81
331.115	699.81
331.344	603.81
331.572	563.81
331.801	566.81
332.03	564.81
332.258	518.81
332.486	492.81
332.715	480.81
332.943	468.81
333.172	478.81
333.4	480.81
333.629	480.81
333.857	508.81
334.085	536.81
334.314	540.81
334.542	566.81
334.771	597.81
334.999	537.81
335.227	491.81
335.455	483.81
335.684	450.81
335.912	457.81
336.14	486.81
336.369	464.81
336.597	444.81
336.825	477.81
337.053	467.81
337.281	447.81
337.51	442.81
337.738	463.81
337.966	450.81
338.194	453.81
338.422	480.81
338.65	457.81
338.878	443.81
339.106	458.81
339.334	442.81
339.562	452.81
339.79	470.81
340.018	452.81
340.246	457.81
340.474	452.81
340.702	466.81
340.93	453.81
341.158	420.81
341.386	451.81
341.614	458.81
341.842	458.81
342.07	441.81
342.298	417.81
342.526	441.81
342.754	427.81
342.981	416.81
343.209	425.81
343.437	452.81
343.665	440.81
343.893	439.81
344.12	446.81
344.348	446.81
344.576	445.81
344.804	449.81
345.031	475.81
345.259	481.81
345.487	457.81
345.714	462.81
345.942	437.81
346.17	451.81
346.397	433.81
346.625	438.81
346.853	434.81
347.08	438.81
347.308	461.81
347.535	467.81
347.763	478.81
347.99	461.81
348.218	471.81
348.445	459.81
348.673	485.81
348.9	453.81
349.128	436.81
349.355	424.81
349.583	441.81
349.81	433.81
350.037	424.81
350.265	428.81
350.492	429.81
350.72	439.81
350.947	449.81
351.174	449.81
351.402	450.81
351.629	461.81
351.856	452.81
352.083	454.81
352.311	467.81
352.538	470.81
352.765	478.81
352.992	461.81
353.22	454.81
353.447	457.81
353.674	428.81
353.901	419.81
354.128	410.81
354.355	402.81
354.583	414.81
354.81	416.81
355.037	434.81
355.264	388.81
355.491	398.81
355.718	384.81
355.945	379.81
356.172	394.81
356.399	398.81
356.626	404.81
356.853	405.81
357.08	404.81
357.307	420.81
357.534	401.81
357.761	387.81
357.988	403.81
358.215	405.81
358.441	401.81
358.668	409.81
358.895	415.81
359.122	436.81
359.349	429.81
359.576	456.81
359.802	472.81
360.029	516.81
360.256	540.81
360.483	509.81
360.709	461.81
360.936	453.81
361.163	466.81
361.39	454.81
361.616	452.81
361.843	442.81
362.07	434.81
362.296	470.81
362.523	453.81
362.749	462.81
362.976	455.81
363.203	433.81
363.429	423.81
363.656	434.81
363.882	430.81
364.109	436.81
364.335	429.81
364.562	417.81
364.788	434.81
365.015	437.81
365.241	422.81
365.468	429.81
365.694	428.81
365.92	443.81
366.147	424.81
366.373	436.81
366.599	449.81
366.826	406.81
367.052	425.81
367.278	418.81
367.505	437.81
367.731	432.81
367.957	429.81
368.184	400.81
368.41	461.81
368.636	432.81
368.862	446.81
369.089	454.81
369.315	446.81
369.541	422.81
369.767	421.81
369.993	421.81
370.219	426.81
370.445	399.81
370.672	431.81
370.898	405.81
371.124	421.81
371.35	410.81
371.576	429.81
371.802	398.81
372.028	417.81
372.254	412.81
372.48	404.81
372.706	402.81
372.932	426.81
373.158	423.81
373.384	416.81
373.61	404.81
373.835	408.81
374.061	431.81
374.287	428.81
374.513	430.81
374.739	417.81
374.965	414.81
375.191	429.81
375.416	416.81
375.642	409.81
375.868	420.81
376.094	418.81
376.319	416.81
376.545	413.81
376.771	433.81
376.997	426.81
377.222	394.81
377.448	433.81
377.674	404.81
377.899	420.81
378.125	412.81
378.35	397.81
378.576	415.81
378.802	422.81
379.027	420.81
379.253	398.81
379.478	413.81
379.704	418.81
379.929	413.81
380.155	414.81
380.38	439.81
380.606	440.81
380.831	410.81
381.057	417.81
381.282	437.81
381.507	411.81
381.733	409.81
381.958	444.81
382.184	414.81
382.409	413.81
382.634	436.81
382.86	441.81
383.085	433.81
383.31	423.81
383.535	424.81
383.761	419.81
383.986	438.81
384.211	426.81
384.436	432.81
384.662	460.81
384.887	453.81
385.112	414.81
385.337	453.81
385.562	439.81
385.787	451.81
386.013	465.81
386.238	462.81
386.463	470.81
386.688	441.81
386.913	460.81
387.138	459.81
387.363	452.81
387.588	459.81
387.813	455.81
388.038	437.81
388.263	441.81
388.488	461.81
388.713	450.81
388.938	452.81
389.163	458.81
389.387	462.81
389.612	450.81
389.837	470.81
390.062	438.81
390.287	440.81
390.512	435.81
390.736	436.81
390.961	441.81
391.186	433.81
391.411	450.81
391.636	449.81
391.86	458.81
392.085	465.81
392.31	469.81
392.534	440.81
392.759	454.81
392.984	461.81
393.208	454.81
393.433	450.81
393.658	460.81
393.882	445.81
394.107	461.81
394.331	472.81
394.556	454.81
394.78	453.81
395.005	453.81
395.229	458.81
395.454	462.81
395.678	459.81
395.903	477.81
396.127	528.81
396.352	510.81
396.576	470.81
396.801	487.81
397.025	476.81
397.249	475.81
397.474	493.81
397.698	497.81
397.922	522.81
398.147	509.81
398.371	506.81
398.595	517.81
398.82	511.81
399.044	510.81
399.268	533.81
399.492	544.81
399.717	585.81
399.941	582.81
400.165	640.81
400.389	656.81
400.613	592.81
400.837	546.81
401.062	492.81
401.286	494.81
401.51	519.81
401.734	509.81
401.958	512.81
402.182	528.81
402.406	552.81
402.63	548.81
402.854	547.81
403.078	532.81
403.302	547.81
403.526	548.81
403.75	561.81
403.974	568.81
404.198	530.81
404.422	549.81
404.645	551.81
404.869	548.81
405.093	601.81
405.317	638.81
405.541	672.81
405.765	615.81
405.988	589.81
406.212	599.81
406.436	627.81
406.66	648.81
406.883	594.81
407.107	624.81
407.331	680.81
407.555	742.81
407.778	723.81
408.002	677.81
408.226	616.81
408.449	594.81
408.673	622.81
408.896	662.81
409.12	680.81
409.344	637.81
409.567	598.81
409.791	586.81
410.014	550.81
410.238	551.81
410.461	553.81
410.685	566.81
410.908	568.81
411.132	626.81
411.355	671.81
411.578	607.81
411.802	568.81
412.025	574.81
412.249	562.81
412.472	605.81
412.695	636.81
412.919	627.81
413.142	584.81
413.365	537.81
413.589	542.81
413.812	520.81
414.035	548.81
414.258	519.81
414.482	533.81
414.705	525.81
414.928	525.81
415.151	511.81
415.374	529.81
415.597	523.81
415.821	509.81
416.044	522.81
416.267	525.81
416.49	534.81
416.713	518.81
416.936	533.81
417.159	506.81
417.382	530.81
417.605	556.81
417.828	547.81
418.051	561.81
418.274	557.81
418.497	532.81
418.72	523.81
418.943	507.81
419.166	556.81
419.389	600.81
419.611	560.81
419.834	551.81
420.057	564.81
420.28	585.81
420.503	567.81
420.726	560.81
420.948	590.81
421.171	645.81
421.394	680.81
421.617	596.81
421.839	566.81
422.062	582.81
422.285	590.81
422.507	646.81
422.73	742.81
422.953	712.81
423.175	619.81
423.398	605.81
423.621	598.81
423.843	617.81
424.066	640.81
424.288	624.81
424.511	636.81
424.733	715.81
424.956	779.81
425.178	772.81
425.401	775.81
425.623	802.81
425.846	696.81
426.068	640.81
426.291	634.81
426.513	619.81
426.735	626.81
426.958	688.81
427.18	786.81
427.402	920.81
427.625	1024.81
427.847	941.81
428.069	817.81
428.292	696.81
428.514	642.81
428.736	627.81
428.958	613.81
429.181	580.81
429.403	586.81
429.625	582.81
429.847	647.81
430.069	728.81
430.292	713.81
430.514	607.81
430.736	598.81
430.958	576.81
431.18	560.81
431.402	541.81
431.624	554.81
431.846	539.81
432.068	528.81
432.29	520.81
432.512	533.81
432.734	568.81
432.956	556.81
433.178	582.81
433.4	565.81
433.622	547.81
433.844	545.81
434.066	543.81
434.287	519.81
434.509	549.81
434.731	553.81
434.953	564.81
435.175	569.81
435.397	626.81
435.618	646.81
435.84	680.81
436.062	782.81
436.284	867.81
436.505	747.81
436.727	629.81
436.949	608.81
437.17	560.81
437.392	583.81
437.614	618.81
437.835	660.81
438.057	756.81
438.278	908.81
438.5	917.81
438.721	930.81
438.943	907.81
439.165	733.81
439.386	674.81
439.608	668.81
439.829	660.81
440.05	689.81
440.272	766.81
440.493	698.81
440.715	657.81
440.936	595.81
441.158	607.81
441.379	578.81
441.6	614.81
441.822	625.81
442.043	664.81
442.264	811.81
442.486	848.81
442.707	708.81
442.928	654.81
443.149	663.81
443.371	672.81
443.592	726.81
443.813	851.81
444.034	902.81
444.255	762.81
444.476	627.81
444.698	626.81
444.919	625.81
445.14	752.81
445.361	689.81
445.582	695.81
445.803	781.81
446.024	903.81
446.245	902.81
446.466	818.81
446.687	698.81
446.908	646.81
447.129	586.81
447.35	582.81
447.571	587.81
447.792	580.81
448.013	582.81
448.234	612.81
448.455	673.81
448.675	804.81
448.896	934.81
449.117	805.81
449.338	776.81
449.559	870.81
449.779	965.81
450	792.81
450.221	690.81
450.442	621.81
450.662	601.81
450.883	608.81
451.104	619.81
451.324	612.81
451.545	578.81
451.766	572.81
451.986	550.81
452.207	525.81
452.428	538.81
452.648	526.81
452.869	543.81
453.089	558.81
453.31	553.81
453.53	551.81
453.751	520.81
453.971	553.81
454.192	567.81
454.412	550.81
454.633	534.81
454.853	532.81
455.073	520.81
455.294	545.81
455.514	635.81
455.734	646.81
455.955	532.81
456.175	508.81
456.395	475.81
456.616	468.81
456.836	503.81
457.056	491.81
457.276	453.81
457.497	506.81
457.717	493.81
457.937	495.81
458.157	515.81
458.377	529.81
458.598	541.81
458.818	631.81
459.038	732.81
459.258	756.81
459.478	619.81
459.698	566.81
459.918	568.81
460.138	520.81
460.358	541.81
460.578	532.81
460.798	535.81
461.018	542.81
461.238	534.81
461.458	522.81
461.678	527.81
461.898	541.81
462.118	532.81
462.338	516.81
462.558	553.81
462.777	558.81
462.997	573.81
463.217	548.81
463.437	549.81
463.657	566.81
463.876	536.81
464.096	555.81
464.316	547.81
464.536	570.81
464.755	566.81
464.975	573.81
465.195	634.81
465.414	754.81
465.634	690.81
465.854	617.81
466.073	576.81
466.293	554.81
466.512	550.81
466.732	519.81
466.951	516.81
467.171	516.81
467.391	554.81
467.61	553.81
467.829	548.81
468.049	568.81
468.268	567.81
468.488	536.81
468.707	526.81
468.927	526.81
469.146	502.81
469.365	524.81
469.585	528.81
469.804	531.81
470.023	545.81
470.243	545.81
470.462	565.81
470.681	583.81
470.901	600.81
471.12	536.81
471.339	568.81
471.558	552.81
471.777	547.81
471.997	528.81
472.216	538.81
472.435	614.81
472.654	599.81
472.873	561.81
473.092	563.81
473.311	553.81
473.53	560.81
473.749	552.81
473.968	617.81
474.187	742.81
474.406	768.81
474.625	649.81
474.844	572.81
475.063	546.81
475.282	558.81
475.501	534.81
475.72	560.81
475.939	555.81
476.158	577.81
476.377	564.81
476.596	550.81
476.814	567.81
477.033	602.81
477.252	581.81
477.471	558.81
477.69	574.81
477.908	595.81
478.127	581.81
478.346	572.81
478.564	597.81
478.783	600.81
479.002	611.81
479.22	609.81
479.439	608.81
479.658	664.81
479.876	680.81
480.095	668.81
480.313	709.81
480.532	685.81
480.751	650.81
480.969	657.81
481.188	764.81
481.406	818.81
481.624	698.81
481.843	683.81
482.061	664.81
482.28	650.81
482.498	636.81
482.717	628.81
482.935	655.81
483.153	624.81
483.372	640.81
483.59	676.81
483.808	642.81
484.027	647.81
484.245	668.81
484.463	673.81
484.681	684.81
484.9	674.81
485.118	646.81
485.336	666.81
485.554	684.81
485.772	666.81
485.99	682.81
486.209	662.81
486.427	678.81
486.645	702.81
486.863	719.81
487.081	728.81
487.299	697.81
487.517	706.81
487.735	720.81
487.953	712.81
488.171	718.81
488.389	714.81
488.607	741.81
488.825	701.81
489.043	693.81
489.261	708.81
489.479	713.81
489.696	732.81
489.914	741.81
490.132	722.81
490.35	749.81
490.568	781.81
490.786	745.81
491.003	757.81
491.221	818.81
491.439	816.81
491.657	796.81
491.874	814.81
492.092	839.81
492.31	858.81
492.527	839.81
492.745	855.81
492.963	825.81
493.18	837.81
493.398	841.81
493.615	873.81
493.833	872.81
494.05	870.81
494.268	866.81
494.485	874.81
494.703	866.81
494.92	870.81
495.138	842.81
495.355	835.81
495.573	837.81
495.79	837.81
496.008	870.81
496.225	858.81
496.442	869.81
496.66	839.81
496.877	837.81
497.094	865.81
497.312	862.81
497.529	848.81
497.746	882.81
497.963	888.81
498.181	909.81
498.398	901.81
498.615	933.81
498.832	922.81
499.049	955.81
499.267	937.81
499.484	952.81
499.701	960.81
499.918	947.81
500.135	1010.81
500.352	1027.81
500.569	1037.81
500.786	1051.81
501.003	1057.81
501.22	1039.81
501.437	1034.81
