Data from 1971.PennyLincolnUp.Lamp.En5.5.200Scan.071719.P1._HRD10591_15-20-16-841.txt Node
Date: Thu Jul 18 15:20:16 EDT 2019
User: cochatt
Spectrometer: HR+D1059
Trigger mode: 1
Integration Time (sec): 1.000000E-1
Scans to average: 1
Electric dark correction enabled: true
Nonlinearity correction enabled: false
Boxcar width: 0
XAxis mode: Wavelengths
Number of Pixels in Spectrum: 2048
>>>>>Begin Spectral Data<<<<<
223.165	-4.5
223.4	-4.5
223.635	-4.5
223.869	-21.5
224.104	-17.5
224.338	-10.5
224.573	-13.5
224.808	-30.5
225.042	-18.5
225.277	1.5
225.511	11.5
225.746	-2.5
225.98	2.5
226.215	6.5
226.449	12.5
226.683	23.5
226.918	22.5
227.152	38.5
227.387	40.5
227.621	39.5
227.856	45.5
228.09	53.5
228.324	50.5
228.559	36.5
228.793	71.5
229.027	94.5
229.262	98.5
229.496	81.5
229.73	122.5
229.964	135.5
230.199	132.5
230.433	120.5
230.667	122.5
230.901	115.5
231.136	108.5
231.37	116.5
231.604	111.5
231.838	114.5
232.072	109.5
232.306	121.5
232.541	130.5
232.775	99.5
233.009	98.5
233.243	105.5
233.477	110.5
233.711	104.5
233.945	117.5
234.179	108.5
234.413	104.5
234.647	115.5
234.881	109.5
235.115	114.5
235.349	111.5
235.583	122.5
235.817	130.5
236.051	124.5
236.285	124.5
236.519	125.5
236.753	136.5
236.987	142.5
237.221	181.5
237.455	210.5
237.689	165.5
237.922	146.5
238.156	137.5
238.39	119.5
238.624	113.5
238.858	132.5
239.091	133.5
239.325	129.5
239.559	130.5
239.793	125.5
240.027	138.5
240.26	141.5
240.494	158.5
240.728	163.5
240.961	150.5
241.195	140.5
241.429	143.5
241.662	134.5
241.896	140.5
242.13	126.5
242.363	131.5
242.597	138.5
242.83	138.5
243.064	138.5
243.298	142.5
243.531	127.5
243.765	142.5
243.998	137.5
244.232	137.5
244.465	142.5
244.699	149.5
244.932	149.5
245.166	144.5
245.399	147.5
245.633	155.5
245.866	150.5
246.099	142.5
246.333	136.5
246.566	143.5
246.8	152.5
247.033	155.5
247.266	150.5
247.5	186.5
247.733	170.5
247.966	170.5
248.2	172.5
248.433	167.5
248.666	160.5
248.899	174.5
249.133	204.5
249.366	205.5
249.599	191.5
249.832	164.5
250.066	189.5
250.299	171.5
250.532	195.5
250.765	212.5
250.998	223.5
251.231	232.5
251.465	212.5
251.698	191.5
251.931	189.5
252.164	198.5
252.397	203.5
252.63	207.5
252.863	212.5
253.096	231.5
253.329	214.5
253.562	236.5
253.795	214.5
254.028	221.5
254.261	220.5
254.494	244.5
254.727	252.5
254.96	287.5
255.193	273.5
255.426	261.5
255.659	255.5
255.892	235.5
256.124	236.5
256.357	245.5
256.59	227.5
256.823	215.5
257.056	222.5
257.289	205.5
257.521	222.5
257.754	204.5
257.987	211.5
258.22	212.5
258.452	193.5
258.685	212.5
258.918	204.5
259.151	216.5
259.383	212.5
259.616	227.5
259.849	221.5
260.081	247.5
260.314	254.5
260.547	269.5
260.779	260.5
261.012	233.5
261.244	246.5
261.477	224.5
261.71	231.5
261.942	224.5
262.175	233.5
262.407	223.5
262.64	223.5
262.872	220.5
263.105	215.5
263.337	237.5
263.57	223.5
263.802	214.5
264.035	227.5
264.267	224.5
264.499	228.5
264.732	224.5
264.964	213.5
265.197	226.5
265.429	219.5
265.661	230.5
265.894	229.5
266.126	218.5
266.358	229.5
266.591	228.5
266.823	236.5
267.055	232.5
267.287	245.5
267.52	239.5
267.752	226.5
267.984	227.5
268.216	239.5
268.448	230.5
268.681	236.5
268.913	247.5
269.145	258.5
269.377	278.5
269.609	281.5
269.841	275.5
270.073	303.5
270.306	271.5
270.538	323.5
270.77	334.5
271.002	309.5
271.234	288.5
271.466	306.5
271.698	315.5
271.93	322.5
272.162	320.5
272.394	316.5
272.626	300.5
272.858	308.5
273.09	282.5
273.322	276.5
273.553	273.5
273.785	282.5
274.017	271.5
274.249	278.5
274.481	282.5
274.713	270.5
274.945	279.5
275.176	280.5
275.408	291.5
275.64	279.5
275.872	261.5
276.104	280.5
276.335	281.5
276.567	278.5
276.799	298.5
277.031	292.5
277.262	317.5
277.494	318.5
277.726	333.5
277.957	313.5
278.189	311.5
278.421	320.5
278.652	281.5
278.884	278.5
279.115	290.5
279.347	283.5
279.579	273.5
279.81	281.5
280.042	275.5
280.273	270.5
280.505	269.5
280.736	268.5
280.968	266.5
281.199	274.5
281.431	300.5
281.662	268.5
281.894	278.5
282.125	279.5
282.356	290.5
282.588	311.5
282.819	306.5
283.051	309.5
283.282	281.5
283.513	285.5
283.745	275.5
283.976	292.5
284.207	293.5
284.439	282.5
284.67	284.5
284.901	271.5
285.132	285.5
285.364	298.5
285.595	269.5
285.826	297.5
286.057	294.5
286.288	290.5
286.52	297.5
286.751	294.5
286.982	309.5
287.213	307.5
287.444	293.5
287.675	295.5
287.906	303.5
288.138	312.5
288.369	312.5
288.6	311.5
288.831	305.5
289.062	311.5
289.293	293.5
289.524	290.5
289.755	289.5
289.986	294.5
290.217	296.5
290.448	299.5
290.679	282.5
290.91	287.5
291.141	304.5
291.371	309.5
291.602	285.5
291.833	296.5
292.064	294.5
292.295	290.5
292.526	294.5
292.757	314.5
292.987	288.5
293.218	290.5
293.449	306.5
293.68	297.5
293.91	297.5
294.141	318.5
294.372	314.5
294.603	296.5
294.833	303.5
295.064	299.5
295.295	311.5
295.525	306.5
295.756	319.5
295.987	306.5
296.217	320.5
296.448	336.5
296.679	324.5
296.909	299.5
297.14	301.5
297.37	325.5
297.601	321.5
297.831	295.5
298.062	303.5
298.292	317.5
298.523	326.5
298.753	323.5
298.984	315.5
299.214	306.5
299.445	317.5
299.675	314.5
299.905	333.5
300.136	327.5
300.366	313.5
300.597	317.5
300.827	322.5
301.057	335.5
301.288	323.5
301.518	328.5
301.748	310.5
301.979	350.5
302.209	310.5
302.439	334.5
302.669	334.5
302.9	326.5
303.13	339.5
303.36	341.5
303.59	340.5
303.82	345.5
304.051	341.5
304.281	334.5
304.511	326.5
304.741	321.5
304.971	316.5
305.201	343.5
305.431	325.5
305.661	319.5
305.891	320.5
306.121	338.5
306.352	348.5
306.582	365.5
306.812	333.5
307.042	336.5
307.272	360.5
307.502	325.5
307.731	340.5
307.961	357.5
308.191	340.5
308.421	344.5
308.651	348.5
308.881	343.5
309.111	353.5
309.341	346.5
309.571	352.5
309.8	363.5
310.03	370.5
310.26	390.5
310.49	379.5
310.72	395.5
310.949	392.5
311.179	393.5
311.409	391.5
311.639	383.5
311.868	392.5
312.098	371.5
312.328	391.5
312.557	396.5
312.787	409.5
313.017	401.5
313.246	386.5
313.476	368.5
313.706	388.5
313.935	396.5
314.165	399.5
314.394	404.5
314.624	402.5
314.853	378.5
315.083	391.5
315.312	386.5
315.542	371.5
315.771	372.5
316.001	371.5
316.23	365.5
316.46	375.5
316.689	380.5
316.919	378.5
317.148	388.5
317.377	417.5
317.607	392.5
317.836	393.5
318.065	394.5
318.295	385.5
318.524	384.5
318.753	368.5
318.983	408.5
319.212	389.5
319.441	388.5
319.67	405.5
319.9	380.5
320.129	380.5
320.358	412.5
320.587	411.5
320.816	392.5
321.046	414.5
321.275	415.5
321.504	399.5
321.733	411.5
321.962	410.5
322.191	427.5
322.42	442.5
322.649	433.5
322.878	441.5
323.108	474.5
323.337	478.5
323.566	508.5
323.795	538.5
324.024	567.5
324.253	722.5
324.482	1007.5
324.71	1485.5
324.939	2022.5
325.168	1671.5
325.397	907.5
325.626	654.5
325.855	548.5
326.084	502.5
326.313	491.5
326.542	502.5
326.77	564.5
326.999	661.5
327.228	872.5
327.457	1279.5
327.686	1481.5
327.914	1002.5
328.143	684.5
328.372	601.5
328.6	574.5
328.829	543.5
329.058	576.5
329.287	539.5
329.515	530.5
329.744	506.5
329.972	491.5
330.201	504.5
330.43	551.5
330.658	570.5
330.887	586.5
331.115	575.5
331.344	516.5
331.572	480.5
331.801	494.5
332.03	499.5
332.258	470.5
332.486	446.5
332.715	422.5
332.943	425.5
333.172	449.5
333.4	461.5
333.629	476.5
333.857	456.5
334.085	466.5
334.314	493.5
334.542	500.5
334.771	514.5
334.999	470.5
335.227	440.5
335.455	450.5
335.684	458.5
335.912	444.5
336.14	463.5
336.369	444.5
336.597	442.5
336.825	446.5
337.053	460.5
337.281	452.5
337.51	436.5
337.738	431.5
337.966	444.5
338.194	429.5
338.422	427.5
338.65	439.5
338.878	427.5
339.106	409.5
339.334	415.5
339.562	408.5
339.79	406.5
340.018	428.5
340.246	415.5
340.474	409.5
340.702	417.5
340.93	434.5
341.158	394.5
341.386	438.5
341.614	432.5
341.842	418.5
342.07	421.5
342.298	430.5
342.526	405.5
342.754	403.5
342.981	416.5
343.209	404.5
343.437	420.5
343.665	405.5
343.893	443.5
344.12	432.5
344.348	413.5
344.576	401.5
344.804	425.5
345.031	438.5
345.259	439.5
345.487	414.5
345.714	412.5
345.942	414.5
346.17	418.5
346.397	407.5
346.625	410.5
346.853	404.5
347.08	400.5
347.308	411.5
347.535	411.5
347.763	416.5
347.99	410.5
348.218	399.5
348.445	392.5
348.673	406.5
348.9	399.5
349.128	396.5
349.355	391.5
349.583	401.5
349.81	405.5
350.037	390.5
350.265	381.5
350.492	396.5
350.72	366.5
350.947	381.5
351.174	420.5
351.402	400.5
351.629	413.5
351.856	394.5
352.083	410.5
352.311	422.5
352.538	411.5
352.765	423.5
352.992	406.5
353.22	400.5
353.447	403.5
353.674	405.5
353.901	375.5
354.128	364.5
354.355	386.5
354.583	378.5
354.81	359.5
355.037	378.5
355.264	386.5
355.491	387.5
355.718	377.5
355.945	374.5
356.172	356.5
356.399	358.5
356.626	389.5
356.853	379.5
357.08	374.5
357.307	368.5
357.534	347.5
357.761	363.5
357.988	394.5
358.215	373.5
358.441	364.5
358.668	365.5
358.895	352.5
359.122	382.5
359.349	395.5
359.576	370.5
359.802	412.5
360.029	425.5
360.256	428.5
360.483	416.5
360.709	385.5
360.936	398.5
361.163	382.5
361.39	401.5
361.616	386.5
361.843	364.5
362.07	410.5
362.296	382.5
362.523	372.5
362.749	385.5
362.976	379.5
363.203	374.5
363.429	375.5
363.656	378.5
363.882	376.5
364.109	358.5
364.335	358.5
364.562	360.5
364.788	403.5
365.015	375.5
365.241	372.5
365.468	399.5
365.694	383.5
365.92	376.5
366.147	372.5
366.373	349.5
366.599	368.5
366.826	355.5
367.052	365.5
367.278	358.5
367.505	367.5
367.731	350.5
367.957	348.5
368.184	372.5
368.41	360.5
368.636	352.5
368.862	390.5
369.089	368.5
369.315	370.5
369.541	358.5
369.767	364.5
369.993	377.5
370.219	352.5
370.445	362.5
370.672	364.5
370.898	355.5
371.124	374.5
371.35	370.5
371.576	348.5
371.802	361.5
372.028	351.5
372.254	367.5
372.48	368.5
372.706	387.5
372.932	370.5
373.158	369.5
373.384	332.5
373.61	344.5
373.835	369.5
374.061	343.5
374.287	376.5
374.513	377.5
374.739	366.5
374.965	361.5
375.191	378.5
375.416	378.5
375.642	356.5
375.868	346.5
376.094	351.5
376.319	371.5
376.545	373.5
376.771	352.5
376.997	374.5
377.222	356.5
377.448	370.5
377.674	357.5
377.899	367.5
378.125	351.5
378.35	357.5
378.576	354.5
378.802	342.5
379.027	345.5
379.253	352.5
379.478	331.5
379.704	365.5
379.929	347.5
380.155	335.5
380.38	340.5
380.606	345.5
380.831	334.5
381.057	359.5
381.282	343.5
381.507	361.5
381.733	352.5
381.958	359.5
382.184	373.5
382.409	372.5
382.634	372.5
382.86	368.5
383.085	351.5
383.31	355.5
383.535	360.5
383.761	377.5
383.986	362.5
384.211	367.5
384.436	347.5
384.662	351.5
384.887	371.5
385.112	374.5
385.337	356.5
385.562	367.5
385.787	362.5
386.013	384.5
386.238	382.5
386.463	378.5
386.688	371.5
386.913	380.5
387.138	371.5
387.363	381.5
387.588	366.5
387.813	380.5
388.038	381.5
388.263	404.5
388.488	392.5
388.713	374.5
388.938	356.5
389.163	386.5
389.387	382.5
389.612	356.5
389.837	362.5
390.062	370.5
390.287	390.5
390.512	379.5
390.736	374.5
390.961	376.5
391.186	363.5
391.411	378.5
391.636	374.5
391.86	383.5
392.085	388.5
392.31	376.5
392.534	379.5
392.759	388.5
392.984	373.5
393.208	377.5
393.433	360.5
393.658	386.5
393.882	355.5
394.107	376.5
394.331	378.5
394.556	365.5
394.78	365.5
395.005	375.5
395.229	356.5
395.454	380.5
395.678	372.5
395.903	393.5
396.127	404.5
396.352	397.5
396.576	394.5
396.801	388.5
397.025	388.5
397.249	416.5
397.474	413.5
397.698	411.5
397.922	406.5
398.147	415.5
398.371	413.5
398.595	405.5
398.82	417.5
399.044	421.5
399.268	446.5
399.492	447.5
399.717	463.5
399.941	500.5
400.165	498.5
400.389	534.5
400.613	474.5
400.837	446.5
401.062	433.5
401.286	422.5
401.51	398.5
401.734	413.5
401.958	416.5
402.182	424.5
402.406	412.5
402.63	416.5
402.854	435.5
403.078	419.5
403.302	442.5
403.526	450.5
403.75	435.5
403.974	446.5
404.198	403.5
404.422	422.5
404.645	431.5
404.869	447.5
405.093	482.5
405.317	500.5
405.541	539.5
405.765	476.5
405.988	448.5
406.212	463.5
406.436	461.5
406.66	460.5
406.883	481.5
407.107	514.5
407.331	520.5
407.555	553.5
407.778	563.5
408.002	506.5
408.226	489.5
408.449	472.5
408.673	471.5
408.896	486.5
409.12	515.5
409.344	493.5
409.567	436.5
409.791	423.5
410.014	414.5
410.238	419.5
410.461	417.5
410.685	422.5
410.908	441.5
411.132	477.5
411.355	498.5
411.578	467.5
411.802	429.5
412.025	410.5
412.249	434.5
412.472	451.5
412.695	482.5
412.919	474.5
413.142	438.5
413.365	415.5
413.589	402.5
413.812	406.5
414.035	416.5
414.258	405.5
414.482	406.5
414.705	391.5
414.928	406.5
415.151	396.5
415.374	391.5
415.597	397.5
415.821	409.5
416.044	399.5
416.267	384.5
416.49	392.5
416.713	395.5
416.936	396.5
417.159	406.5
417.382	400.5
417.605	411.5
417.828	403.5
418.051	432.5
418.274	417.5
418.497	398.5
418.72	419.5
418.943	387.5
419.166	406.5
419.389	443.5
419.611	424.5
419.834	444.5
420.057	419.5
420.28	417.5
420.503	432.5
420.726	419.5
420.948	411.5
421.171	459.5
421.394	483.5
421.617	453.5
421.839	426.5
422.062	443.5
422.285	444.5
422.507	478.5
422.73	539.5
422.953	502.5
423.175	434.5
423.398	438.5
423.621	444.5
423.843	457.5
424.066	454.5
424.288	468.5
424.511	482.5
424.733	531.5
424.956	557.5
425.178	528.5
425.401	547.5
425.623	550.5
425.846	473.5
426.068	461.5
426.291	438.5
426.513	451.5
426.735	456.5
426.958	525.5
427.18	564.5
427.402	642.5
427.625	717.5
427.847	623.5
428.069	561.5
428.292	499.5
428.514	457.5
428.736	431.5
428.958	444.5
429.181	438.5
429.403	430.5
429.625	430.5
429.847	449.5
430.069	502.5
430.292	523.5
430.514	445.5
430.736	420.5
430.958	406.5
431.18	395.5
431.402	407.5
431.624	381.5
431.846	379.5
432.068	364.5
432.29	374.5
432.512	396.5
432.734	404.5
432.956	391.5
433.178	414.5
433.4	427.5
433.622	404.5
433.844	410.5
434.066	414.5
434.287	372.5
434.509	397.5
434.731	418.5
434.953	408.5
435.175	455.5
435.397	454.5
435.618	458.5
435.84	499.5
436.062	534.5
436.284	625.5
436.505	520.5
436.727	433.5
436.949	425.5
437.17	406.5
437.392	438.5
437.614	424.5
437.835	454.5
438.057	532.5
438.278	610.5
438.5	611.5
438.721	667.5
438.943	646.5
439.165	526.5
439.386	471.5
439.608	455.5
439.829	461.5
440.05	491.5
440.272	510.5
440.493	496.5
440.715	448.5
440.936	418.5
441.158	427.5
441.379	406.5
441.6	428.5
441.822	463.5
442.043	473.5
442.264	556.5
442.486	596.5
442.707	494.5
442.928	476.5
443.149	491.5
443.371	462.5
443.592	510.5
443.813	584.5
444.034	640.5
444.255	521.5
444.476	491.5
444.698	459.5
444.919	447.5
445.14	533.5
445.361	503.5
445.582	509.5
445.803	548.5
446.024	619.5
446.245	607.5
446.466	588.5
446.687	487.5
446.908	458.5
447.129	443.5
447.35	429.5
447.571	434.5
447.792	401.5
448.013	433.5
448.234	462.5
448.455	472.5
448.675	562.5
448.896	629.5
449.117	562.5
449.338	544.5
449.559	636.5
449.779	690.5
450	549.5
450.221	463.5
450.442	413.5
450.662	418.5
450.883	413.5
451.104	420.5
451.324	384.5
451.545	376.5
451.766	374.5
451.986	388.5
452.207	371.5
452.428	379.5
452.648	379.5
452.869	365.5
453.089	380.5
453.31	382.5
453.53	357.5
453.751	380.5
453.971	362.5
454.192	376.5
454.412	374.5
454.633	359.5
454.853	368.5
455.073	369.5
455.294	404.5
455.514	424.5
455.734	438.5
455.955	393.5
456.175	344.5
456.395	356.5
456.616	372.5
456.836	341.5
457.056	351.5
457.276	354.5
457.497	342.5
457.717	347.5
457.937	364.5
458.157	355.5
458.377	345.5
458.598	366.5
458.818	423.5
459.038	475.5
459.258	501.5
459.478	426.5
459.698	392.5
459.918	388.5
460.138	354.5
460.358	388.5
460.578	392.5
460.798	374.5
461.018	411.5
461.238	386.5
461.458	390.5
461.678	395.5
461.898	383.5
462.118	376.5
462.338	405.5
462.558	397.5
462.777	396.5
462.997	382.5
463.217	414.5
463.437	418.5
463.657	412.5
463.876	418.5
464.096	417.5
464.316	399.5
464.536	428.5
464.755	404.5
464.975	409.5
465.195	439.5
465.414	485.5
465.634	437.5
465.854	403.5
466.073	395.5
466.293	384.5
466.512	383.5
466.732	368.5
466.951	380.5
467.171	384.5
467.391	383.5
467.61	392.5
467.829	375.5
468.049	400.5
468.268	368.5
468.488	375.5
468.707	370.5
468.927	352.5
469.146	374.5
469.365	363.5
469.585	365.5
469.804	364.5
470.023	378.5
470.243	364.5
470.462	381.5
470.681	390.5
470.901	402.5
471.12	388.5
471.339	363.5
471.558	360.5
471.777	391.5
471.997	390.5
472.216	387.5
472.435	400.5
472.654	388.5
472.873	383.5
473.092	371.5
473.311	366.5
473.53	382.5
473.749	384.5
473.968	424.5
474.187	517.5
474.406	516.5
474.625	429.5
474.844	402.5
475.063	389.5
475.282	389.5
475.501	384.5
475.72	403.5
475.939	387.5
476.158	388.5
476.377	410.5
476.596	388.5
476.814	404.5
477.033	380.5
477.252	394.5
477.471	414.5
477.69	407.5
477.908	415.5
478.127	421.5
478.346	413.5
478.564	415.5
478.783	415.5
479.002	438.5
479.22	424.5
479.439	467.5
479.658	458.5
479.876	448.5
480.095	435.5
480.313	460.5
480.532	469.5
480.751	456.5
480.969	466.5
481.188	499.5
481.406	495.5
481.624	478.5
481.843	437.5
482.061	455.5
482.28	447.5
482.498	439.5
482.717	432.5
482.935	446.5
483.153	461.5
483.372	445.5
483.59	453.5
483.808	439.5
484.027	446.5
484.245	441.5
484.463	446.5
484.681	450.5
484.9	439.5
485.118	454.5
485.336	432.5
485.554	458.5
485.772	470.5
485.99	438.5
486.209	450.5
486.427	468.5
486.645	489.5
486.863	464.5
487.081	473.5
487.299	452.5
487.517	467.5
487.735	480.5
487.953	475.5
488.171	491.5
488.389	468.5
488.607	491.5
488.825	476.5
489.043	480.5
489.261	461.5
489.479	477.5
489.696	470.5
489.914	470.5
490.132	512.5
490.35	482.5
490.568	512.5
490.786	505.5
491.003	525.5
491.221	538.5
491.439	542.5
491.657	522.5
491.874	568.5
492.092	555.5
492.31	536.5
492.527	550.5
492.745	553.5
492.963	576.5
493.18	552.5
493.398	556.5
493.615	580.5
493.833	558.5
494.05	571.5
494.268	584.5
494.485	546.5
494.703	563.5
494.92	559.5
495.138	570.5
495.355	580.5
495.573	575.5
495.79	566.5
496.008	562.5
496.225	546.5
496.442	579.5
496.66	571.5
496.877	558.5
497.094	554.5
497.312	576.5
497.529	580.5
497.746	583.5
497.963	584.5
498.181	587.5
498.398	614.5
498.615	614.5
498.832	624.5
499.049	604.5
499.267	645.5
499.484	637.5
499.701	661.5
499.918	671.5
500.135	742.5
500.352	732.5
500.569	742.5
500.786	743.5
501.003	749.5
501.22	698.5
501.437	723.5
501.654	690.5
501.871	676.5
502.088	644.5
502.305	636.5
502.522	623.5
502.739	623.5
502.956	608.5
503.172	584.5
503.389	591.5
503.606	570.5
503.823	559.5
504.04	569.5
504.256	559.5
504.473	552.5
504.69	567.5
504.907	568.5
505.123	541.5
505.34	550.5
505.557	516.5
505.773	528.5
505.99	540.5
506.207	531.5
506.423	532.5
506.64	543.5
506.856	559.5
507.073	515.5
507.289	512.5
507.506	500.5
507.722	523.5
507.939	536.5
508.155	525.5
508.372	494.5
508.588	522.5
508.805	505.5
509.021	503.5
509.238	498.5
509.454	514.5
509.67	512.5
509.887	510.5
510.103	500.5
510.319	516.5
510.536	603.5
510.752	912.5
510.968	741.5
511.184	527.5
511.401	502.5
511.617	480.5
511.833	478.5
512.049	487.5
512.265	488.5
512.481	440.5
512.698	474.5
512.914	480.5
513.13	469.5
513.346	463.5
513.562	468.5
513.778	474.5
513.994	487.5
514.21	481.5
514.426	493.5
514.642	550.5
514.858	542.5
515.074	598.5
515.29	674.5
515.506	946.5
515.721	788.5
515.937	567.5
516.153	498.5
516.369	518.5
516.585	516.5
516.801	470.5
517.016	492.5
517.232	502.5
517.448	474.5
517.664	479.5
517.879	486.5
518.095	506.5
518.311	507.5
518.527	482.5
518.742	476.5
518.958	470.5
519.173	481.5
519.389	475.5
519.605	480.5
519.82	479.5
520.036	474.5
