Data from 1971.PennyLincolnUp.Lamp.En5.5.200Scan.071719.P1._HRD10591_15-20-37-842.txt Node
Date: Thu Jul 18 15:20:37 EDT 2019
User: cochatt
Spectrometer: HR+D1059
Trigger mode: 1
Integration Time (sec): 1.000000E-1
Scans to average: 1
Electric dark correction enabled: true
Nonlinearity correction enabled: false
Boxcar width: 0
XAxis mode: Wavelengths
Number of Pixels in Spectrum: 2048
>>>>>Begin Spectral Data<<<<<
223.165	-15.44
223.4	-15.44
223.635	-15.44
223.869	-21.44
224.104	-13.44
224.338	-25.44
224.573	-19.44
224.808	-19.44
225.042	-1.44
225.277	-7.44
225.511	11.56
225.746	5.56
225.98	5.56
226.215	6.56
226.449	11.56
226.683	22.56
226.918	35.56
227.152	24.56
227.387	21.56
227.621	44.56
227.856	42.56
228.09	38.56
228.324	29.56
228.559	67.56
228.793	63.56
229.027	79.56
229.262	103.56
229.496	125.56
229.73	123.56
229.964	144.56
230.199	135.56
230.433	107.56
230.667	116.56
230.901	107.56
231.136	111.56
231.37	103.56
231.604	109.56
231.838	105.56
232.072	103.56
232.306	104.56
232.541	112.56
232.775	121.56
233.009	103.56
233.243	111.56
233.477	102.56
233.711	117.56
233.945	121.56
234.179	112.56
234.413	121.56
234.647	119.56
234.881	120.56
235.115	106.56
235.349	129.56
235.583	134.56
235.817	106.56
236.051	117.56
236.285	131.56
236.519	124.56
236.753	126.56
236.987	157.56
237.221	193.56
237.455	239.56
237.689	177.56
237.922	143.56
238.156	134.56
238.39	114.56
238.624	105.56
238.858	121.56
239.091	114.56
239.325	118.56
239.559	128.56
239.793	122.56
240.027	136.56
240.26	135.56
240.494	161.56
240.728	155.56
240.961	144.56
241.195	146.56
241.429	140.56
241.662	143.56
241.896	143.56
242.13	135.56
242.363	128.56
242.597	156.56
242.83	141.56
243.064	143.56
243.298	129.56
243.531	131.56
243.765	136.56
243.998	158.56
244.232	132.56
244.465	154.56
244.699	146.56
244.932	134.56
245.166	137.56
245.399	144.56
245.633	161.56
245.866	157.56
246.099	144.56
246.333	161.56
246.566	160.56
246.8	149.56
247.033	164.56
247.266	160.56
247.5	178.56
247.733	175.56
247.966	183.56
248.2	181.56
248.433	183.56
248.666	178.56
248.899	181.56
249.133	209.56
249.366	207.56
249.599	196.56
249.832	163.56
250.066	193.56
250.299	188.56
250.532	193.56
250.765	211.56
250.998	224.56
251.231	237.56
251.465	206.56
251.698	221.56
251.931	230.56
252.164	216.56
252.397	213.56
252.63	208.56
252.863	215.56
253.096	229.56
253.329	217.56
253.562	228.56
253.795	220.56
254.028	228.56
254.261	216.56
254.494	229.56
254.727	266.56
254.96	299.56
255.193	271.56
255.426	260.56
255.659	260.56
255.892	255.56
256.124	244.56
256.357	232.56
256.59	230.56
256.823	228.56
257.056	224.56
257.289	224.56
257.521	216.56
257.754	226.56
257.987	220.56
258.22	234.56
258.452	207.56
258.685	219.56
258.918	219.56
259.151	196.56
259.383	220.56
259.616	220.56
259.849	245.56
260.081	251.56
260.314	273.56
260.547	257.56
260.779	280.56
261.012	259.56
261.244	222.56
261.477	235.56
261.71	235.56
261.942	218.56
262.175	257.56
262.407	259.56
262.64	227.56
262.872	229.56
263.105	229.56
263.337	225.56
263.57	210.56
263.802	208.56
264.035	209.56
264.267	221.56
264.499	213.56
264.732	229.56
264.964	230.56
265.197	213.56
265.429	230.56
265.661	224.56
265.894	212.56
266.126	229.56
266.358	231.56
266.591	229.56
266.823	248.56
267.055	254.56
267.287	226.56
267.52	221.56
267.752	234.56
267.984	252.56
268.216	261.56
268.448	229.56
268.681	234.56
268.913	262.56
269.145	267.56
269.377	303.56
269.609	299.56
269.841	281.56
270.073	311.56
270.306	316.56
270.538	320.56
270.77	338.56
271.002	323.56
271.234	321.56
271.466	325.56
271.698	327.56
271.93	320.56
272.162	350.56
272.394	337.56
272.626	325.56
272.858	311.56
273.09	298.56
273.322	278.56
273.553	265.56
273.785	266.56
274.017	273.56
274.249	301.56
274.481	282.56
274.713	277.56
274.945	270.56
275.176	282.56
275.408	281.56
275.64	278.56
275.872	288.56
276.104	291.56
276.335	274.56
276.567	300.56
276.799	301.56
277.031	327.56
277.262	340.56
277.494	322.56
277.726	327.56
277.957	313.56
278.189	299.56
278.421	298.56
278.652	291.56
278.884	297.56
279.115	288.56
279.347	286.56
279.579	280.56
279.81	299.56
280.042	280.56
280.273	280.56
280.505	294.56
280.736	279.56
280.968	273.56
281.199	286.56
281.431	283.56
281.662	282.56
281.894	277.56
282.125	284.56
282.356	289.56
282.588	300.56
282.819	329.56
283.051	290.56
283.282	282.56
283.513	312.56
283.745	296.56
283.976	309.56
284.207	291.56
284.439	300.56
284.67	285.56
284.901	307.56
285.132	280.56
285.364	295.56
285.595	305.56
285.826	304.56
286.057	294.56
286.288	300.56
286.52	287.56
286.751	304.56
286.982	304.56
287.213	298.56
287.444	307.56
287.675	294.56
287.906	316.56
288.138	317.56
288.369	340.56
288.6	309.56
288.831	296.56
289.062	322.56
289.293	317.56
289.524	306.56
289.755	311.56
289.986	316.56
290.217	310.56
290.448	320.56
290.679	296.56
290.91	297.56
291.141	297.56
291.371	308.56
291.602	302.56
291.833	318.56
292.064	310.56
292.295	303.56
292.526	295.56
292.757	300.56
292.987	293.56
293.218	312.56
293.449	324.56
293.68	313.56
293.91	291.56
294.141	319.56
294.372	289.56
294.603	316.56
294.833	305.56
295.064	315.56
295.295	308.56
295.525	309.56
295.756	320.56
295.987	332.56
296.217	333.56
296.448	344.56
296.679	301.56
296.909	319.56
297.14	303.56
297.37	311.56
297.601	301.56
297.831	312.56
298.062	320.56
298.292	305.56
298.523	314.56
298.753	322.56
298.984	320.56
299.214	317.56
299.445	304.56
299.675	315.56
299.905	327.56
300.136	307.56
300.366	329.56
300.597	324.56
300.827	320.56
301.057	327.56
301.288	358.56
301.518	338.56
301.748	350.56
301.979	344.56
302.209	333.56
302.439	340.56
302.669	330.56
302.9	324.56
303.13	339.56
303.36	342.56
303.59	339.56
303.82	352.56
304.051	349.56
304.281	333.56
304.511	349.56
304.741	359.56
304.971	347.56
305.201	349.56
305.431	333.56
305.661	364.56
305.891	343.56
306.121	339.56
306.352	344.56
306.582	354.56
306.812	346.56
307.042	357.56
307.272	340.56
307.502	346.56
307.731	363.56
307.961	361.56
308.191	372.56
308.421	342.56
308.651	356.56
308.881	363.56
309.111	364.56
309.341	352.56
309.571	375.56
309.8	381.56
310.03	390.56
310.26	391.56
310.49	376.56
310.72	387.56
310.949	406.56
311.179	402.56
311.409	387.56
311.639	390.56
311.868	394.56
312.098	401.56
312.328	405.56
312.557	412.56
312.787	411.56
313.017	442.56
313.246	392.56
313.476	381.56
313.706	384.56
313.935	382.56
314.165	394.56
314.394	408.56
314.624	407.56
314.853	419.56
315.083	415.56
315.312	395.56
315.542	405.56
315.771	396.56
316.001	372.56
316.23	363.56
316.46	383.56
316.689	378.56
316.919	391.56
317.148	414.56
317.377	389.56
317.607	392.56
317.836	389.56
318.065	382.56
318.295	403.56
318.524	392.56
318.753	384.56
318.983	388.56
319.212	394.56
319.441	407.56
319.67	398.56
319.9	412.56
320.129	403.56
320.358	388.56
320.587	408.56
320.816	422.56
321.046	415.56
321.275	417.56
321.504	406.56
321.733	415.56
321.962	416.56
322.191	434.56
322.42	446.56
322.649	456.56
322.878	479.56
323.108	495.56
323.337	505.56
323.566	509.56
323.795	537.56
324.024	592.56
324.253	747.56
324.482	1038.56
324.71	1546.56
324.939	2063.56
325.168	1781.56
325.397	915.56
325.626	659.56
325.855	559.56
326.084	525.56
326.313	508.56
326.542	519.56
326.77	586.56
326.999	708.56
327.228	925.56
327.457	1352.56
327.686	1527.56
327.914	1021.56
328.143	714.56
328.372	608.56
328.6	592.56
328.829	571.56
329.058	581.56
329.287	570.56
329.515	532.56
329.744	544.56
329.972	521.56
330.201	540.56
330.43	554.56
330.658	571.56
330.887	588.56
331.115	556.56
331.344	513.56
331.572	508.56
331.801	498.56
332.03	493.56
332.258	477.56
332.486	480.56
332.715	457.56
332.943	459.56
333.172	461.56
333.4	468.56
333.629	484.56
333.857	476.56
334.085	495.56
334.314	496.56
334.542	529.56
334.771	536.56
334.999	482.56
335.227	498.56
335.455	480.56
335.684	459.56
335.912	465.56
336.14	435.56
336.369	449.56
336.597	435.56
336.825	455.56
337.053	427.56
337.281	433.56
337.51	452.56
337.738	429.56
337.966	431.56
338.194	445.56
338.422	425.56
338.65	418.56
338.878	419.56
339.106	433.56
339.334	447.56
339.562	436.56
339.79	423.56
340.018	435.56
340.246	434.56
340.474	435.56
340.702	443.56
340.93	436.56
341.158	416.56
341.386	436.56
341.614	418.56
341.842	428.56
342.07	421.56
342.298	410.56
342.526	421.56
342.754	419.56
342.981	411.56
343.209	442.56
343.437	420.56
343.665	421.56
343.893	419.56
344.12	451.56
344.348	439.56
344.576	432.56
344.804	448.56
345.031	432.56
345.259	453.56
345.487	442.56
345.714	404.56
345.942	426.56
346.17	416.56
346.397	412.56
346.625	415.56
346.853	426.56
347.08	403.56
347.308	413.56
347.535	389.56
347.763	432.56
347.99	421.56
348.218	447.56
348.445	415.56
348.673	429.56
348.9	406.56
349.128	402.56
349.355	402.56
349.583	382.56
349.81	385.56
350.037	392.56
350.265	387.56
350.492	405.56
350.72	404.56
350.947	398.56
351.174	410.56
351.402	423.56
351.629	405.56
351.856	415.56
352.083	397.56
352.311	420.56
352.538	418.56
352.765	401.56
352.992	406.56
353.22	411.56
353.447	427.56
353.674	390.56
353.901	388.56
354.128	383.56
354.355	396.56
354.583	378.56
354.81	378.56
355.037	381.56
355.264	386.56
355.491	384.56
355.718	376.56
355.945	370.56
356.172	371.56
356.399	386.56
356.626	351.56
356.853	363.56
357.08	357.56
357.307	377.56
357.534	379.56
357.761	386.56
357.988	376.56
358.215	383.56
358.441	390.56
358.668	380.56
358.895	389.56
359.122	373.56
359.349	394.56
359.576	389.56
359.802	411.56
360.029	426.56
360.256	435.56
360.483	425.56
360.709	396.56
360.936	407.56
361.163	399.56
361.39	398.56
361.616	409.56
361.843	393.56
362.07	373.56
362.296	379.56
362.523	400.56
362.749	406.56
362.976	393.56
363.203	394.56
363.429	387.56
363.656	395.56
363.882	388.56
364.109	375.56
364.335	361.56
364.562	377.56
364.788	393.56
365.015	377.56
365.241	358.56
365.468	380.56
365.694	373.56
365.92	359.56
366.147	370.56
366.373	387.56
366.599	371.56
366.826	362.56
367.052	373.56
367.278	359.56
367.505	389.56
367.731	355.56
367.957	363.56
368.184	385.56
368.41	380.56
368.636	380.56
368.862	394.56
369.089	383.56
369.315	369.56
369.541	372.56
369.767	359.56
369.993	375.56
370.219	394.56
370.445	363.56
370.672	361.56
370.898	395.56
371.124	373.56
371.35	363.56
371.576	375.56
371.802	377.56
372.028	380.56
372.254	382.56
372.48	364.56
372.706	375.56
372.932	370.56
373.158	354.56
373.384	359.56
373.61	369.56
373.835	360.56
374.061	367.56
374.287	347.56
374.513	367.56
374.739	358.56
374.965	353.56
375.191	358.56
375.416	361.56
375.642	351.56
375.868	362.56
376.094	367.56
376.319	356.56
376.545	359.56
376.771	349.56
376.997	348.56
377.222	345.56
377.448	348.56
377.674	350.56
377.899	366.56
378.125	365.56
378.35	363.56
378.576	348.56
378.802	364.56
379.027	351.56
379.253	365.56
379.478	350.56
379.704	363.56
379.929	358.56
380.155	353.56
380.38	377.56
380.606	358.56
380.831	361.56
381.057	369.56
381.282	359.56
381.507	370.56
381.733	375.56
381.958	359.56
382.184	371.56
382.409	367.56
382.634	371.56
382.86	357.56
383.085	369.56
383.31	368.56
383.535	377.56
383.761	380.56
383.986	372.56
384.211	377.56
384.436	373.56
384.662	357.56
384.887	368.56
385.112	361.56
385.337	371.56
385.562	353.56
385.787	383.56
386.013	397.56
386.238	377.56
386.463	370.56
386.688	393.56
386.913	369.56
387.138	397.56
387.363	400.56
387.588	383.56
387.813	386.56
388.038	375.56
388.263	376.56
388.488	373.56
388.713	372.56
388.938	378.56
389.163	374.56
389.387	395.56
389.612	371.56
389.837	369.56
390.062	388.56
390.287	385.56
390.512	377.56
390.736	361.56
390.961	380.56
391.186	351.56
391.411	364.56
391.636	376.56
391.86	381.56
392.085	380.56
392.31	384.56
392.534	389.56
392.759	383.56
392.984	375.56
393.208	371.56
393.433	383.56
393.658	395.56
393.882	382.56
394.107	359.56
394.331	375.56
394.556	385.56
394.78	367.56
395.005	355.56
395.229	391.56
395.454	363.56
395.678	405.56
395.903	383.56
396.127	390.56
396.352	406.56
396.576	397.56
396.801	369.56
397.025	402.56
397.249	388.56
397.474	395.56
397.698	391.56
397.922	416.56
398.147	415.56
398.371	417.56
398.595	408.56
398.82	418.56
399.044	430.56
399.268	409.56
399.492	434.56
399.717	472.56
399.941	486.56
400.165	502.56
400.389	533.56
400.613	498.56
400.837	439.56
401.062	425.56
401.286	434.56
401.51	399.56
401.734	415.56
401.958	410.56
402.182	419.56
402.406	433.56
402.63	431.56
402.854	458.56
403.078	434.56
403.302	433.56
403.526	436.56
403.75	420.56
403.974	434.56
404.198	420.56
404.422	439.56
404.645	443.56
404.869	441.56
405.093	467.56
405.317	511.56
405.541	537.56
405.765	475.56
405.988	451.56
406.212	483.56
406.436	488.56
406.66	485.56
406.883	460.56
407.107	469.56
407.331	509.56
407.555	574.56
407.778	564.56
408.002	533.56
408.226	496.56
408.449	473.56
408.673	473.56
408.896	497.56
409.12	530.56
409.344	505.56
409.567	460.56
409.791	433.56
410.014	433.56
410.238	431.56
410.461	421.56
410.685	431.56
410.908	437.56
411.132	483.56
411.355	515.56
411.578	479.56
411.802	453.56
412.025	417.56
412.249	428.56
412.472	467.56
412.695	492.56
412.919	482.56
413.142	455.56
413.365	431.56
413.589	428.56
413.812	400.56
414.035	423.56
414.258	406.56
414.482	411.56
414.705	401.56
414.928	398.56
415.151	404.56
415.374	419.56
415.597	397.56
415.821	388.56
416.044	418.56
416.267	387.56
416.49	413.56
416.713	417.56
416.936	431.56
417.159	420.56
417.382	414.56
417.605	398.56
417.828	438.56
418.051	437.56
418.274	433.56
418.497	415.56
418.72	407.56
418.943	420.56
419.166	428.56
419.389	415.56
419.611	418.56
419.834	431.56
420.057	412.56
420.28	427.56
420.503	428.56
420.726	442.56
420.948	415.56
421.171	474.56
421.394	483.56
421.617	435.56
421.839	424.56
422.062	427.56
422.285	442.56
422.507	506.56
422.73	547.56
422.953	542.56
423.175	459.56
423.398	459.56
423.621	444.56
423.843	448.56
424.066	444.56
424.288	465.56
424.511	468.56
424.733	529.56
424.956	582.56
425.178	575.56
425.401	576.56
425.623	563.56
425.846	498.56
426.068	479.56
426.291	443.56
426.513	457.56
426.735	477.56
426.958	520.56
427.18	596.56
427.402	684.56
427.625	711.56
427.847	630.56
428.069	550.56
428.292	504.56
428.514	481.56
428.736	445.56
428.958	435.56
429.181	445.56
429.403	413.56
429.625	428.56
429.847	472.56
430.069	501.56
430.292	524.56
430.514	439.56
430.736	408.56
430.958	432.56
431.18	389.56
431.402	389.56
431.624	397.56
431.846	405.56
432.068	408.56
432.29	400.56
432.512	384.56
432.734	387.56
432.956	405.56
433.178	419.56
433.4	408.56
433.622	381.56
433.844	394.56
434.066	408.56
434.287	396.56
434.509	395.56
434.731	405.56
434.953	415.56
435.175	429.56
435.397	445.56
435.618	475.56
435.84	499.56
436.062	575.56
436.284	641.56
436.505	508.56
436.727	482.56
436.949	425.56
437.17	433.56
437.392	408.56
437.614	439.56
437.835	454.56
438.057	535.56
438.278	618.56
438.5	622.56
438.721	689.56
438.943	657.56
439.165	520.56
439.386	452.56
439.608	471.56
439.829	469.56
440.05	500.56
440.272	523.56
440.493	512.56
440.715	469.56
440.936	452.56
441.158	421.56
441.379	437.56
441.6	424.56
441.822	464.56
442.043	469.56
442.264	545.56
442.486	582.56
442.707	504.56
442.928	454.56
443.149	476.56
443.371	505.56
443.592	517.56
443.813	600.56
444.034	649.56
444.255	549.56
444.476	485.56
444.698	449.56
444.919	466.56
445.14	557.56
445.361	521.56
445.582	488.56
445.803	548.56
446.024	618.56
446.245	643.56
446.466	593.56
446.687	486.56
446.908	469.56
447.129	434.56
447.35	436.56
447.571	414.56
447.792	424.56
448.013	444.56
448.234	437.56
448.455	479.56
448.675	569.56
448.896	661.56
449.117	599.56
449.338	548.56
449.559	645.56
449.779	726.56
450	553.56
450.221	455.56
450.442	411.56
450.662	416.56
450.883	420.56
451.104	454.56
451.324	433.56
451.545	399.56
451.766	374.56
451.986	397.56
452.207	379.56
452.428	371.56
452.648	376.56
452.869	371.56
453.089	379.56
453.31	370.56
453.53	407.56
453.751	383.56
453.971	377.56
454.192	383.56
454.412	388.56
454.633	385.56
454.853	365.56
455.073	380.56
455.294	394.56
455.514	464.56
455.734	432.56
455.955	374.56
456.175	379.56
456.395	367.56
456.616	370.56
456.836	323.56
457.056	335.56
457.276	343.56
457.497	350.56
457.717	355.56
457.937	347.56
458.157	368.56
458.377	380.56
458.598	385.56
458.818	419.56
459.038	499.56
459.258	480.56
459.478	411.56
459.698	390.56
459.918	391.56
460.138	392.56
460.358	410.56
460.578	382.56
460.798	396.56
461.018	400.56
461.238	397.56
461.458	387.56
461.678	356.56
461.898	405.56
462.118	401.56
462.338	399.56
462.558	410.56
462.777	411.56
462.997	432.56
463.217	416.56
463.437	421.56
463.657	411.56
463.876	416.56
464.096	407.56
464.316	419.56
464.536	412.56
464.755	407.56
464.975	413.56
465.195	448.56
465.414	482.56
465.634	435.56
465.854	411.56
466.073	396.56
466.293	393.56
466.512	419.56
466.732	387.56
466.951	406.56
467.171	379.56
467.391	372.56
467.61	389.56
467.829	397.56
468.049	392.56
468.268	396.56
468.488	385.56
468.707	370.56
468.927	364.56
469.146	373.56
469.365	365.56
469.585	386.56
469.804	387.56
470.023	388.56
470.243	384.56
470.462	397.56
470.681	403.56
470.901	379.56
471.12	390.56
471.339	387.56
471.558	393.56
471.777	380.56
471.997	389.56
472.216	401.56
472.435	391.56
472.654	383.56
472.873	385.56
473.092	374.56
473.311	370.56
473.53	380.56
473.749	397.56
473.968	434.56
474.187	525.56
474.406	542.56
474.625	458.56
474.844	404.56
475.063	396.56
475.282	384.56
475.501	407.56
475.72	404.56
475.939	396.56
476.158	412.56
476.377	410.56
476.596	412.56
476.814	403.56
477.033	406.56
477.252	416.56
477.471	415.56
477.69	412.56
477.908	418.56
478.127	427.56
478.346	397.56
478.564	412.56
478.783	435.56
479.002	428.56
479.22	426.56
479.439	427.56
479.658	456.56
479.876	457.56
480.095	466.56
480.313	523.56
480.532	476.56
480.751	455.56
480.969	479.56
481.188	517.56
481.406	531.56
481.624	497.56
481.843	492.56
482.061	455.56
482.28	451.56
482.498	432.56
482.717	455.56
482.935	443.56
483.153	452.56
483.372	476.56
483.59	453.56
483.808	449.56
484.027	447.56
484.245	427.56
484.463	457.56
484.681	457.56
484.9	461.56
485.118	475.56
485.336	485.56
485.554	467.56
485.772	444.56
485.99	479.56
486.209	461.56
486.427	465.56
486.645	467.56
486.863	485.56
487.081	510.56
487.299	490.56
487.517	495.56
487.735	499.56
487.953	468.56
488.171	488.56
488.389	464.56
488.607	498.56
488.825	495.56
489.043	466.56
489.261	483.56
489.479	492.56
489.696	485.56
489.914	499.56
490.132	504.56
490.35	521.56
490.568	528.56
490.786	502.56
491.003	522.56
491.221	547.56
491.439	545.56
491.657	552.56
491.874	551.56
492.092	551.56
492.31	568.56
492.527	567.56
492.745	585.56
492.963	577.56
493.18	564.56
493.398	583.56
493.615	595.56
493.833	572.56
494.05	603.56
494.268	564.56
494.485	564.56
494.703	576.56
494.92	580.56
495.138	579.56
495.355	591.56
495.573	565.56
495.79	576.56
496.008	584.56
496.225	573.56
496.442	563.56
496.66	556.56
496.877	582.56
497.094	582.56
497.312	603.56
497.529	607.56
497.746	608.56
497.963	613.56
498.181	608.56
498.398	607.56
498.615	607.56
498.832	627.56
499.049	626.56
499.267	657.56
499.484	645.56
499.701	661.56
499.918	693.56
500.135	722.56
500.352	729.56
500.569	738.56
500.786	771.56
501.003	740.56
501.22	740.56
501.437	734.56
501.654	720.56
501.871	706.56
