Data from 1971.PennyLincolnUp.Lamp.En5.5.200Scan.071719.P1._HRD10591_15-18-44-842.txt Node
Date: Thu Jul 18 15:18:44 EDT 2019
User: cochatt
Spectrometer: HR+D1059
Trigger mode: 1
Integration Time (sec): 1.000000E-1
Scans to average: 1
Electric dark correction enabled: true
Nonlinearity correction enabled: false
Boxcar width: 0
XAxis mode: Wavelengths
Number of Pixels in Spectrum: 2048
>>>>>Begin Spectral Data<<<<<
223.165	-11.19
223.4	-11.19
223.635	-11.19
223.869	-4.19
224.104	-7.19
224.338	-19.19
224.573	-3.19
224.808	-13.19
225.042	-2.19
225.277	-13.19
225.511	-9.19
225.746	-9.19
225.98	8.81
226.215	11.81
226.449	-6.19
226.683	18.81
226.918	22.81
227.152	35.81
227.387	30.81
227.621	43.81
227.856	38.81
228.09	43.81
228.324	51.81
228.559	66.81
228.793	77.81
229.027	84.81
229.262	104.81
229.496	112.81
229.73	115.81
229.964	144.81
230.199	126.81
230.433	114.81
230.667	103.81
230.901	112.81
231.136	111.81
231.37	104.81
231.604	112.81
231.838	106.81
232.072	120.81
232.306	118.81
232.541	119.81
232.775	118.81
233.009	131.81
233.243	116.81
233.477	114.81
233.711	114.81
233.945	119.81
234.179	123.81
234.413	110.81
234.647	118.81
234.881	112.81
235.115	123.81
235.349	135.81
235.583	120.81
235.817	124.81
236.051	116.81
236.285	115.81
236.519	120.81
236.753	133.81
236.987	125.81
237.221	168.81
237.455	214.81
237.689	175.81
237.922	124.81
238.156	135.81
238.39	135.81
238.624	122.81
238.858	135.81
239.091	115.81
239.325	128.81
239.559	120.81
239.793	134.81
240.027	136.81
240.26	153.81
240.494	160.81
240.728	149.81
240.961	151.81
241.195	142.81
241.429	160.81
241.662	145.81
241.896	144.81
242.13	126.81
242.363	120.81
242.597	134.81
242.83	138.81
243.064	125.81
243.298	122.81
243.531	142.81
243.765	138.81
243.998	130.81
244.232	136.81
244.465	149.81
244.699	134.81
244.932	148.81
245.166	142.81
245.399	154.81
245.633	152.81
245.866	141.81
246.099	152.81
246.333	149.81
246.566	152.81
246.8	150.81
247.033	151.81
247.266	158.81
247.5	162.81
247.733	180.81
247.966	179.81
248.2	188.81
248.433	170.81
248.666	182.81
248.899	166.81
249.133	196.81
249.366	216.81
249.599	211.81
249.832	186.81
250.066	182.81
250.299	182.81
250.532	194.81
250.765	196.81
250.998	209.81
251.231	210.81
251.465	198.81
251.698	188.81
251.931	206.81
252.164	218.81
252.397	188.81
252.63	202.81
252.863	208.81
253.096	210.81
253.329	235.81
253.562	233.81
253.795	212.81
254.028	212.81
254.261	226.81
254.494	231.81
254.727	254.81
254.96	262.81
255.193	257.81
255.426	245.81
255.659	239.81
255.892	238.81
256.124	250.81
256.357	235.81
256.59	222.81
256.823	226.81
257.056	217.81
257.289	231.81
257.521	218.81
257.754	212.81
257.987	217.81
258.22	219.81
258.452	210.81
258.685	218.81
258.918	207.81
259.151	201.81
259.383	232.81
259.616	225.81
259.849	240.81
260.081	233.81
260.314	253.81
260.547	259.81
260.779	235.81
261.012	244.81
261.244	212.81
261.477	231.81
261.71	226.81
261.942	214.81
262.175	220.81
262.407	208.81
262.64	211.81
262.872	212.81
263.105	212.81
263.337	231.81
263.57	210.81
263.802	212.81
264.035	215.81
264.267	201.81
264.499	209.81
264.732	222.81
264.964	218.81
265.197	228.81
265.429	224.81
265.661	222.81
265.894	219.81
266.126	212.81
266.358	231.81
266.591	214.81
266.823	222.81
267.055	238.81
267.287	236.81
267.52	227.81
267.752	233.81
267.984	244.81
268.216	249.81
268.448	230.81
268.681	242.81
268.913	268.81
269.145	285.81
269.377	284.81
269.609	262.81
269.841	274.81
270.073	276.81
270.306	286.81
270.538	316.81
270.77	307.81
271.002	293.81
271.234	294.81
271.466	306.81
271.698	294.81
271.93	320.81
272.162	322.81
272.394	308.81
272.626	290.81
272.858	296.81
273.09	288.81
273.322	275.81
273.553	258.81
273.785	270.81
274.017	253.81
274.249	273.81
274.481	270.81
274.713	277.81
274.945	276.81
275.176	283.81
275.408	274.81
275.64	264.81
275.872	272.81
276.104	260.81
276.335	257.81
276.567	281.81
276.799	281.81
277.031	284.81
277.262	307.81
277.494	329.81
277.726	322.81
277.957	294.81
278.189	301.81
278.421	280.81
278.652	266.81
278.884	262.81
279.115	255.81
279.347	282.81
279.579	266.81
279.81	270.81
280.042	254.81
280.273	287.81
280.505	281.81
280.736	270.81
280.968	276.81
281.199	267.81
281.431	289.81
281.662	288.81
281.894	257.81
282.125	268.81
282.356	288.81
282.588	293.81
282.819	301.81
283.051	284.81
283.282	284.81
283.513	286.81
283.745	285.81
283.976	276.81
284.207	284.81
284.439	280.81
284.67	285.81
284.901	281.81
285.132	275.81
285.364	285.81
285.595	283.81
285.826	281.81
286.057	300.81
286.288	290.81
286.52	306.81
286.751	303.81
286.982	287.81
287.213	280.81
287.444	294.81
287.675	305.81
287.906	297.81
288.138	309.81
288.369	301.81
288.6	304.81
288.831	303.81
289.062	296.81
289.293	316.81
289.524	306.81
289.755	295.81
289.986	310.81
290.217	286.81
290.448	282.81
290.679	304.81
290.91	306.81
291.141	286.81
291.371	295.81
291.602	295.81
291.833	291.81
292.064	306.81
292.295	302.81
292.526	281.81
292.757	276.81
292.987	267.81
293.218	287.81
293.449	306.81
293.68	286.81
293.91	307.81
294.141	307.81
294.372	273.81
294.603	303.81
294.833	296.81
295.064	313.81
295.295	310.81
295.525	297.81
295.756	302.81
295.987	312.81
296.217	328.81
296.448	315.81
296.679	302.81
296.909	310.81
297.14	313.81
297.37	316.81
297.601	310.81
297.831	303.81
298.062	302.81
298.292	286.81
298.523	314.81
298.753	311.81
298.984	321.81
299.214	301.81
299.445	308.81
299.675	319.81
299.905	310.81
300.136	318.81
300.366	304.81
300.597	311.81
300.827	321.81
301.057	330.81
301.288	318.81
301.518	340.81
301.748	304.81
301.979	329.81
302.209	336.81
302.439	327.81
302.669	330.81
302.9	331.81
303.13	339.81
303.36	330.81
303.59	338.81
303.82	342.81
304.051	334.81
304.281	331.81
304.511	322.81
304.741	327.81
304.971	322.81
305.201	325.81
305.431	330.81
305.661	312.81
305.891	322.81
306.121	340.81
306.352	330.81
306.582	340.81
306.812	336.81
307.042	336.81
307.272	329.81
307.502	317.81
307.731	316.81
307.961	324.81
308.191	335.81
308.421	336.81
308.651	353.81
308.881	341.81
309.111	358.81
309.341	340.81
309.571	368.81
309.8	351.81
310.03	344.81
310.26	383.81
310.49	356.81
310.72	378.81
310.949	394.81
311.179	380.81
311.409	384.81
311.639	379.81
311.868	370.81
312.098	354.81
312.328	381.81
312.557	395.81
312.787	386.81
313.017	377.81
313.246	382.81
313.476	367.81
313.706	374.81
313.935	378.81
314.165	399.81
314.394	388.81
314.624	408.81
314.853	379.81
315.083	363.81
315.312	376.81
315.542	369.81
315.771	374.81
316.001	361.81
316.23	360.81
316.46	372.81
316.689	370.81
316.919	388.81
317.148	404.81
317.377	386.81
317.607	384.81
317.836	369.81
318.065	386.81
318.295	374.81
318.524	369.81
318.753	388.81
318.983	373.81
319.212	376.81
319.441	377.81
319.67	359.81
319.9	372.81
320.129	372.81
320.358	371.81
320.587	394.81
320.816	406.81
321.046	396.81
321.275	391.81
321.504	390.81
321.733	393.81
321.962	387.81
322.191	387.81
322.42	391.81
322.649	425.81
322.878	430.81
323.108	460.81
323.337	454.81
323.566	460.81
323.795	510.81
324.024	540.81
324.253	651.81
324.482	899.81
324.71	1303.81
324.939	1758.81
325.168	1466.81
325.397	778.81
325.626	585.81
325.855	525.81
326.084	460.81
326.313	467.81
326.542	482.81
326.77	535.81
326.999	610.81
327.228	784.81
327.457	1138.81
327.686	1294.81
327.914	902.81
328.143	633.81
328.372	573.81
328.6	529.81
328.829	533.81
329.058	526.81
329.287	540.81
329.515	518.81
329.744	486.81
329.972	463.81
330.201	483.81
330.43	498.81
330.658	505.81
330.887	539.81
331.115	533.81
331.344	495.81
331.572	477.81
331.801	458.81
332.03	452.81
332.258	441.81
332.486	433.81
332.715	414.81
332.943	430.81
333.172	442.81
333.4	440.81
333.629	448.81
333.857	442.81
334.085	442.81
334.314	465.81
334.542	467.81
334.771	486.81
334.999	462.81
335.227	436.81
335.455	445.81
335.684	432.81
335.912	427.81
336.14	423.81
336.369	435.81
336.597	440.81
336.825	432.81
337.053	423.81
337.281	424.81
337.51	408.81
337.738	420.81
337.966	408.81
338.194	406.81
338.422	430.81
338.65	415.81
338.878	415.81
339.106	397.81
339.334	410.81
339.562	396.81
339.79	402.81
340.018	402.81
340.246	398.81
340.474	424.81
340.702	396.81
340.93	418.81
341.158	427.81
341.386	395.81
341.614	405.81
341.842	386.81
342.07	394.81
342.298	407.81
342.526	411.81
342.754	397.81
342.981	394.81
343.209	392.81
343.437	417.81
343.665	400.81
343.893	402.81
344.12	423.81
344.348	409.81
344.576	418.81
344.804	422.81
345.031	405.81
345.259	410.81
345.487	416.81
345.714	398.81
345.942	409.81
346.17	397.81
346.397	384.81
346.625	394.81
346.853	393.81
347.08	391.81
347.308	415.81
347.535	398.81
347.763	401.81
347.99	391.81
348.218	398.81
348.445	404.81
348.673	401.81
348.9	388.81
349.128	400.81
349.355	396.81
349.583	379.81
349.81	379.81
350.037	375.81
350.265	386.81
350.492	375.81
350.72	369.81
350.947	374.81
351.174	388.81
351.402	380.81
351.629	391.81
351.856	400.81
352.083	418.81
352.311	398.81
352.538	391.81
352.765	406.81
352.992	402.81
353.22	396.81
353.447	366.81
353.674	369.81
353.901	377.81
354.128	379.81
354.355	365.81
354.583	376.81
354.81	362.81
355.037	386.81
355.264	364.81
355.491	367.81
355.718	370.81
355.945	365.81
356.172	351.81
356.399	356.81
356.626	361.81
356.853	368.81
357.08	342.81
357.307	364.81
357.534	364.81
357.761	350.81
357.988	350.81
358.215	371.81
358.441	362.81
358.668	364.81
358.895	354.81
359.122	373.81
359.349	386.81
359.576	398.81
359.802	394.81
360.029	405.81
360.256	427.81
360.483	399.81
360.709	387.81
360.936	378.81
361.163	377.81
361.39	390.81
361.616	382.81
361.843	374.81
362.07	376.81
362.296	378.81
362.523	380.81
362.749	368.81
362.976	384.81
363.203	406.81
363.429	362.81
363.656	375.81
363.882	350.81
364.109	363.81
364.335	361.81
364.562	355.81
364.788	385.81
365.015	367.81
365.241	364.81
365.468	398.81
365.694	368.81
365.92	378.81
366.147	360.81
366.373	376.81
366.599	367.81
366.826	350.81
367.052	356.81
367.278	363.81
367.505	365.81
367.731	349.81
367.957	357.81
368.184	361.81
368.41	381.81
368.636	359.81
368.862	378.81
369.089	355.81
369.315	362.81
369.541	359.81
369.767	356.81
369.993	355.81
370.219	359.81
370.445	354.81
370.672	361.81
370.898	361.81
371.124	346.81
371.35	366.81
371.576	351.81
371.802	351.81
372.028	344.81
372.254	357.81
372.48	357.81
372.706	339.81
372.932	367.81
373.158	360.81
373.384	356.81
373.61	358.81
373.835	353.81
374.061	355.81
374.287	349.81
374.513	365.81
374.739	387.81
374.965	363.81
375.191	358.81
375.416	362.81
375.642	352.81
375.868	358.81
376.094	359.81
376.319	378.81
376.545	364.81
376.771	360.81
376.997	350.81
377.222	358.81
377.448	360.81
377.674	360.81
377.899	346.81
378.125	312.81
378.35	334.81
378.576	376.81
378.802	355.81
379.027	348.81
379.253	342.81
379.478	353.81
379.704	351.81
379.929	352.81
380.155	361.81
380.38	361.81
380.606	354.81
380.831	339.81
381.057	358.81
381.282	368.81
381.507	357.81
381.733	354.81
381.958	338.81
382.184	357.81
382.409	374.81
382.634	361.81
382.86	356.81
383.085	351.81
383.31	339.81
383.535	365.81
383.761	367.81
383.986	347.81
384.211	379.81
384.436	386.81
384.662	352.81
384.887	358.81
385.112	353.81
385.337	369.81
385.562	366.81
385.787	367.81
386.013	386.81
386.238	386.81
386.463	377.81
386.688	367.81
386.913	379.81
387.138	374.81
387.363	390.81
387.588	377.81
387.813	377.81
388.038	361.81
388.263	380.81
388.488	390.81
388.713	371.81
388.938	386.81
389.163	367.81
389.387	368.81
389.612	364.81
389.837	378.81
390.062	366.81
390.287	374.81
390.512	375.81
390.736	368.81
390.961	375.81
391.186	356.81
391.411	364.81
391.636	392.81
391.86	386.81
392.085	371.81
392.31	371.81
392.534	388.81
392.759	390.81
392.984	367.81
393.208	366.81
393.433	386.81
393.658	351.81
393.882	382.81
394.107	366.81
394.331	378.81
394.556	358.81
394.78	366.81
395.005	379.81
395.229	378.81
395.454	380.81
395.678	395.81
395.903	395.81
396.127	413.81
396.352	408.81
396.576	396.81
396.801	374.81
397.025	386.81
397.249	384.81
397.474	384.81
397.698	398.81
397.922	385.81
398.147	392.81
398.371	404.81
398.595	403.81
398.82	393.81
399.044	424.81
399.268	435.81
399.492	462.81
399.717	468.81
399.941	513.81
400.165	515.81
400.389	516.81
400.613	453.81
400.837	442.81
401.062	408.81
401.286	422.81
401.51	410.81
401.734	418.81
401.958	381.81
402.182	417.81
402.406	416.81
402.63	409.81
402.854	411.81
403.078	417.81
403.302	404.81
403.526	433.81
403.75	426.81
403.974	419.81
404.198	418.81
404.422	430.81
404.645	422.81
404.869	456.81
405.093	454.81
405.317	489.81
405.541	497.81
405.765	480.81
405.988	456.81
406.212	468.81
406.436	457.81
406.66	470.81
406.883	465.81
407.107	482.81
407.331	513.81
407.555	552.81
407.778	558.81
408.002	500.81
408.226	458.81
408.449	461.81
408.673	458.81
408.896	484.81
409.12	506.81
409.344	498.81
409.567	444.81
409.791	439.81
410.014	415.81
410.238	404.81
410.461	432.81
410.685	437.81
410.908	445.81
411.132	466.81
411.355	503.81
411.578	477.81
411.802	450.81
412.025	409.81
412.249	434.81
412.472	420.81
412.695	468.81
412.919	465.81
413.142	418.81
413.365	418.81
413.589	396.81
413.812	388.81
414.035	405.81
414.258	413.81
414.482	394.81
414.705	388.81
414.928	383.81
415.151	381.81
415.374	400.81
415.597	393.81
415.821	402.81
416.044	408.81
416.267	398.81
416.49	399.81
416.713	381.81
416.936	411.81
417.159	406.81
417.382	404.81
417.605	398.81
417.828	405.81
418.051	420.81
418.274	392.81
418.497	409.81
418.72	398.81
418.943	396.81
419.166	414.81
419.389	435.81
419.611	421.81
419.834	427.81
420.057	424.81
420.28	420.81
420.503	419.81
420.726	399.81
420.948	441.81
421.171	454.81
421.394	481.81
421.617	441.81
421.839	424.81
422.062	444.81
422.285	411.81
422.507	475.81
422.73	531.81
422.953	514.81
423.175	454.81
423.398	441.81
423.621	448.81
423.843	418.81
424.066	446.81
424.288	457.81
424.511	464.81
424.733	510.81
424.956	571.81
425.178	548.81
425.401	542.81
425.623	570.81
425.846	468.81
426.068	435.81
426.291	452.81
426.513	446.81
426.735	465.81
426.958	499.81
427.18	556.81
427.402	650.81
427.625	689.81
427.847	613.81
428.069	524.81
428.292	476.81
428.514	442.81
428.736	444.81
428.958	423.81
429.181	414.81
429.403	408.81
429.625	429.81
429.847	459.81
430.069	486.81
430.292	488.81
430.514	411.81
430.736	396.81
430.958	414.81
431.18	379.81
431.402	424.81
431.624	396.81
431.846	390.81
432.068	376.81
432.29	382.81
432.512	391.81
432.734	372.81
432.956	394.81
433.178	415.81
433.4	379.81
433.622	382.81
433.844	368.81
434.066	407.81
434.287	380.81
434.509	387.81
434.731	390.81
434.953	382.81
435.175	423.81
435.397	418.81
435.618	417.81
435.84	474.81
436.062	534.81
436.284	591.81
436.505	495.81
436.727	471.81
436.949	403.81
437.17	387.81
437.392	394.81
437.614	425.81
437.835	436.81
438.057	526.81
438.278	585.81
438.5	580.81
438.721	642.81
438.943	636.81
439.165	507.81
439.386	471.81
439.608	439.81
439.829	445.81
440.05	455.81
440.272	495.81
440.493	477.81
440.715	451.81
440.936	413.81
441.158	425.81
441.379	423.81
441.6	429.81
441.822	426.81
442.043	469.81
442.264	532.81
442.486	546.81
442.707	479.81
442.928	460.81
443.149	476.81
443.371	484.81
443.592	508.81
443.813	577.81
444.034	616.81
444.255	506.81
444.476	471.81
444.698	450.81
444.919	442.81
445.14	587.81
445.361	522.81
445.582	482.81
445.803	546.81
446.024	580.81
446.245	600.81
446.466	540.81
446.687	487.81
446.908	441.81
447.129	427.81
447.35	423.81
447.571	407.81
447.792	404.81
448.013	408.81
448.234	435.81
448.455	479.81
448.675	554.81
448.896	627.81
449.117	555.81
449.338	538.81
449.559	609.81
449.779	661.81
450	518.81
450.221	452.81
450.442	435.81
450.662	404.81
450.883	401.81
451.104	418.81
451.324	376.81
451.545	394.81
451.766	383.81
451.986	372.81
452.207	364.81
452.428	375.81
452.648	379.81
452.869	372.81
453.089	369.81
453.31	404.81
453.53	371.81
453.751	369.81
453.971	369.81
454.192	392.81
454.412	376.81
454.633	346.81
454.853	349.81
455.073	354.81
455.294	379.81
455.514	456.81
455.734	422.81
455.955	366.81
456.175	355.81
456.395	372.81
456.616	359.81
456.836	356.81
457.056	337.81
457.276	325.81
457.497	366.81
457.717	347.81
457.937	364.81
458.157	330.81
458.377	360.81
458.598	372.81
458.818	407.81
459.038	462.81
459.258	470.81
459.478	415.81
459.698	394.81
459.918	368.81
460.138	354.81
460.358	374.81
460.578	379.81
460.798	391.81
461.018	389.81
461.238	395.81
461.458	399.81
461.678	386.81
461.898	372.81
462.118	395.81
462.338	388.81
462.558	392.81
462.777	418.81
462.997	408.81
463.217	419.81
463.437	428.81
463.657	390.81
463.876	386.81
464.096	402.81
464.316	391.81
464.536	420.81
464.755	393.81
464.975	392.81
465.195	432.81
465.414	468.81
465.634	448.81
465.854	414.81
466.073	400.81
466.293	371.81
466.512	382.81
466.732	378.81
466.951	376.81
467.171	391.81
467.391	376.81
467.61	376.81
467.829	396.81
468.049	372.81
468.268	376.81
468.488	361.81
468.707	367.81
468.927	346.81
469.146	359.81
469.365	352.81
469.585	363.81
469.804	370.81
470.023	379.81
470.243	366.81
470.462	371.81
470.681	385.81
470.901	387.81
471.12	379.81
471.339	369.81
471.558	376.81
471.777	384.81
471.997	397.81
472.216	369.81
472.435	380.81
472.654	398.81
472.873	356.81
473.092	374.81
473.311	363.81
473.53	398.81
473.749	404.81
473.968	424.81
474.187	499.81
474.406	510.81
474.625	416.81
474.844	406.81
475.063	365.81
475.282	355.81
475.501	393.81
475.72	406.81
475.939	391.81
476.158	404.81
476.377	386.81
476.596	382.81
476.814	400.81
477.033	402.81
477.252	385.81
477.471	384.81
477.69	396.81
477.908	413.81
478.127	414.81
478.346	427.81
478.564	428.81
478.783	411.81
479.002	405.81
479.22	428.81
479.439	415.81
479.658	451.81
479.876	432.81
480.095	461.81
480.313	464.81
480.532	452.81
480.751	445.81
480.969	470.81
481.188	489.81
481.406	476.81
481.624	456.81
481.843	435.81
482.061	428.81
482.28	435.81
482.498	429.81
482.717	414.81
482.935	426.81
483.153	432.81
483.372	426.81
483.59	432.81
483.808	420.81
484.027	437.81
484.245	455.81
484.463	439.81
484.681	451.81
484.9	478.81
485.118	433.81
485.336	447.81
485.554	427.81
485.772	431.81
485.99	448.81
486.209	459.81
486.427	458.81
486.645	451.81
486.863	476.81
487.081	467.81
487.299	477.81
487.517	468.81
487.735	454.81
487.953	459.81
488.171	475.81
488.389	477.81
488.607	470.81
488.825	475.81
489.043	473.81
489.261	460.81
489.479	476.81
489.696	493.81
489.914	460.81
490.132	471.81
490.35	493.81
490.568	512.81
490.786	504.81
491.003	502.81
491.221	506.81
491.439	505.81
491.657	525.81
491.874	535.81
492.092	516.81
492.31	529.81
492.527	557.81
492.745	544.81
492.963	544.81
493.18	548.81
493.398	540.81
493.615	550.81
493.833	556.81
494.05	554.81
494.268	556.81
494.485	542.81
494.703	538.81
494.92	537.81
495.138	561.81
495.355	545.81
495.573	553.81
495.79	568.81
496.008	556.81
496.225	555.81
496.442	546.81
496.66	568.81
496.877	534.81
497.094	568.81
497.312	574.81
497.529	553.81
497.746	558.81
497.963	573.81
498.181	580.81
498.398	571.81
498.615	617.81
498.832	618.81
499.049	638.81
499.267	622.81
499.484	637.81
499.701	679.81
499.918	680.81
500.135	706.81
500.352	723.81
500.569	743.81
500.786	742.81
501.003	742.81
501.22	721.81
501.437	702.81
501.654	668.81
501.871	691.81
