Data from 1971.PennyLincolnUp.Lamp.En5.5.200Scan.071719.P1._HRD10591_15-17-47-841.txt Node
Date: Thu Jul 18 15:17:47 EDT 2019
User: cochatt
Spectrometer: HR+D1059
Trigger mode: 1
Integration Time (sec): 1.000000E-1
Scans to average: 1
Electric dark correction enabled: true
Nonlinearity correction enabled: false
Boxcar width: 0
XAxis mode: Wavelengths
Number of Pixels in Spectrum: 2048
>>>>>Begin Spectral Data<<<<<
223.165	-4.75
223.4	-4.75
223.635	-4.75
223.869	-25.75
224.104	-8.75
224.338	-2.75
224.573	-22.75
224.808	-21.75
225.042	3.25
225.277	-11.75
225.511	-7.75
225.746	-9.75
225.98	15.25
226.215	19.25
226.449	12.25
226.683	9.25
226.918	29.25
227.152	27.25
227.387	41.25
227.621	44.25
227.856	50.25
228.09	24.25
228.324	48.25
228.559	55.25
228.793	60.25
229.027	79.25
229.262	94.25
229.496	87.25
229.73	113.25
229.964	106.25
230.199	106.25
230.433	93.25
230.667	98.25
230.901	110.25
231.136	96.25
231.37	100.25
231.604	95.25
231.838	88.25
232.072	95.25
232.306	108.25
232.541	97.25
232.775	97.25
233.009	88.25
233.243	83.25
233.477	98.25
233.711	98.25
233.945	99.25
234.179	106.25
234.413	88.25
234.647	93.25
234.881	107.25
235.115	102.25
235.349	107.25
235.583	105.25
235.817	100.25
236.051	111.25
236.285	105.25
236.519	105.25
236.753	115.25
236.987	117.25
237.221	138.25
237.455	156.25
237.689	138.25
237.922	107.25
238.156	127.25
238.39	102.25
238.624	121.25
238.858	122.25
239.091	106.25
239.325	103.25
239.559	117.25
239.793	120.25
240.027	112.25
240.26	127.25
240.494	119.25
240.728	121.25
240.961	117.25
241.195	118.25
241.429	136.25
241.662	107.25
241.896	110.25
242.13	106.25
242.363	122.25
242.597	120.25
242.83	118.25
243.064	109.25
243.298	110.25
243.531	109.25
243.765	126.25
243.998	128.25
244.232	135.25
244.465	124.25
244.699	138.25
244.932	131.25
245.166	118.25
245.399	127.25
245.633	129.25
245.866	125.25
246.099	131.25
246.333	127.25
246.566	136.25
246.8	126.25
247.033	125.25
247.266	132.25
247.5	136.25
247.733	149.25
247.966	154.25
248.2	149.25
248.433	142.25
248.666	144.25
248.899	166.25
249.133	165.25
249.366	155.25
249.599	157.25
249.832	168.25
250.066	158.25
250.299	172.25
250.532	152.25
250.765	171.25
250.998	178.25
251.231	175.25
251.465	184.25
251.698	168.25
251.931	166.25
252.164	165.25
252.397	170.25
252.63	169.25
252.863	166.25
253.096	175.25
253.329	180.25
253.562	178.25
253.795	175.25
254.028	172.25
254.261	190.25
254.494	194.25
254.727	191.25
254.96	222.25
255.193	204.25
255.426	181.25
255.659	194.25
255.892	185.25
256.124	174.25
256.357	173.25
256.59	195.25
256.823	172.25
257.056	182.25
257.289	182.25
257.521	175.25
257.754	188.25
257.987	190.25
258.22	167.25
258.452	190.25
258.685	191.25
258.918	184.25
259.151	198.25
259.383	190.25
259.616	186.25
259.849	187.25
260.081	192.25
260.314	195.25
260.547	210.25
260.779	183.25
261.012	188.25
261.244	182.25
261.477	189.25
261.71	188.25
261.942	195.25
262.175	171.25
262.407	174.25
262.64	180.25
262.872	177.25
263.105	186.25
263.337	187.25
263.57	172.25
263.802	190.25
264.035	184.25
264.267	171.25
264.499	174.25
264.732	182.25
264.964	160.25
265.197	187.25
265.429	171.25
265.661	167.25
265.894	182.25
266.126	184.25
266.358	183.25
266.591	191.25
266.823	190.25
267.055	212.25
267.287	206.25
267.52	176.25
267.752	187.25
267.984	190.25
268.216	206.25
268.448	200.25
268.681	197.25
268.913	204.25
269.145	205.25
269.377	210.25
269.609	229.25
269.841	221.25
270.073	206.25
270.306	223.25
270.538	248.25
270.77	262.25
271.002	242.25
271.234	221.25
271.466	234.25
271.698	263.25
271.93	256.25
272.162	234.25
272.394	248.25
272.626	216.25
272.858	243.25
273.09	221.25
273.322	231.25
273.553	228.25
273.785	213.25
274.017	201.25
274.249	222.25
274.481	208.25
274.713	222.25
274.945	222.25
275.176	224.25
275.408	226.25
275.64	215.25
275.872	218.25
276.104	210.25
276.335	202.25
276.567	197.25
276.799	231.25
277.031	227.25
277.262	220.25
277.494	252.25
277.726	224.25
277.957	226.25
278.189	227.25
278.421	220.25
278.652	244.25
278.884	208.25
279.115	223.25
279.347	225.25
279.579	215.25
279.81	222.25
280.042	211.25
280.273	219.25
280.505	219.25
280.736	230.25
280.968	226.25
281.199	206.25
281.431	223.25
281.662	213.25
281.894	236.25
282.125	229.25
282.356	226.25
282.588	231.25
282.819	240.25
283.051	230.25
283.282	214.25
283.513	224.25
283.745	208.25
283.976	228.25
284.207	240.25
284.439	231.25
284.67	219.25
284.901	225.25
285.132	226.25
285.364	219.25
285.595	228.25
285.826	220.25
286.057	230.25
286.288	239.25
286.52	235.25
286.751	254.25
286.982	225.25
287.213	244.25
287.444	242.25
287.675	247.25
287.906	259.25
288.138	223.25
288.369	253.25
288.6	234.25
288.831	231.25
289.062	223.25
289.293	221.25
289.524	266.25
289.755	220.25
289.986	233.25
290.217	253.25
290.448	254.25
290.679	251.25
290.91	238.25
291.141	232.25
291.371	235.25
291.602	256.25
291.833	240.25
292.064	231.25
292.295	231.25
292.526	247.25
292.757	237.25
292.987	242.25
293.218	242.25
293.449	260.25
293.68	248.25
293.91	259.25
294.141	246.25
294.372	231.25
294.603	244.25
294.833	236.25
295.064	236.25
295.295	236.25
295.525	263.25
295.756	231.25
295.987	249.25
296.217	260.25
296.448	259.25
296.679	238.25
296.909	253.25
297.14	256.25
297.37	250.25
297.601	240.25
297.831	250.25
298.062	244.25
298.292	247.25
298.523	252.25
298.753	250.25
298.984	260.25
299.214	242.25
299.445	250.25
299.675	253.25
299.905	254.25
300.136	251.25
300.366	272.25
300.597	246.25
300.827	274.25
301.057	270.25
301.288	265.25
301.518	266.25
301.748	246.25
301.979	249.25
302.209	268.25
302.439	252.25
302.669	263.25
302.9	268.25
303.13	246.25
303.36	287.25
303.59	273.25
303.82	268.25
304.051	279.25
304.281	270.25
304.511	262.25
304.741	288.25
304.971	268.25
305.201	269.25
305.431	272.25
305.661	243.25
305.891	268.25
306.121	278.25
306.352	274.25
306.582	257.25
306.812	282.25
307.042	274.25
307.272	254.25
307.502	280.25
307.731	285.25
307.961	269.25
308.191	270.25
308.421	278.25
308.651	279.25
308.881	276.25
309.111	286.25
309.341	277.25
309.571	276.25
309.8	282.25
310.03	291.25
310.26	280.25
310.49	268.25
310.72	293.25
310.949	295.25
311.179	300.25
311.409	272.25
311.639	284.25
311.868	290.25
312.098	280.25
312.328	292.25
312.557	311.25
312.787	310.25
313.017	306.25
313.246	308.25
313.476	311.25
313.706	296.25
313.935	282.25
314.165	308.25
314.394	317.25
314.624	310.25
314.853	292.25
315.083	316.25
315.312	324.25
315.542	297.25
315.771	292.25
316.001	295.25
316.23	301.25
316.46	295.25
316.689	287.25
316.919	289.25
317.148	309.25
317.377	304.25
317.607	314.25
317.836	293.25
318.065	302.25
318.295	298.25
318.524	314.25
318.753	310.25
318.983	306.25
319.212	307.25
319.441	292.25
319.67	308.25
319.9	308.25
320.129	306.25
320.358	308.25
320.587	299.25
320.816	303.25
321.046	290.25
321.275	294.25
321.504	295.25
321.733	306.25
321.962	317.25
322.191	309.25
322.42	312.25
322.649	317.25
322.878	332.25
323.108	336.25
323.337	348.25
323.566	330.25
323.795	346.25
324.024	376.25
324.253	445.25
324.482	570.25
324.71	868.25
324.939	1180.25
325.168	969.25
325.397	564.25
325.626	404.25
325.855	388.25
326.084	347.25
326.313	350.25
326.542	351.25
326.77	367.25
326.999	428.25
327.228	574.25
327.457	789.25
327.686	900.25
327.914	623.25
328.143	458.25
328.372	396.25
328.6	387.25
328.829	371.25
329.058	370.25
329.287	379.25
329.515	355.25
329.744	354.25
329.972	347.25
330.201	370.25
330.43	353.25
330.658	384.25
330.887	406.25
331.115	375.25
331.344	349.25
331.572	345.25
331.801	353.25
332.03	383.25
332.258	343.25
332.486	335.25
332.715	346.25
332.943	322.25
333.172	349.25
333.4	376.25
333.629	343.25
333.857	340.25
334.085	373.25
334.314	360.25
334.542	372.25
334.771	380.25
334.999	346.25
335.227	383.25
335.455	339.25
335.684	360.25
335.912	365.25
336.14	345.25
336.369	341.25
336.597	339.25
336.825	350.25
337.053	350.25
337.281	342.25
337.51	354.25
337.738	331.25
337.966	336.25
338.194	323.25
338.422	320.25
338.65	340.25
338.878	340.25
339.106	333.25
339.334	323.25
339.562	322.25
339.79	332.25
340.018	323.25
340.246	314.25
340.474	348.25
340.702	330.25
340.93	312.25
341.158	317.25
341.386	321.25
341.614	347.25
341.842	365.25
342.07	321.25
342.298	326.25
342.526	318.25
342.754	311.25
342.981	336.25
343.209	318.25
343.437	330.25
343.665	328.25
343.893	334.25
344.12	342.25
344.348	331.25
344.576	324.25
344.804	352.25
345.031	346.25
345.259	333.25
345.487	324.25
345.714	351.25
345.942	318.25
346.17	323.25
346.397	322.25
346.625	323.25
346.853	296.25
347.08	290.25
347.308	294.25
347.535	307.25
347.763	306.25
347.99	324.25
348.218	326.25
348.445	311.25
348.673	317.25
348.9	314.25
349.128	302.25
349.355	306.25
349.583	299.25
349.81	278.25
350.037	309.25
350.265	318.25
350.492	301.25
350.72	306.25
350.947	316.25
351.174	316.25
351.402	312.25
351.629	323.25
351.856	304.25
352.083	317.25
352.311	314.25
352.538	302.25
352.765	297.25
352.992	298.25
353.22	312.25
353.447	318.25
353.674	303.25
353.901	282.25
354.128	296.25
354.355	295.25
354.583	291.25
354.81	314.25
355.037	294.25
355.264	291.25
355.491	278.25
355.718	299.25
355.945	285.25
356.172	287.25
356.399	302.25
356.626	314.25
356.853	292.25
357.08	311.25
357.307	312.25
357.534	288.25
357.761	292.25
357.988	308.25
358.215	302.25
358.441	307.25
358.668	304.25
358.895	310.25
359.122	304.25
359.349	299.25
359.576	303.25
359.802	310.25
360.029	324.25
360.256	323.25
360.483	295.25
360.709	312.25
360.936	297.25
361.163	301.25
361.39	308.25
361.616	315.25
361.843	292.25
362.07	294.25
362.296	300.25
362.523	307.25
362.749	294.25
362.976	289.25
363.203	312.25
363.429	294.25
363.656	304.25
363.882	298.25
364.109	283.25
364.335	302.25
364.562	299.25
364.788	310.25
365.015	273.25
365.241	303.25
365.468	301.25
365.694	303.25
365.92	292.25
366.147	299.25
366.373	296.25
366.599	294.25
366.826	296.25
367.052	315.25
367.278	302.25
367.505	295.25
367.731	314.25
367.957	286.25
368.184	299.25
368.41	311.25
368.636	299.25
368.862	303.25
369.089	316.25
369.315	293.25
369.541	305.25
369.767	298.25
369.993	292.25
370.219	295.25
370.445	312.25
370.672	302.25
370.898	290.25
371.124	291.25
371.35	291.25
371.576	281.25
371.802	280.25
372.028	286.25
372.254	300.25
372.48	298.25
372.706	305.25
372.932	299.25
373.158	293.25
373.384	302.25
373.61	310.25
373.835	284.25
374.061	296.25
374.287	293.25
374.513	284.25
374.739	306.25
374.965	314.25
375.191	297.25
375.416	308.25
375.642	328.25
375.868	311.25
376.094	285.25
376.319	295.25
376.545	298.25
376.771	293.25
376.997	298.25
377.222	283.25
377.448	284.25
377.674	288.25
377.899	291.25
378.125	288.25
378.35	287.25
378.576	260.25
378.802	290.25
379.027	294.25
379.253	311.25
379.478	294.25
379.704	293.25
379.929	304.25
380.155	295.25
380.38	317.25
380.606	288.25
380.831	283.25
381.057	285.25
381.282	306.25
381.507	301.25
381.733	290.25
381.958	295.25
382.184	300.25
382.409	290.25
382.634	297.25
382.86	288.25
383.085	303.25
383.31	301.25
383.535	296.25
383.761	310.25
383.986	297.25
384.211	308.25
384.436	301.25
384.662	306.25
384.887	307.25
385.112	299.25
385.337	309.25
385.562	310.25
385.787	313.25
386.013	331.25
386.238	321.25
386.463	319.25
386.688	331.25
386.913	298.25
387.138	308.25
387.363	329.25
387.588	320.25
387.813	309.25
388.038	312.25
388.263	319.25
388.488	296.25
388.713	314.25
388.938	311.25
389.163	299.25
389.387	316.25
389.612	316.25
389.837	320.25
390.062	314.25
390.287	319.25
390.512	320.25
390.736	308.25
390.961	310.25
391.186	315.25
391.411	328.25
391.636	318.25
391.86	316.25
392.085	330.25
392.31	298.25
392.534	321.25
392.759	303.25
392.984	299.25
393.208	314.25
393.433	362.25
393.658	360.25
393.882	350.25
394.107	311.25
394.331	322.25
394.556	318.25
394.78	315.25
395.005	313.25
395.229	312.25
395.454	326.25
395.678	329.25
395.903	340.25
396.127	334.25
396.352	345.25
396.576	330.25
396.801	341.25
397.025	332.25
397.249	339.25
397.474	336.25
397.698	327.25
397.922	321.25
398.147	333.25
398.371	340.25
398.595	340.25
398.82	342.25
399.044	356.25
399.268	346.25
399.492	382.25
399.717	404.25
399.941	404.25
400.165	398.25
400.389	394.25
400.613	361.25
400.837	369.25
401.062	346.25
401.286	385.25
401.51	349.25
401.734	347.25
401.958	351.25
402.182	351.25
402.406	337.25
402.63	358.25
402.854	359.25
403.078	344.25
403.302	341.25
403.526	358.25
403.75	345.25
403.974	354.25
404.198	355.25
404.422	360.25
404.645	365.25
404.869	372.25
405.093	370.25
405.317	377.25
405.541	400.25
405.765	371.25
405.988	374.25
406.212	364.25
406.436	380.25
406.66	384.25
406.883	360.25
407.107	388.25
407.331	402.25
407.555	451.25
407.778	436.25
408.002	422.25
408.226	370.25
408.449	377.25
408.673	371.25
408.896	396.25
409.12	404.25
409.344	414.25
409.567	358.25
409.791	360.25
410.014	350.25
410.238	350.25
410.461	342.25
410.685	339.25
410.908	378.25
411.132	362.25
411.355	412.25
411.578	377.25
411.802	373.25
412.025	345.25
412.249	356.25
412.472	358.25
412.695	372.25
412.919	379.25
413.142	347.25
413.365	346.25
413.589	343.25
413.812	349.25
414.035	336.25
414.258	334.25
414.482	358.25
414.705	339.25
414.928	332.25
415.151	333.25
415.374	340.25
415.597	357.25
415.821	333.25
416.044	340.25
416.267	340.25
416.49	326.25
416.713	329.25
416.936	330.25
417.159	333.25
417.382	336.25
417.605	334.25
417.828	330.25
418.051	350.25
418.274	347.25
418.497	336.25
418.72	345.25
418.943	326.25
419.166	337.25
419.389	358.25
419.611	370.25
419.834	358.25
420.057	357.25
420.28	349.25
420.503	354.25
420.726	338.25
420.948	378.25
421.171	368.25
421.394	381.25
421.617	336.25
421.839	346.25
422.062	344.25
422.285	350.25
422.507	411.25
422.73	440.25
422.953	429.25
423.175	370.25
423.398	346.25
423.621	363.25
423.843	373.25
424.066	378.25
424.288	384.25
424.511	373.25
424.733	391.25
424.956	460.25
425.178	436.25
425.401	422.25
425.623	430.25
425.846	400.25
426.068	362.25
426.291	350.25
426.513	368.25
426.735	352.25
426.958	382.25
427.18	417.25
427.402	489.25
427.625	558.25
427.847	490.25
428.069	411.25
428.292	371.25
428.514	368.25
428.736	338.25
428.958	344.25
429.181	328.25
429.403	316.25
429.625	342.25
429.847	346.25
430.069	383.25
430.292	399.25
430.514	370.25
430.736	340.25
430.958	324.25
431.18	341.25
431.402	327.25
431.624	303.25
431.846	315.25
432.068	318.25
432.29	319.25
432.512	323.25
432.734	326.25
432.956	346.25
433.178	310.25
433.4	332.25
433.622	319.25
433.844	318.25
434.066	350.25
434.287	334.25
434.509	329.25
434.731	329.25
434.953	320.25
435.175	342.25
435.397	365.25
435.618	364.25
435.84	388.25
436.062	454.25
436.284	461.25
436.505	404.25
436.727	372.25
436.949	359.25
437.17	349.25
437.392	343.25
437.614	333.25
437.835	371.25
438.057	410.25
438.278	451.25
438.5	467.25
438.721	522.25
438.943	491.25
439.165	406.25
439.386	386.25
439.608	359.25
439.829	358.25
440.05	366.25
440.272	391.25
440.493	389.25
440.715	353.25
440.936	336.25
441.158	329.25
441.379	346.25
441.6	345.25
441.822	348.25
442.043	380.25
442.264	425.25
442.486	441.25
442.707	391.25
442.928	367.25
443.149	378.25
443.371	378.25
443.592	406.25
443.813	462.25
444.034	494.25
444.255	409.25
444.476	386.25
444.698	357.25
444.919	346.25
445.14	487.25
445.361	413.25
445.582	400.25
445.803	403.25
446.024	470.25
446.245	486.25
446.466	423.25
446.687	381.25
446.908	352.25
447.129	355.25
447.35	358.25
447.571	343.25
447.792	324.25
448.013	336.25
448.234	343.25
448.455	379.25
448.675	434.25
448.896	502.25
449.117	429.25
449.338	402.25
449.559	494.25
449.779	514.25
450	424.25
450.221	379.25
450.442	330.25
450.662	328.25
450.883	338.25
451.104	338.25
451.324	326.25
451.545	304.25
451.766	308.25
451.986	298.25
452.207	293.25
452.428	306.25
452.648	297.25
452.869	308.25
453.089	291.25
453.31	295.25
453.53	321.25
453.751	302.25
453.971	302.25
454.192	294.25
454.412	299.25
454.633	288.25
454.853	284.25
455.073	316.25
455.294	299.25
455.514	367.25
455.734	336.25
455.955	307.25
456.175	288.25
456.395	293.25
456.616	290.25
456.836	258.25
457.056	283.25
457.276	300.25
457.497	300.25
457.717	279.25
457.937	267.25
458.157	300.25
458.377	286.25
458.598	307.25
458.818	324.25
459.038	363.25
459.258	372.25
459.478	356.25
459.698	324.25
459.918	313.25
460.138	306.25
460.358	309.25
460.578	319.25
460.798	324.25
461.018	322.25
461.238	332.25
461.458	330.25
461.678	319.25
461.898	322.25
462.118	324.25
462.338	327.25
462.558	335.25
462.777	325.25
462.997	358.25
463.217	360.25
463.437	363.25
463.657	339.25
463.876	358.25
464.096	335.25
464.316	319.25
464.536	364.25
464.755	320.25
464.975	338.25
465.195	366.25
465.414	395.25
465.634	349.25
465.854	322.25
466.073	324.25
466.293	311.25
466.512	309.25
466.732	317.25
466.951	311.25
467.171	312.25
467.391	315.25
467.61	312.25
467.829	306.25
468.049	308.25
468.268	302.25
468.488	294.25
468.707	300.25
468.927	300.25
469.146	286.25
469.365	313.25
469.585	315.25
469.804	309.25
470.023	321.25
470.243	326.25
470.462	308.25
470.681	318.25
470.901	300.25
471.12	310.25
471.339	321.25
471.558	312.25
471.777	327.25
471.997	311.25
472.216	311.25
472.435	320.25
472.654	313.25
472.873	300.25
473.092	300.25
473.311	302.25
473.53	323.25
473.749	300.25
473.968	361.25
474.187	388.25
474.406	394.25
474.625	351.25
474.844	326.25
475.063	308.25
475.282	326.25
475.501	327.25
475.72	327.25
475.939	307.25
476.158	332.25
476.377	332.25
476.596	325.25
476.814	346.25
477.033	333.25
477.252	314.25
477.471	321.25
477.69	324.25
477.908	346.25
478.127	342.25
478.346	358.25
478.564	355.25
478.783	346.25
479.002	340.25
479.22	353.25
479.439	362.25
479.658	380.25
479.876	354.25
480.095	350.25
480.313	392.25
480.532	373.25
480.751	361.25
480.969	357.25
481.188	384.25
481.406	384.25
481.624	347.25
481.843	366.25
482.061	372.25
482.28	365.25
482.498	366.25
482.717	352.25
482.935	363.25
483.153	340.25
483.372	359.25
483.59	347.25
483.808	348.25
484.027	354.25
484.245	374.25
484.463	358.25
484.681	372.25
484.9	375.25
485.118	375.25
485.336	368.25
485.554	383.25
485.772	378.25
485.99	365.25
486.209	353.25
486.427	373.25
486.645	375.25
486.863	389.25
487.081	399.25
487.299	382.25
487.517	390.25
487.735	396.25
487.953	398.25
488.171	396.25
488.389	392.25
488.607	374.25
488.825	367.25
489.043	372.25
489.261	375.25
489.479	385.25
489.696	400.25
489.914	390.25
490.132	404.25
490.35	400.25
490.568	415.25
490.786	403.25
491.003	403.25
491.221	433.25
491.439	422.25
491.657	439.25
491.874	454.25
492.092	439.25
492.31	463.25
492.527	441.25
492.745	440.25
492.963	431.25
493.18	442.25
493.398	458.25
493.615	454.25
493.833	429.25
494.05	440.25
494.268	442.25
494.485	435.25
494.703	425.25
494.92	462.25
495.138	460.25
495.355	444.25
495.573	449.25
495.79	450.25
496.008	452.25
496.225	444.25
496.442	452.25
496.66	453.25
496.877	432.25
497.094	456.25
497.312	437.25
497.529	476.25
497.746	467.25
497.963	476.25
498.181	477.25
498.398	482.25
498.615	483.25
498.832	519.25
499.049	504.25
499.267	544.25
499.484	521.25
499.701	554.25
499.918	576.25
500.135	586.25
500.352	587.25
500.569	597.25
500.786	610.25
501.003	602.25
501.22	586.25
501.437	570.25
501.654	550.25
501.871	547.25
502.088	528.25
502.305	514.25
