Data from 1971.PennyLincolnUp.Lamp.En5.5.200Scan.071719.P1._HRD10591_15-20-52-841.txt Node
Date: Thu Jul 18 15:20:52 EDT 2019
User: cochatt
Spectrometer: HR+D1059
Trigger mode: 1
Integration Time (sec): 1.000000E-1
Scans to average: 1
Electric dark correction enabled: true
Nonlinearity correction enabled: false
Boxcar width: 0
XAxis mode: Wavelengths
Number of Pixels in Spectrum: 2048
>>>>>Begin Spectral Data<<<<<
223.165	-1.06
223.4	-1.06
223.635	-1.06
223.869	-8.06
224.104	-21.06
224.338	-17.06
224.573	-17.06
224.808	-13.06
225.042	-1.06
225.277	-16.06
225.511	-11.06
225.746	5.94
225.98	8.94
226.215	6.94
226.449	5.94
226.683	13.94
226.918	19.94
227.152	43.94
227.387	37.94
227.621	42.94
227.856	25.94
228.09	55.94
228.324	43.94
228.559	42.94
228.793	69.94
229.027	83.94
229.262	105.94
229.496	102.94
229.73	121.94
229.964	145.94
230.199	121.94
230.433	113.94
230.667	118.94
230.901	118.94
231.136	110.94
231.37	105.94
231.604	99.94
231.838	105.94
232.072	120.94
232.306	113.94
232.541	106.94
232.775	108.94
233.009	119.94
233.243	110.94
233.477	110.94
233.711	101.94
233.945	96.94
234.179	102.94
234.413	114.94
234.647	95.94
234.881	103.94
235.115	126.94
235.349	104.94
235.583	99.94
235.817	124.94
236.051	133.94
236.285	125.94
236.519	101.94
236.753	137.94
236.987	147.94
237.221	151.94
237.455	209.94
237.689	166.94
237.922	123.94
238.156	122.94
238.39	127.94
238.624	130.94
238.858	127.94
239.091	130.94
239.325	137.94
239.559	127.94
239.793	137.94
240.027	133.94
240.26	142.94
240.494	144.94
240.728	143.94
240.961	142.94
241.195	130.94
241.429	143.94
241.662	129.94
241.896	129.94
242.13	130.94
242.363	142.94
242.597	133.94
242.83	135.94
243.064	137.94
243.298	134.94
243.531	143.94
243.765	142.94
243.998	150.94
244.232	144.94
244.465	142.94
244.699	155.94
244.932	148.94
245.166	143.94
245.399	139.94
245.633	161.94
245.866	161.94
246.099	141.94
246.333	153.94
246.566	168.94
246.8	147.94
247.033	141.94
247.266	165.94
247.5	166.94
247.733	171.94
247.966	178.94
248.2	172.94
248.433	166.94
248.666	178.94
248.899	205.94
249.133	193.94
249.366	219.94
249.599	188.94
249.832	181.94
250.066	185.94
250.299	182.94
250.532	202.94
250.765	206.94
250.998	218.94
251.231	232.94
251.465	219.94
251.698	204.94
251.931	197.94
252.164	198.94
252.397	197.94
252.63	197.94
252.863	222.94
253.096	228.94
253.329	237.94
253.562	223.94
253.795	230.94
254.028	217.94
254.261	207.94
254.494	230.94
254.727	266.94
254.96	296.94
255.193	299.94
255.426	259.94
255.659	250.94
255.892	259.94
256.124	235.94
256.357	259.94
256.59	231.94
256.823	219.94
257.056	220.94
257.289	215.94
257.521	228.94
257.754	213.94
257.987	217.94
258.22	207.94
258.452	230.94
258.685	220.94
258.918	210.94
259.151	212.94
259.383	221.94
259.616	243.94
259.849	241.94
260.081	253.94
260.314	256.94
260.547	276.94
260.779	277.94
261.012	238.94
261.244	254.94
261.477	234.94
261.71	241.94
261.942	233.94
262.175	234.94
262.407	243.94
262.64	227.94
262.872	222.94
263.105	218.94
263.337	228.94
263.57	205.94
263.802	219.94
264.035	232.94
264.267	221.94
264.499	215.94
264.732	218.94
264.964	205.94
265.197	212.94
265.429	235.94
265.661	231.94
265.894	242.94
266.126	241.94
266.358	228.94
266.591	230.94
266.823	234.94
267.055	246.94
267.287	243.94
267.52	244.94
267.752	224.94
267.984	246.94
268.216	234.94
268.448	246.94
268.681	253.94
268.913	243.94
269.145	263.94
269.377	285.94
269.609	289.94
269.841	281.94
270.073	275.94
270.306	318.94
270.538	331.94
270.77	326.94
271.002	327.94
271.234	323.94
271.466	326.94
271.698	334.94
271.93	327.94
272.162	326.94
272.394	324.94
272.626	313.94
272.858	313.94
273.09	322.94
273.322	272.94
273.553	266.94
273.785	283.94
274.017	275.94
274.249	282.94
274.481	279.94
274.713	276.94
274.945	282.94
275.176	309.94
275.408	271.94
275.64	282.94
275.872	289.94
276.104	269.94
276.335	286.94
276.567	269.94
276.799	306.94
277.031	302.94
277.262	325.94
277.494	340.94
277.726	298.94
277.957	289.94
278.189	307.94
278.421	293.94
278.652	287.94
278.884	280.94
279.115	270.94
279.347	281.94
279.579	286.94
279.81	288.94
280.042	289.94
280.273	271.94
280.505	287.94
280.736	286.94
280.968	283.94
281.199	275.94
281.431	280.94
281.662	289.94
281.894	290.94
282.125	266.94
282.356	295.94
282.588	310.94
282.819	317.94
283.051	305.94
283.282	273.94
283.513	280.94
283.745	305.94
283.976	276.94
284.207	297.94
284.439	281.94
284.67	291.94
284.901	288.94
285.132	298.94
285.364	290.94
285.595	277.94
285.826	292.94
286.057	306.94
286.288	306.94
286.52	289.94
286.751	288.94
286.982	284.94
287.213	297.94
287.444	311.94
287.675	302.94
287.906	303.94
288.138	324.94
288.369	321.94
288.6	308.94
288.831	313.94
289.062	305.94
289.293	316.94
289.524	295.94
289.755	292.94
289.986	313.94
290.217	324.94
290.448	290.94
290.679	293.94
290.91	302.94
291.141	320.94
291.371	301.94
291.602	310.94
291.833	289.94
292.064	296.94
292.295	294.94
292.526	297.94
292.757	286.94
292.987	303.94
293.218	290.94
293.449	300.94
293.68	315.94
293.91	321.94
294.141	301.94
294.372	306.94
294.603	303.94
294.833	298.94
295.064	313.94
295.295	316.94
295.525	307.94
295.756	309.94
295.987	299.94
296.217	330.94
296.448	353.94
296.679	325.94
296.909	319.94
297.14	301.94
297.37	322.94
297.601	326.94
297.831	310.94
298.062	318.94
298.292	319.94
298.523	317.94
298.753	318.94
298.984	301.94
299.214	323.94
299.445	314.94
299.675	332.94
299.905	315.94
300.136	332.94
300.366	318.94
300.597	326.94
300.827	332.94
301.057	334.94
301.288	353.94
301.518	334.94
301.748	323.94
301.979	334.94
302.209	345.94
302.439	329.94
302.669	358.94
302.9	351.94
303.13	334.94
303.36	331.94
303.59	342.94
303.82	361.94
304.051	347.94
304.281	343.94
304.511	354.94
304.741	335.94
304.971	335.94
305.201	330.94
305.431	340.94
305.661	341.94
305.891	334.94
306.121	345.94
306.352	335.94
306.582	358.94
306.812	343.94
307.042	347.94
307.272	330.94
307.502	327.94
307.731	352.94
307.961	344.94
308.191	341.94
308.421	359.94
308.651	365.94
308.881	347.94
309.111	370.94
309.341	345.94
309.571	355.94
309.8	386.94
310.03	361.94
310.26	377.94
310.49	374.94
310.72	378.94
310.949	384.94
311.179	409.94
311.409	385.94
311.639	374.94
311.868	389.94
312.098	395.94
312.328	386.94
312.557	385.94
312.787	427.94
313.017	403.94
313.246	411.94
313.476	384.94
313.706	411.94
313.935	384.94
314.165	422.94
314.394	409.94
314.624	399.94
314.853	413.94
315.083	397.94
315.312	401.94
315.542	380.94
315.771	394.94
316.001	375.94
316.23	404.94
316.46	389.94
316.689	398.94
316.919	392.94
317.148	397.94
317.377	410.94
317.607	403.94
317.836	404.94
318.065	392.94
318.295	375.94
318.524	373.94
318.753	381.94
318.983	385.94
319.212	384.94
319.441	390.94
319.67	396.94
319.9	384.94
320.129	414.94
320.358	423.94
320.587	389.94
320.816	388.94
321.046	411.94
321.275	397.94
321.504	417.94
321.733	412.94
321.962	428.94
322.191	445.94
322.42	435.94
322.649	442.94
322.878	476.94
323.108	459.94
323.337	497.94
323.566	495.94
323.795	547.94
324.024	565.94
324.253	709.94
324.482	976.94
324.71	1498.94
324.939	2022.94
325.168	1744.94
325.397	917.94
325.626	631.94
325.855	540.94
326.084	531.94
326.313	491.94
326.542	499.94
326.77	550.94
326.999	655.94
327.228	913.94
327.457	1295.94
327.686	1492.94
327.914	1013.94
328.143	693.94
328.372	621.94
328.6	569.94
328.829	571.94
329.058	581.94
329.287	573.94
329.515	538.94
329.744	538.94
329.972	504.94
330.201	537.94
330.43	553.94
330.658	589.94
330.887	601.94
331.115	577.94
331.344	526.94
331.572	493.94
331.801	497.94
332.03	485.94
332.258	473.94
332.486	454.94
332.715	453.94
332.943	454.94
333.172	459.94
333.4	457.94
333.629	459.94
333.857	493.94
334.085	507.94
334.314	505.94
334.542	525.94
334.771	523.94
334.999	503.94
335.227	481.94
335.455	472.94
335.684	444.94
335.912	448.94
336.14	460.94
336.369	449.94
336.597	458.94
336.825	444.94
337.053	470.94
337.281	439.94
337.51	399.94
337.738	441.94
337.966	453.94
338.194	455.94
338.422	471.94
338.65	442.94
338.878	416.94
339.106	422.94
339.334	438.94
339.562	424.94
339.79	424.94
340.018	437.94
340.246	421.94
340.474	442.94
340.702	427.94
340.93	408.94
341.158	439.94
341.386	421.94
341.614	437.94
341.842	420.94
342.07	423.94
342.298	407.94
342.526	409.94
342.754	427.94
342.981	393.94
343.209	410.94
343.437	417.94
343.665	411.94
343.893	413.94
344.12	429.94
344.348	446.94
344.576	443.94
344.804	435.94
345.031	444.94
345.259	436.94
345.487	448.94
345.714	415.94
345.942	430.94
346.17	406.94
346.397	418.94
346.625	396.94
346.853	426.94
347.08	418.94
347.308	394.94
347.535	426.94
347.763	398.94
347.99	404.94
348.218	409.94
348.445	420.94
348.673	415.94
348.9	423.94
349.128	413.94
349.355	379.94
349.583	392.94
349.81	411.94
350.037	361.94
350.265	379.94
350.492	385.94
350.72	411.94
350.947	411.94
351.174	435.94
351.402	422.94
351.629	407.94
351.856	414.94
352.083	409.94
352.311	398.94
352.538	416.94
352.765	407.94
352.992	421.94
353.22	418.94
353.447	396.94
353.674	405.94
353.901	404.94
354.128	373.94
354.355	390.94
354.583	395.94
354.81	391.94
355.037	354.94
355.264	385.94
355.491	366.94
355.718	346.94
355.945	364.94
356.172	371.94
356.399	375.94
356.626	355.94
356.853	383.94
357.08	387.94
357.307	356.94
357.534	381.94
357.761	366.94
357.988	374.94
358.215	379.94
358.441	354.94
358.668	391.94
358.895	392.94
359.122	385.94
359.349	389.94
359.576	391.94
359.802	404.94
360.029	426.94
360.256	442.94
360.483	423.94
360.709	409.94
360.936	398.94
361.163	414.94
361.39	372.94
361.616	379.94
361.843	409.94
362.07	371.94
362.296	408.94
362.523	407.94
362.749	399.94
362.976	381.94
363.203	376.94
363.429	373.94
363.656	365.94
363.882	355.94
364.109	378.94
364.335	379.94
364.562	373.94
364.788	371.94
365.015	365.94
365.241	380.94
365.468	367.94
365.694	381.94
365.92	377.94
366.147	363.94
366.373	369.94
366.599	399.94
366.826	373.94
367.052	390.94
367.278	383.94
367.505	363.94
367.731	385.94
367.957	372.94
368.184	365.94
368.41	381.94
368.636	394.94
368.862	375.94
369.089	364.94
369.315	359.94
369.541	361.94
369.767	370.94
369.993	361.94
370.219	388.94
370.445	373.94
370.672	349.94
370.898	369.94
371.124	371.94
371.35	375.94
371.576	377.94
371.802	377.94
372.028	335.94
372.254	367.94
372.48	361.94
372.706	354.94
372.932	376.94
373.158	389.94
373.384	367.94
373.61	352.94
373.835	376.94
374.061	359.94
374.287	367.94
374.513	374.94
374.739	389.94
374.965	358.94
375.191	368.94
375.416	394.94
375.642	375.94
375.868	386.94
376.094	382.94
376.319	347.94
376.545	348.94
376.771	369.94
376.997	367.94
377.222	357.94
377.448	359.94
377.674	359.94
377.899	351.94
378.125	350.94
378.35	371.94
378.576	365.94
378.802	357.94
379.027	368.94
379.253	361.94
379.478	339.94
379.704	358.94
379.929	350.94
380.155	373.94
380.38	351.94
380.606	372.94
380.831	351.94
381.057	359.94
381.282	350.94
381.507	360.94
381.733	356.94
381.958	364.94
382.184	356.94
382.409	360.94
382.634	346.94
382.86	346.94
383.085	366.94
383.31	378.94
383.535	373.94
383.761	357.94
383.986	351.94
384.211	376.94
384.436	395.94
384.662	367.94
384.887	374.94
385.112	377.94
385.337	387.94
385.562	389.94
385.787	373.94
386.013	404.94
386.238	385.94
386.463	377.94
386.688	381.94
386.913	398.94
387.138	379.94
387.363	369.94
387.588	390.94
387.813	383.94
388.038	376.94
388.263	377.94
388.488	400.94
388.713	384.94
388.938	374.94
389.163	383.94
389.387	390.94
389.612	365.94
389.837	375.94
390.062	379.94
390.287	379.94
390.512	379.94
390.736	386.94
390.961	376.94
391.186	368.94
391.411	392.94
391.636	376.94
391.86	396.94
392.085	405.94
392.31	365.94
392.534	380.94
392.759	357.94
392.984	394.94
393.208	377.94
393.433	356.94
393.658	366.94
393.882	378.94
394.107	375.94
394.331	374.94
394.556	370.94
394.78	381.94
395.005	385.94
395.229	389.94
395.454	383.94
395.678	378.94
395.903	405.94
396.127	421.94
396.352	415.94
396.576	391.94
396.801	400.94
397.025	395.94
397.249	394.94
397.474	411.94
397.698	404.94
397.922	406.94
398.147	422.94
398.371	410.94
398.595	438.94
398.82	414.94
399.044	435.94
399.268	407.94
399.492	453.94
399.717	504.94
399.941	503.94
400.165	509.94
400.389	495.94
400.613	481.94
400.837	455.94
401.062	431.94
401.286	443.94
401.51	435.94
401.734	448.94
401.958	395.94
402.182	405.94
402.406	437.94
402.63	435.94
402.854	432.94
403.078	426.94
403.302	434.94
403.526	432.94
403.75	447.94
403.974	424.94
404.198	433.94
404.422	438.94
404.645	446.94
404.869	428.94
405.093	463.94
405.317	511.94
405.541	511.94
405.765	456.94
405.988	431.94
406.212	462.94
406.436	476.94
406.66	494.94
406.883	468.94
407.107	490.94
407.331	522.94
407.555	564.94
407.778	546.94
408.002	554.94
408.226	457.94
408.449	465.94
408.673	507.94
408.896	501.94
409.12	520.94
409.344	494.94
409.567	427.94
409.791	453.94
410.014	434.94
410.238	428.94
410.461	441.94
410.685	446.94
410.908	443.94
411.132	462.94
411.355	516.94
411.578	492.94
411.802	450.94
412.025	451.94
412.249	452.94
412.472	453.94
412.695	488.94
412.919	466.94
413.142	456.94
413.365	437.94
413.589	420.94
413.812	421.94
414.035	387.94
414.258	400.94
414.482	410.94
414.705	387.94
414.928	389.94
415.151	402.94
415.374	400.94
415.597	416.94
415.821	396.94
416.044	402.94
416.267	401.94
416.49	404.94
416.713	410.94
416.936	404.94
417.159	399.94
417.382	409.94
417.605	430.94
417.828	421.94
418.051	418.94
418.274	425.94
418.497	400.94
418.72	399.94
418.943	397.94
419.166	426.94
419.389	449.94
419.611	429.94
419.834	418.94
420.057	437.94
420.28	443.94
420.503	430.94
420.726	414.94
420.948	414.94
421.171	455.94
421.394	500.94
421.617	430.94
421.839	442.94
422.062	433.94
422.285	438.94
422.507	494.94
422.73	526.94
422.953	541.94
423.175	477.94
423.398	448.94
423.621	438.94
423.843	482.94
424.066	452.94
424.288	462.94
424.511	483.94
424.733	527.94
424.956	582.94
425.178	560.94
425.401	547.94
425.623	565.94
425.846	488.94
426.068	475.94
426.291	447.94
426.513	452.94
426.735	487.94
426.958	520.94
427.18	565.94
427.402	675.94
427.625	731.94
427.847	643.94
428.069	571.94
428.292	492.94
428.514	468.94
428.736	437.94
428.958	435.94
429.181	429.94
429.403	444.94
429.625	435.94
429.847	446.94
430.069	521.94
430.292	513.94
430.514	424.94
430.736	423.94
430.958	403.94
431.18	421.94
431.402	405.94
431.624	401.94
431.846	424.94
432.068	387.94
432.29	397.94
432.512	388.94
432.734	419.94
432.956	399.94
433.178	408.94
433.4	421.94
433.622	405.94
433.844	429.94
434.066	410.94
434.287	387.94
434.509	388.94
434.731	405.94
434.953	401.94
435.175	429.94
435.397	427.94
435.618	454.94
435.84	470.94
436.062	598.94
436.284	621.94
436.505	536.94
436.727	459.94
436.949	422.94
437.17	424.94
437.392	435.94
437.614	433.94
437.835	471.94
438.057	561.94
438.278	643.94
438.5	610.94
438.721	688.94
438.943	644.94
439.165	535.94
439.386	478.94
439.608	476.94
439.829	469.94
440.05	488.94
440.272	501.94
440.493	499.94
440.715	454.94
440.936	415.94
441.158	423.94
441.379	430.94
441.6	454.94
441.822	441.94
442.043	501.94
442.264	563.94
442.486	581.94
442.707	519.94
442.928	473.94
443.149	491.94
443.371	469.94
443.592	518.94
443.813	610.94
444.034	645.94
444.255	518.94
444.476	498.94
444.698	454.94
444.919	444.94
445.14	553.94
445.361	508.94
445.582	485.94
445.803	545.94
446.024	625.94
446.245	635.94
446.466	585.94
446.687	495.94
446.908	459.94
447.129	434.94
447.35	437.94
447.571	407.94
447.792	423.94
448.013	405.94
448.234	443.94
448.455	494.94
448.675	567.94
448.896	655.94
449.117	565.94
449.338	543.94
449.559	649.94
449.779	687.94
450	541.94
450.221	491.94
450.442	452.94
450.662	434.94
450.883	434.94
451.104	428.94
451.324	408.94
451.545	396.94
451.766	411.94
451.986	387.94
452.207	366.94
452.428	372.94
452.648	379.94
452.869	376.94
453.089	386.94
453.31	386.94
453.53	388.94
453.751	375.94
453.971	375.94
454.192	405.94
454.412	388.94
454.633	358.94
454.853	350.94
455.073	379.94
455.294	412.94
455.514	438.94
455.734	462.94
455.955	387.94
456.175	355.94
456.395	355.94
456.616	361.94
456.836	346.94
457.056	350.94
457.276	355.94
457.497	350.94
457.717	364.94
457.937	338.94
458.157	368.94
458.377	369.94
458.598	386.94
458.818	430.94
459.038	473.94
459.258	493.94
459.478	432.94
459.698	411.94
459.918	384.94
460.138	396.94
460.358	391.94
460.578	403.94
460.798	388.94
461.018	405.94
461.238	365.94
461.458	406.94
461.678	390.94
461.898	394.94
462.118	408.94
462.338	408.94
462.558	422.94
462.777	403.94
462.997	422.94
463.217	429.94
463.437	414.94
463.657	405.94
463.876	422.94
464.096	417.94
464.316	411.94
464.536	413.94
464.755	413.94
464.975	442.94
465.195	431.94
465.414	509.94
465.634	458.94
465.854	427.94
466.073	402.94
466.293	385.94
466.512	370.94
466.732	361.94
466.951	376.94
467.171	405.94
467.391	389.94
467.61	397.94
467.829	403.94
468.049	406.94
468.268	385.94
468.488	379.94
468.707	364.94
468.927	366.94
469.146	357.94
469.365	381.94
469.585	372.94
469.804	378.94
470.023	381.94
470.243	382.94
470.462	377.94
470.681	398.94
470.901	388.94
471.12	405.94
471.339	392.94
471.558	406.94
471.777	385.94
471.997	395.94
472.216	403.94
472.435	430.94
472.654	387.94
472.873	399.94
473.092	388.94
473.311	390.94
473.53	398.94
473.749	394.94
473.968	439.94
474.187	521.94
474.406	532.94
474.625	447.94
474.844	426.94
475.063	407.94
475.282	389.94
475.501	381.94
475.72	407.94
475.939	402.94
476.158	388.94
476.377	403.94
476.596	398.94
476.814	401.94
477.033	410.94
477.252	416.94
477.471	413.94
477.69	414.94
477.908	407.94
478.127	422.94
478.346	425.94
478.564	420.94
478.783	434.94
479.002	424.94
479.22	448.94
479.439	462.94
479.658	463.94
479.876	458.94
480.095	461.94
480.313	486.94
480.532	461.94
480.751	467.94
480.969	461.94
481.188	519.94
481.406	526.94
481.624	492.94
481.843	458.94
482.061	434.94
482.28	442.94
482.498	450.94
482.717	444.94
482.935	479.94
483.153	454.94
483.372	460.94
483.59	455.94
483.808	433.94
484.027	446.94
484.245	454.94
484.463	446.94
484.681	452.94
484.9	436.94
485.118	465.94
485.336	460.94
485.554	470.94
485.772	453.94
485.99	460.94
486.209	462.94
486.427	469.94
486.645	475.94
486.863	471.94
487.081	485.94
487.299	474.94
487.517	478.94
487.735	516.94
487.953	487.94
488.171	476.94
488.389	487.94
488.607	497.94
488.825	487.94
489.043	497.94
489.261	477.94
489.479	489.94
489.696	471.94
489.914	484.94
490.132	494.94
490.35	501.94
490.568	519.94
490.786	538.94
491.003	531.94
491.221	555.94
491.439	526.94
491.657	550.94
491.874	562.94
492.092	562.94
492.31	546.94
492.527	553.94
492.745	575.94
492.963	577.94
493.18	552.94
493.398	555.94
493.615	552.94
493.833	573.94
494.05	573.94
494.268	569.94
494.485	566.94
494.703	587.94
494.92	562.94
495.138	572.94
495.355	581.94
495.573	573.94
495.79	569.94
496.008	590.94
496.225	577.94
496.442	579.94
496.66	549.94
496.877	558.94
497.094	571.94
497.312	607.94
497.529	581.94
497.746	575.94
497.963	587.94
498.181	615.94
498.398	618.94
498.615	600.94
498.832	635.94
499.049	637.94
499.267	655.94
499.484	656.94
499.701	685.94
499.918	682.94
500.135	713.94
500.352	741.94
500.569	737.94
500.786	738.94
501.003	752.94
501.22	738.94
501.437	723.94
501.654	690.94
501.871	683.94
502.088	663.94
