Data from 1971.PennyLincolnUp.Lamp.En5.5.200Scan.071719.P1._HRD10591_15-20-48-841.txt Node
Date: Thu Jul 18 15:20:48 EDT 2019
User: cochatt
Spectrometer: HR+D1059
Trigger mode: 1
Integration Time (sec): 1.000000E-1
Scans to average: 1
Electric dark correction enabled: true
Nonlinearity correction enabled: false
Boxcar width: 0
XAxis mode: Wavelengths
Number of Pixels in Spectrum: 2048
>>>>>Begin Spectral Data<<<<<
223.165	-13.25
223.4	-13.25
223.635	-13.25
223.869	-24.25
224.104	-22.25
224.338	-4.25
224.573	-15.25
224.808	-17.25
225.042	-19.25
225.277	-9.25
225.511	-3.25
225.746	13.75
225.98	10.75
226.215	16.75
226.449	20.75
226.683	17.75
226.918	22.75
227.152	25.75
227.387	33.75
227.621	34.75
227.856	50.75
228.09	35.75
228.324	52.75
228.559	61.75
228.793	74.75
229.027	108.75
229.262	107.75
229.496	122.75
229.73	137.75
229.964	141.75
230.199	127.75
230.433	108.75
230.667	107.75
230.901	107.75
231.136	120.75
231.37	98.75
231.604	94.75
231.838	110.75
232.072	117.75
232.306	113.75
232.541	109.75
232.775	120.75
233.009	100.75
233.243	103.75
233.477	106.75
233.711	114.75
233.945	124.75
234.179	122.75
234.413	130.75
234.647	112.75
234.881	122.75
235.115	120.75
235.349	110.75
235.583	123.75
235.817	108.75
236.051	108.75
236.285	123.75
236.519	111.75
236.753	130.75
236.987	134.75
237.221	183.75
237.455	222.75
237.689	178.75
237.922	158.75
238.156	138.75
238.39	123.75
238.624	130.75
238.858	117.75
239.091	134.75
239.325	136.75
239.559	127.75
239.793	124.75
240.027	130.75
240.26	132.75
240.494	157.75
240.728	131.75
240.961	148.75
241.195	142.75
241.429	136.75
241.662	143.75
241.896	141.75
242.13	122.75
242.363	137.75
242.597	132.75
242.83	144.75
243.064	152.75
243.298	135.75
243.531	130.75
243.765	151.75
243.998	146.75
244.232	124.75
244.465	150.75
244.699	140.75
244.932	143.75
245.166	135.75
245.399	134.75
245.633	170.75
245.866	132.75
246.099	153.75
246.333	165.75
246.566	155.75
246.8	162.75
247.033	148.75
247.266	160.75
247.5	184.75
247.733	172.75
247.966	170.75
248.2	179.75
248.433	186.75
248.666	175.75
248.899	205.75
249.133	190.75
249.366	206.75
249.599	187.75
249.832	194.75
250.066	190.75
250.299	183.75
250.532	174.75
250.765	204.75
250.998	227.75
251.231	221.75
251.465	220.75
251.698	214.75
251.931	198.75
252.164	195.75
252.397	216.75
252.63	215.75
252.863	213.75
253.096	211.75
253.329	240.75
253.562	232.75
253.795	229.75
254.028	217.75
254.261	228.75
254.494	244.75
254.727	258.75
254.96	289.75
255.193	270.75
255.426	268.75
255.659	234.75
255.892	239.75
256.124	236.75
256.357	252.75
256.59	234.75
256.823	222.75
257.056	229.75
257.289	231.75
257.521	198.75
257.754	225.75
257.987	207.75
258.22	228.75
258.452	219.75
258.685	215.75
258.918	214.75
259.151	228.75
259.383	221.75
259.616	215.75
259.849	233.75
260.081	248.75
260.314	262.75
260.547	276.75
260.779	258.75
261.012	241.75
261.244	246.75
261.477	235.75
261.71	231.75
261.942	242.75
262.175	249.75
262.407	239.75
262.64	222.75
262.872	219.75
263.105	225.75
263.337	221.75
263.57	225.75
263.802	237.75
264.035	229.75
264.267	230.75
264.499	229.75
264.732	219.75
264.964	221.75
265.197	220.75
265.429	234.75
265.661	212.75
265.894	229.75
266.126	231.75
266.358	222.75
266.591	211.75
266.823	223.75
267.055	246.75
267.287	243.75
267.52	234.75
267.752	229.75
267.984	246.75
268.216	233.75
268.448	244.75
268.681	249.75
268.913	245.75
269.145	276.75
269.377	293.75
269.609	296.75
269.841	276.75
270.073	286.75
270.306	300.75
270.538	334.75
270.77	320.75
271.002	325.75
271.234	318.75
271.466	310.75
271.698	315.75
271.93	335.75
272.162	332.75
272.394	350.75
272.626	327.75
272.858	301.75
273.09	287.75
273.322	298.75
273.553	283.75
273.785	280.75
274.017	258.75
274.249	272.75
274.481	280.75
274.713	280.75
274.945	274.75
275.176	279.75
275.408	262.75
275.64	293.75
275.872	280.75
276.104	267.75
276.335	271.75
276.567	307.75
276.799	297.75
277.031	318.75
277.262	355.75
277.494	328.75
277.726	324.75
277.957	302.75
278.189	315.75
278.421	286.75
278.652	276.75
278.884	283.75
279.115	283.75
279.347	290.75
279.579	269.75
279.81	295.75
280.042	282.75
280.273	278.75
280.505	284.75
280.736	276.75
280.968	277.75
281.199	275.75
281.431	283.75
281.662	276.75
281.894	269.75
282.125	277.75
282.356	322.75
282.588	304.75
282.819	316.75
283.051	285.75
283.282	299.75
283.513	289.75
283.745	294.75
283.976	286.75
284.207	294.75
284.439	287.75
284.67	310.75
284.901	271.75
285.132	271.75
285.364	291.75
285.595	292.75
285.826	287.75
286.057	304.75
286.288	292.75
286.52	276.75
286.751	282.75
286.982	295.75
287.213	306.75
287.444	296.75
287.675	299.75
287.906	297.75
288.138	304.75
288.369	345.75
288.6	306.75
288.831	325.75
289.062	310.75
289.293	301.75
289.524	298.75
289.755	308.75
289.986	308.75
290.217	314.75
290.448	300.75
290.679	308.75
290.91	310.75
291.141	317.75
291.371	293.75
291.602	297.75
291.833	301.75
292.064	304.75
292.295	309.75
292.526	306.75
292.757	307.75
292.987	292.75
293.218	302.75
293.449	276.75
293.68	303.75
293.91	312.75
294.141	325.75
294.372	303.75
294.603	308.75
294.833	294.75
295.064	300.75
295.295	294.75
295.525	294.75
295.756	315.75
295.987	319.75
296.217	320.75
296.448	334.75
296.679	320.75
296.909	320.75
297.14	331.75
297.37	318.75
297.601	316.75
297.831	308.75
298.062	295.75
298.292	300.75
298.523	323.75
298.753	317.75
298.984	323.75
299.214	318.75
299.445	340.75
299.675	335.75
299.905	314.75
300.136	343.75
300.366	332.75
300.597	317.75
300.827	324.75
301.057	338.75
301.288	347.75
301.518	338.75
301.748	333.75
301.979	329.75
302.209	332.75
302.439	330.75
302.669	350.75
302.9	341.75
303.13	327.75
303.36	343.75
303.59	344.75
303.82	343.75
304.051	350.75
304.281	346.75
304.511	325.75
304.741	334.75
304.971	328.75
305.201	326.75
305.431	346.75
305.661	342.75
305.891	339.75
306.121	327.75
306.352	354.75
306.582	345.75
306.812	332.75
307.042	343.75
307.272	338.75
307.502	353.75
307.731	331.75
307.961	348.75
308.191	348.75
308.421	352.75
308.651	351.75
308.881	345.75
309.111	358.75
309.341	334.75
309.571	376.75
309.8	382.75
310.03	372.75
310.26	377.75
310.49	397.75
310.72	388.75
310.949	406.75
311.179	391.75
311.409	390.75
311.639	390.75
311.868	398.75
312.098	387.75
312.328	399.75
312.557	411.75
312.787	409.75
313.017	403.75
313.246	388.75
313.476	398.75
313.706	372.75
313.935	386.75
314.165	410.75
314.394	423.75
314.624	408.75
314.853	398.75
315.083	414.75
315.312	392.75
315.542	395.75
315.771	398.75
316.001	391.75
316.23	374.75
316.46	381.75
316.689	398.75
316.919	402.75
317.148	410.75
317.377	387.75
317.607	399.75
317.836	386.75
318.065	381.75
318.295	386.75
318.524	380.75
318.753	388.75
318.983	383.75
319.212	392.75
319.441	397.75
319.67	395.75
319.9	387.75
320.129	386.75
320.358	404.75
320.587	403.75
320.816	389.75
321.046	403.75
321.275	417.75
321.504	410.75
321.733	398.75
321.962	413.75
322.191	428.75
322.42	422.75
322.649	456.75
322.878	447.75
323.108	476.75
323.337	491.75
323.566	511.75
323.795	531.75
324.024	591.75
324.253	722.75
324.482	1012.75
324.71	1500.75
324.939	2019.75
325.168	1703.75
325.397	926.75
325.626	649.75
325.855	559.75
326.084	528.75
326.313	507.75
326.542	526.75
326.77	574.75
326.999	655.75
327.228	902.75
327.457	1342.75
327.686	1509.75
327.914	1040.75
328.143	668.75
328.372	619.75
328.6	569.75
328.829	551.75
329.058	587.75
329.287	546.75
329.515	555.75
329.744	495.75
329.972	519.75
330.201	550.75
330.43	551.75
330.658	578.75
330.887	599.75
331.115	557.75
331.344	532.75
331.572	497.75
331.801	490.75
332.03	469.75
332.258	466.75
332.486	457.75
332.715	449.75
332.943	450.75
333.172	455.75
333.4	456.75
333.629	470.75
333.857	471.75
334.085	476.75
334.314	485.75
334.542	512.75
334.771	512.75
334.999	506.75
335.227	454.75
335.455	458.75
335.684	448.75
335.912	443.75
336.14	450.75
336.369	445.75
336.597	430.75
336.825	442.75
337.053	454.75
337.281	442.75
337.51	444.75
337.738	423.75
337.966	440.75
338.194	429.75
338.422	438.75
338.65	448.75
338.878	428.75
339.106	421.75
339.334	429.75
339.562	415.75
339.79	434.75
340.018	438.75
340.246	416.75
340.474	412.75
340.702	427.75
340.93	436.75
341.158	401.75
341.386	389.75
341.614	409.75
341.842	413.75
342.07	389.75
342.298	390.75
342.526	411.75
342.754	410.75
342.981	404.75
343.209	405.75
343.437	423.75
343.665	423.75
343.893	416.75
344.12	440.75
344.348	413.75
344.576	423.75
344.804	437.75
345.031	436.75
345.259	450.75
345.487	447.75
345.714	434.75
345.942	413.75
346.17	428.75
346.397	404.75
346.625	402.75
346.853	395.75
347.08	390.75
347.308	404.75
347.535	406.75
347.763	428.75
347.99	410.75
348.218	404.75
348.445	409.75
348.673	406.75
348.9	423.75
349.128	386.75
349.355	367.75
349.583	378.75
349.81	391.75
350.037	390.75
350.265	394.75
350.492	381.75
350.72	381.75
350.947	387.75
351.174	411.75
351.402	399.75
351.629	415.75
351.856	408.75
352.083	409.75
352.311	406.75
352.538	416.75
352.765	430.75
352.992	387.75
353.22	380.75
353.447	383.75
353.674	394.75
353.901	384.75
354.128	382.75
354.355	371.75
354.583	375.75
354.81	371.75
355.037	366.75
355.264	373.75
355.491	374.75
355.718	375.75
355.945	374.75
356.172	378.75
356.399	368.75
356.626	369.75
356.853	366.75
357.08	372.75
357.307	377.75
357.534	373.75
357.761	365.75
357.988	388.75
358.215	381.75
358.441	354.75
358.668	372.75
358.895	353.75
359.122	375.75
359.349	378.75
359.576	377.75
359.802	393.75
360.029	419.75
360.256	414.75
360.483	423.75
360.709	381.75
360.936	386.75
361.163	389.75
361.39	391.75
361.616	373.75
361.843	376.75
362.07	391.75
362.296	398.75
362.523	377.75
362.749	406.75
362.976	380.75
363.203	391.75
363.429	377.75
363.656	382.75
363.882	362.75
364.109	361.75
364.335	383.75
364.562	362.75
364.788	367.75
365.015	365.75
365.241	374.75
365.468	367.75
365.694	378.75
365.92	394.75
366.147	356.75
366.373	376.75
366.599	360.75
366.826	379.75
367.052	372.75
367.278	344.75
367.505	380.75
367.731	346.75
367.957	386.75
368.184	370.75
368.41	397.75
368.636	373.75
368.862	388.75
369.089	379.75
369.315	372.75
369.541	367.75
369.767	382.75
369.993	355.75
370.219	372.75
370.445	356.75
370.672	364.75
370.898	380.75
371.124	376.75
371.35	357.75
371.576	363.75
371.802	369.75
372.028	352.75
372.254	361.75
372.48	371.75
372.706	355.75
372.932	346.75
373.158	371.75
373.384	363.75
373.61	360.75
373.835	373.75
374.061	365.75
374.287	374.75
374.513	354.75
374.739	346.75
374.965	351.75
375.191	350.75
375.416	366.75
375.642	358.75
375.868	380.75
376.094	349.75
376.319	357.75
376.545	370.75
376.771	365.75
376.997	341.75
377.222	356.75
377.448	378.75
377.674	372.75
377.899	345.75
378.125	346.75
378.35	359.75
378.576	349.75
378.802	330.75
379.027	360.75
379.253	366.75
379.478	349.75
379.704	344.75
379.929	363.75
380.155	356.75
380.38	355.75
380.606	358.75
380.831	359.75
381.057	353.75
381.282	336.75
381.507	379.75
381.733	367.75
381.958	354.75
382.184	347.75
382.409	370.75
382.634	377.75
382.86	348.75
383.085	358.75
383.31	364.75
383.535	355.75
383.761	366.75
383.986	378.75
384.211	370.75
384.436	360.75
384.662	372.75
384.887	370.75
385.112	350.75
385.337	354.75
385.562	376.75
385.787	383.75
386.013	388.75
386.238	386.75
386.463	397.75
386.688	386.75
386.913	375.75
387.138	372.75
387.363	375.75
387.588	381.75
387.813	386.75
388.038	355.75
388.263	363.75
388.488	372.75
388.713	379.75
388.938	376.75
389.163	367.75
389.387	367.75
389.612	398.75
389.837	374.75
390.062	382.75
390.287	363.75
390.512	364.75
390.736	377.75
390.961	367.75
391.186	370.75
391.411	365.75
391.636	376.75
391.86	410.75
392.085	390.75
392.31	377.75
392.534	378.75
392.759	383.75
392.984	388.75
393.208	385.75
393.433	394.75
393.658	375.75
393.882	360.75
394.107	380.75
394.331	390.75
394.556	364.75
394.78	366.75
395.005	358.75
395.229	371.75
395.454	378.75
395.678	378.75
395.903	391.75
396.127	391.75
396.352	400.75
396.576	382.75
396.801	384.75
397.025	365.75
397.249	392.75
397.474	392.75
397.698	407.75
397.922	393.75
398.147	404.75
398.371	414.75
398.595	384.75
398.82	398.75
399.044	420.75
399.268	446.75
399.492	450.75
399.717	467.75
399.941	472.75
400.165	477.75
400.389	514.75
400.613	449.75
400.837	450.75
401.062	421.75
401.286	433.75
401.51	408.75
401.734	423.75
401.958	418.75
402.182	405.75
402.406	430.75
402.63	421.75
402.854	430.75
403.078	419.75
403.302	435.75
403.526	437.75
403.75	409.75
403.974	442.75
404.198	418.75
404.422	431.75
404.645	442.75
404.869	444.75
405.093	453.75
405.317	484.75
405.541	524.75
405.765	484.75
405.988	448.75
406.212	455.75
406.436	464.75
406.66	467.75
406.883	471.75
407.107	471.75
407.331	524.75
407.555	545.75
407.778	560.75
408.002	498.75
408.226	499.75
408.449	460.75
408.673	467.75
408.896	495.75
409.12	496.75
409.344	492.75
409.567	454.75
409.791	442.75
410.014	422.75
410.238	412.75
410.461	430.75
410.685	441.75
410.908	455.75
411.132	503.75
411.355	510.75
411.578	467.75
411.802	430.75
412.025	432.75
412.249	435.75
412.472	454.75
412.695	475.75
412.919	479.75
413.142	441.75
413.365	418.75
413.589	414.75
413.812	420.75
414.035	406.75
414.258	408.75
414.482	395.75
414.705	397.75
414.928	390.75
415.151	389.75
415.374	392.75
415.597	400.75
415.821	393.75
416.044	423.75
416.267	408.75
416.49	405.75
416.713	406.75
416.936	406.75
417.159	386.75
417.382	400.75
417.605	403.75
417.828	418.75
418.051	440.75
418.274	408.75
418.497	406.75
418.72	407.75
418.943	403.75
419.166	418.75
419.389	415.75
419.611	418.75
419.834	423.75
420.057	404.75
420.28	430.75
420.503	426.75
420.726	430.75
420.948	456.75
421.171	472.75
421.394	478.75
421.617	436.75
421.839	434.75
422.062	447.75
422.285	414.75
422.507	478.75
422.73	534.75
422.953	532.75
423.175	463.75
423.398	442.75
423.621	434.75
423.843	458.75
424.066	461.75
424.288	450.75
424.511	474.75
424.733	505.75
424.956	575.75
425.178	548.75
425.401	564.75
425.623	583.75
425.846	503.75
426.068	458.75
426.291	434.75
426.513	446.75
426.735	475.75
426.958	502.75
427.18	572.75
427.402	648.75
427.625	723.75
427.847	646.75
428.069	549.75
428.292	509.75
428.514	430.75
428.736	420.75
428.958	450.75
429.181	430.75
429.403	428.75
429.625	426.75
429.847	427.75
430.069	491.75
430.292	510.75
430.514	448.75
430.736	418.75
430.958	419.75
431.18	401.75
431.402	408.75
431.624	393.75
431.846	378.75
432.068	395.75
432.29	363.75
432.512	401.75
432.734	382.75
432.956	402.75
433.178	415.75
433.4	418.75
433.622	386.75
433.844	395.75
434.066	402.75
434.287	392.75
434.509	410.75
434.731	404.75
434.953	394.75
435.175	419.75
435.397	439.75
435.618	471.75
435.84	492.75
436.062	562.75
436.284	610.75
436.505	514.75
436.727	478.75
436.949	438.75
437.17	430.75
437.392	430.75
437.614	442.75
437.835	458.75
438.057	520.75
438.278	612.75
438.5	605.75
438.721	662.75
438.943	646.75
439.165	526.75
439.386	475.75
439.608	491.75
439.829	474.75
440.05	497.75
440.272	528.75
440.493	485.75
440.715	437.75
440.936	456.75
441.158	422.75
441.379	444.75
441.6	438.75
441.822	472.75
442.043	479.75
442.264	566.75
442.486	579.75
442.707	490.75
442.928	476.75
443.149	487.75
443.371	470.75
443.592	531.75
443.813	608.75
444.034	651.75
444.255	544.75
444.476	464.75
444.698	463.75
444.919	455.75
445.14	543.75
445.361	522.75
445.582	501.75
445.803	544.75
446.024	636.75
446.245	656.75
446.466	564.75
446.687	502.75
446.908	450.75
447.129	452.75
447.35	413.75
447.571	414.75
447.792	412.75
448.013	406.75
448.234	451.75
448.455	494.75
448.675	589.75
448.896	680.75
449.117	550.75
449.338	534.75
449.559	626.75
449.779	676.75
450	558.75
450.221	451.75
450.442	429.75
450.662	443.75
450.883	416.75
451.104	421.75
451.324	416.75
451.545	396.75
451.766	387.75
451.986	382.75
452.207	394.75
452.428	370.75
452.648	373.75
452.869	376.75
453.089	395.75
453.31	392.75
453.53	383.75
453.751	375.75
453.971	379.75
454.192	382.75
454.412	375.75
454.633	367.75
454.853	358.75
455.073	359.75
455.294	408.75
455.514	440.75
455.734	453.75
455.955	387.75
456.175	378.75
456.395	359.75
456.616	356.75
456.836	366.75
457.056	360.75
457.276	332.75
457.497	345.75
457.717	335.75
457.937	360.75
458.157	364.75
458.377	354.75
458.598	368.75
458.818	420.75
459.038	487.75
459.258	478.75
459.478	407.75
459.698	396.75
459.918	373.75
460.138	404.75
460.358	380.75
460.578	397.75
460.798	382.75
461.018	388.75
461.238	386.75
461.458	381.75
461.678	406.75
461.898	371.75
462.118	406.75
462.338	404.75
462.558	399.75
462.777	397.75
462.997	418.75
463.217	422.75
463.437	430.75
463.657	406.75
463.876	411.75
464.096	414.75
464.316	407.75
464.536	402.75
464.755	407.75
464.975	435.75
465.195	454.75
465.414	470.75
465.634	439.75
465.854	403.75
466.073	403.75
466.293	393.75
466.512	365.75
466.732	374.75
466.951	372.75
467.171	372.75
467.391	389.75
467.61	386.75
467.829	406.75
468.049	391.75
468.268	382.75
468.488	374.75
468.707	365.75
468.927	388.75
469.146	374.75
469.365	348.75
469.585	379.75
469.804	362.75
470.023	400.75
470.243	410.75
470.462	398.75
470.681	396.75
470.901	392.75
471.12	389.75
471.339	401.75
471.558	397.75
471.777	382.75
471.997	365.75
472.216	386.75
472.435	392.75
472.654	413.75
472.873	370.75
473.092	376.75
473.311	394.75
473.53	390.75
473.749	389.75
473.968	416.75
474.187	528.75
474.406	536.75
474.625	460.75
474.844	391.75
475.063	400.75
475.282	392.75
475.501	380.75
475.72	379.75
475.939	385.75
476.158	394.75
476.377	387.75
476.596	399.75
476.814	385.75
477.033	397.75
477.252	406.75
477.471	400.75
477.69	420.75
477.908	403.75
478.127	405.75
478.346	420.75
478.564	436.75
478.783	410.75
479.002	431.75
479.22	426.75
479.439	461.75
479.658	451.75
479.876	462.75
480.095	447.75
480.313	482.75
480.532	457.75
480.751	482.75
480.969	467.75
481.188	519.75
481.406	524.75
481.624	475.75
481.843	465.75
482.061	475.75
482.28	448.75
482.498	432.75
482.717	413.75
482.935	429.75
483.153	440.75
483.372	438.75
483.59	439.75
483.808	440.75
484.027	436.75
484.245	458.75
484.463	442.75
484.681	447.75
484.9	466.75
485.118	462.75
485.336	443.75
485.554	462.75
485.772	444.75
485.99	459.75
486.209	450.75
486.427	453.75
486.645	465.75
486.863	463.75
487.081	482.75
487.299	486.75
487.517	461.75
487.735	480.75
487.953	479.75
488.171	475.75
488.389	488.75
488.607	446.75
488.825	488.75
489.043	462.75
489.261	476.75
489.479	504.75
489.696	495.75
489.914	495.75
490.132	495.75
490.35	524.75
490.568	484.75
490.786	512.75
491.003	546.75
491.221	524.75
491.439	537.75
491.657	544.75
491.874	545.75
492.092	575.75
492.31	555.75
492.527	580.75
492.745	560.75
492.963	575.75
493.18	533.75
493.398	553.75
493.615	552.75
493.833	570.75
494.05	579.75
494.268	541.75
494.485	548.75
494.703	552.75
494.92	554.75
495.138	571.75
495.355	566.75
495.573	557.75
495.79	571.75
496.008	569.75
496.225	565.75
496.442	544.75
496.66	554.75
496.877	562.75
497.094	548.75
497.312	567.75
497.529	613.75
497.746	593.75
497.963	599.75
498.181	591.75
498.398	593.75
498.615	613.75
498.832	635.75
499.049	617.75
499.267	614.75
499.484	654.75
499.701	668.75
499.918	697.75
500.135	718.75
500.352	737.75
500.569	760.75
500.786	730.75
501.003	731.75
501.22	699.75
501.437	688.75
501.654	687.75
501.871	692.75
