Data from 1971.PennyLincolnUp.Lamp.En5.5.200Scan.071719.P1.Scan 2. Changed Angle._HRD10591_15-25-29-843.txt Node
Date: Thu Jul 18 15:25:29 EDT 2019
User: cochatt
Spectrometer: HR+D1059
Trigger mode: 1
Integration Time (sec): 1.000000E-1
Scans to average: 1
Electric dark correction enabled: true
Nonlinearity correction enabled: false
Boxcar width: 0
XAxis mode: Wavelengths
Number of Pixels in Spectrum: 2048
>>>>>Begin Spectral Data<<<<<
223.165	-21.06
223.4	-21.06
223.635	-21.06
223.869	-14.06
224.104	-19.06
224.338	-0.06
224.573	-2.06
224.808	-9.06
225.042	-9.06
225.277	-9.06
225.511	-1.06
225.746	-2.06
225.98	-2.06
226.215	11.94
226.449	16.94
226.683	18.94
226.918	16.94
227.152	23.94
227.387	28.94
227.621	26.94
227.856	48.94
228.09	59.94
228.324	54.94
228.559	64.94
228.793	63.94
229.027	110.94
229.262	126.94
229.496	144.94
229.73	148.94
229.964	178.94
230.199	155.94
230.433	131.94
230.667	131.94
230.901	131.94
231.136	115.94
231.37	125.94
231.604	108.94
231.838	128.94
232.072	128.94
232.306	116.94
232.541	108.94
232.775	133.94
233.009	119.94
233.243	129.94
233.477	120.94
233.711	125.94
233.945	123.94
234.179	137.94
234.413	129.94
234.647	127.94
234.881	122.94
235.115	131.94
235.349	126.94
235.583	139.94
235.817	126.94
236.051	149.94
236.285	153.94
236.519	148.94
236.753	155.94
236.987	142.94
237.221	212.94
237.455	283.94
237.689	220.94
237.922	173.94
238.156	153.94
238.39	127.94
238.624	138.94
238.858	127.94
239.091	141.94
239.325	142.94
239.559	138.94
239.793	121.94
240.027	151.94
240.26	151.94
240.494	164.94
240.728	168.94
240.961	170.94
241.195	155.94
241.429	167.94
241.662	151.94
241.896	150.94
242.13	142.94
242.363	136.94
242.597	133.94
242.83	127.94
243.064	159.94
243.298	157.94
243.531	151.94
243.765	154.94
243.998	151.94
244.232	159.94
244.465	152.94
244.699	157.94
244.932	166.94
245.166	135.94
245.399	164.94
245.633	172.94
245.866	154.94
246.099	154.94
246.333	168.94
246.566	154.94
246.8	171.94
247.033	180.94
247.266	189.94
247.5	187.94
247.733	180.94
247.966	191.94
248.2	197.94
248.433	187.94
248.666	201.94
248.899	191.94
249.133	215.94
249.366	245.94
249.599	215.94
249.832	212.94
250.066	204.94
250.299	207.94
250.532	214.94
250.765	249.94
250.998	250.94
251.231	278.94
251.465	261.94
251.698	223.94
251.931	219.94
252.164	211.94
252.397	205.94
252.63	240.94
252.863	245.94
253.096	238.94
253.329	247.94
253.562	259.94
253.795	262.94
254.028	240.94
254.261	237.94
254.494	259.94
254.727	297.94
254.96	320.94
255.193	317.94
255.426	287.94
255.659	291.94
255.892	267.94
256.124	259.94
256.357	241.94
256.59	261.94
256.823	252.94
257.056	254.94
257.289	253.94
257.521	226.94
257.754	238.94
257.987	229.94
258.22	241.94
258.452	234.94
258.685	244.94
258.918	258.94
259.151	235.94
259.383	241.94
259.616	247.94
259.849	259.94
260.081	259.94
260.314	281.94
260.547	294.94
260.779	254.94
261.012	248.94
261.244	255.94
261.477	255.94
261.71	232.94
261.942	269.94
262.175	267.94
262.407	253.94
262.64	256.94
262.872	246.94
263.105	217.94
263.337	237.94
263.57	225.94
263.802	231.94
264.035	214.94
264.267	231.94
264.499	231.94
264.732	234.94
264.964	229.94
265.197	222.94
265.429	240.94
265.661	221.94
265.894	229.94
266.126	234.94
266.358	236.94
266.591	252.94
266.823	243.94
267.055	246.94
267.287	256.94
267.52	224.94
267.752	234.94
267.984	241.94
268.216	245.94
268.448	252.94
268.681	247.94
268.913	257.94
269.145	285.94
269.377	288.94
269.609	306.94
269.841	288.94
270.073	298.94
270.306	323.94
270.538	348.94
270.77	368.94
271.002	319.94
271.234	307.94
271.466	327.94
271.698	353.94
271.93	347.94
272.162	350.94
272.394	334.94
272.626	345.94
272.858	310.94
273.09	297.94
273.322	296.94
273.553	304.94
273.785	300.94
274.017	252.94
274.249	302.94
274.481	279.94
274.713	279.94
274.945	296.94
275.176	295.94
275.408	298.94
275.64	287.94
275.872	272.94
276.104	295.94
276.335	302.94
276.567	292.94
276.799	318.94
277.031	325.94
277.262	352.94
277.494	347.94
277.726	333.94
277.957	287.94
278.189	283.94
278.421	295.94
278.652	271.94
278.884	295.94
279.115	271.94
279.347	292.94
279.579	281.94
279.81	283.94
280.042	265.94
280.273	295.94
280.505	289.94
280.736	291.94
280.968	262.94
281.199	268.94
281.431	274.94
281.662	285.94
281.894	270.94
282.125	272.94
282.356	312.94
282.588	325.94
282.819	329.94
283.051	286.94
283.282	283.94
283.513	281.94
283.745	300.94
283.976	297.94
284.207	304.94
284.439	298.94
284.67	299.94
284.901	279.94
285.132	290.94
285.364	279.94
285.595	287.94
285.826	300.94
286.057	293.94
286.288	295.94
286.52	291.94
286.751	287.94
286.982	280.94
287.213	287.94
287.444	292.94
287.675	293.94
287.906	299.94
288.138	310.94
288.369	309.94
288.6	319.94
288.831	313.94
289.062	303.94
289.293	287.94
289.524	302.94
289.755	302.94
289.986	291.94
290.217	281.94
290.448	286.94
290.679	304.94
290.91	276.94
291.141	304.94
291.371	279.94
291.602	296.94
291.833	291.94
292.064	285.94
292.295	291.94
292.526	287.94
292.757	282.94
292.987	277.94
293.218	284.94
293.449	300.94
293.68	309.94
293.91	279.94
294.141	291.94
294.372	291.94
294.603	283.94
294.833	313.94
295.064	277.94
295.295	300.94
295.525	295.94
295.756	295.94
295.987	317.94
296.217	350.94
296.448	357.94
296.679	325.94
296.909	310.94
297.14	294.94
297.37	305.94
297.601	289.94
297.831	282.94
298.062	294.94
298.292	307.94
298.523	308.94
298.753	304.94
298.984	296.94
299.214	316.94
299.445	317.94
299.675	294.94
299.905	304.94
300.136	311.94
300.366	315.94
300.597	324.94
300.827	326.94
301.057	334.94
301.288	331.94
301.518	332.94
301.748	318.94
301.979	321.94
302.209	318.94
302.439	323.94
302.669	313.94
302.9	334.94
303.13	312.94
303.36	336.94
303.59	333.94
303.82	345.94
304.051	333.94
304.281	328.94
304.511	332.94
304.741	320.94
304.971	332.94
305.201	331.94
305.431	335.94
305.661	335.94
305.891	330.94
306.121	329.94
306.352	350.94
306.582	334.94
306.812	336.94
307.042	329.94
307.272	337.94
307.502	334.94
307.731	337.94
307.961	324.94
308.191	340.94
308.421	333.94
308.651	335.94
308.881	354.94
309.111	360.94
309.341	363.94
309.571	365.94
309.8	367.94
310.03	379.94
310.26	380.94
310.49	404.94
310.72	407.94
310.949	427.94
311.179	427.94
311.409	383.94
311.639	392.94
311.868	403.94
312.098	375.94
312.328	383.94
312.557	428.94
312.787	438.94
313.017	431.94
313.246	423.94
313.476	391.94
313.706	390.94
313.935	401.94
314.165	392.94
314.394	423.94
314.624	422.94
314.853	428.94
315.083	409.94
315.312	382.94
315.542	379.94
315.771	356.94
316.001	371.94
316.23	381.94
316.46	388.94
316.689	381.94
316.919	392.94
317.148	405.94
317.377	401.94
317.607	402.94
317.836	413.94
318.065	399.94
318.295	374.94
318.524	405.94
318.753	399.94
318.983	383.94
319.212	402.94
319.441	395.94
319.67	413.94
319.9	401.94
320.129	395.94
320.358	390.94
320.587	386.94
320.816	401.94
321.046	445.94
321.275	443.94
321.504	423.94
321.733	428.94
321.962	429.94
322.191	434.94
322.42	467.94
322.649	480.94
322.878	508.94
323.108	534.94
323.337	559.94
323.566	577.94
323.795	635.94
324.024	679.94
324.253	867.94
324.482	1227.94
324.71	1947.94
324.939	2865.94
325.168	2428.94
325.397	1231.94
325.626	803.94
325.855	624.94
326.084	621.94
326.313	582.94
326.542	557.94
326.77	655.94
326.999	769.94
327.228	1109.94
327.457	1683.94
327.686	2103.94
327.914	1398.94
328.143	875.94
328.372	752.94
328.6	685.94
328.829	675.94
329.058	683.94
329.287	701.94
329.515	649.94
329.744	574.94
329.972	581.94
330.201	598.94
330.43	639.94
330.658	685.94
330.887	727.94
331.115	712.94
331.344	600.94
331.572	539.94
331.801	549.94
332.03	546.94
332.258	533.94
332.486	478.94
332.715	494.94
332.943	487.94
333.172	488.94
333.4	490.94
333.629	483.94
333.857	483.94
334.085	525.94
334.314	528.94
334.542	575.94
334.771	624.94
334.999	530.94
335.227	501.94
335.455	495.94
335.684	474.94
335.912	456.94
336.14	465.94
336.369	468.94
336.597	479.94
336.825	478.94
337.053	477.94
337.281	471.94
337.51	443.94
337.738	456.94
337.966	463.94
338.194	453.94
338.422	464.94
338.65	439.94
338.878	453.94
339.106	431.94
339.334	440.94
339.562	439.94
339.79	465.94
340.018	441.94
340.246	452.94
340.474	447.94
340.702	480.94
340.93	462.94
341.158	458.94
341.386	464.94
341.614	451.94
341.842	445.94
342.07	444.94
342.298	443.94
342.526	438.94
342.754	447.94
342.981	428.94
343.209	404.94
343.437	445.94
343.665	425.94
343.893	435.94
344.12	435.94
344.348	459.94
344.576	465.94
344.804	451.94
345.031	471.94
345.259	503.94
345.487	486.94
345.714	455.94
345.942	454.94
346.17	460.94
346.397	454.94
346.625	459.94
346.853	452.94
347.08	433.94
347.308	442.94
347.535	468.94
347.763	466.94
347.99	472.94
348.218	458.94
348.445	457.94
348.673	462.94
348.9	462.94
349.128	455.94
349.355	422.94
349.583	396.94
349.81	425.94
350.037	451.94
350.265	444.94
350.492	424.94
350.72	436.94
350.947	455.94
351.174	463.94
351.402	463.94
351.629	449.94
351.856	457.94
352.083	481.94
352.311	457.94
352.538	460.94
352.765	485.94
352.992	447.94
353.22	460.94
353.447	429.94
353.674	447.94
353.901	440.94
354.128	422.94
354.355	402.94
354.583	417.94
354.81	400.94
355.037	407.94
355.264	397.94
355.491	392.94
355.718	409.94
355.945	393.94
356.172	389.94
356.399	443.94
356.626	419.94
356.853	403.94
357.08	376.94
357.307	396.94
357.534	413.94
357.761	409.94
357.988	408.94
358.215	406.94
358.441	416.94
358.668	403.94
358.895	415.94
359.122	428.94
359.349	444.94
359.576	457.94
359.802	495.94
360.029	535.94
360.256	543.94
360.483	501.94
360.709	473.94
360.936	463.94
361.163	449.94
361.39	471.94
361.616	477.94
361.843	446.94
362.07	446.94
362.296	448.94
362.523	460.94
362.749	457.94
362.976	450.94
363.203	448.94
363.429	417.94
363.656	456.94
363.882	435.94
364.109	442.94
364.335	434.94
364.562	438.94
364.788	416.94
365.015	421.94
365.241	430.94
365.468	434.94
365.694	440.94
365.92	449.94
366.147	459.94
366.373	460.94
366.599	412.94
366.826	413.94
367.052	411.94
367.278	417.94
367.505	430.94
367.731	422.94
367.957	441.94
368.184	438.94
368.41	429.94
368.636	435.94
368.862	464.94
369.089	440.94
369.315	441.94
369.541	420.94
369.767	444.94
369.993	427.94
370.219	422.94
370.445	418.94
370.672	412.94
370.898	429.94
371.124	412.94
371.35	413.94
371.576	436.94
371.802	428.94
372.028	415.94
372.254	443.94
372.48	404.94
372.706	416.94
372.932	419.94
373.158	419.94
373.384	436.94
373.61	421.94
373.835	439.94
374.061	425.94
374.287	427.94
374.513	399.94
374.739	405.94
374.965	417.94
375.191	401.94
375.416	426.94
375.642	416.94
375.868	416.94
376.094	419.94
376.319	411.94
376.545	418.94
376.771	415.94
376.997	436.94
377.222	421.94
377.448	430.94
377.674	407.94
377.899	426.94
378.125	416.94
378.35	419.94
378.576	423.94
378.802	392.94
379.027	406.94
379.253	407.94
379.478	417.94
379.704	417.94
379.929	424.94
380.155	439.94
380.38	424.94
380.606	433.94
380.831	435.94
381.057	442.94
381.282	424.94
381.507	427.94
381.733	449.94
381.958	424.94
382.184	425.94
382.409	441.94
382.634	437.94
382.86	429.94
383.085	428.94
383.31	437.94
383.535	426.94
383.761	442.94
383.986	441.94
384.211	440.94
384.436	447.94
384.662	441.94
384.887	443.94
385.112	446.94
385.337	421.94
385.562	459.94
385.787	463.94
386.013	458.94
386.238	457.94
386.463	455.94
386.688	483.94
386.913	440.94
387.138	443.94
387.363	451.94
387.588	449.94
387.813	444.94
388.038	449.94
388.263	436.94
388.488	449.94
388.713	469.94
388.938	485.94
389.163	476.94
389.387	457.94
389.612	472.94
389.837	445.94
390.062	448.94
390.287	455.94
390.512	460.94
390.736	459.94
390.961	451.94
391.186	459.94
391.411	469.94
391.636	449.94
391.86	455.94
392.085	465.94
392.31	466.94
392.534	453.94
392.759	472.94
392.984	461.94
393.208	471.94
393.433	451.94
393.658	446.94
393.882	447.94
394.107	445.94
394.331	461.94
394.556	472.94
394.78	454.94
395.005	459.94
395.229	450.94
395.454	459.94
395.678	484.94
395.903	479.94
396.127	504.94
396.352	492.94
396.576	499.94
396.801	473.94
397.025	483.94
397.249	487.94
397.474	469.94
397.698	493.94
397.922	505.94
398.147	534.94
398.371	525.94
398.595	505.94
398.82	500.94
399.044	502.94
399.268	519.94
399.492	550.94
399.717	565.94
399.941	603.94
400.165	641.94
400.389	629.94
400.613	592.94
400.837	538.94
401.062	540.94
401.286	528.94
401.51	533.94
401.734	537.94
401.958	529.94
402.182	541.94
402.406	537.94
402.63	538.94
402.854	549.94
403.078	546.94
403.302	560.94
403.526	560.94
403.75	558.94
403.974	534.94
404.198	537.94
404.422	567.94
404.645	561.94
404.869	553.94
405.093	613.94
405.317	635.94
405.541	670.94
405.765	643.94
405.988	593.94
406.212	595.94
406.436	643.94
406.66	639.94
406.883	604.94
407.107	625.94
407.331	688.94
407.555	759.94
407.778	723.94
408.002	685.94
408.226	627.94
408.449	608.94
408.673	595.94
408.896	637.94
409.12	682.94
409.344	649.94
409.567	579.94
409.791	571.94
410.014	551.94
410.238	571.94
410.461	543.94
410.685	561.94
410.908	599.94
411.132	623.94
411.355	647.94
411.578	639.94
411.802	596.94
412.025	583.94
412.249	570.94
412.472	601.94
412.695	655.94
412.919	648.94
413.142	573.94
413.365	554.94
413.589	559.94
413.812	543.94
414.035	544.94
414.258	529.94
414.482	531.94
414.705	535.94
414.928	513.94
415.151	520.94
415.374	513.94
415.597	519.94
415.821	521.94
416.044	532.94
416.267	537.94
416.49	543.94
416.713	527.94
416.936	488.94
417.159	530.94
417.382	544.94
417.605	561.94
417.828	549.94
418.051	550.94
418.274	544.94
418.497	530.94
418.72	526.94
418.943	542.94
419.166	549.94
419.389	575.94
419.611	568.94
419.834	556.94
420.057	581.94
420.28	557.94
420.503	549.94
420.726	563.94
420.948	595.94
421.171	637.94
421.394	686.94
421.617	592.94
421.839	583.94
422.062	566.94
422.285	583.94
422.507	659.94
422.73	740.94
422.953	707.94
423.175	613.94
423.398	617.94
423.621	578.94
423.843	623.94
424.066	628.94
424.288	616.94
424.511	649.94
424.733	704.94
424.956	798.94
425.178	763.94
425.401	767.94
425.623	816.94
425.846	682.94
426.068	636.94
426.291	621.94
426.513	630.94
426.735	647.94
426.958	681.94
427.18	784.94
427.402	933.94
427.625	992.94
427.847	936.94
428.069	836.94
428.292	713.94
428.514	659.94
428.736	635.94
428.958	612.94
429.181	583.94
429.403	588.94
429.625	630.94
429.847	635.94
430.069	716.94
430.292	709.94
430.514	626.94
430.736	599.94
430.958	573.94
431.18	555.94
431.402	562.94
431.624	569.94
431.846	557.94
432.068	528.94
432.29	568.94
432.512	551.94
432.734	571.94
432.956	548.94
433.178	577.94
433.4	568.94
433.622	549.94
433.844	555.94
434.066	567.94
434.287	535.94
434.509	541.94
434.731	549.94
434.953	595.94
435.175	603.94
435.397	619.94
435.618	623.94
435.84	685.94
436.062	800.94
436.284	878.94
436.505	724.94
436.727	655.94
436.949	629.94
437.17	620.94
437.392	601.94
437.614	592.94
437.835	649.94
438.057	765.94
438.278	896.94
438.5	880.94
438.721	1000.94
438.943	918.94
439.165	755.94
439.386	699.94
439.608	650.94
439.829	679.94
440.05	708.94
440.272	738.94
440.493	682.94
440.715	642.94
440.936	603.94
441.158	606.94
441.379	605.94
441.6	601.94
441.822	657.94
442.043	681.94
442.264	782.94
442.486	833.94
442.707	730.94
442.928	671.94
443.149	665.94
443.371	710.94
443.592	760.94
443.813	864.94
444.034	904.94
444.255	767.94
444.476	663.94
444.698	639.94
444.919	613.94
445.14	714.94
445.361	681.94
445.582	669.94
445.803	791.94
446.024	901.94
446.245	923.94
446.466	843.94
446.687	707.94
446.908	672.94
447.129	615.94
447.35	586.94
447.571	601.94
447.792	576.94
448.013	593.94
448.234	620.94
448.455	681.94
448.675	809.94
448.896	951.94
449.117	829.94
449.338	754.94
449.559	897.94
449.779	957.94
450	808.94
450.221	689.94
450.442	636.94
450.662	609.94
450.883	615.94
451.104	631.94
451.324	592.94
451.545	585.94
451.766	569.94
451.986	550.94
452.207	526.94
452.428	535.94
452.648	551.94
452.869	526.94
453.089	560.94
453.31	561.94
453.53	551.94
453.751	528.94
453.971	547.94
454.192	571.94
454.412	540.94
454.633	560.94
454.853	542.94
455.073	534.94
455.294	553.94
455.514	646.94
455.734	639.94
455.955	553.94
456.175	523.94
456.395	480.94
456.616	493.94
456.836	494.94
457.056	475.94
457.276	478.94
457.497	502.94
457.717	501.94
457.937	511.94
458.157	492.94
458.377	525.94
458.598	556.94
458.818	625.94
459.038	711.94
459.258	746.94
459.478	628.94
459.698	551.94
459.918	539.94
460.138	545.94
460.358	537.94
460.578	530.94
460.798	514.94
461.018	538.94
461.238	541.94
461.458	533.94
461.678	557.94
461.898	518.94
462.118	534.94
462.338	554.94
462.558	539.94
462.777	539.94
462.997	560.94
463.217	559.94
463.437	586.94
463.657	559.94
463.876	543.94
464.096	556.94
464.316	581.94
464.536	569.94
464.755	562.94
464.975	582.94
465.195	647.94
465.414	768.94
465.634	670.94
465.854	602.94
466.073	589.94
466.293	530.94
466.512	547.94
466.732	536.94
466.951	521.94
467.171	543.94
467.391	541.94
467.61	571.94
467.829	583.94
468.049	582.94
468.268	566.94
468.488	536.94
468.707	507.94
468.927	511.94
469.146	524.94
469.365	528.94
469.585	536.94
469.804	551.94
470.023	537.94
470.243	555.94
470.462	567.94
470.681	587.94
470.901	575.94
471.12	557.94
471.339	544.94
471.558	538.94
471.777	561.94
471.997	529.94
472.216	533.94
472.435	607.94
472.654	579.94
472.873	560.94
473.092	541.94
473.311	558.94
473.53	568.94
473.749	571.94
473.968	623.94
474.187	752.94
474.406	769.94
474.625	617.94
474.844	581.94
475.063	565.94
475.282	557.94
475.501	558.94
475.72	539.94
475.939	569.94
476.158	572.94
476.377	549.94
476.596	571.94
476.814	583.94
477.033	570.94
477.252	570.94
477.471	569.94
477.69	562.94
477.908	585.94
478.127	577.94
478.346	591.94
478.564	618.94
478.783	599.94
479.002	620.94
479.22	616.94
479.439	617.94
479.658	653.94
479.876	656.94
480.095	681.94
480.313	681.94
480.532	667.94
480.751	663.94
480.969	710.94
481.188	786.94
481.406	829.94
481.624	741.94
481.843	669.94
482.061	670.94
482.28	675.94
482.498	661.94
482.717	646.94
482.935	668.94
483.153	669.94
483.372	655.94
483.59	679.94
483.808	666.94
484.027	666.94
484.245	657.94
484.463	651.94
484.681	653.94
484.9	702.94
485.118	682.94
485.336	662.94
485.554	674.94
485.772	695.94
485.99	680.94
486.209	663.94
486.427	683.94
486.645	716.94
486.863	740.94
487.081	740.94
487.299	719.94
487.517	734.94
487.735	697.94
487.953	728.94
488.171	728.94
488.389	708.94
488.607	716.94
488.825	738.94
489.043	725.94
489.261	735.94
489.479	742.94
489.696	761.94
489.914	713.94
490.132	734.94
490.35	761.94
490.568	741.94
490.786	751.94
491.003	794.94
491.221	801.94
491.439	804.94
491.657	819.94
491.874	841.94
492.092	838.94
492.31	854.94
492.527	870.94
492.745	865.94
492.963	869.94
493.18	867.94
493.398	874.94
493.615	857.94
493.833	853.94
494.05	843.94
494.268	867.94
494.485	875.94
494.703	889.94
494.92	869.94
495.138	864.94
495.355	848.94
495.573	856.94
495.79	870.94
496.008	861.94
496.225	887.94
496.442	858.94
496.66	872.94
496.877	867.94
497.094	876.94
497.312	869.94
497.529	868.94
497.746	875.94
497.963	864.94
498.181	904.94
498.398	899.94
498.615	906.94
498.832	921.94
499.049	919.94
499.267	931.94
499.484	921.94
499.701	954.94
499.918	985.94
500.135	977.94
500.352	1016.94
500.569	1011.94
500.786	1078.94
501.003	1052.94
501.22	1036.94
501.437	1017.94
