Data from 1971.PennyLincolnUp.Lamp.En5.5.200Scan.071719.P1.Scan 2. Changed Angle._HRD10591_15-24-25-842.txt Node
Date: Thu Jul 18 15:24:25 EDT 2019
User: cochatt
Spectrometer: HR+D1059
Trigger mode: 1
Integration Time (sec): 1.000000E-1
Scans to average: 1
Electric dark correction enabled: true
Nonlinearity correction enabled: false
Boxcar width: 0
XAxis mode: Wavelengths
Number of Pixels in Spectrum: 2048
>>>>>Begin Spectral Data<<<<<
223.165	-17.94
223.4	-17.94
223.635	-17.94
223.869	-24.94
224.104	-20.94
224.338	-20.94
224.573	-6.94
224.808	-20.94
225.042	-15.94
225.277	-12.94
225.511	6.06
225.746	7.06
225.98	0.06
226.215	16.06
226.449	24.06
226.683	29.06
226.918	33.06
227.152	26.06
227.387	35.06
227.621	31.06
227.856	38.06
228.09	55.06
228.324	61.06
228.559	55.06
228.793	69.06
229.027	111.06
229.262	110.06
229.496	143.06
229.73	152.06
229.964	183.06
230.199	155.06
230.433	138.06
230.667	134.06
230.901	135.06
231.136	122.06
231.37	126.06
231.604	108.06
231.838	112.06
232.072	113.06
232.306	142.06
232.541	115.06
232.775	115.06
233.009	127.06
233.243	128.06
233.477	132.06
233.711	120.06
233.945	116.06
234.179	124.06
234.413	121.06
234.647	128.06
234.881	121.06
235.115	134.06
235.349	112.06
235.583	135.06
235.817	124.06
236.051	135.06
236.285	135.06
236.519	121.06
236.753	142.06
236.987	155.06
237.221	204.06
237.455	285.06
237.689	229.06
237.922	169.06
238.156	153.06
238.39	135.06
238.624	140.06
238.858	134.06
239.091	130.06
239.325	143.06
239.559	134.06
239.793	139.06
240.027	166.06
240.26	173.06
240.494	174.06
240.728	179.06
240.961	189.06
241.195	164.06
241.429	157.06
241.662	141.06
241.896	140.06
242.13	147.06
242.363	150.06
242.597	159.06
242.83	151.06
243.064	137.06
243.298	138.06
243.531	124.06
243.765	152.06
243.998	153.06
244.232	156.06
244.465	162.06
244.699	154.06
244.932	160.06
245.166	157.06
245.399	141.06
245.633	148.06
245.866	171.06
246.099	154.06
246.333	147.06
246.566	166.06
246.8	155.06
247.033	172.06
247.266	174.06
247.5	171.06
247.733	174.06
247.966	191.06
248.2	188.06
248.433	202.06
248.666	194.06
248.899	204.06
249.133	227.06
249.366	246.06
249.599	230.06
249.832	201.06
250.066	215.06
250.299	204.06
250.532	213.06
250.765	230.06
250.998	252.06
251.231	269.06
251.465	264.06
251.698	226.06
251.931	219.06
252.164	219.06
252.397	217.06
252.63	230.06
252.863	228.06
253.096	237.06
253.329	270.06
253.562	263.06
253.795	249.06
254.028	254.06
254.261	247.06
254.494	253.06
254.727	292.06
254.96	329.06
255.193	305.06
255.426	272.06
255.659	248.06
255.892	274.06
256.124	262.06
256.357	279.06
256.59	256.06
256.823	253.06
257.056	228.06
257.289	218.06
257.521	232.06
257.754	228.06
257.987	231.06
258.22	239.06
258.452	227.06
258.685	229.06
258.918	232.06
259.151	240.06
259.383	242.06
259.616	242.06
259.849	239.06
260.081	247.06
260.314	283.06
260.547	299.06
260.779	268.06
261.012	261.06
261.244	260.06
261.477	254.06
261.71	238.06
261.942	249.06
262.175	261.06
262.407	250.06
262.64	236.06
262.872	240.06
263.105	214.06
263.337	240.06
263.57	234.06
263.802	235.06
264.035	228.06
264.267	253.06
264.499	232.06
264.732	217.06
264.964	218.06
265.197	211.06
265.429	219.06
265.661	237.06
265.894	236.06
266.126	222.06
266.358	227.06
266.591	214.06
266.823	225.06
267.055	241.06
267.287	254.06
267.52	235.06
267.752	232.06
267.984	236.06
268.216	239.06
268.448	239.06
268.681	254.06
268.913	257.06
269.145	283.06
269.377	322.06
269.609	313.06
269.841	313.06
270.073	295.06
270.306	325.06
270.538	340.06
270.77	356.06
271.002	357.06
271.234	333.06
271.466	357.06
271.698	348.06
271.93	348.06
272.162	365.06
272.394	348.06
272.626	356.06
272.858	337.06
273.09	311.06
273.322	324.06
273.553	310.06
273.785	299.06
274.017	261.06
274.249	291.06
274.481	283.06
274.713	292.06
274.945	301.06
275.176	272.06
275.408	293.06
275.64	288.06
275.872	271.06
276.104	284.06
276.335	288.06
276.567	301.06
276.799	322.06
277.031	333.06
277.262	349.06
277.494	356.06
277.726	325.06
277.957	320.06
278.189	296.06
278.421	308.06
278.652	278.06
278.884	301.06
279.115	284.06
279.347	281.06
279.579	273.06
279.81	283.06
280.042	283.06
280.273	265.06
280.505	273.06
280.736	281.06
280.968	271.06
281.199	283.06
281.431	286.06
281.662	282.06
281.894	264.06
282.125	279.06
282.356	294.06
282.588	309.06
282.819	328.06
283.051	293.06
283.282	298.06
283.513	282.06
283.745	277.06
283.976	289.06
284.207	288.06
284.439	304.06
284.67	272.06
284.901	279.06
285.132	283.06
285.364	285.06
285.595	289.06
285.826	273.06
286.057	297.06
286.288	300.06
286.52	298.06
286.751	280.06
286.982	284.06
287.213	282.06
287.444	286.06
287.675	294.06
287.906	301.06
288.138	309.06
288.369	300.06
288.6	320.06
288.831	310.06
289.062	303.06
289.293	284.06
289.524	272.06
289.755	319.06
289.986	280.06
290.217	304.06
290.448	285.06
290.679	286.06
290.91	308.06
291.141	281.06
291.371	299.06
291.602	297.06
291.833	300.06
292.064	291.06
292.295	291.06
292.526	296.06
292.757	302.06
292.987	311.06
293.218	304.06
293.449	316.06
293.68	307.06
293.91	297.06
294.141	298.06
294.372	300.06
294.603	277.06
294.833	283.06
295.064	280.06
295.295	291.06
295.525	295.06
295.756	288.06
295.987	324.06
296.217	336.06
296.448	357.06
296.679	311.06
296.909	319.06
297.14	316.06
297.37	309.06
297.601	296.06
297.831	302.06
298.062	301.06
298.292	315.06
298.523	305.06
298.753	319.06
298.984	313.06
299.214	316.06
299.445	319.06
299.675	295.06
299.905	309.06
300.136	320.06
300.366	324.06
300.597	325.06
300.827	305.06
301.057	320.06
301.288	334.06
301.518	349.06
301.748	339.06
301.979	303.06
302.209	326.06
302.439	334.06
302.669	341.06
302.9	318.06
303.13	328.06
303.36	323.06
303.59	328.06
303.82	350.06
304.051	336.06
304.281	335.06
304.511	323.06
304.741	312.06
304.971	326.06
305.201	319.06
305.431	344.06
305.661	328.06
305.891	323.06
306.121	344.06
306.352	331.06
306.582	352.06
306.812	345.06
307.042	331.06
307.272	345.06
307.502	343.06
307.731	334.06
307.961	344.06
308.191	345.06
308.421	328.06
308.651	336.06
308.881	356.06
309.111	355.06
309.341	353.06
309.571	368.06
309.8	398.06
310.03	359.06
310.26	387.06
310.49	395.06
310.72	414.06
310.949	424.06
311.179	441.06
311.409	405.06
311.639	415.06
311.868	399.06
312.098	385.06
312.328	411.06
312.557	430.06
312.787	460.06
313.017	446.06
313.246	414.06
313.476	404.06
313.706	409.06
313.935	403.06
314.165	422.06
314.394	439.06
314.624	456.06
314.853	416.06
315.083	399.06
315.312	382.06
315.542	397.06
315.771	387.06
316.001	374.06
316.23	393.06
316.46	380.06
316.689	389.06
316.919	395.06
317.148	406.06
317.377	427.06
317.607	402.06
317.836	411.06
318.065	393.06
318.295	412.06
318.524	387.06
318.753	387.06
318.983	393.06
319.212	392.06
319.441	406.06
319.67	417.06
319.9	418.06
320.129	395.06
320.358	387.06
320.587	420.06
320.816	408.06
321.046	432.06
321.275	400.06
321.504	418.06
321.733	440.06
321.962	451.06
322.191	447.06
322.42	503.06
322.649	476.06
322.878	511.06
323.108	529.06
323.337	537.06
323.566	599.06
323.795	631.06
324.024	691.06
324.253	898.06
324.482	1286.06
324.71	1989.06
324.939	2943.06
325.168	2489.06
325.397	1283.06
325.626	832.06
325.855	667.06
326.084	601.06
326.313	582.06
326.542	580.06
326.77	637.06
326.999	811.06
327.228	1184.06
327.457	1785.06
327.686	2176.06
327.914	1428.06
328.143	923.06
328.372	787.06
328.6	720.06
328.829	679.06
329.058	713.06
329.287	688.06
329.515	663.06
329.744	601.06
329.972	585.06
330.201	629.06
330.43	668.06
330.658	711.06
330.887	748.06
331.115	709.06
331.344	607.06
331.572	563.06
331.801	556.06
332.03	547.06
332.258	527.06
332.486	504.06
332.715	472.06
332.943	482.06
333.172	478.06
333.4	487.06
333.629	496.06
333.857	511.06
334.085	551.06
334.314	545.06
334.542	570.06
334.771	601.06
334.999	565.06
335.227	511.06
335.455	468.06
335.684	494.06
335.912	478.06
336.14	457.06
336.369	455.06
336.597	485.06
336.825	487.06
337.053	457.06
337.281	470.06
337.51	458.06
337.738	461.06
337.966	448.06
338.194	482.06
338.422	472.06
338.65	471.06
338.878	475.06
339.106	430.06
339.334	441.06
339.562	430.06
339.79	410.06
340.018	441.06
340.246	441.06
340.474	473.06
340.702	469.06
340.93	467.06
341.158	458.06
341.386	447.06
341.614	463.06
341.842	465.06
342.07	449.06
342.298	475.06
342.526	447.06
342.754	431.06
342.981	448.06
343.209	428.06
343.437	436.06
343.665	437.06
343.893	441.06
344.12	444.06
344.348	444.06
344.576	452.06
344.804	468.06
345.031	464.06
345.259	517.06
345.487	503.06
345.714	487.06
345.942	470.06
346.17	467.06
346.397	442.06
346.625	439.06
346.853	427.06
347.08	445.06
347.308	449.06
347.535	460.06
347.763	480.06
347.99	461.06
348.218	453.06
348.445	467.06
348.673	468.06
348.9	448.06
349.128	436.06
349.355	445.06
349.583	433.06
349.81	432.06
350.037	430.06
350.265	443.06
350.492	442.06
350.72	432.06
350.947	434.06
351.174	451.06
351.402	454.06
351.629	459.06
351.856	462.06
352.083	465.06
352.311	479.06
352.538	487.06
352.765	491.06
352.992	476.06
353.22	455.06
353.447	492.06
353.674	454.06
353.901	435.06
354.128	453.06
354.355	417.06
354.583	414.06
354.81	423.06
355.037	393.06
355.264	420.06
355.491	405.06
355.718	393.06
355.945	397.06
356.172	423.06
356.399	423.06
356.626	410.06
356.853	413.06
357.08	428.06
357.307	440.06
357.534	407.06
357.761	421.06
357.988	422.06
358.215	402.06
358.441	409.06
358.668	392.06
358.895	433.06
359.122	439.06
359.349	460.06
359.576	462.06
359.802	511.06
360.029	548.06
360.256	545.06
360.483	523.06
360.709	471.06
360.936	471.06
361.163	448.06
361.39	454.06
361.616	473.06
361.843	450.06
362.07	448.06
362.296	489.06
362.523	467.06
362.749	464.06
362.976	464.06
363.203	444.06
363.429	431.06
363.656	435.06
363.882	435.06
364.109	440.06
364.335	441.06
364.562	432.06
364.788	439.06
365.015	447.06
365.241	448.06
365.468	443.06
365.694	441.06
365.92	431.06
366.147	451.06
366.373	434.06
366.599	432.06
366.826	465.06
367.052	430.06
367.278	416.06
367.505	439.06
367.731	439.06
367.957	442.06
368.184	439.06
368.41	437.06
368.636	454.06
368.862	461.06
369.089	462.06
369.315	445.06
369.541	422.06
369.767	419.06
369.993	423.06
370.219	438.06
370.445	410.06
370.672	441.06
370.898	423.06
371.124	408.06
371.35	441.06
371.576	420.06
371.802	421.06
372.028	431.06
372.254	416.06
372.48	424.06
372.706	416.06
372.932	440.06
373.158	435.06
373.384	416.06
373.61	425.06
373.835	440.06
374.061	453.06
374.287	408.06
374.513	424.06
374.739	424.06
374.965	415.06
375.191	432.06
375.416	425.06
375.642	434.06
375.868	445.06
376.094	441.06
376.319	424.06
376.545	414.06
376.771	431.06
376.997	386.06
377.222	415.06
377.448	430.06
377.674	425.06
377.899	421.06
378.125	421.06
378.35	416.06
378.576	416.06
378.802	416.06
379.027	414.06
379.253	424.06
379.478	401.06
379.704	425.06
379.929	432.06
380.155	412.06
380.38	436.06
380.606	424.06
380.831	428.06
381.057	443.06
381.282	431.06
381.507	416.06
381.733	416.06
381.958	424.06
382.184	437.06
382.409	448.06
382.634	449.06
382.86	433.06
383.085	450.06
383.31	435.06
383.535	428.06
383.761	435.06
383.986	426.06
384.211	448.06
384.436	443.06
384.662	447.06
384.887	458.06
385.112	439.06
385.337	432.06
385.562	461.06
385.787	436.06
386.013	471.06
386.238	475.06
386.463	453.06
386.688	451.06
386.913	446.06
387.138	448.06
387.363	450.06
387.588	477.06
387.813	448.06
388.038	451.06
388.263	446.06
388.488	466.06
388.713	464.06
388.938	455.06
389.163	448.06
389.387	483.06
389.612	453.06
389.837	445.06
390.062	466.06
390.287	441.06
390.512	443.06
390.736	456.06
390.961	447.06
391.186	463.06
391.411	445.06
391.636	481.06
391.86	463.06
392.085	468.06
392.31	461.06
392.534	486.06
392.759	464.06
392.984	475.06
393.208	472.06
393.433	473.06
393.658	468.06
393.882	481.06
394.107	461.06
394.331	481.06
394.556	445.06
394.78	460.06
395.005	464.06
395.229	460.06
395.454	481.06
395.678	488.06
395.903	530.06
396.127	504.06
396.352	507.06
396.576	504.06
396.801	484.06
397.025	468.06
397.249	486.06
397.474	478.06
397.698	496.06
397.922	526.06
398.147	522.06
398.371	526.06
398.595	508.06
398.82	496.06
399.044	532.06
399.268	547.06
399.492	542.06
399.717	563.06
399.941	595.06
400.165	636.06
400.389	650.06
400.613	599.06
400.837	563.06
401.062	540.06
401.286	544.06
401.51	533.06
401.734	524.06
401.958	536.06
402.182	540.06
402.406	544.06
402.63	544.06
402.854	555.06
403.078	540.06
403.302	535.06
403.526	563.06
403.75	555.06
403.974	554.06
404.198	542.06
404.422	560.06
404.645	564.06
404.869	538.06
405.093	598.06
405.317	651.06
405.541	665.06
405.765	645.06
405.988	581.06
406.212	624.06
406.436	640.06
406.66	645.06
406.883	607.06
407.107	635.06
407.331	676.06
407.555	733.06
407.778	731.06
408.002	685.06
408.226	654.06
408.449	624.06
408.673	604.06
408.896	648.06
409.12	711.06
409.344	665.06
409.567	586.06
409.791	574.06
410.014	573.06
410.238	548.06
410.461	551.06
410.685	574.06
410.908	595.06
411.132	624.06
411.355	652.06
411.578	632.06
411.802	607.06
412.025	578.06
412.249	550.06
412.472	590.06
412.695	655.06
412.919	629.06
413.142	561.06
413.365	563.06
413.589	570.06
413.812	541.06
414.035	541.06
414.258	538.06
414.482	501.06
414.705	523.06
414.928	508.06
415.151	543.06
415.374	528.06
415.597	505.06
415.821	521.06
416.044	515.06
416.267	517.06
416.49	548.06
416.713	509.06
416.936	539.06
417.159	538.06
417.382	546.06
417.605	549.06
417.828	558.06
418.051	575.06
418.274	574.06
418.497	539.06
418.72	563.06
418.943	529.06
419.166	553.06
419.389	583.06
419.611	585.06
419.834	598.06
420.057	537.06
420.28	593.06
420.503	571.06
420.726	554.06
420.948	628.06
421.171	622.06
421.394	663.06
421.617	629.06
421.839	577.06
422.062	605.06
422.285	580.06
422.507	653.06
422.73	751.06
422.953	739.06
423.175	644.06
423.398	612.06
423.621	621.06
423.843	616.06
424.066	620.06
424.288	630.06
424.511	669.06
424.733	734.06
424.956	796.06
425.178	775.06
425.401	750.06
425.623	816.06
425.846	688.06
426.068	656.06
426.291	647.06
426.513	630.06
426.735	651.06
426.958	715.06
427.18	776.06
427.402	933.06
427.625	1062.06
427.847	938.06
428.069	831.06
428.292	719.06
428.514	653.06
428.736	629.06
428.958	609.06
429.181	585.06
429.403	589.06
429.625	613.06
429.847	639.06
430.069	733.06
430.292	750.06
430.514	623.06
430.736	599.06
430.958	575.06
431.18	571.06
431.402	577.06
431.624	558.06
431.846	549.06
432.068	551.06
432.29	523.06
432.512	527.06
432.734	586.06
432.956	565.06
433.178	564.06
433.4	578.06
433.622	569.06
433.844	550.06
434.066	552.06
434.287	532.06
434.509	547.06
434.731	559.06
434.953	563.06
435.175	605.06
435.397	629.06
435.618	633.06
435.84	699.06
436.062	793.06
436.284	887.06
436.505	741.06
436.727	669.06
436.949	622.06
437.17	595.06
437.392	606.06
437.614	629.06
437.835	673.06
438.057	790.06
438.278	927.06
438.5	919.06
438.721	963.06
438.943	932.06
439.165	755.06
439.386	699.06
439.608	673.06
439.829	684.06
440.05	731.06
440.272	782.06
440.493	727.06
440.715	645.06
440.936	640.06
441.158	609.06
441.379	589.06
441.6	632.06
441.822	636.06
442.043	705.06
442.264	808.06
442.486	832.06
442.707	714.06
442.928	677.06
443.149	676.06
443.371	714.06
443.592	773.06
443.813	852.06
444.034	907.06
444.255	779.06
444.476	679.06
444.698	653.06
444.919	651.06
445.14	750.06
445.361	720.06
445.582	699.06
445.803	783.06
446.024	905.06
446.245	923.06
446.466	841.06
446.687	713.06
446.908	670.06
447.129	643.06
447.35	611.06
447.571	601.06
447.792	619.06
448.013	618.06
448.234	615.06
448.455	704.06
448.675	845.06
448.896	947.06
449.117	823.06
449.338	765.06
449.559	892.06
449.779	991.06
450	799.06
450.221	693.06
450.442	644.06
450.662	617.06
450.883	618.06
451.104	637.06
451.324	613.06
451.545	598.06
451.766	556.06
451.986	551.06
452.207	561.06
452.428	537.06
452.648	552.06
452.869	531.06
453.089	552.06
453.31	563.06
453.53	576.06
453.751	550.06
453.971	537.06
454.192	566.06
454.412	571.06
454.633	565.06
454.853	510.06
455.073	516.06
455.294	579.06
455.514	647.06
455.734	650.06
455.955	548.06
456.175	496.06
456.395	474.06
456.616	500.06
456.836	506.06
457.056	493.06
457.276	466.06
457.497	491.06
457.717	488.06
457.937	514.06
458.157	509.06
458.377	532.06
458.598	553.06
458.818	641.06
459.038	751.06
459.258	750.06
459.478	647.06
459.698	593.06
459.918	551.06
460.138	537.06
460.358	546.06
460.578	550.06
460.798	567.06
461.018	542.06
461.238	532.06
461.458	525.06
461.678	549.06
461.898	530.06
462.118	531.06
462.338	527.06
462.558	554.06
462.777	572.06
462.997	571.06
463.217	565.06
463.437	552.06
463.657	570.06
463.876	567.06
464.096	583.06
464.316	556.06
464.536	565.06
464.755	574.06
464.975	591.06
465.195	672.06
465.414	791.06
465.634	678.06
465.854	597.06
466.073	587.06
466.293	560.06
466.512	537.06
466.732	525.06
466.951	535.06
467.171	544.06
467.391	559.06
467.61	565.06
467.829	579.06
468.049	548.06
468.268	568.06
468.488	556.06
468.707	552.06
468.927	549.06
469.146	521.06
469.365	540.06
469.585	546.06
469.804	541.06
470.023	561.06
470.243	567.06
470.462	575.06
470.681	585.06
470.901	589.06
471.12	566.06
471.339	557.06
471.558	571.06
471.777	544.06
471.997	560.06
472.216	561.06
472.435	606.06
472.654	598.06
472.873	555.06
473.092	547.06
473.311	557.06
473.53	550.06
473.749	565.06
473.968	619.06
474.187	752.06
474.406	784.06
474.625	620.06
474.844	582.06
475.063	565.06
475.282	551.06
475.501	569.06
475.72	559.06
475.939	560.06
476.158	583.06
476.377	575.06
476.596	565.06
476.814	591.06
477.033	577.06
477.252	587.06
477.471	606.06
477.69	583.06
477.908	601.06
478.127	624.06
478.346	590.06
478.564	603.06
478.783	602.06
479.002	593.06
479.22	633.06
479.439	652.06
479.658	664.06
479.876	654.06
480.095	657.06
480.313	709.06
480.532	674.06
480.751	661.06
480.969	694.06
481.188	751.06
481.406	836.06
481.624	728.06
481.843	707.06
482.061	665.06
482.28	664.06
482.498	663.06
482.717	655.06
482.935	636.06
483.153	633.06
483.372	650.06
483.59	661.06
483.808	658.06
484.027	653.06
484.245	672.06
484.463	647.06
484.681	682.06
484.9	675.06
485.118	682.06
485.336	667.06
485.554	682.06
485.772	657.06
485.99	668.06
486.209	683.06
486.427	677.06
486.645	672.06
486.863	740.06
487.081	749.06
487.299	740.06
487.517	725.06
487.735	721.06
487.953	714.06
488.171	725.06
488.389	699.06
488.607	720.06
488.825	709.06
489.043	722.06
489.261	697.06
489.479	727.06
489.696	725.06
489.914	751.06
490.132	731.06
490.35	777.06
490.568	771.06
490.786	772.06
491.003	763.06
491.221	809.06
491.439	839.06
491.657	848.06
491.874	821.06
492.092	844.06
492.31	855.06
492.527	834.06
492.745	863.06
492.963	859.06
493.18	860.06
493.398	876.06
493.615	878.06
493.833	877.06
494.05	852.06
494.268	887.06
494.485	864.06
494.703	879.06
494.92	863.06
495.138	862.06
495.355	886.06
495.573	869.06
495.79	889.06
496.008	884.06
496.225	869.06
496.442	855.06
496.66	874.06
496.877	899.06
497.094	891.06
497.312	888.06
497.529	897.06
497.746	878.06
497.963	897.06
498.181	932.06
498.398	931.06
498.615	947.06
498.832	952.06
499.049	933.06
499.267	947.06
499.484	954.06
499.701	992.06
499.918	1000.06
500.135	1041.06
500.352	1048.06
500.569	1065.06
500.786	1069.06
501.003	1069.06
501.22	1057.06
501.437	1054.06
