Data from 1971.PennyLincolnUp.Lamp.En5.5.200Scan.071719.P1._HRD10591_15-18-28-841.txt Node
Date: Thu Jul 18 15:18:28 EDT 2019
User: cochatt
Spectrometer: HR+D1059
Trigger mode: 1
Integration Time (sec): 1.000000E-1
Scans to average: 1
Electric dark correction enabled: true
Nonlinearity correction enabled: false
Boxcar width: 0
XAxis mode: Wavelengths
Number of Pixels in Spectrum: 2048
>>>>>Begin Spectral Data<<<<<
223.165	-11.25
223.4	-11.25
223.635	-11.25
223.869	-19.25
224.104	-15.25
224.338	-30.25
224.573	-11.25
224.808	-6.25
225.042	-5.25
225.277	7.75
225.511	-5.25
225.746	-0.25
225.98	-1.25
226.215	12.75
226.449	13.75
226.683	18.75
226.918	19.75
227.152	32.75
227.387	28.75
227.621	48.75
227.856	46.75
228.09	68.75
228.324	39.75
228.559	57.75
228.793	63.75
229.027	105.75
229.262	98.75
229.496	115.75
229.73	122.75
229.964	142.75
230.199	119.75
230.433	112.75
230.667	109.75
230.901	113.75
231.136	119.75
231.37	115.75
231.604	106.75
231.838	114.75
232.072	113.75
232.306	113.75
232.541	124.75
232.775	121.75
233.009	111.75
233.243	119.75
233.477	120.75
233.711	123.75
233.945	114.75
234.179	114.75
234.413	127.75
234.647	121.75
234.881	121.75
235.115	132.75
235.349	121.75
235.583	109.75
235.817	115.75
236.051	128.75
236.285	126.75
236.519	130.75
236.753	125.75
236.987	135.75
237.221	156.75
237.455	191.75
237.689	174.75
237.922	132.75
238.156	123.75
238.39	106.75
238.624	133.75
238.858	137.75
239.091	131.75
239.325	127.75
239.559	129.75
239.793	115.75
240.027	139.75
240.26	140.75
240.494	148.75
240.728	157.75
240.961	147.75
241.195	136.75
241.429	140.75
241.662	128.75
241.896	132.75
242.13	141.75
242.363	126.75
242.597	126.75
242.83	132.75
243.064	148.75
243.298	147.75
243.531	138.75
243.765	140.75
243.998	152.75
244.232	140.75
244.465	140.75
244.699	147.75
244.932	147.75
245.166	137.75
245.399	144.75
245.633	150.75
245.866	154.75
246.099	155.75
246.333	159.75
246.566	149.75
246.8	155.75
247.033	145.75
247.266	167.75
247.5	163.75
247.733	163.75
247.966	175.75
248.2	174.75
248.433	161.75
248.666	184.75
248.899	173.75
249.133	193.75
249.366	192.75
249.599	196.75
249.832	183.75
250.066	185.75
250.299	191.75
250.532	182.75
250.765	204.75
250.998	219.75
251.231	228.75
251.465	205.75
251.698	208.75
251.931	203.75
252.164	206.75
252.397	209.75
252.63	207.75
252.863	212.75
253.096	203.75
253.329	221.75
253.562	231.75
253.795	213.75
254.028	218.75
254.261	231.75
254.494	235.75
254.727	244.75
254.96	272.75
255.193	269.75
255.426	240.75
255.659	244.75
255.892	227.75
256.124	233.75
256.357	218.75
256.59	209.75
256.823	220.75
257.056	215.75
257.289	215.75
257.521	210.75
257.754	212.75
257.987	210.75
258.22	226.75
258.452	224.75
258.685	207.75
258.918	206.75
259.151	217.75
259.383	225.75
259.616	214.75
259.849	234.75
260.081	231.75
260.314	248.75
260.547	247.75
260.779	243.75
261.012	243.75
261.244	227.75
261.477	238.75
261.71	212.75
261.942	228.75
262.175	230.75
262.407	229.75
262.64	216.75
262.872	224.75
263.105	201.75
263.337	211.75
263.57	230.75
263.802	212.75
264.035	222.75
264.267	240.75
264.499	236.75
264.732	229.75
264.964	214.75
265.197	222.75
265.429	224.75
265.661	222.75
265.894	211.75
266.126	226.75
266.358	218.75
266.591	236.75
266.823	228.75
267.055	223.75
267.287	237.75
267.52	215.75
267.752	218.75
267.984	232.75
268.216	239.75
268.448	245.75
268.681	236.75
268.913	249.75
269.145	265.75
269.377	280.75
269.609	275.75
269.841	259.75
270.073	282.75
270.306	310.75
270.538	314.75
270.77	315.75
271.002	299.75
271.234	279.75
271.466	280.75
271.698	299.75
271.93	309.75
272.162	307.75
272.394	302.75
272.626	316.75
272.858	291.75
273.09	267.75
273.322	285.75
273.553	283.75
273.785	271.75
274.017	280.75
274.249	262.75
274.481	243.75
274.713	256.75
274.945	269.75
275.176	248.75
275.408	252.75
275.64	254.75
275.872	267.75
276.104	266.75
276.335	279.75
276.567	270.75
276.799	281.75
277.031	287.75
277.262	302.75
277.494	291.75
277.726	295.75
277.957	283.75
278.189	284.75
278.421	261.75
278.652	244.75
278.884	262.75
279.115	268.75
279.347	273.75
279.579	261.75
279.81	263.75
280.042	270.75
280.273	268.75
280.505	265.75
280.736	271.75
280.968	263.75
281.199	254.75
281.431	276.75
281.662	271.75
281.894	283.75
282.125	268.75
282.356	285.75
282.588	289.75
282.819	296.75
283.051	285.75
283.282	271.75
283.513	273.75
283.745	280.75
283.976	289.75
284.207	293.75
284.439	278.75
284.67	285.75
284.901	289.75
285.132	280.75
285.364	277.75
285.595	272.75
285.826	276.75
286.057	274.75
286.288	281.75
286.52	285.75
286.751	285.75
286.982	292.75
287.213	286.75
287.444	286.75
287.675	287.75
287.906	287.75
288.138	288.75
288.369	291.75
288.6	302.75
288.831	299.75
289.062	270.75
289.293	291.75
289.524	282.75
289.755	271.75
289.986	301.75
290.217	299.75
290.448	292.75
290.679	296.75
290.91	287.75
291.141	300.75
291.371	291.75
291.602	285.75
291.833	283.75
292.064	300.75
292.295	313.75
292.526	295.75
292.757	295.75
292.987	296.75
293.218	307.75
293.449	303.75
293.68	305.75
293.91	303.75
294.141	299.75
294.372	278.75
294.603	276.75
294.833	278.75
295.064	287.75
295.295	291.75
295.525	274.75
295.756	279.75
295.987	299.75
296.217	294.75
296.448	321.75
296.679	307.75
296.909	297.75
297.14	328.75
297.37	317.75
297.601	307.75
297.831	312.75
298.062	300.75
298.292	303.75
298.523	299.75
298.753	309.75
298.984	313.75
299.214	299.75
299.445	301.75
299.675	311.75
299.905	319.75
300.136	312.75
300.366	300.75
300.597	298.75
300.827	321.75
301.057	305.75
301.288	323.75
301.518	309.75
301.748	329.75
301.979	333.75
302.209	328.75
302.439	312.75
302.669	319.75
302.9	315.75
303.13	346.75
303.36	326.75
303.59	319.75
303.82	328.75
304.051	342.75
304.281	339.75
304.511	320.75
304.741	308.75
304.971	300.75
305.201	322.75
305.431	314.75
305.661	321.75
305.891	332.75
306.121	320.75
306.352	326.75
306.582	339.75
306.812	340.75
307.042	335.75
307.272	334.75
307.502	340.75
307.731	339.75
307.961	319.75
308.191	326.75
308.421	337.75
308.651	340.75
308.881	335.75
309.111	334.75
309.341	345.75
309.571	360.75
309.8	326.75
310.03	354.75
310.26	351.75
310.49	348.75
310.72	379.75
310.949	376.75
311.179	367.75
311.409	367.75
311.639	361.75
311.868	344.75
312.098	353.75
312.328	355.75
312.557	375.75
312.787	377.75
313.017	385.75
313.246	376.75
313.476	357.75
313.706	352.75
313.935	378.75
314.165	369.75
314.394	391.75
314.624	368.75
314.853	377.75
315.083	366.75
315.312	351.75
315.542	360.75
315.771	347.75
316.001	357.75
316.23	369.75
316.46	372.75
316.689	364.75
316.919	377.75
317.148	371.75
317.377	375.75
317.607	369.75
317.836	366.75
318.065	371.75
318.295	365.75
318.524	345.75
318.753	348.75
318.983	369.75
319.212	369.75
319.441	383.75
319.67	377.75
319.9	370.75
320.129	362.75
320.358	359.75
320.587	375.75
320.816	371.75
321.046	385.75
321.275	370.75
321.504	395.75
321.733	387.75
321.962	372.75
322.191	386.75
322.42	417.75
322.649	420.75
322.878	419.75
323.108	440.75
323.337	435.75
323.566	463.75
323.795	496.75
324.024	549.75
324.253	652.75
324.482	848.75
324.71	1265.75
324.939	1693.75
325.168	1417.75
325.397	801.75
325.626	571.75
325.855	491.75
326.084	472.75
326.313	475.75
326.542	487.75
326.77	499.75
326.999	588.75
327.228	790.75
327.457	1109.75
327.686	1254.75
327.914	876.75
328.143	624.75
328.372	534.75
328.6	507.75
328.829	520.75
329.058	509.75
329.287	515.75
329.515	481.75
329.744	471.75
329.972	457.75
330.201	480.75
330.43	513.75
330.658	538.75
330.887	537.75
331.115	501.75
331.344	467.75
331.572	453.75
331.801	446.75
332.03	435.75
332.258	455.75
332.486	424.75
332.715	438.75
332.943	425.75
333.172	441.75
333.4	414.75
333.629	420.75
333.857	428.75
334.085	447.75
334.314	460.75
334.542	458.75
334.771	479.75
334.999	443.75
335.227	442.75
335.455	425.75
335.684	423.75
335.912	433.75
336.14	418.75
336.369	399.75
336.597	436.75
336.825	399.75
337.053	404.75
337.281	396.75
337.51	395.75
337.738	414.75
337.966	388.75
338.194	407.75
338.422	426.75
338.65	399.75
338.878	402.75
339.106	401.75
339.334	386.75
339.562	400.75
339.79	393.75
340.018	401.75
340.246	401.75
340.474	394.75
340.702	402.75
340.93	404.75
341.158	392.75
341.386	396.75
341.614	393.75
341.842	405.75
342.07	390.75
342.298	383.75
342.526	397.75
342.754	397.75
342.981	371.75
343.209	399.75
343.437	397.75
343.665	409.75
343.893	405.75
344.12	399.75
344.348	416.75
344.576	408.75
344.804	423.75
345.031	408.75
345.259	417.75
345.487	412.75
345.714	395.75
345.942	389.75
346.17	402.75
346.397	381.75
346.625	385.75
346.853	393.75
347.08	384.75
347.308	371.75
347.535	380.75
347.763	399.75
347.99	389.75
348.218	387.75
348.445	390.75
348.673	393.75
348.9	399.75
349.128	392.75
349.355	393.75
349.583	389.75
349.81	362.75
350.037	377.75
350.265	364.75
350.492	367.75
350.72	355.75
350.947	390.75
351.174	391.75
351.402	400.75
351.629	403.75
351.856	388.75
352.083	371.75
352.311	355.75
352.538	391.75
352.765	388.75
352.992	371.75
353.22	385.75
353.447	365.75
353.674	364.75
353.901	363.75
354.128	352.75
354.355	347.75
354.583	372.75
354.81	340.75
355.037	376.75
355.264	349.75
355.491	347.75
355.718	357.75
355.945	362.75
356.172	329.75
356.399	359.75
356.626	353.75
356.853	345.75
357.08	380.75
357.307	369.75
357.534	345.75
357.761	348.75
357.988	355.75
358.215	364.75
358.441	356.75
358.668	346.75
358.895	364.75
359.122	352.75
359.349	371.75
359.576	370.75
359.802	391.75
360.029	405.75
360.256	392.75
360.483	381.75
360.709	380.75
360.936	359.75
361.163	372.75
361.39	376.75
361.616	365.75
361.843	372.75
362.07	387.75
362.296	382.75
362.523	343.75
362.749	356.75
362.976	347.75
363.203	370.75
363.429	357.75
363.656	359.75
363.882	355.75
364.109	373.75
364.335	356.75
364.562	351.75
364.788	346.75
365.015	367.75
365.241	357.75
365.468	357.75
365.694	378.75
365.92	369.75
366.147	341.75
366.373	362.75
366.599	344.75
366.826	338.75
367.052	353.75
367.278	360.75
367.505	348.75
367.731	357.75
367.957	349.75
368.184	346.75
368.41	370.75
368.636	339.75
368.862	355.75
369.089	372.75
369.315	348.75
369.541	361.75
369.767	349.75
369.993	347.75
370.219	347.75
370.445	350.75
370.672	358.75
370.898	356.75
371.124	359.75
371.35	362.75
371.576	345.75
371.802	335.75
372.028	347.75
372.254	367.75
372.48	347.75
372.706	350.75
372.932	346.75
373.158	343.75
373.384	360.75
373.61	351.75
373.835	351.75
374.061	349.75
374.287	356.75
374.513	355.75
374.739	367.75
374.965	350.75
375.191	342.75
375.416	352.75
375.642	341.75
375.868	347.75
376.094	337.75
376.319	360.75
376.545	346.75
376.771	349.75
376.997	329.75
377.222	366.75
377.448	349.75
377.674	353.75
377.899	331.75
378.125	337.75
378.35	331.75
378.576	342.75
378.802	340.75
379.027	343.75
379.253	352.75
379.478	348.75
379.704	358.75
379.929	361.75
380.155	351.75
380.38	328.75
380.606	355.75
380.831	348.75
381.057	350.75
381.282	349.75
381.507	356.75
381.733	345.75
381.958	335.75
382.184	336.75
382.409	355.75
382.634	340.75
382.86	369.75
383.085	359.75
383.31	363.75
383.535	372.75
383.761	377.75
383.986	344.75
384.211	352.75
384.436	344.75
384.662	351.75
384.887	370.75
385.112	355.75
385.337	359.75
385.562	373.75
385.787	364.75
386.013	377.75
386.238	377.75
386.463	369.75
386.688	361.75
386.913	363.75
387.138	360.75
387.363	375.75
387.588	361.75
387.813	387.75
388.038	365.75
388.263	357.75
388.488	379.75
388.713	353.75
388.938	362.75
389.163	372.75
389.387	364.75
389.612	370.75
389.837	349.75
390.062	358.75
390.287	351.75
390.512	342.75
390.736	350.75
390.961	367.75
391.186	345.75
391.411	384.75
391.636	367.75
391.86	380.75
392.085	367.75
392.31	377.75
392.534	372.75
392.759	353.75
392.984	359.75
393.208	382.75
393.433	384.75
393.658	378.75
393.882	364.75
394.107	356.75
394.331	380.75
394.556	352.75
394.78	370.75
395.005	360.75
395.229	366.75
395.454	358.75
395.678	372.75
395.903	383.75
396.127	413.75
396.352	401.75
396.576	388.75
396.801	372.75
397.025	379.75
397.249	391.75
397.474	386.75
397.698	373.75
397.922	405.75
398.147	409.75
398.371	409.75
398.595	383.75
398.82	389.75
399.044	399.75
399.268	423.75
399.492	440.75
399.717	469.75
399.941	467.75
400.165	498.75
400.389	491.75
400.613	465.75
400.837	427.75
401.062	413.75
401.286	403.75
401.51	400.75
401.734	406.75
401.958	398.75
402.182	391.75
402.406	417.75
402.63	413.75
402.854	406.75
403.078	408.75
403.302	397.75
403.526	416.75
403.75	425.75
403.974	428.75
404.198	406.75
404.422	413.75
404.645	417.75
404.869	409.75
405.093	423.75
405.317	468.75
405.541	495.75
405.765	425.75
405.988	445.75
406.212	450.75
406.436	455.75
406.66	457.75
406.883	437.75
407.107	460.75
407.331	494.75
407.555	558.75
407.778	540.75
408.002	472.75
408.226	455.75
408.449	462.75
408.673	461.75
408.896	463.75
409.12	510.75
409.344	495.75
409.567	427.75
409.791	420.75
410.014	426.75
410.238	425.75
410.461	405.75
410.685	425.75
410.908	431.75
411.132	451.75
411.355	480.75
411.578	463.75
411.802	405.75
412.025	411.75
412.249	425.75
412.472	437.75
412.695	460.75
412.919	428.75
413.142	403.75
413.365	416.75
413.589	411.75
413.812	395.75
414.035	391.75
414.258	369.75
414.482	409.75
414.705	382.75
414.928	377.75
415.151	392.75
415.374	380.75
415.597	385.75
415.821	396.75
416.044	391.75
416.267	391.75
416.49	394.75
416.713	386.75
416.936	389.75
417.159	393.75
417.382	384.75
417.605	369.75
417.828	399.75
418.051	403.75
418.274	392.75
418.497	386.75
418.72	407.75
418.943	384.75
419.166	404.75
419.389	401.75
419.611	418.75
419.834	427.75
420.057	428.75
420.28	410.75
420.503	427.75
420.726	413.75
420.948	414.75
421.171	456.75
421.394	457.75
421.617	436.75
421.839	398.75
422.062	408.75
422.285	394.75
422.507	467.75
422.73	524.75
422.953	490.75
423.175	424.75
423.398	436.75
423.621	416.75
423.843	444.75
424.066	425.75
424.288	449.75
424.511	450.75
424.733	479.75
424.956	567.75
425.178	556.75
425.401	527.75
425.623	553.75
425.846	456.75
426.068	444.75
426.291	417.75
426.513	436.75
426.735	446.75
426.958	470.75
427.18	547.75
427.402	632.75
427.625	671.75
427.847	595.75
428.069	527.75
428.292	477.75
428.514	442.75
428.736	411.75
428.958	430.75
429.181	409.75
429.403	425.75
429.625	413.75
429.847	445.75
430.069	479.75
430.292	480.75
430.514	416.75
430.736	390.75
430.958	409.75
431.18	387.75
431.402	386.75
431.624	383.75
431.846	387.75
432.068	384.75
432.29	381.75
432.512	397.75
432.734	395.75
432.956	390.75
433.178	399.75
433.4	399.75
433.622	388.75
433.844	390.75
434.066	378.75
434.287	386.75
434.509	378.75
434.731	381.75
434.953	387.75
435.175	409.75
435.397	429.75
435.618	451.75
435.84	462.75
436.062	546.75
436.284	596.75
436.505	493.75
436.727	447.75
436.949	391.75
437.17	385.75
437.392	391.75
437.614	420.75
437.835	427.75
438.057	494.75
438.278	590.75
438.5	585.75
438.721	622.75
438.943	626.75
439.165	492.75
439.386	458.75
439.608	440.75
439.829	437.75
440.05	459.75
440.272	471.75
440.493	457.75
440.715	435.75
440.936	419.75
441.158	416.75
441.379	415.75
441.6	414.75
441.822	452.75
442.043	468.75
442.264	511.75
442.486	523.75
442.707	469.75
442.928	428.75
443.149	457.75
443.371	451.75
443.592	485.75
443.813	577.75
444.034	591.75
444.255	507.75
444.476	471.75
444.698	439.75
444.919	427.75
445.14	578.75
445.361	487.75
445.582	467.75
445.803	505.75
446.024	587.75
446.245	608.75
446.466	540.75
446.687	461.75
446.908	441.75
447.129	420.75
447.35	399.75
447.571	399.75
447.792	404.75
448.013	394.75
448.234	417.75
448.455	469.75
448.675	547.75
448.896	619.75
449.117	523.75
449.338	505.75
449.559	589.75
449.779	621.75
450	528.75
450.221	459.75
450.442	405.75
450.662	408.75
450.883	391.75
451.104	401.75
451.324	386.75
451.545	362.75
451.766	375.75
451.986	354.75
452.207	366.75
452.428	348.75
452.648	354.75
452.869	346.75
453.089	370.75
453.31	384.75
453.53	379.75
453.751	364.75
453.971	375.75
454.192	374.75
454.412	351.75
454.633	367.75
454.853	343.75
455.073	347.75
455.294	378.75
455.514	421.75
455.734	408.75
455.955	349.75
456.175	339.75
456.395	324.75
456.616	328.75
456.836	324.75
457.056	352.75
457.276	351.75
457.497	338.75
457.717	331.75
457.937	337.75
458.157	356.75
458.377	342.75
458.598	358.75
458.818	380.75
459.038	441.75
459.258	461.75
459.478	414.75
459.698	387.75
459.918	377.75
460.138	355.75
460.358	385.75
460.578	375.75
460.798	374.75
461.018	361.75
461.238	378.75
461.458	371.75
461.678	391.75
461.898	378.75
462.118	375.75
462.338	379.75
462.558	410.75
462.777	395.75
462.997	387.75
463.217	413.75
463.437	404.75
463.657	399.75
463.876	401.75
464.096	396.75
464.316	388.75
464.536	395.75
464.755	404.75
464.975	391.75
465.195	419.75
465.414	465.75
465.634	420.75
465.854	386.75
466.073	391.75
466.293	371.75
466.512	369.75
466.732	363.75
466.951	368.75
467.171	343.75
467.391	365.75
467.61	385.75
467.829	366.75
468.049	371.75
468.268	362.75
468.488	339.75
468.707	342.75
468.927	359.75
469.146	352.75
469.365	368.75
469.585	350.75
469.804	375.75
470.023	367.75
470.243	376.75
470.462	369.75
470.681	383.75
470.901	381.75
471.12	368.75
471.339	371.75
471.558	383.75
471.777	385.75
471.997	376.75
472.216	368.75
472.435	373.75
472.654	364.75
472.873	372.75
473.092	358.75
473.311	373.75
473.53	373.75
473.749	372.75
473.968	403.75
474.187	487.75
474.406	504.75
474.625	415.75
474.844	392.75
475.063	384.75
475.282	358.75
475.501	360.75
475.72	384.75
475.939	396.75
476.158	378.75
476.377	372.75
476.596	399.75
476.814	384.75
477.033	396.75
477.252	389.75
477.471	402.75
477.69	391.75
477.908	403.75
478.127	395.75
478.346	396.75
478.564	391.75
478.783	388.75
479.002	425.75
479.22	394.75
479.439	412.75
479.658	423.75
479.876	420.75
480.095	430.75
480.313	435.75
480.532	472.75
480.751	440.75
480.969	445.75
481.188	466.75
481.406	478.75
481.624	463.75
481.843	437.75
482.061	424.75
482.28	431.75
482.498	431.75
482.717	416.75
482.935	422.75
483.153	428.75
483.372	448.75
483.59	423.75
483.808	443.75
484.027	417.75
484.245	427.75
484.463	421.75
484.681	429.75
484.9	436.75
485.118	435.75
485.336	421.75
485.554	455.75
485.772	446.75
485.99	435.75
486.209	443.75
486.427	447.75
486.645	442.75
486.863	441.75
487.081	443.75
487.299	462.75
487.517	466.75
487.735	466.75
487.953	473.75
488.171	457.75
488.389	467.75
488.607	471.75
488.825	442.75
489.043	458.75
489.261	456.75
489.479	455.75
489.696	455.75
489.914	480.75
490.132	468.75
490.35	470.75
490.568	487.75
490.786	479.75
491.003	487.75
491.221	523.75
491.439	499.75
491.657	521.75
491.874	532.75
492.092	548.75
492.31	531.75
492.527	548.75
492.745	521.75
492.963	525.75
493.18	551.75
493.398	533.75
493.615	547.75
493.833	538.75
494.05	550.75
494.268	556.75
494.485	526.75
494.703	529.75
494.92	534.75
495.138	539.75
495.355	547.75
495.573	552.75
495.79	548.75
496.008	544.75
496.225	540.75
496.442	555.75
496.66	533.75
496.877	556.75
497.094	541.75
497.312	571.75
497.529	548.75
497.746	570.75
497.963	560.75
498.181	581.75
498.398	589.75
498.615	599.75
498.832	604.75
499.049	607.75
499.267	612.75
499.484	633.75
499.701	629.75
499.918	662.75
500.135	695.75
500.352	710.75
500.569	735.75
500.786	705.75
501.003	699.75
501.22	683.75
501.437	667.75
501.654	675.75
501.871	664.75
