Data from 1971.PennyLincolnUp.Lamp.En5.5.200Scan.071719.P1._HRD10591_15-18-30-841.txt Node
Date: Thu Jul 18 15:18:30 EDT 2019
User: cochatt
Spectrometer: HR+D1059
Trigger mode: 1
Integration Time (sec): 1.000000E-1
Scans to average: 1
Electric dark correction enabled: true
Nonlinearity correction enabled: false
Boxcar width: 0
XAxis mode: Wavelengths
Number of Pixels in Spectrum: 2048
>>>>>Begin Spectral Data<<<<<
223.165	-16.38
223.4	-16.38
223.635	-16.38
223.869	-6.38
224.104	-17.38
224.338	-18.38
224.573	-17.38
224.808	-17.38
225.042	-8.38
225.277	-16.38
225.511	-4.38
225.746	14.62
225.98	9.62
226.215	0.62
226.449	26.62
226.683	16.62
226.918	23.62
227.152	30.62
227.387	41.62
227.621	33.62
227.856	40.62
228.09	43.62
228.324	53.62
228.559	58.62
228.793	80.62
229.027	88.62
229.262	109.62
229.496	106.62
229.73	129.62
229.964	121.62
230.199	112.62
230.433	87.62
230.667	100.62
230.901	125.62
231.136	102.62
231.37	115.62
231.604	97.62
231.838	117.62
232.072	105.62
232.306	97.62
232.541	98.62
232.775	116.62
233.009	99.62
233.243	108.62
233.477	103.62
233.711	115.62
233.945	104.62
234.179	110.62
234.413	106.62
234.647	107.62
234.881	113.62
235.115	111.62
235.349	113.62
235.583	115.62
235.817	117.62
236.051	114.62
236.285	122.62
236.519	128.62
236.753	118.62
236.987	145.62
237.221	157.62
237.455	212.62
237.689	143.62
237.922	137.62
238.156	130.62
238.39	115.62
238.624	121.62
238.858	109.62
239.091	115.62
239.325	122.62
239.559	134.62
239.793	131.62
240.027	137.62
240.26	131.62
240.494	161.62
240.728	136.62
240.961	157.62
241.195	126.62
241.429	127.62
241.662	137.62
241.896	106.62
242.13	126.62
242.363	119.62
242.597	133.62
242.83	145.62
243.064	134.62
243.298	123.62
243.531	134.62
243.765	133.62
243.998	131.62
244.232	142.62
244.465	131.62
244.699	141.62
244.932	131.62
245.166	137.62
245.399	147.62
245.633	146.62
245.866	136.62
246.099	143.62
246.333	137.62
246.566	151.62
246.8	131.62
247.033	157.62
247.266	151.62
247.5	156.62
247.733	165.62
247.966	155.62
248.2	158.62
248.433	161.62
248.666	168.62
248.899	163.62
249.133	183.62
249.366	195.62
249.599	191.62
249.832	161.62
250.066	159.62
250.299	181.62
250.532	177.62
250.765	197.62
250.998	209.62
251.231	208.62
251.465	209.62
251.698	191.62
251.931	205.62
252.164	190.62
252.397	191.62
252.63	198.62
252.863	186.62
253.096	206.62
253.329	211.62
253.562	207.62
253.795	191.62
254.028	210.62
254.261	212.62
254.494	221.62
254.727	238.62
254.96	256.62
255.193	257.62
255.426	235.62
255.659	211.62
255.892	241.62
256.124	215.62
256.357	231.62
256.59	230.62
256.823	206.62
257.056	199.62
257.289	208.62
257.521	214.62
257.754	220.62
257.987	203.62
258.22	201.62
258.452	206.62
258.685	196.62
258.918	205.62
259.151	213.62
259.383	228.62
259.616	205.62
259.849	216.62
260.081	223.62
260.314	249.62
260.547	245.62
260.779	229.62
261.012	236.62
261.244	218.62
261.477	230.62
261.71	231.62
261.942	212.62
262.175	219.62
262.407	224.62
262.64	207.62
262.872	217.62
263.105	216.62
263.337	215.62
263.57	214.62
263.802	194.62
264.035	196.62
264.267	187.62
264.499	222.62
264.732	212.62
264.964	202.62
265.197	191.62
265.429	198.62
265.661	191.62
265.894	206.62
266.126	217.62
266.358	207.62
266.591	203.62
266.823	215.62
267.055	224.62
267.287	214.62
267.52	211.62
267.752	218.62
267.984	216.62
268.216	223.62
268.448	230.62
268.681	237.62
268.913	244.62
269.145	238.62
269.377	248.62
269.609	272.62
269.841	277.62
270.073	268.62
270.306	292.62
270.538	296.62
270.77	299.62
271.002	278.62
271.234	282.62
271.466	285.62
271.698	308.62
271.93	287.62
272.162	296.62
272.394	282.62
272.626	289.62
272.858	280.62
273.09	287.62
273.322	271.62
273.553	269.62
273.785	265.62
274.017	259.62
274.249	254.62
274.481	279.62
274.713	271.62
274.945	266.62
275.176	263.62
275.408	242.62
275.64	256.62
275.872	238.62
276.104	249.62
276.335	269.62
276.567	269.62
276.799	274.62
277.031	273.62
277.262	295.62
277.494	300.62
277.726	293.62
277.957	285.62
278.189	260.62
278.421	249.62
278.652	267.62
278.884	269.62
279.115	261.62
279.347	250.62
279.579	275.62
279.81	271.62
280.042	246.62
280.273	268.62
280.505	258.62
280.736	263.62
280.968	257.62
281.199	255.62
281.431	269.62
281.662	264.62
281.894	268.62
282.125	267.62
282.356	277.62
282.588	278.62
282.819	292.62
283.051	272.62
283.282	257.62
283.513	263.62
283.745	262.62
283.976	277.62
284.207	282.62
284.439	271.62
284.67	271.62
284.901	278.62
285.132	284.62
285.364	261.62
285.595	285.62
285.826	271.62
286.057	268.62
286.288	261.62
286.52	275.62
286.751	283.62
286.982	261.62
287.213	267.62
287.444	254.62
287.675	293.62
287.906	295.62
288.138	291.62
288.369	286.62
288.6	293.62
288.831	282.62
289.062	270.62
289.293	273.62
289.524	276.62
289.755	294.62
289.986	276.62
290.217	283.62
290.448	285.62
290.679	297.62
290.91	286.62
291.141	293.62
291.371	291.62
291.602	290.62
291.833	284.62
292.064	285.62
292.295	294.62
292.526	288.62
292.757	290.62
292.987	285.62
293.218	277.62
293.449	289.62
293.68	293.62
293.91	267.62
294.141	281.62
294.372	272.62
294.603	292.62
294.833	290.62
295.064	294.62
295.295	298.62
295.525	285.62
295.756	272.62
295.987	301.62
296.217	311.62
296.448	290.62
296.679	287.62
296.909	293.62
297.14	274.62
297.37	303.62
297.601	292.62
297.831	297.62
298.062	282.62
298.292	291.62
298.523	299.62
298.753	301.62
298.984	286.62
299.214	282.62
299.445	293.62
299.675	307.62
299.905	307.62
300.136	298.62
300.366	297.62
300.597	324.62
300.827	295.62
301.057	300.62
301.288	313.62
301.518	323.62
301.748	302.62
301.979	311.62
302.209	315.62
302.439	303.62
302.669	317.62
302.9	321.62
303.13	310.62
303.36	324.62
303.59	313.62
303.82	320.62
304.051	330.62
304.281	316.62
304.511	325.62
304.741	320.62
304.971	326.62
305.201	317.62
305.431	312.62
305.661	316.62
305.891	318.62
306.121	318.62
306.352	325.62
306.582	331.62
306.812	323.62
307.042	323.62
307.272	322.62
307.502	318.62
307.731	318.62
307.961	316.62
308.191	334.62
308.421	315.62
308.651	331.62
308.881	324.62
309.111	326.62
309.341	331.62
309.571	341.62
309.8	346.62
310.03	357.62
310.26	360.62
310.49	349.62
310.72	378.62
310.949	380.62
311.179	380.62
311.409	358.62
311.639	364.62
311.868	364.62
312.098	359.62
312.328	358.62
312.557	362.62
312.787	366.62
313.017	358.62
313.246	378.62
313.476	347.62
313.706	364.62
313.935	360.62
314.165	394.62
314.394	375.62
314.624	373.62
314.853	369.62
315.083	374.62
315.312	355.62
315.542	351.62
315.771	377.62
316.001	345.62
316.23	341.62
316.46	350.62
316.689	356.62
316.919	360.62
317.148	349.62
317.377	383.62
317.607	391.62
317.836	358.62
318.065	362.62
318.295	349.62
318.524	350.62
318.753	357.62
318.983	347.62
319.212	347.62
319.441	387.62
319.67	367.62
319.9	376.62
320.129	358.62
320.358	365.62
320.587	370.62
320.816	395.62
321.046	377.62
321.275	393.62
321.504	379.62
321.733	371.62
321.962	389.62
322.191	387.62
322.42	391.62
322.649	406.62
322.878	422.62
323.108	422.62
323.337	443.62
323.566	456.62
323.795	471.62
324.024	522.62
324.253	618.62
324.482	871.62
324.71	1302.62
324.939	1727.62
325.168	1413.62
325.397	790.62
325.626	563.62
325.855	493.62
326.084	450.62
326.313	461.62
326.542	466.62
326.77	492.62
326.999	589.62
327.228	772.62
327.457	1115.62
327.686	1262.62
327.914	854.62
328.143	602.62
328.372	540.62
328.6	510.62
328.829	499.62
329.058	481.62
329.287	520.62
329.515	465.62
329.744	456.62
329.972	469.62
330.201	459.62
330.43	481.62
330.658	494.62
330.887	545.62
331.115	505.62
331.344	469.62
331.572	440.62
331.801	439.62
332.03	441.62
332.258	439.62
332.486	425.62
332.715	421.62
332.943	428.62
333.172	432.62
333.4	413.62
333.629	437.62
333.857	435.62
334.085	426.62
334.314	437.62
334.542	459.62
334.771	447.62
334.999	438.62
335.227	430.62
335.455	439.62
335.684	414.62
335.912	423.62
336.14	399.62
336.369	416.62
336.597	417.62
336.825	425.62
337.053	405.62
337.281	403.62
337.51	410.62
337.738	408.62
337.966	393.62
338.194	414.62
338.422	401.62
338.65	413.62
338.878	419.62
339.106	396.62
339.334	381.62
339.562	384.62
339.79	377.62
340.018	386.62
340.246	396.62
340.474	405.62
340.702	384.62
340.93	409.62
341.158	374.62
341.386	395.62
341.614	402.62
341.842	417.62
342.07	385.62
342.298	372.62
342.526	386.62
342.754	362.62
342.981	383.62
343.209	385.62
343.437	394.62
343.665	398.62
343.893	405.62
344.12	394.62
344.348	387.62
344.576	395.62
344.804	420.62
345.031	403.62
345.259	405.62
345.487	406.62
345.714	377.62
345.942	375.62
346.17	377.62
346.397	365.62
346.625	373.62
346.853	385.62
347.08	382.62
347.308	390.62
347.535	396.62
347.763	378.62
347.99	398.62
348.218	402.62
348.445	389.62
348.673	399.62
348.9	388.62
349.128	355.62
349.355	377.62
349.583	356.62
349.81	379.62
350.037	373.62
350.265	354.62
350.492	364.62
350.72	381.62
350.947	371.62
351.174	386.62
351.402	380.62
351.629	365.62
351.856	374.62
352.083	369.62
352.311	379.62
352.538	376.62
352.765	393.62
352.992	381.62
353.22	370.62
353.447	369.62
353.674	366.62
353.901	353.62
354.128	364.62
354.355	352.62
354.583	352.62
354.81	339.62
355.037	333.62
355.264	349.62
355.491	338.62
355.718	340.62
355.945	346.62
356.172	346.62
356.399	357.62
356.626	360.62
356.853	345.62
357.08	344.62
357.307	365.62
357.534	324.62
357.761	335.62
357.988	348.62
358.215	334.62
358.441	351.62
358.668	356.62
358.895	356.62
359.122	354.62
359.349	374.62
359.576	377.62
359.802	353.62
360.029	387.62
360.256	388.62
360.483	393.62
360.709	378.62
360.936	379.62
361.163	347.62
361.39	348.62
361.616	369.62
361.843	369.62
362.07	363.62
362.296	360.62
362.523	390.62
362.749	357.62
362.976	365.62
363.203	359.62
363.429	345.62
363.656	374.62
363.882	369.62
364.109	355.62
364.335	341.62
364.562	358.62
364.788	347.62
365.015	364.62
365.241	334.62
365.468	366.62
365.694	338.62
365.92	349.62
366.147	350.62
366.373	348.62
366.599	331.62
366.826	328.62
367.052	335.62
367.278	358.62
367.505	341.62
367.731	331.62
367.957	339.62
368.184	360.62
368.41	340.62
368.636	360.62
368.862	376.62
369.089	346.62
369.315	344.62
369.541	335.62
369.767	355.62
369.993	357.62
370.219	346.62
370.445	329.62
370.672	337.62
370.898	336.62
371.124	330.62
371.35	349.62
371.576	365.62
371.802	343.62
372.028	358.62
372.254	337.62
372.48	364.62
372.706	357.62
372.932	345.62
373.158	343.62
373.384	355.62
373.61	349.62
373.835	349.62
374.061	342.62
374.287	356.62
374.513	342.62
374.739	349.62
374.965	340.62
375.191	385.62
375.416	354.62
375.642	354.62
375.868	350.62
376.094	349.62
376.319	352.62
376.545	348.62
376.771	336.62
376.997	323.62
377.222	343.62
377.448	344.62
377.674	335.62
377.899	333.62
378.125	349.62
378.35	332.62
378.576	331.62
378.802	337.62
379.027	332.62
379.253	341.62
379.478	340.62
379.704	341.62
379.929	334.62
380.155	347.62
380.38	339.62
380.606	345.62
380.831	359.62
381.057	352.62
381.282	353.62
381.507	347.62
381.733	341.62
381.958	325.62
382.184	354.62
382.409	362.62
382.634	329.62
382.86	337.62
383.085	351.62
383.31	347.62
383.535	342.62
383.761	348.62
383.986	343.62
384.211	357.62
384.436	354.62
384.662	359.62
384.887	349.62
385.112	375.62
385.337	373.62
385.562	379.62
385.787	374.62
386.013	381.62
386.238	375.62
386.463	375.62
386.688	358.62
386.913	348.62
387.138	363.62
387.363	357.62
387.588	362.62
387.813	360.62
388.038	351.62
388.263	349.62
388.488	343.62
388.713	369.62
388.938	362.62
389.163	361.62
389.387	366.62
389.612	342.62
389.837	375.62
390.062	367.62
390.287	350.62
390.512	341.62
390.736	347.62
390.961	345.62
391.186	364.62
391.411	353.62
391.636	365.62
391.86	352.62
392.085	361.62
392.31	373.62
392.534	371.62
392.759	367.62
392.984	366.62
393.208	359.62
393.433	385.62
393.658	371.62
393.882	361.62
394.107	361.62
394.331	353.62
394.556	348.62
394.78	356.62
395.005	364.62
395.229	372.62
395.454	358.62
395.678	366.62
395.903	381.62
396.127	375.62
396.352	388.62
396.576	356.62
396.801	370.62
397.025	384.62
397.249	360.62
397.474	367.62
397.698	376.62
397.922	383.62
398.147	389.62
398.371	381.62
398.595	390.62
398.82	387.62
399.044	403.62
399.268	413.62
399.492	424.62
399.717	446.62
399.941	477.62
400.165	492.62
400.389	501.62
400.613	441.62
400.837	423.62
401.062	409.62
401.286	399.62
401.51	420.62
401.734	409.62
401.958	394.62
402.182	413.62
402.406	404.62
402.63	403.62
402.854	411.62
403.078	401.62
403.302	412.62
403.526	412.62
403.75	429.62
403.974	385.62
404.198	400.62
404.422	410.62
404.645	409.62
404.869	397.62
405.093	454.62
405.317	472.62
405.541	485.62
405.765	448.62
405.988	443.62
406.212	447.62
406.436	447.62
406.66	444.62
406.883	436.62
407.107	460.62
407.331	498.62
407.555	533.62
407.778	526.62
408.002	474.62
408.226	462.62
408.449	445.62
408.673	451.62
408.896	466.62
409.12	497.62
409.344	479.62
409.567	435.62
409.791	403.62
410.014	414.62
410.238	411.62
410.461	419.62
410.685	411.62
410.908	434.62
411.132	441.62
411.355	479.62
411.578	435.62
411.802	422.62
412.025	412.62
412.249	409.62
412.472	422.62
412.695	451.62
412.919	451.62
413.142	423.62
413.365	399.62
413.589	396.62
413.812	382.62
414.035	382.62
414.258	369.62
414.482	378.62
414.705	395.62
414.928	385.62
415.151	373.62
415.374	378.62
415.597	383.62
415.821	383.62
416.044	397.62
416.267	391.62
416.49	390.62
416.713	384.62
416.936	385.62
417.159	375.62
417.382	382.62
417.605	384.62
417.828	397.62
418.051	383.62
418.274	384.62
418.497	405.62
418.72	400.62
418.943	397.62
419.166	391.62
419.389	422.62
419.611	405.62
419.834	399.62
420.057	411.62
420.28	412.62
420.503	403.62
420.726	414.62
420.948	427.62
421.171	433.62
421.394	462.62
421.617	404.62
421.839	400.62
422.062	407.62
422.285	429.62
422.507	475.62
422.73	501.62
422.953	494.62
423.175	443.62
423.398	437.62
423.621	414.62
423.843	428.62
424.066	394.62
424.288	449.62
424.511	435.62
424.733	478.62
424.956	549.62
425.178	508.62
425.401	503.62
425.623	537.62
425.846	473.62
426.068	425.62
426.291	438.62
426.513	424.62
426.735	446.62
426.958	455.62
427.18	537.62
427.402	636.62
427.625	661.62
427.847	593.62
428.069	510.62
428.292	460.62
428.514	409.62
428.736	415.62
428.958	409.62
429.181	393.62
429.403	407.62
429.625	401.62
429.847	436.62
430.069	471.62
430.292	466.62
430.514	413.62
430.736	413.62
430.958	402.62
431.18	387.62
431.402	374.62
431.624	387.62
431.846	389.62
432.068	377.62
432.29	377.62
432.512	400.62
432.734	375.62
432.956	379.62
433.178	387.62
433.4	400.62
433.622	397.62
433.844	380.62
434.066	375.62
434.287	385.62
434.509	380.62
434.731	390.62
434.953	393.62
435.175	413.62
435.397	417.62
435.618	419.62
435.84	467.62
436.062	526.62
436.284	565.62
436.505	485.62
436.727	414.62
436.949	421.62
437.17	385.62
437.392	397.62
437.614	407.62
437.835	419.62
438.057	478.62
438.278	558.62
438.5	586.62
438.721	607.62
438.943	591.62
439.165	485.62
439.386	427.62
439.608	418.62
439.829	446.62
440.05	430.62
440.272	474.62
440.493	449.62
440.715	420.62
440.936	417.62
441.158	421.62
441.379	395.62
441.6	409.62
441.822	435.62
442.043	482.62
442.264	516.62
442.486	523.62
442.707	481.62
442.928	448.62
443.149	439.62
443.371	454.62
443.592	487.62
443.813	548.62
444.034	578.62
444.255	521.62
444.476	443.62
444.698	429.62
444.919	447.62
445.14	553.62
445.361	506.62
445.582	472.62
445.803	493.62
446.024	569.62
446.245	577.62
446.466	540.62
446.687	461.62
446.908	441.62
447.129	407.62
447.35	396.62
447.571	411.62
447.792	393.62
448.013	426.62
448.234	412.62
448.455	450.62
448.675	524.62
448.896	607.62
449.117	526.62
449.338	513.62
449.559	571.62
449.779	637.62
450	516.62
450.221	449.62
450.442	415.62
450.662	396.62
450.883	398.62
451.104	398.62
451.324	385.62
451.545	374.62
451.766	358.62
451.986	363.62
452.207	370.62
452.428	363.62
452.648	357.62
452.869	356.62
453.089	369.62
453.31	353.62
453.53	349.62
453.751	341.62
453.971	359.62
454.192	355.62
454.412	358.62
454.633	337.62
454.853	346.62
455.073	341.62
455.294	368.62
455.514	399.62
455.734	419.62
455.955	371.62
456.175	342.62
456.395	333.62
456.616	338.62
456.836	319.62
457.056	321.62
457.276	321.62
457.497	338.62
457.717	330.62
457.937	327.62
458.157	351.62
458.377	320.62
458.598	353.62
458.818	386.62
459.038	451.62
459.258	459.62
459.478	387.62
459.698	369.62
459.918	368.62
460.138	360.62
460.358	381.62
460.578	373.62
460.798	357.62
461.018	375.62
461.238	359.62
461.458	371.62
461.678	374.62
461.898	378.62
462.118	344.62
462.338	381.62
462.558	395.62
462.777	397.62
462.997	389.62
463.217	398.62
463.437	399.62
463.657	409.62
463.876	391.62
464.096	377.62
464.316	403.62
464.536	381.62
464.755	397.62
464.975	405.62
465.195	398.62
465.414	449.62
465.634	411.62
465.854	378.62
466.073	373.62
466.293	377.62
466.512	365.62
466.732	362.62
466.951	364.62
467.171	349.62
467.391	353.62
467.61	361.62
467.829	366.62
468.049	375.62
468.268	366.62
468.488	349.62
468.707	350.62
468.927	370.62
469.146	354.62
469.365	357.62
469.585	350.62
469.804	358.62
470.023	371.62
470.243	359.62
470.462	371.62
470.681	381.62
470.901	381.62
471.12	355.62
471.339	360.62
471.558	375.62
471.777	369.62
471.997	361.62
472.216	366.62
472.435	387.62
472.654	369.62
472.873	383.62
473.092	356.62
473.311	371.62
473.53	359.62
473.749	354.62
473.968	391.62
474.187	478.62
474.406	508.62
474.625	398.62
474.844	358.62
475.063	377.62
475.282	357.62
475.501	385.62
475.72	366.62
475.939	355.62
476.158	372.62
476.377	387.62
476.596	388.62
476.814	381.62
477.033	374.62
477.252	375.62
477.471	399.62
477.69	397.62
477.908	383.62
478.127	393.62
478.346	403.62
478.564	407.62
478.783	397.62
479.002	417.62
479.22	411.62
479.439	412.62
479.658	425.62
479.876	429.62
480.095	426.62
480.313	435.62
480.532	446.62
480.751	444.62
480.969	440.62
481.188	451.62
481.406	469.62
481.624	479.62
481.843	421.62
482.061	441.62
482.28	425.62
482.498	399.62
482.717	422.62
482.935	451.62
483.153	430.62
483.372	417.62
483.59	399.62
483.808	429.62
484.027	412.62
484.245	418.62
484.463	437.62
484.681	430.62
484.9	433.62
485.118	435.62
485.336	439.62
485.554	431.62
485.772	429.62
485.99	434.62
486.209	437.62
486.427	448.62
486.645	426.62
486.863	445.62
487.081	477.62
487.299	448.62
487.517	458.62
487.735	457.62
487.953	444.62
488.171	442.62
488.389	458.62
488.607	448.62
488.825	451.62
489.043	467.62
489.261	452.62
489.479	455.62
489.696	459.62
489.914	454.62
490.132	464.62
490.35	469.62
490.568	469.62
490.786	476.62
491.003	467.62
491.221	497.62
491.439	511.62
491.657	479.62
491.874	490.62
492.092	512.62
492.31	508.62
492.527	512.62
492.745	515.62
492.963	519.62
493.18	514.62
493.398	523.62
493.615	506.62
493.833	543.62
494.05	518.62
494.268	538.62
494.485	526.62
494.703	540.62
494.92	526.62
495.138	538.62
495.355	513.62
495.573	541.62
495.79	526.62
496.008	532.62
496.225	530.62
496.442	526.62
496.66	546.62
496.877	535.62
497.094	530.62
497.312	558.62
497.529	568.62
497.746	567.62
497.963	575.62
498.181	579.62
498.398	589.62
498.615	577.62
498.832	578.62
499.049	589.62
499.267	586.62
499.484	623.62
499.701	659.62
499.918	644.62
500.135	673.62
500.352	694.62
500.569	707.62
500.786	741.62
501.003	695.62
501.22	689.62
501.437	667.62
501.654	652.62
501.871	670.62
502.088	633.62
