Data from 1971.PennyLincolnUp.Lamp.En5.5.200Scan.071719.P1._HRD10591_15-19-41-843.txt Node
Date: Thu Jul 18 15:19:41 EDT 2019
User: cochatt
Spectrometer: HR+D1059
Trigger mode: 1
Integration Time (sec): 1.000000E-1
Scans to average: 1
Electric dark correction enabled: true
Nonlinearity correction enabled: false
Boxcar width: 0
XAxis mode: Wavelengths
Number of Pixels in Spectrum: 2048
>>>>>Begin Spectral Data<<<<<
223.165	-14.5
223.4	-14.5
223.635	-14.5
223.869	-9.5
224.104	-20.5
224.338	-23.5
224.573	-12.5
224.808	-30.5
225.042	-13.5
225.277	1.5
225.511	11.5
225.746	0.5
225.98	13.5
226.215	7.5
226.449	20.5
226.683	6.5
226.918	29.5
227.152	33.5
227.387	24.5
227.621	25.5
227.856	42.5
228.09	24.5
228.324	37.5
228.559	45.5
228.793	56.5
229.027	95.5
229.262	98.5
229.496	105.5
229.73	118.5
229.964	137.5
230.199	134.5
230.433	103.5
230.667	92.5
230.901	102.5
231.136	99.5
231.37	99.5
231.604	115.5
231.838	110.5
232.072	109.5
232.306	109.5
232.541	108.5
232.775	118.5
233.009	113.5
233.243	124.5
233.477	124.5
233.711	119.5
233.945	140.5
234.179	114.5
234.413	120.5
234.647	110.5
234.881	107.5
235.115	118.5
235.349	109.5
235.583	111.5
235.817	119.5
236.051	112.5
236.285	121.5
236.519	112.5
236.753	112.5
236.987	134.5
237.221	172.5
237.455	207.5
237.689	159.5
237.922	134.5
238.156	139.5
238.39	122.5
238.624	129.5
238.858	122.5
239.091	125.5
239.325	113.5
239.559	136.5
239.793	137.5
240.027	136.5
240.26	130.5
240.494	133.5
240.728	151.5
240.961	141.5
241.195	158.5
241.429	150.5
241.662	126.5
241.896	128.5
242.13	125.5
242.363	134.5
242.597	133.5
242.83	139.5
243.064	130.5
243.298	136.5
243.531	143.5
243.765	119.5
243.998	147.5
244.232	144.5
244.465	129.5
244.699	130.5
244.932	155.5
245.166	148.5
245.399	151.5
245.633	139.5
245.866	164.5
246.099	145.5
246.333	166.5
246.566	167.5
246.8	164.5
247.033	153.5
247.266	157.5
247.5	152.5
247.733	176.5
247.966	184.5
248.2	180.5
248.433	172.5
248.666	171.5
248.899	188.5
249.133	207.5
249.366	207.5
249.599	195.5
249.832	180.5
250.066	199.5
250.299	171.5
250.532	199.5
250.765	205.5
250.998	209.5
251.231	218.5
251.465	216.5
251.698	228.5
251.931	207.5
252.164	179.5
252.397	213.5
252.63	211.5
252.863	219.5
253.096	215.5
253.329	232.5
253.562	229.5
253.795	208.5
254.028	220.5
254.261	213.5
254.494	214.5
254.727	249.5
254.96	289.5
255.193	283.5
255.426	250.5
255.659	250.5
255.892	228.5
256.124	236.5
256.357	228.5
256.59	216.5
256.823	216.5
257.056	219.5
257.289	195.5
257.521	216.5
257.754	226.5
257.987	210.5
258.22	230.5
258.452	216.5
258.685	224.5
258.918	215.5
259.151	217.5
259.383	225.5
259.616	210.5
259.849	235.5
260.081	240.5
260.314	261.5
260.547	269.5
260.779	243.5
261.012	241.5
261.244	241.5
261.477	235.5
261.71	241.5
261.942	240.5
262.175	225.5
262.407	228.5
262.64	210.5
262.872	229.5
263.105	214.5
263.337	219.5
263.57	214.5
263.802	223.5
264.035	215.5
264.267	220.5
264.499	214.5
264.732	223.5
264.964	234.5
265.197	225.5
265.429	239.5
265.661	226.5
265.894	215.5
266.126	217.5
266.358	216.5
266.591	227.5
266.823	220.5
267.055	230.5
267.287	241.5
267.52	236.5
267.752	233.5
267.984	237.5
268.216	242.5
268.448	248.5
268.681	250.5
268.913	261.5
269.145	266.5
269.377	276.5
269.609	269.5
269.841	267.5
270.073	290.5
270.306	292.5
270.538	318.5
270.77	324.5
271.002	330.5
271.234	301.5
271.466	292.5
271.698	321.5
271.93	324.5
272.162	331.5
272.394	319.5
272.626	312.5
272.858	289.5
273.09	296.5
273.322	294.5
273.553	277.5
273.785	266.5
274.017	266.5
274.249	275.5
274.481	265.5
274.713	268.5
274.945	275.5
275.176	287.5
275.408	283.5
275.64	279.5
275.872	276.5
276.104	275.5
276.335	269.5
276.567	273.5
276.799	282.5
277.031	327.5
277.262	329.5
277.494	330.5
277.726	306.5
277.957	313.5
278.189	319.5
278.421	300.5
278.652	295.5
278.884	266.5
279.115	273.5
279.347	279.5
279.579	272.5
279.81	277.5
280.042	273.5
280.273	282.5
280.505	271.5
280.736	284.5
280.968	281.5
281.199	270.5
281.431	273.5
281.662	297.5
281.894	279.5
282.125	295.5
282.356	296.5
282.588	312.5
282.819	313.5
283.051	265.5
283.282	286.5
283.513	289.5
283.745	288.5
283.976	267.5
284.207	284.5
284.439	296.5
284.67	294.5
284.901	283.5
285.132	295.5
285.364	284.5
285.595	306.5
285.826	269.5
286.057	270.5
286.288	300.5
286.52	294.5
286.751	300.5
286.982	301.5
287.213	291.5
287.444	308.5
287.675	316.5
287.906	304.5
288.138	305.5
288.369	309.5
288.6	291.5
288.831	306.5
289.062	304.5
289.293	316.5
289.524	299.5
289.755	291.5
289.986	310.5
290.217	295.5
290.448	289.5
290.679	285.5
290.91	309.5
291.141	300.5
291.371	297.5
291.602	307.5
291.833	287.5
292.064	316.5
292.295	308.5
292.526	292.5
292.757	300.5
292.987	297.5
293.218	310.5
293.449	299.5
293.68	303.5
293.91	289.5
294.141	307.5
294.372	305.5
294.603	284.5
294.833	297.5
295.064	289.5
295.295	306.5
295.525	311.5
295.756	311.5
295.987	314.5
296.217	332.5
296.448	324.5
296.679	304.5
296.909	293.5
297.14	298.5
297.37	297.5
297.601	296.5
297.831	301.5
298.062	280.5
298.292	324.5
298.523	314.5
298.753	298.5
298.984	321.5
299.214	325.5
299.445	314.5
299.675	341.5
299.905	325.5
300.136	323.5
300.366	311.5
300.597	309.5
300.827	322.5
301.057	335.5
301.288	329.5
301.518	326.5
301.748	325.5
301.979	326.5
302.209	343.5
302.439	337.5
302.669	321.5
302.9	327.5
303.13	340.5
303.36	347.5
303.59	337.5
303.82	358.5
304.051	349.5
304.281	340.5
304.511	311.5
304.741	343.5
304.971	356.5
305.201	339.5
305.431	341.5
305.661	332.5
305.891	344.5
306.121	359.5
306.352	347.5
306.582	369.5
306.812	339.5
307.042	337.5
307.272	339.5
307.502	351.5
307.731	354.5
307.961	355.5
308.191	347.5
308.421	349.5
308.651	348.5
308.881	344.5
309.111	353.5
309.341	351.5
309.571	366.5
309.8	367.5
310.03	383.5
310.26	396.5
310.49	377.5
310.72	382.5
310.949	379.5
311.179	385.5
311.409	397.5
311.639	391.5
311.868	396.5
312.098	401.5
312.328	393.5
312.557	393.5
312.787	413.5
313.017	427.5
313.246	409.5
313.476	390.5
313.706	375.5
313.935	392.5
314.165	405.5
314.394	419.5
314.624	403.5
314.853	404.5
315.083	394.5
315.312	391.5
315.542	384.5
315.771	385.5
316.001	374.5
316.23	377.5
316.46	384.5
316.689	390.5
316.919	422.5
317.148	394.5
317.377	414.5
317.607	389.5
317.836	398.5
318.065	398.5
318.295	368.5
318.524	384.5
318.753	389.5
318.983	377.5
319.212	400.5
319.441	397.5
319.67	396.5
319.9	390.5
320.129	399.5
320.358	401.5
320.587	397.5
320.816	410.5
321.046	394.5
321.275	412.5
321.504	411.5
321.733	431.5
321.962	404.5
322.191	424.5
322.42	427.5
322.649	432.5
322.878	439.5
323.108	462.5
323.337	491.5
323.566	509.5
323.795	531.5
324.024	571.5
324.253	687.5
324.482	979.5
324.71	1483.5
324.939	2005.5
325.168	1679.5
325.397	879.5
325.626	636.5
325.855	537.5
326.084	522.5
326.313	509.5
326.542	516.5
326.77	528.5
326.999	667.5
327.228	879.5
327.457	1247.5
327.686	1488.5
327.914	997.5
328.143	698.5
328.372	613.5
328.6	553.5
328.829	566.5
329.058	563.5
329.287	563.5
329.515	535.5
329.744	489.5
329.972	503.5
330.201	539.5
330.43	560.5
330.658	568.5
330.887	593.5
331.115	567.5
331.344	508.5
331.572	490.5
331.801	478.5
332.03	487.5
332.258	485.5
332.486	445.5
332.715	454.5
332.943	447.5
333.172	445.5
333.4	456.5
333.629	485.5
333.857	467.5
334.085	475.5
334.314	485.5
334.542	510.5
334.771	524.5
334.999	480.5
335.227	471.5
335.455	433.5
335.684	459.5
335.912	458.5
336.14	437.5
336.369	439.5
336.597	461.5
336.825	444.5
337.053	455.5
337.281	431.5
337.51	433.5
337.738	435.5
337.966	444.5
338.194	428.5
338.422	456.5
338.65	432.5
338.878	419.5
339.106	420.5
339.334	437.5
339.562	433.5
339.79	434.5
340.018	403.5
340.246	421.5
340.474	440.5
340.702	440.5
340.93	424.5
341.158	422.5
341.386	423.5
341.614	418.5
341.842	403.5
342.07	421.5
342.298	425.5
342.526	414.5
342.754	398.5
342.981	413.5
343.209	413.5
343.437	421.5
343.665	421.5
343.893	414.5
344.12	437.5
344.348	413.5
344.576	420.5
344.804	429.5
345.031	434.5
345.259	419.5
345.487	453.5
345.714	419.5
345.942	411.5
346.17	406.5
346.397	410.5
346.625	403.5
346.853	424.5
347.08	417.5
347.308	413.5
347.535	427.5
347.763	423.5
347.99	408.5
348.218	403.5
348.445	414.5
348.673	431.5
348.9	406.5
349.128	390.5
349.355	387.5
349.583	417.5
349.81	397.5
350.037	364.5
350.265	385.5
350.492	381.5
350.72	409.5
350.947	396.5
351.174	402.5
351.402	412.5
351.629	394.5
351.856	401.5
352.083	401.5
352.311	416.5
352.538	413.5
352.765	433.5
352.992	396.5
353.22	407.5
353.447	385.5
353.674	385.5
353.901	401.5
354.128	369.5
354.355	379.5
354.583	381.5
354.81	387.5
355.037	375.5
355.264	365.5
355.491	353.5
355.718	356.5
355.945	373.5
356.172	374.5
356.399	395.5
356.626	359.5
356.853	370.5
357.08	375.5
357.307	365.5
357.534	375.5
357.761	375.5
357.988	379.5
358.215	371.5
358.441	379.5
358.668	372.5
358.895	383.5
359.122	363.5
359.349	401.5
359.576	399.5
359.802	403.5
360.029	434.5
360.256	430.5
360.483	422.5
360.709	388.5
360.936	388.5
361.163	382.5
361.39	380.5
361.616	405.5
361.843	378.5
362.07	393.5
362.296	390.5
362.523	384.5
362.749	396.5
362.976	387.5
363.203	388.5
363.429	367.5
363.656	384.5
363.882	359.5
364.109	368.5
364.335	395.5
364.562	371.5
364.788	348.5
365.015	358.5
365.241	356.5
365.468	360.5
365.694	371.5
365.92	359.5
366.147	367.5
366.373	377.5
366.599	382.5
366.826	375.5
367.052	349.5
367.278	363.5
367.505	367.5
367.731	362.5
367.957	371.5
368.184	369.5
368.41	383.5
368.636	396.5
368.862	387.5
369.089	359.5
369.315	379.5
369.541	369.5
369.767	364.5
369.993	379.5
370.219	385.5
370.445	349.5
370.672	353.5
370.898	368.5
371.124	367.5
371.35	377.5
371.576	376.5
371.802	361.5
372.028	377.5
372.254	358.5
372.48	367.5
372.706	377.5
372.932	379.5
373.158	359.5
373.384	359.5
373.61	360.5
373.835	370.5
374.061	369.5
374.287	358.5
374.513	379.5
374.739	374.5
374.965	360.5
375.191	377.5
375.416	363.5
375.642	369.5
375.868	350.5
376.094	377.5
376.319	347.5
376.545	347.5
376.771	353.5
376.997	355.5
377.222	355.5
377.448	352.5
377.674	360.5
377.899	346.5
378.125	354.5
378.35	345.5
378.576	361.5
378.802	356.5
379.027	351.5
379.253	362.5
379.478	345.5
379.704	352.5
379.929	343.5
380.155	341.5
380.38	362.5
380.606	356.5
380.831	332.5
381.057	373.5
381.282	371.5
381.507	351.5
381.733	363.5
381.958	365.5
382.184	360.5
382.409	351.5
382.634	376.5
382.86	356.5
383.085	358.5
383.31	379.5
383.535	345.5
383.761	370.5
383.986	375.5
384.211	360.5
384.436	387.5
384.662	383.5
384.887	367.5
385.112	345.5
385.337	370.5
385.562	377.5
385.787	387.5
386.013	379.5
386.238	391.5
386.463	375.5
386.688	395.5
386.913	370.5
387.138	372.5
387.363	394.5
387.588	379.5
387.813	371.5
388.038	381.5
388.263	379.5
388.488	372.5
388.713	363.5
388.938	369.5
389.163	395.5
389.387	393.5
389.612	375.5
389.837	372.5
390.062	378.5
390.287	360.5
390.512	369.5
390.736	373.5
390.961	369.5
391.186	374.5
391.411	376.5
391.636	383.5
391.86	384.5
392.085	389.5
392.31	385.5
392.534	377.5
392.759	370.5
392.984	381.5
393.208	369.5
393.433	393.5
393.658	363.5
393.882	359.5
394.107	372.5
394.331	380.5
394.556	376.5
394.78	375.5
395.005	391.5
395.229	385.5
395.454	386.5
395.678	367.5
395.903	400.5
396.127	405.5
396.352	405.5
396.576	395.5
396.801	382.5
397.025	394.5
397.249	411.5
397.474	407.5
397.698	402.5
397.922	405.5
398.147	417.5
398.371	411.5
398.595	383.5
398.82	398.5
399.044	395.5
399.268	426.5
399.492	450.5
399.717	475.5
399.941	488.5
400.165	514.5
400.389	513.5
400.613	482.5
400.837	435.5
401.062	417.5
401.286	416.5
401.51	440.5
401.734	419.5
401.958	426.5
402.182	412.5
402.406	452.5
402.63	435.5
402.854	425.5
403.078	420.5
403.302	417.5
403.526	423.5
403.75	424.5
403.974	454.5
404.198	423.5
404.422	453.5
404.645	454.5
404.869	456.5
405.093	467.5
405.317	500.5
405.541	507.5
405.765	465.5
405.988	466.5
406.212	467.5
406.436	458.5
406.66	484.5
406.883	440.5
407.107	490.5
407.331	509.5
407.555	560.5
407.778	552.5
408.002	505.5
408.226	464.5
408.449	468.5
408.673	464.5
408.896	502.5
409.12	553.5
409.344	507.5
409.567	437.5
409.791	440.5
410.014	436.5
410.238	420.5
410.461	426.5
410.685	422.5
410.908	435.5
411.132	465.5
411.355	514.5
411.578	471.5
411.802	436.5
412.025	442.5
412.249	435.5
412.472	466.5
412.695	491.5
412.919	492.5
413.142	439.5
413.365	428.5
413.589	409.5
413.812	394.5
414.035	383.5
414.258	409.5
414.482	402.5
414.705	414.5
414.928	402.5
415.151	385.5
415.374	384.5
415.597	391.5
415.821	385.5
416.044	404.5
416.267	381.5
416.49	409.5
416.713	418.5
416.936	391.5
417.159	392.5
417.382	397.5
417.605	421.5
417.828	422.5
418.051	411.5
418.274	415.5
418.497	424.5
418.72	402.5
418.943	406.5
419.166	405.5
419.389	418.5
419.611	435.5
419.834	421.5
420.057	431.5
420.28	445.5
420.503	445.5
420.726	428.5
420.948	457.5
421.171	480.5
421.394	460.5
421.617	445.5
421.839	435.5
422.062	420.5
422.285	423.5
422.507	467.5
422.73	534.5
422.953	510.5
423.175	458.5
423.398	424.5
423.621	433.5
423.843	470.5
424.066	466.5
424.288	477.5
424.511	488.5
424.733	543.5
424.956	588.5
425.178	544.5
425.401	547.5
425.623	571.5
425.846	480.5
426.068	460.5
426.291	462.5
426.513	458.5
426.735	473.5
426.958	491.5
427.18	565.5
427.402	671.5
427.625	718.5
427.847	636.5
428.069	563.5
428.292	490.5
428.514	459.5
428.736	437.5
428.958	431.5
429.181	424.5
429.403	421.5
429.625	423.5
429.847	440.5
430.069	522.5
430.292	517.5
430.514	431.5
430.736	420.5
430.958	417.5
431.18	424.5
431.402	391.5
431.624	383.5
431.846	389.5
432.068	382.5
432.29	400.5
432.512	395.5
432.734	395.5
432.956	389.5
433.178	402.5
433.4	431.5
433.622	422.5
433.844	404.5
434.066	400.5
434.287	399.5
434.509	380.5
434.731	393.5
434.953	394.5
435.175	422.5
435.397	441.5
435.618	457.5
435.84	514.5
436.062	554.5
436.284	609.5
436.505	508.5
436.727	500.5
436.949	434.5
437.17	433.5
437.392	411.5
437.614	442.5
437.835	456.5
438.057	520.5
438.278	628.5
438.5	611.5
438.721	677.5
438.943	665.5
439.165	514.5
439.386	477.5
439.608	477.5
439.829	467.5
440.05	466.5
440.272	519.5
440.493	494.5
440.715	460.5
440.936	445.5
441.158	423.5
441.379	426.5
441.6	439.5
441.822	464.5
442.043	471.5
442.264	552.5
442.486	566.5
442.707	490.5
442.928	464.5
443.149	487.5
443.371	473.5
443.592	524.5
443.813	601.5
444.034	645.5
444.255	549.5
444.476	472.5
444.698	463.5
444.919	452.5
445.14	565.5
445.361	507.5
445.582	483.5
445.803	552.5
446.024	616.5
446.245	643.5
446.466	589.5
446.687	504.5
446.908	466.5
447.129	436.5
447.35	433.5
447.571	429.5
447.792	396.5
448.013	444.5
448.234	451.5
448.455	473.5
448.675	588.5
448.896	645.5
449.117	561.5
449.338	524.5
449.559	623.5
449.779	657.5
450	565.5
450.221	489.5
450.442	440.5
450.662	419.5
450.883	417.5
451.104	418.5
451.324	426.5
451.545	385.5
451.766	391.5
451.986	387.5
452.207	380.5
452.428	383.5
452.648	374.5
452.869	384.5
453.089	382.5
453.31	380.5
453.53	361.5
453.751	371.5
453.971	371.5
454.192	400.5
454.412	368.5
454.633	379.5
454.853	364.5
455.073	366.5
455.294	378.5
455.514	442.5
455.734	435.5
455.955	372.5
456.175	371.5
456.395	352.5
456.616	339.5
456.836	357.5
457.056	357.5
457.276	336.5
457.497	336.5
457.717	365.5
457.937	372.5
458.157	345.5
458.377	360.5
458.598	371.5
458.818	421.5
459.038	473.5
459.258	514.5
459.478	415.5
459.698	395.5
459.918	369.5
460.138	405.5
460.358	379.5
460.578	393.5
460.798	388.5
461.018	410.5
461.238	382.5
461.458	389.5
461.678	375.5
461.898	383.5
462.118	383.5
462.338	404.5
462.558	395.5
462.777	404.5
462.997	411.5
463.217	414.5
463.437	421.5
463.657	393.5
463.876	407.5
464.096	387.5
464.316	404.5
464.536	421.5
464.755	421.5
464.975	417.5
465.195	444.5
465.414	507.5
465.634	449.5
465.854	403.5
466.073	399.5
466.293	381.5
466.512	385.5
466.732	373.5
466.951	364.5
467.171	363.5
467.391	382.5
467.61	402.5
467.829	395.5
468.049	373.5
468.268	396.5
468.488	365.5
468.707	376.5
468.927	362.5
469.146	371.5
469.365	360.5
469.585	385.5
469.804	375.5
470.023	371.5
470.243	381.5
470.462	393.5
470.681	397.5
470.901	406.5
471.12	397.5
471.339	384.5
471.558	398.5
471.777	400.5
471.997	379.5
472.216	383.5
472.435	376.5
472.654	392.5
472.873	383.5
473.092	396.5
473.311	370.5
473.53	385.5
473.749	403.5
473.968	437.5
474.187	518.5
474.406	522.5
474.625	442.5
474.844	403.5
475.063	385.5
475.282	379.5
475.501	379.5
475.72	401.5
475.939	388.5
476.158	400.5
476.377	401.5
476.596	399.5
476.814	400.5
477.033	396.5
477.252	384.5
477.471	399.5
477.69	412.5
477.908	416.5
478.127	398.5
478.346	420.5
478.564	417.5
478.783	436.5
479.002	446.5
479.22	444.5
479.439	434.5
479.658	441.5
479.876	459.5
480.095	456.5
480.313	492.5
480.532	452.5
480.751	452.5
480.969	467.5
481.188	506.5
481.406	534.5
481.624	480.5
481.843	452.5
482.061	450.5
482.28	444.5
482.498	439.5
482.717	439.5
482.935	441.5
483.153	461.5
483.372	445.5
483.59	456.5
483.808	447.5
484.027	438.5
484.245	431.5
484.463	459.5
484.681	462.5
484.9	448.5
485.118	446.5
485.336	461.5
485.554	459.5
485.772	459.5
485.99	461.5
486.209	455.5
486.427	473.5
486.645	464.5
486.863	484.5
487.081	478.5
487.299	461.5
487.517	467.5
487.735	476.5
487.953	486.5
488.171	475.5
488.389	471.5
488.607	474.5
488.825	485.5
489.043	470.5
489.261	459.5
489.479	488.5
489.696	497.5
489.914	489.5
490.132	484.5
490.35	511.5
490.568	511.5
490.786	511.5
491.003	523.5
491.221	538.5
491.439	545.5
491.657	559.5
491.874	544.5
492.092	542.5
492.31	550.5
492.527	550.5
492.745	557.5
492.963	568.5
493.18	555.5
493.398	573.5
493.615	564.5
493.833	577.5
494.05	579.5
494.268	569.5
494.485	563.5
494.703	567.5
494.92	573.5
495.138	585.5
495.355	567.5
495.573	556.5
495.79	568.5
496.008	569.5
496.225	578.5
496.442	554.5
496.66	583.5
496.877	555.5
497.094	575.5
497.312	577.5
497.529	581.5
497.746	599.5
497.963	598.5
498.181	623.5
498.398	619.5
498.615	619.5
498.832	624.5
499.049	619.5
499.267	651.5
499.484	653.5
499.701	652.5
499.918	693.5
500.135	710.5
500.352	736.5
500.569	773.5
500.786	767.5
501.003	723.5
501.22	728.5
501.437	703.5
501.654	695.5
501.871	709.5
502.088	697.5
502.305	643.5
502.522	647.5
502.739	639.5
502.956	594.5
503.172	590.5
503.389	597.5
503.606	581.5
503.823	586.5
504.04	567.5
504.256	564.5
504.473	555.5
504.69	546.5
504.907	548.5
505.123	543.5
505.34	558.5
505.557	565.5
505.773	543.5
505.99	539.5
506.207	533.5
506.423	545.5
506.64	539.5
506.856	517.5
507.073	526.5
507.289	536.5
507.506	509.5
507.722	526.5
507.939	559.5
508.155	522.5
508.372	522.5
508.588	536.5
508.805	539.5
509.021	512.5
509.238	529.5
509.454	531.5
509.67	529.5
509.887	528.5
510.103	506.5
510.319	506.5
510.536	597.5
510.752	931.5
510.968	735.5
511.184	519.5
511.401	499.5
511.617	499.5
511.833	489.5
512.049	474.5
512.265	487.5
512.481	486.5
512.698	501.5
512.914	479.5
513.13	474.5
513.346	470.5
513.562	475.5
513.778	473.5
513.994	479.5
514.21	491.5
514.426	506.5
514.642	548.5
514.858	546.5
515.074	580.5
515.29	702.5
515.506	986.5
515.721	769.5
515.937	585.5
516.153	531.5
516.369	517.5
516.585	498.5
516.801	506.5
517.016	499.5
517.232	480.5
517.448	509.5
517.664	499.5
517.879	491.5
518.095	489.5
518.311	495.5
518.527	476.5
518.742	482.5
518.958	477.5
519.173	475.5
519.389	471.5
519.605	491.5
519.82	479.5
520.036	499.5
