Data from 1971.PennyLincolnUp.Lamp.En5.5.200Scan.071719.P1._HRD10591_15-17-45-841.txt Node
Date: Thu Jul 18 15:17:45 EDT 2019
User: cochatt
Spectrometer: HR+D1059
Trigger mode: 1
Integration Time (sec): 1.000000E-1
Scans to average: 1
Electric dark correction enabled: true
Nonlinearity correction enabled: false
Boxcar width: 0
XAxis mode: Wavelengths
Number of Pixels in Spectrum: 2048
>>>>>Begin Spectral Data<<<<<
223.165	-29.69
223.4	-29.69
223.635	-29.69
223.869	-13.69
224.104	-24.69
224.338	-20.69
224.573	-18.69
224.808	-17.69
225.042	-6.69
225.277	-0.69
225.511	-7.69
225.746	15.31
225.98	23.31
226.215	23.31
226.449	21.31
226.683	23.31
226.918	9.31
227.152	24.31
227.387	29.31
227.621	27.31
227.856	41.31
228.09	59.31
228.324	55.31
228.559	62.31
228.793	62.31
229.027	77.31
229.262	98.31
229.496	101.31
229.73	100.31
229.964	117.31
230.199	116.31
230.433	100.31
230.667	116.31
230.901	115.31
231.136	102.31
231.37	103.31
231.604	96.31
231.838	100.31
232.072	118.31
232.306	104.31
232.541	120.31
232.775	96.31
233.009	105.31
233.243	114.31
233.477	109.31
233.711	99.31
233.945	106.31
234.179	102.31
234.413	112.31
234.647	106.31
234.881	100.31
235.115	106.31
235.349	113.31
235.583	110.31
235.817	106.31
236.051	104.31
236.285	92.31
236.519	100.31
236.753	111.31
236.987	116.31
237.221	136.31
237.455	173.31
237.689	142.31
237.922	128.31
238.156	112.31
238.39	110.31
238.624	109.31
238.858	112.31
239.091	119.31
239.325	104.31
239.559	104.31
239.793	117.31
240.027	126.31
240.26	129.31
240.494	137.31
240.728	133.31
240.961	132.31
241.195	135.31
241.429	131.31
241.662	124.31
241.896	119.31
242.13	132.31
242.363	107.31
242.597	103.31
242.83	134.31
243.064	125.31
243.298	127.31
243.531	129.31
243.765	134.31
243.998	131.31
244.232	138.31
244.465	140.31
244.699	143.31
244.932	132.31
245.166	138.31
245.399	132.31
245.633	130.31
245.866	143.31
246.099	135.31
246.333	131.31
246.566	135.31
246.8	135.31
247.033	149.31
247.266	147.31
247.5	143.31
247.733	145.31
247.966	164.31
248.2	162.31
248.433	150.31
248.666	159.31
248.899	154.31
249.133	173.31
249.366	194.31
249.599	171.31
249.832	160.31
250.066	167.31
250.299	150.31
250.532	169.31
250.765	168.31
250.998	185.31
251.231	180.31
251.465	189.31
251.698	185.31
251.931	191.31
252.164	182.31
252.397	149.31
252.63	178.31
252.863	174.31
253.096	196.31
253.329	200.31
253.562	184.31
253.795	175.31
254.028	183.31
254.261	176.31
254.494	202.31
254.727	209.31
254.96	216.31
255.193	225.31
255.426	212.31
255.659	194.31
255.892	216.31
256.124	192.31
256.357	173.31
256.59	198.31
256.823	185.31
257.056	183.31
257.289	184.31
257.521	176.31
257.754	174.31
257.987	189.31
258.22	184.31
258.452	200.31
258.685	182.31
258.918	208.31
259.151	194.31
259.383	201.31
259.616	193.31
259.849	190.31
260.081	212.31
260.314	222.31
260.547	214.31
260.779	217.31
261.012	188.31
261.244	190.31
261.477	204.31
261.71	200.31
261.942	210.31
262.175	220.31
262.407	195.31
262.64	196.31
262.872	193.31
263.105	191.31
263.337	199.31
263.57	196.31
263.802	174.31
264.035	200.31
264.267	194.31
264.499	177.31
264.732	184.31
264.964	193.31
265.197	203.31
265.429	205.31
265.661	190.31
265.894	184.31
266.126	184.31
266.358	203.31
266.591	213.31
266.823	187.31
267.055	192.31
267.287	193.31
267.52	204.31
267.752	191.31
267.984	207.31
268.216	209.31
268.448	202.31
268.681	219.31
268.913	194.31
269.145	222.31
269.377	241.31
269.609	234.31
269.841	220.31
270.073	218.31
270.306	231.31
270.538	262.31
270.77	261.31
271.002	233.31
271.234	244.31
271.466	233.31
271.698	234.31
271.93	260.31
272.162	258.31
272.394	261.31
272.626	265.31
272.858	244.31
273.09	244.31
273.322	230.31
273.553	238.31
273.785	221.31
274.017	230.31
274.249	238.31
274.481	248.31
274.713	231.31
274.945	250.31
275.176	233.31
275.408	230.31
275.64	243.31
275.872	228.31
276.104	222.31
276.335	222.31
276.567	234.31
276.799	252.31
277.031	256.31
277.262	274.31
277.494	249.31
277.726	270.31
277.957	246.31
278.189	244.31
278.421	240.31
278.652	240.31
278.884	231.31
279.115	223.31
279.347	245.31
279.579	257.31
279.81	260.31
280.042	266.31
280.273	257.31
280.505	254.31
280.736	234.31
280.968	225.31
281.199	235.31
281.431	246.31
281.662	228.31
281.894	247.31
282.125	248.31
282.356	237.31
282.588	239.31
282.819	240.31
283.051	252.31
283.282	229.31
283.513	243.31
283.745	260.31
283.976	247.31
284.207	249.31
284.439	231.31
284.67	249.31
284.901	262.31
285.132	267.31
285.364	271.31
285.595	274.31
285.826	244.31
286.057	239.31
286.288	238.31
286.52	245.31
286.751	246.31
286.982	235.31
287.213	248.31
287.444	250.31
287.675	261.31
287.906	256.31
288.138	278.31
288.369	269.31
288.6	252.31
288.831	265.31
289.062	260.31
289.293	250.31
289.524	267.31
289.755	252.31
289.986	257.31
290.217	250.31
290.448	258.31
290.679	266.31
290.91	241.31
291.141	261.31
291.371	236.31
291.602	241.31
291.833	243.31
292.064	237.31
292.295	262.31
292.526	265.31
292.757	253.31
292.987	274.31
293.218	266.31
293.449	274.31
293.68	248.31
293.91	266.31
294.141	266.31
294.372	271.31
294.603	254.31
294.833	266.31
295.064	256.31
295.295	270.31
295.525	253.31
295.756	264.31
295.987	260.31
296.217	267.31
296.448	269.31
296.679	273.31
296.909	261.31
297.14	288.31
297.37	270.31
297.601	261.31
297.831	264.31
298.062	264.31
298.292	249.31
298.523	269.31
298.753	283.31
298.984	274.31
299.214	282.31
299.445	273.31
299.675	275.31
299.905	267.31
300.136	289.31
300.366	252.31
300.597	270.31
300.827	262.31
301.057	273.31
301.288	282.31
301.518	283.31
301.748	277.31
301.979	285.31
302.209	289.31
302.439	305.31
302.669	293.31
302.9	291.31
303.13	273.31
303.36	288.31
303.59	281.31
303.82	308.31
304.051	279.31
304.281	294.31
304.511	289.31
304.741	288.31
304.971	293.31
305.201	274.31
305.431	264.31
305.661	288.31
305.891	290.31
306.121	284.31
306.352	285.31
306.582	277.31
306.812	282.31
307.042	301.31
307.272	297.31
307.502	277.31
307.731	284.31
307.961	300.31
308.191	294.31
308.421	293.31
308.651	289.31
308.881	278.31
309.111	295.31
309.341	317.31
309.571	302.31
309.8	315.31
310.03	312.31
310.26	313.31
310.49	321.31
310.72	305.31
310.949	314.31
311.179	313.31
311.409	297.31
311.639	308.31
311.868	324.31
312.098	317.31
312.328	323.31
312.557	322.31
312.787	347.31
313.017	334.31
313.246	328.31
313.476	303.31
313.706	335.31
313.935	324.31
314.165	313.31
314.394	331.31
314.624	313.31
314.853	330.31
315.083	316.31
315.312	320.31
315.542	319.31
315.771	321.31
316.001	318.31
316.23	342.31
316.46	323.31
316.689	338.31
316.919	319.31
317.148	320.31
317.377	317.31
317.607	336.31
317.836	342.31
318.065	342.31
318.295	354.31
318.524	335.31
318.753	318.31
318.983	342.31
319.212	332.31
319.441	321.31
319.67	353.31
319.9	326.31
320.129	336.31
320.358	318.31
320.587	335.31
320.816	351.31
321.046	343.31
321.275	331.31
321.504	330.31
321.733	338.31
321.962	335.31
322.191	366.31
322.42	360.31
322.649	350.31
322.878	350.31
323.108	361.31
323.337	364.31
323.566	373.31
323.795	398.31
324.024	408.31
324.253	485.31
324.482	663.31
324.71	982.31
324.939	1265.31
325.168	1064.31
325.397	582.31
325.626	431.31
325.855	396.31
326.084	389.31
326.313	377.31
326.542	382.31
326.77	395.31
326.999	470.31
327.228	625.31
327.457	865.31
327.686	977.31
327.914	668.31
328.143	472.31
328.372	454.31
328.6	398.31
328.829	405.31
329.058	424.31
329.287	404.31
329.515	392.31
329.744	384.31
329.972	380.31
330.201	375.31
330.43	412.31
330.658	417.31
330.887	431.31
331.115	421.31
331.344	399.31
331.572	376.31
331.801	379.31
332.03	377.31
332.258	377.31
332.486	362.31
332.715	376.31
332.943	368.31
333.172	373.31
333.4	374.31
333.629	386.31
333.857	394.31
334.085	384.31
334.314	393.31
334.542	385.31
334.771	389.31
334.999	384.31
335.227	376.31
335.455	369.31
335.684	382.31
335.912	363.31
336.14	368.31
336.369	377.31
336.597	361.31
336.825	394.31
337.053	363.31
337.281	345.31
337.51	376.31
337.738	358.31
337.966	349.31
338.194	379.31
338.422	390.31
338.65	384.31
338.878	356.31
339.106	363.31
339.334	357.31
339.562	359.31
339.79	340.31
340.018	354.31
340.246	358.31
340.474	348.31
340.702	357.31
340.93	353.31
341.158	338.31
341.386	354.31
341.614	353.31
341.842	345.31
342.07	338.31
342.298	362.31
342.526	334.31
342.754	346.31
342.981	348.31
343.209	342.31
343.437	343.31
343.665	354.31
343.893	365.31
344.12	364.31
344.348	364.31
344.576	375.31
344.804	364.31
345.031	378.31
345.259	356.31
345.487	380.31
345.714	354.31
345.942	340.31
346.17	342.31
346.397	353.31
346.625	338.31
346.853	354.31
347.08	331.31
347.308	356.31
347.535	344.31
347.763	359.31
347.99	367.31
348.218	343.31
348.445	352.31
348.673	346.31
348.9	354.31
349.128	341.31
349.355	335.31
349.583	340.31
349.81	319.31
350.037	303.31
350.265	320.31
350.492	333.31
350.72	310.31
350.947	334.31
351.174	338.31
351.402	330.31
351.629	320.31
351.856	333.31
352.083	338.31
352.311	338.31
352.538	356.31
352.765	332.31
352.992	311.31
353.22	335.31
353.447	348.31
353.674	326.31
353.901	320.31
354.128	311.31
354.355	311.31
354.583	331.31
354.81	333.31
355.037	313.31
355.264	314.31
355.491	326.31
355.718	302.31
355.945	326.31
356.172	313.31
356.399	323.31
356.626	302.31
356.853	316.31
357.08	304.31
357.307	308.31
357.534	301.31
357.761	322.31
357.988	305.31
358.215	313.31
358.441	332.31
358.668	310.31
358.895	319.31
359.122	318.31
359.349	323.31
359.576	318.31
359.802	325.31
360.029	353.31
360.256	365.31
360.483	351.31
360.709	348.31
360.936	341.31
361.163	327.31
361.39	336.31
361.616	323.31
361.843	314.31
362.07	327.31
362.296	325.31
362.523	328.31
362.749	319.31
362.976	315.31
363.203	336.31
363.429	313.31
363.656	336.31
363.882	304.31
364.109	318.31
364.335	319.31
364.562	326.31
364.788	322.31
365.015	299.31
365.241	320.31
365.468	330.31
365.694	317.31
365.92	328.31
366.147	317.31
366.373	294.31
366.599	326.31
366.826	323.31
367.052	326.31
367.278	321.31
367.505	322.31
367.731	303.31
367.957	329.31
368.184	311.31
368.41	318.31
368.636	326.31
368.862	332.31
369.089	316.31
369.315	317.31
369.541	308.31
369.767	317.31
369.993	313.31
370.219	305.31
370.445	330.31
370.672	335.31
370.898	329.31
371.124	323.31
371.35	328.31
371.576	308.31
371.802	321.31
372.028	306.31
372.254	313.31
372.48	310.31
372.706	326.31
372.932	329.31
373.158	324.31
373.384	322.31
373.61	319.31
373.835	322.31
374.061	329.31
374.287	324.31
374.513	318.31
374.739	316.31
374.965	326.31
375.191	333.31
375.416	341.31
375.642	331.31
375.868	318.31
376.094	317.31
376.319	328.31
376.545	308.31
376.771	311.31
376.997	301.31
377.222	297.31
377.448	320.31
377.674	317.31
377.899	314.31
378.125	314.31
378.35	306.31
378.576	322.31
378.802	313.31
379.027	317.31
379.253	321.31
379.478	319.31
379.704	321.31
379.929	332.31
380.155	314.31
380.38	316.31
380.606	314.31
380.831	320.31
381.057	335.31
381.282	314.31
381.507	309.31
381.733	329.31
381.958	321.31
382.184	321.31
382.409	327.31
382.634	324.31
382.86	321.31
383.085	324.31
383.31	344.31
383.535	328.31
383.761	334.31
383.986	324.31
384.211	331.31
384.436	334.31
384.662	330.31
384.887	326.31
385.112	329.31
385.337	329.31
385.562	350.31
385.787	334.31
386.013	331.31
386.238	361.31
386.463	363.31
386.688	344.31
386.913	352.31
387.138	349.31
387.363	344.31
387.588	335.31
387.813	323.31
388.038	320.31
388.263	326.31
388.488	328.31
388.713	340.31
388.938	331.31
389.163	333.31
389.387	365.31
389.612	341.31
389.837	349.31
390.062	332.31
390.287	342.31
390.512	328.31
390.736	345.31
390.961	351.31
391.186	346.31
391.411	345.31
391.636	338.31
391.86	353.31
392.085	355.31
392.31	346.31
392.534	328.31
392.759	344.31
392.984	379.31
393.208	454.31
393.433	550.31
393.658	520.31
393.882	400.31
394.107	343.31
394.331	340.31
394.556	330.31
394.78	339.31
395.005	358.31
395.229	345.31
395.454	367.31
395.678	358.31
395.903	345.31
396.127	373.31
396.352	385.31
396.576	358.31
396.801	450.31
397.025	474.31
397.249	443.31
397.474	374.31
397.698	362.31
397.922	372.31
398.147	376.31
398.371	362.31
398.595	360.31
398.82	385.31
399.044	386.31
399.268	376.31
399.492	418.31
399.717	441.31
399.941	444.31
400.165	454.31
400.389	454.31
400.613	409.31
400.837	374.31
401.062	386.31
401.286	378.31
401.51	376.31
401.734	366.31
401.958	363.31
402.182	378.31
402.406	363.31
402.63	365.31
402.854	382.31
403.078	390.31
403.302	374.31
403.526	369.31
403.75	382.31
403.974	361.31
404.198	373.31
404.422	394.31
404.645	376.31
404.869	366.31
405.093	392.31
405.317	400.31
405.541	427.31
405.765	398.31
405.988	394.31
406.212	395.31
406.436	394.31
406.66	423.31
406.883	406.31
407.107	425.31
407.331	438.31
407.555	468.31
407.778	472.31
408.002	447.31
408.226	411.31
408.449	413.31
408.673	408.31
408.896	446.31
409.12	448.31
409.344	418.31
409.567	380.31
409.791	384.31
410.014	369.31
410.238	376.31
410.461	384.31
410.685	382.31
410.908	386.31
411.132	408.31
411.355	425.31
411.578	401.31
411.802	392.31
412.025	380.31
412.249	380.31
412.472	369.31
412.695	380.31
412.919	375.31
413.142	378.31
413.365	366.31
413.589	348.31
413.812	355.31
414.035	365.31
414.258	350.31
414.482	363.31
414.705	367.31
414.928	352.31
415.151	348.31
415.374	347.31
415.597	352.31
415.821	351.31
416.044	338.31
416.267	350.31
416.49	353.31
416.713	348.31
416.936	342.31
417.159	333.31
417.382	344.31
417.605	375.31
417.828	364.31
418.051	368.31
418.274	367.31
418.497	357.31
418.72	360.31
418.943	343.31
419.166	360.31
419.389	369.31
419.611	381.31
419.834	378.31
420.057	377.31
420.28	365.31
420.503	374.31
420.726	372.31
420.948	361.31
421.171	394.31
421.394	410.31
421.617	386.31
421.839	351.31
422.062	366.31
422.285	379.31
422.507	438.31
422.73	466.31
422.953	459.31
423.175	406.31
423.398	376.31
423.621	365.31
423.843	378.31
424.066	390.31
424.288	388.31
424.511	424.31
424.733	420.31
424.956	458.31
425.178	446.31
425.401	471.31
425.623	478.31
425.846	410.31
426.068	388.31
426.291	386.31
426.513	378.31
426.735	384.31
426.958	413.31
427.18	479.31
427.402	525.31
427.625	578.31
427.847	501.31
428.069	430.31
428.292	388.31
428.514	378.31
428.736	364.31
428.958	367.31
429.181	357.31
429.403	369.31
429.625	365.31
429.847	359.31
430.069	432.31
430.292	432.31
430.514	373.31
430.736	354.31
430.958	365.31
431.18	332.31
431.402	338.31
431.624	334.31
431.846	350.31
432.068	321.31
432.29	353.31
432.512	350.31
432.734	351.31
432.956	335.31
433.178	358.31
433.4	370.31
433.622	354.31
433.844	350.31
434.066	329.31
434.287	338.31
434.509	366.31
434.731	352.31
434.953	362.31
435.175	340.31
435.397	402.31
435.618	377.31
435.84	415.31
436.062	482.31
436.284	516.31
436.505	431.31
436.727	390.31
436.949	379.31
437.17	353.31
437.392	354.31
437.614	372.31
437.835	396.31
438.057	437.31
438.278	504.31
438.5	506.31
438.721	552.31
438.943	513.31
439.165	436.31
439.386	397.31
439.608	377.31
439.829	376.31
440.05	410.31
440.272	434.31
440.493	397.31
440.715	377.31
440.936	390.31
441.158	378.31
441.379	358.31
441.6	348.31
441.822	363.31
442.043	410.31
442.264	464.31
442.486	486.31
442.707	412.31
442.928	380.31
443.149	404.31
443.371	414.31
443.592	428.31
443.813	494.31
444.034	521.31
444.255	425.31
444.476	399.31
444.698	401.31
444.919	394.31
445.14	484.31
445.361	422.31
445.582	425.31
445.803	459.31
446.024	518.31
446.245	511.31
446.466	474.31
446.687	380.31
446.908	387.31
447.129	371.31
447.35	352.31
447.571	364.31
447.792	349.31
448.013	366.31
448.234	368.31
448.455	405.31
448.675	472.31
448.896	528.31
449.117	454.31
449.338	458.31
449.559	518.31
449.779	560.31
450	460.31
450.221	401.31
450.442	374.31
450.662	338.31
450.883	350.31
451.104	362.31
451.324	357.31
451.545	332.31
451.766	335.31
451.986	312.31
452.207	318.31
452.428	312.31
452.648	309.31
452.869	330.31
453.089	331.31
453.31	317.31
453.53	334.31
453.751	318.31
453.971	307.31
454.192	324.31
454.412	316.31
454.633	326.31
454.853	316.31
455.073	318.31
455.294	350.31
455.514	377.31
455.734	354.31
455.955	312.31
456.175	314.31
456.395	308.31
456.616	312.31
456.836	303.31
457.056	303.31
457.276	278.31
457.497	320.31
457.717	309.31
457.937	300.31
458.157	309.31
458.377	317.31
458.598	327.31
458.818	346.31
459.038	367.31
459.258	404.31
459.478	368.31
459.698	339.31
459.918	336.31
460.138	345.31
460.358	345.31
460.578	340.31
460.798	351.31
461.018	353.31
461.238	348.31
461.458	353.31
461.678	341.31
461.898	352.31
462.118	358.31
462.338	366.31
462.558	360.31
462.777	377.31
462.997	382.31
463.217	364.31
463.437	378.31
463.657	380.31
463.876	355.31
464.096	384.31
464.316	366.31
464.536	366.31
464.755	370.31
464.975	372.31
465.195	388.31
465.414	395.31
465.634	380.31
465.854	369.31
466.073	335.31
466.293	346.31
466.512	335.31
466.732	344.31
466.951	339.31
467.171	350.31
467.391	331.31
467.61	364.31
467.829	340.31
468.049	318.31
468.268	343.31
468.488	334.31
468.707	335.31
468.927	331.31
469.146	305.31
469.365	333.31
469.585	334.31
469.804	329.31
470.023	314.31
470.243	356.31
470.462	345.31
470.681	360.31
470.901	345.31
471.12	354.31
471.339	340.31
471.558	324.31
471.777	330.31
471.997	316.31
472.216	348.31
472.435	347.31
472.654	349.31
472.873	340.31
473.092	330.31
473.311	326.31
473.53	333.31
473.749	344.31
473.968	363.31
474.187	430.31
474.406	421.31
474.625	372.31
474.844	350.31
475.063	363.31
475.282	360.31
475.501	338.31
475.72	360.31
475.939	357.31
476.158	358.31
476.377	336.31
476.596	360.31
476.814	353.31
477.033	342.31
477.252	347.31
477.471	353.31
477.69	346.31
477.908	360.31
478.127	375.31
478.346	362.31
478.564	381.31
478.783	370.31
479.002	374.31
479.22	366.31
479.439	375.31
479.658	387.31
479.876	385.31
480.095	397.31
480.313	406.31
480.532	408.31
480.751	396.31
480.969	380.31
481.188	407.31
481.406	420.31
481.624	386.31
481.843	400.31
482.061	378.31
482.28	393.31
482.498	385.31
482.717	378.31
482.935	390.31
483.153	373.31
483.372	378.31
483.59	376.31
483.808	369.31
484.027	376.31
484.245	386.31
484.463	376.31
484.681	389.31
484.9	394.31
485.118	404.31
485.336	384.31
485.554	383.31
485.772	402.31
485.99	389.31
486.209	391.31
486.427	389.31
486.645	387.31
486.863	431.31
487.081	423.31
487.299	403.31
487.517	416.31
487.735	394.31
487.953	409.31
488.171	417.31
488.389	418.31
488.607	413.31
488.825	413.31
489.043	420.31
489.261	403.31
489.479	413.31
489.696	405.31
489.914	408.31
490.132	412.31
490.35	442.31
490.568	446.31
490.786	438.31
491.003	449.31
491.221	454.31
491.439	455.31
491.657	458.31
491.874	485.31
492.092	451.31
492.31	461.31
492.527	466.31
492.745	476.31
492.963	468.31
493.18	462.31
493.398	471.31
493.615	481.31
493.833	466.31
494.05	468.31
494.268	478.31
494.485	485.31
494.703	464.31
494.92	482.31
495.138	457.31
495.355	472.31
495.573	474.31
495.79	477.31
496.008	488.31
496.225	477.31
496.442	496.31
496.66	487.31
496.877	457.31
497.094	490.31
497.312	476.31
497.529	503.31
497.746	470.31
497.963	500.31
498.181	538.31
498.398	522.31
498.615	509.31
498.832	544.31
499.049	548.31
499.267	572.31
499.484	570.31
499.701	591.31
499.918	605.31
500.135	612.31
500.352	657.31
500.569	648.31
500.786	666.31
501.003	639.31
501.22	642.31
501.437	635.31
501.654	603.31
501.871	585.31
502.088	576.31
