Data from 1971.PennyLincolnUp.Lamp.En5.5.200Scan.071719.P1.Scan 2. Changed Angle._HRD10591_15-23-50-842.txt Node
Date: Thu Jul 18 15:23:50 EDT 2019
User: cochatt
Spectrometer: HR+D1059
Trigger mode: 1
Integration Time (sec): 1.000000E-1
Scans to average: 1
Electric dark correction enabled: true
Nonlinearity correction enabled: false
Boxcar width: 0
XAxis mode: Wavelengths
Number of Pixels in Spectrum: 2048
>>>>>Begin Spectral Data<<<<<
223.165	-10.81
223.4	-10.81
223.635	-10.81
223.869	-2.81
224.104	-12.81
224.338	-33.81
224.573	-11.81
224.808	-13.81
225.042	1.19
225.277	-11.81
225.511	-10.81
225.746	-12.81
225.98	-1.81
226.215	31.19
226.449	19.19
226.683	21.19
226.918	23.19
227.152	27.19
227.387	40.19
227.621	57.19
227.856	60.19
228.09	53.19
228.324	58.19
228.559	50.19
228.793	73.19
229.027	116.19
229.262	131.19
229.496	134.19
229.73	162.19
229.964	185.19
230.199	154.19
230.433	135.19
230.667	131.19
230.901	122.19
231.136	116.19
231.37	119.19
231.604	126.19
231.838	128.19
232.072	106.19
232.306	127.19
232.541	122.19
232.775	129.19
233.009	126.19
233.243	121.19
233.477	111.19
233.711	131.19
233.945	118.19
234.179	136.19
234.413	128.19
234.647	120.19
234.881	125.19
235.115	123.19
235.349	128.19
235.583	137.19
235.817	127.19
236.051	117.19
236.285	129.19
236.519	135.19
236.753	146.19
236.987	180.19
237.221	208.19
237.455	252.19
237.689	203.19
237.922	147.19
238.156	141.19
238.39	124.19
238.624	139.19
238.858	133.19
239.091	123.19
239.325	143.19
239.559	143.19
239.793	122.19
240.027	143.19
240.26	147.19
240.494	177.19
240.728	163.19
240.961	161.19
241.195	163.19
241.429	161.19
241.662	154.19
241.896	136.19
242.13	151.19
242.363	137.19
242.597	139.19
242.83	148.19
243.064	139.19
243.298	147.19
243.531	159.19
243.765	159.19
243.998	134.19
244.232	156.19
244.465	159.19
244.699	148.19
244.932	167.19
245.166	149.19
245.399	147.19
245.633	153.19
245.866	136.19
246.099	140.19
246.333	154.19
246.566	158.19
246.8	149.19
247.033	169.19
247.266	171.19
247.5	172.19
247.733	171.19
247.966	180.19
248.2	180.19
248.433	187.19
248.666	183.19
248.899	205.19
249.133	219.19
249.366	237.19
249.599	216.19
249.832	199.19
250.066	187.19
250.299	197.19
250.532	206.19
250.765	218.19
250.998	245.19
251.231	255.19
251.465	227.19
251.698	231.19
251.931	210.19
252.164	231.19
252.397	218.19
252.63	222.19
252.863	237.19
253.096	216.19
253.329	248.19
253.562	243.19
253.795	228.19
254.028	249.19
254.261	243.19
254.494	243.19
254.727	271.19
254.96	309.19
255.193	275.19
255.426	280.19
255.659	264.19
255.892	253.19
256.124	241.19
256.357	259.19
256.59	249.19
256.823	228.19
257.056	230.19
257.289	247.19
257.521	202.19
257.754	235.19
257.987	225.19
258.22	236.19
258.452	223.19
258.685	226.19
258.918	225.19
259.151	208.19
259.383	235.19
259.616	233.19
259.849	249.19
260.081	259.19
260.314	273.19
260.547	276.19
260.779	254.19
261.012	247.19
261.244	233.19
261.477	254.19
261.71	239.19
261.942	233.19
262.175	264.19
262.407	251.19
262.64	233.19
262.872	223.19
263.105	235.19
263.337	223.19
263.57	216.19
263.802	220.19
264.035	215.19
264.267	230.19
264.499	221.19
264.732	231.19
264.964	213.19
265.197	237.19
265.429	219.19
265.661	219.19
265.894	207.19
266.126	222.19
266.358	213.19
266.591	221.19
266.823	223.19
267.055	220.19
267.287	221.19
267.52	231.19
267.752	212.19
267.984	213.19
268.216	232.19
268.448	212.19
268.681	232.19
268.913	244.19
269.145	252.19
269.377	288.19
269.609	287.19
269.841	266.19
270.073	291.19
270.306	288.19
270.538	309.19
270.77	331.19
271.002	323.19
271.234	297.19
271.466	306.19
271.698	323.19
271.93	340.19
272.162	325.19
272.394	341.19
272.626	319.19
272.858	293.19
273.09	278.19
273.322	282.19
273.553	269.19
273.785	271.19
274.017	269.19
274.249	247.19
274.481	259.19
274.713	266.19
274.945	270.19
275.176	273.19
275.408	289.19
275.64	263.19
275.872	279.19
276.104	258.19
276.335	253.19
276.567	255.19
276.799	296.19
277.031	335.19
277.262	321.19
277.494	320.19
277.726	303.19
277.957	290.19
278.189	268.19
278.421	284.19
278.652	274.19
278.884	263.19
279.115	261.19
279.347	269.19
279.579	248.19
279.81	264.19
280.042	265.19
280.273	278.19
280.505	265.19
280.736	274.19
280.968	243.19
281.199	269.19
281.431	259.19
281.662	267.19
281.894	255.19
282.125	267.19
282.356	287.19
282.588	316.19
282.819	289.19
283.051	277.19
283.282	256.19
283.513	272.19
283.745	272.19
283.976	270.19
284.207	270.19
284.439	268.19
284.67	291.19
284.901	261.19
285.132	257.19
285.364	266.19
285.595	250.19
285.826	272.19
286.057	263.19
286.288	267.19
286.52	273.19
286.751	254.19
286.982	270.19
287.213	267.19
287.444	260.19
287.675	280.19
287.906	276.19
288.138	294.19
288.369	297.19
288.6	308.19
288.831	287.19
289.062	267.19
289.293	283.19
289.524	279.19
289.755	274.19
289.986	281.19
290.217	288.19
290.448	276.19
290.679	284.19
290.91	269.19
291.141	287.19
291.371	289.19
291.602	273.19
291.833	274.19
292.064	273.19
292.295	297.19
292.526	274.19
292.757	288.19
292.987	256.19
293.218	260.19
293.449	287.19
293.68	271.19
293.91	281.19
294.141	281.19
294.372	258.19
294.603	271.19
294.833	274.19
295.064	283.19
295.295	276.19
295.525	295.19
295.756	281.19
295.987	287.19
296.217	306.19
296.448	331.19
296.679	296.19
296.909	292.19
297.14	284.19
297.37	287.19
297.601	285.19
297.831	271.19
298.062	287.19
298.292	286.19
298.523	296.19
298.753	299.19
298.984	280.19
299.214	304.19
299.445	302.19
299.675	280.19
299.905	305.19
300.136	320.19
300.366	283.19
300.597	283.19
300.827	307.19
301.057	325.19
301.288	315.19
301.518	313.19
301.748	291.19
301.979	315.19
302.209	301.19
302.439	322.19
302.669	300.19
302.9	297.19
303.13	292.19
303.36	319.19
303.59	311.19
303.82	330.19
304.051	329.19
304.281	311.19
304.511	300.19
304.741	304.19
304.971	301.19
305.201	301.19
305.431	325.19
305.661	304.19
305.891	322.19
306.121	324.19
306.352	319.19
306.582	333.19
306.812	321.19
307.042	313.19
307.272	327.19
307.502	318.19
307.731	316.19
307.961	324.19
308.191	304.19
308.421	308.19
308.651	309.19
308.881	323.19
309.111	318.19
309.341	333.19
309.571	333.19
309.8	337.19
310.03	377.19
310.26	362.19
310.49	379.19
310.72	386.19
310.949	380.19
311.179	401.19
311.409	373.19
311.639	365.19
311.868	381.19
312.098	344.19
312.328	385.19
312.557	407.19
312.787	407.19
313.017	426.19
313.246	397.19
313.476	372.19
313.706	386.19
313.935	381.19
314.165	389.19
314.394	406.19
314.624	380.19
314.853	384.19
315.083	359.19
315.312	371.19
315.542	367.19
315.771	375.19
316.001	344.19
316.23	357.19
316.46	378.19
316.689	365.19
316.919	381.19
317.148	388.19
317.377	371.19
317.607	380.19
317.836	375.19
318.065	371.19
318.295	375.19
318.524	360.19
318.753	370.19
318.983	370.19
319.212	377.19
319.441	369.19
319.67	395.19
319.9	392.19
320.129	369.19
320.358	387.19
320.587	379.19
320.816	383.19
321.046	403.19
321.275	392.19
321.504	411.19
321.733	397.19
321.962	424.19
322.191	423.19
322.42	442.19
322.649	456.19
322.878	469.19
323.108	481.19
323.337	509.19
323.566	530.19
323.795	570.19
324.024	640.19
324.253	777.19
324.482	1124.19
324.71	1761.19
324.939	2514.19
325.168	2132.19
325.397	1149.19
325.626	730.19
325.855	609.19
326.084	546.19
326.313	523.19
326.542	550.19
326.77	590.19
326.999	733.19
327.228	991.19
327.457	1548.19
327.686	1893.19
327.914	1264.19
328.143	824.19
328.372	697.19
328.6	646.19
328.829	603.19
329.058	640.19
329.287	638.19
329.515	608.19
329.744	517.19
329.972	553.19
330.201	542.19
330.43	610.19
330.658	626.19
330.887	697.19
331.115	671.19
331.344	557.19
331.572	524.19
331.801	513.19
332.03	504.19
332.258	484.19
332.486	455.19
332.715	438.19
332.943	441.19
333.172	444.19
333.4	440.19
333.629	467.19
333.857	486.19
334.085	483.19
334.314	497.19
334.542	505.19
334.771	543.19
334.999	490.19
335.227	459.19
335.455	445.19
335.684	455.19
335.912	430.19
336.14	429.19
336.369	412.19
336.597	443.19
336.825	455.19
337.053	429.19
337.281	427.19
337.51	431.19
337.738	431.19
337.966	437.19
338.194	445.19
338.422	445.19
338.65	445.19
338.878	429.19
339.106	402.19
339.334	432.19
339.562	410.19
339.79	420.19
340.018	430.19
340.246	427.19
340.474	433.19
340.702	428.19
340.93	412.19
341.158	408.19
341.386	406.19
341.614	412.19
341.842	411.19
342.07	438.19
342.298	415.19
342.526	409.19
342.754	439.19
342.981	414.19
343.209	407.19
343.437	411.19
343.665	421.19
343.893	417.19
344.12	423.19
344.348	387.19
344.576	419.19
344.804	439.19
345.031	463.19
345.259	465.19
345.487	467.19
345.714	453.19
345.942	428.19
346.17	424.19
346.397	409.19
346.625	445.19
346.853	420.19
347.08	420.19
347.308	428.19
347.535	436.19
347.763	434.19
347.99	435.19
348.218	436.19
348.445	451.19
348.673	428.19
348.9	417.19
349.128	422.19
349.355	399.19
349.583	399.19
349.81	412.19
350.037	391.19
350.265	412.19
350.492	409.19
350.72	413.19
350.947	428.19
351.174	423.19
351.402	430.19
351.629	424.19
351.856	430.19
352.083	445.19
352.311	436.19
352.538	459.19
352.765	443.19
352.992	466.19
353.22	436.19
353.447	432.19
353.674	409.19
353.901	410.19
354.128	397.19
354.355	397.19
354.583	389.19
354.81	384.19
355.037	381.19
355.264	393.19
355.491	371.19
355.718	372.19
355.945	382.19
356.172	404.19
356.399	384.19
356.626	385.19
356.853	357.19
357.08	370.19
357.307	365.19
357.534	372.19
357.761	383.19
357.988	394.19
358.215	374.19
358.441	402.19
358.668	395.19
358.895	373.19
359.122	411.19
359.349	404.19
359.576	406.19
359.802	458.19
360.029	507.19
360.256	504.19
360.483	492.19
360.709	443.19
360.936	420.19
361.163	423.19
361.39	440.19
361.616	432.19
361.843	436.19
362.07	441.19
362.296	427.19
362.523	431.19
362.749	412.19
362.976	406.19
363.203	421.19
363.429	411.19
363.656	412.19
363.882	419.19
364.109	410.19
364.335	415.19
364.562	415.19
364.788	405.19
365.015	380.19
365.241	403.19
365.468	429.19
365.694	400.19
365.92	424.19
366.147	411.19
366.373	402.19
366.599	406.19
366.826	385.19
367.052	396.19
367.278	397.19
367.505	384.19
367.731	412.19
367.957	410.19
368.184	420.19
368.41	421.19
368.636	438.19
368.862	445.19
369.089	410.19
369.315	391.19
369.541	411.19
369.767	413.19
369.993	405.19
370.219	428.19
370.445	412.19
370.672	403.19
370.898	411.19
371.124	405.19
371.35	409.19
371.576	405.19
371.802	392.19
372.028	409.19
372.254	373.19
372.48	403.19
372.706	403.19
372.932	400.19
373.158	390.19
373.384	420.19
373.61	402.19
373.835	403.19
374.061	405.19
374.287	386.19
374.513	405.19
374.739	415.19
374.965	415.19
375.191	388.19
375.416	403.19
375.642	397.19
375.868	401.19
376.094	397.19
376.319	418.19
376.545	399.19
376.771	391.19
376.997	388.19
377.222	396.19
377.448	412.19
377.674	382.19
377.899	382.19
378.125	389.19
378.35	409.19
378.576	396.19
378.802	404.19
379.027	412.19
379.253	419.19
379.478	402.19
379.704	404.19
379.929	416.19
380.155	381.19
380.38	418.19
380.606	391.19
380.831	405.19
381.057	385.19
381.282	404.19
381.507	418.19
381.733	397.19
381.958	395.19
382.184	409.19
382.409	398.19
382.634	420.19
382.86	405.19
383.085	406.19
383.31	415.19
383.535	403.19
383.761	411.19
383.986	402.19
384.211	400.19
384.436	403.19
384.662	412.19
384.887	401.19
385.112	406.19
385.337	418.19
385.562	421.19
385.787	427.19
386.013	437.19
386.238	423.19
386.463	421.19
386.688	427.19
386.913	408.19
387.138	428.19
387.363	417.19
387.588	428.19
387.813	416.19
388.038	432.19
388.263	440.19
388.488	418.19
388.713	449.19
388.938	417.19
389.163	444.19
389.387	434.19
389.612	439.19
389.837	448.19
390.062	435.19
390.287	427.19
390.512	424.19
390.736	412.19
390.961	419.19
391.186	430.19
391.411	429.19
391.636	447.19
391.86	443.19
392.085	421.19
392.31	455.19
392.534	432.19
392.759	445.19
392.984	417.19
393.208	417.19
393.433	431.19
393.658	436.19
393.882	428.19
394.107	433.19
394.331	433.19
394.556	415.19
394.78	439.19
395.005	419.19
395.229	421.19
395.454	444.19
395.678	442.19
395.903	462.19
396.127	481.19
396.352	487.19
396.576	436.19
396.801	441.19
397.025	453.19
397.249	472.19
397.474	449.19
397.698	459.19
397.922	483.19
398.147	485.19
398.371	480.19
398.595	476.19
398.82	517.19
399.044	490.19
399.268	465.19
399.492	487.19
399.717	536.19
399.941	577.19
400.165	609.19
400.389	611.19
400.613	586.19
400.837	526.19
401.062	513.19
401.286	484.19
401.51	495.19
401.734	515.19
401.958	490.19
402.182	513.19
402.406	524.19
402.63	514.19
402.854	507.19
403.078	522.19
403.302	535.19
403.526	523.19
403.75	512.19
403.974	497.19
404.198	507.19
404.422	522.19
404.645	530.19
404.869	521.19
405.093	576.19
405.317	600.19
405.541	658.19
405.765	576.19
405.988	545.19
406.212	562.19
406.436	577.19
406.66	590.19
406.883	584.19
407.107	593.19
407.331	635.19
407.555	700.19
407.778	703.19
408.002	631.19
408.226	574.19
408.449	562.19
408.673	578.19
408.896	608.19
409.12	640.19
409.344	627.19
409.567	555.19
409.791	539.19
410.014	531.19
410.238	529.19
410.461	510.19
410.685	523.19
410.908	539.19
411.132	589.19
411.355	619.19
411.578	581.19
411.802	521.19
412.025	521.19
412.249	536.19
412.472	567.19
412.695	591.19
412.919	585.19
413.142	561.19
413.365	523.19
413.589	503.19
413.812	515.19
414.035	503.19
414.258	502.19
414.482	491.19
414.705	493.19
414.928	484.19
415.151	498.19
415.374	479.19
415.597	490.19
415.821	484.19
416.044	486.19
416.267	485.19
416.49	481.19
416.713	505.19
416.936	515.19
417.159	522.19
417.382	505.19
417.605	508.19
417.828	508.19
418.051	526.19
418.274	559.19
418.497	522.19
418.72	499.19
418.943	493.19
419.166	523.19
419.389	543.19
419.611	546.19
419.834	534.19
420.057	544.19
420.28	536.19
420.503	557.19
420.726	540.19
420.948	547.19
421.171	577.19
421.394	629.19
421.617	574.19
421.839	538.19
422.062	531.19
422.285	571.19
422.507	593.19
422.73	677.19
422.953	690.19
423.175	595.19
423.398	551.19
423.621	547.19
423.843	591.19
424.066	593.19
424.288	574.19
424.511	596.19
424.733	668.19
424.956	741.19
425.178	700.19
425.401	739.19
425.623	744.19
425.846	657.19
426.068	597.19
426.291	577.19
426.513	594.19
426.735	586.19
426.958	648.19
427.18	742.19
427.402	873.19
427.625	951.19
427.847	877.19
428.069	779.19
428.292	657.19
428.514	597.19
428.736	598.19
428.958	591.19
429.181	558.19
429.403	559.19
429.625	583.19
429.847	591.19
430.069	674.19
430.292	655.19
430.514	563.19
430.736	544.19
430.958	542.19
431.18	534.19
431.402	512.19
431.624	506.19
431.846	499.19
432.068	510.19
432.29	498.19
432.512	485.19
432.734	510.19
432.956	537.19
433.178	544.19
433.4	526.19
433.622	545.19
433.844	525.19
434.066	525.19
434.287	504.19
434.509	531.19
434.731	511.19
434.953	526.19
435.175	549.19
435.397	614.19
435.618	603.19
435.84	641.19
436.062	736.19
436.284	799.19
436.505	697.19
436.727	625.19
436.949	585.19
437.17	571.19
437.392	578.19
437.614	574.19
437.835	614.19
438.057	732.19
438.278	825.19
438.5	819.19
438.721	891.19
438.943	851.19
439.165	685.19
439.386	658.19
439.608	632.19
439.829	627.19
440.05	663.19
440.272	703.19
440.493	676.19
440.715	618.19
440.936	585.19
441.158	541.19
441.379	561.19
441.6	560.19
441.822	597.19
442.043	652.19
442.264	773.19
442.486	791.19
442.707	653.19
442.928	627.19
443.149	644.19
443.371	660.19
443.592	692.19
443.813	795.19
444.034	864.19
444.255	701.19
444.476	623.19
444.698	610.19
444.919	611.19
445.14	699.19
445.361	643.19
445.582	641.19
445.803	717.19
446.024	836.19
446.245	828.19
446.466	787.19
446.687	681.19
446.908	608.19
447.129	597.19
447.35	575.19
447.571	568.19
447.792	558.19
448.013	557.19
448.234	597.19
448.455	645.19
448.675	763.19
448.896	885.19
449.117	780.19
449.338	717.19
449.559	821.19
449.779	910.19
450	757.19
450.221	633.19
450.442	587.19
450.662	579.19
450.883	548.19
451.104	589.19
451.324	598.19
451.545	557.19
451.766	504.19
451.986	519.19
452.207	511.19
452.428	496.19
452.648	504.19
452.869	491.19
453.089	517.19
453.31	533.19
453.53	517.19
453.751	496.19
453.971	500.19
454.192	512.19
454.412	521.19
454.633	509.19
454.853	484.19
455.073	497.19
455.294	535.19
455.514	607.19
455.734	607.19
455.955	529.19
456.175	479.19
456.395	468.19
456.616	445.19
456.836	444.19
457.056	458.19
457.276	473.19
457.497	463.19
457.717	451.19
457.937	477.19
458.157	481.19
458.377	478.19
458.598	528.19
458.818	594.19
459.038	661.19
459.258	679.19
459.478	571.19
459.698	536.19
459.918	533.19
460.138	513.19
460.358	504.19
460.578	503.19
460.798	508.19
461.018	514.19
461.238	527.19
461.458	488.19
461.678	471.19
461.898	515.19
462.118	503.19
462.338	509.19
462.558	520.19
462.777	524.19
462.997	532.19
463.217	520.19
463.437	524.19
463.657	522.19
463.876	549.19
464.096	529.19
464.316	526.19
464.536	550.19
464.755	542.19
464.975	562.19
465.195	612.19
465.414	729.19
465.634	640.19
465.854	565.19
466.073	543.19
466.293	517.19
466.512	506.19
466.732	516.19
466.951	519.19
467.171	510.19
467.391	520.19
467.61	520.19
467.829	545.19
468.049	526.19
468.268	515.19
468.488	524.19
468.707	491.19
468.927	488.19
469.146	499.19
469.365	489.19
469.585	501.19
469.804	506.19
470.023	507.19
470.243	512.19
470.462	544.19
470.681	533.19
470.901	547.19
471.12	547.19
471.339	544.19
471.558	509.19
471.777	507.19
471.997	509.19
472.216	530.19
472.435	563.19
472.654	557.19
472.873	506.19
473.092	487.19
473.311	518.19
473.53	499.19
473.749	543.19
473.968	575.19
474.187	701.19
474.406	718.19
474.625	589.19
474.844	528.19
475.063	534.19
475.282	523.19
475.501	518.19
475.72	524.19
475.939	520.19
476.158	531.19
476.377	540.19
476.596	553.19
476.814	545.19
477.033	556.19
477.252	561.19
477.471	547.19
477.69	547.19
477.908	553.19
478.127	557.19
478.346	553.19
478.564	554.19
478.783	526.19
479.002	578.19
479.22	588.19
479.439	604.19
479.658	641.19
479.876	624.19
480.095	629.19
480.313	650.19
480.532	655.19
480.751	635.19
480.969	631.19
481.188	711.19
481.406	768.19
481.624	681.19
481.843	642.19
482.061	599.19
482.28	614.19
482.498	607.19
482.717	607.19
482.935	622.19
483.153	601.19
483.372	624.19
483.59	618.19
483.808	636.19
484.027	606.19
484.245	615.19
484.463	617.19
484.681	632.19
484.9	629.19
485.118	625.19
485.336	647.19
485.554	639.19
485.772	652.19
485.99	621.19
486.209	640.19
486.427	635.19
486.645	635.19
486.863	704.19
487.081	695.19
487.299	667.19
487.517	708.19
487.735	670.19
487.953	667.19
488.171	677.19
488.389	660.19
488.607	676.19
488.825	682.19
489.043	649.19
489.261	674.19
489.479	641.19
489.696	667.19
489.914	683.19
490.132	695.19
490.35	677.19
490.568	686.19
490.786	693.19
491.003	756.19
491.221	754.19
491.439	754.19
491.657	779.19
491.874	755.19
492.092	787.19
492.31	791.19
492.527	789.19
492.745	789.19
492.963	788.19
493.18	805.19
493.398	814.19
493.615	802.19
493.833	807.19
494.05	803.19
494.268	814.19
494.485	818.19
494.703	800.19
494.92	813.19
495.138	825.19
495.355	820.19
495.573	810.19
495.79	790.19
496.008	813.19
496.225	817.19
496.442	814.19
496.66	825.19
496.877	810.19
497.094	823.19
497.312	807.19
497.529	818.19
497.746	812.19
497.963	820.19
498.181	852.19
498.398	851.19
498.615	857.19
498.832	887.19
499.049	871.19
499.267	901.19
499.484	903.19
499.701	909.19
499.918	893.19
500.135	960.19
500.352	968.19
500.569	1007.19
500.786	963.19
501.003	1011.19
501.22	983.19
501.437	966.19
