Data from 1971.PennyLincolnUp.Lamp.En5.5.200Scan.071719.P1._HRD10591_15-20-26-842.txt Node
Date: Thu Jul 18 15:20:26 EDT 2019
User: cochatt
Spectrometer: HR+D1059
Trigger mode: 1
Integration Time (sec): 1.000000E-1
Scans to average: 1
Electric dark correction enabled: true
Nonlinearity correction enabled: false
Boxcar width: 0
XAxis mode: Wavelengths
Number of Pixels in Spectrum: 2048
>>>>>Begin Spectral Data<<<<<
223.165	-25.94
223.4	-25.94
223.635	-25.94
223.869	-21.94
224.104	-5.94
224.338	-15.94
224.573	-9.94
224.808	-19.94
225.042	-3.94
225.277	-13.94
225.511	-8.94
225.746	-0.94
225.98	0.06
226.215	11.06
226.449	17.06
226.683	25.06
226.918	31.06
227.152	43.06
227.387	37.06
227.621	53.06
227.856	40.06
228.09	39.06
228.324	43.06
228.559	68.06
228.793	58.06
229.027	85.06
229.262	107.06
229.496	119.06
229.73	122.06
229.964	161.06
230.199	129.06
230.433	109.06
230.667	95.06
230.901	115.06
231.136	119.06
231.37	125.06
231.604	111.06
231.838	114.06
232.072	114.06
232.306	109.06
232.541	109.06
232.775	101.06
233.009	105.06
233.243	118.06
233.477	117.06
233.711	114.06
233.945	111.06
234.179	114.06
234.413	128.06
234.647	125.06
234.881	119.06
235.115	121.06
235.349	110.06
235.583	124.06
235.817	114.06
236.051	122.06
236.285	132.06
236.519	124.06
236.753	121.06
236.987	149.06
237.221	168.06
237.455	216.06
237.689	174.06
237.922	136.06
238.156	141.06
238.39	131.06
238.624	131.06
238.858	126.06
239.091	126.06
239.325	126.06
239.559	138.06
239.793	119.06
240.027	129.06
240.26	134.06
240.494	169.06
240.728	142.06
240.961	150.06
241.195	138.06
241.429	144.06
241.662	134.06
241.896	122.06
242.13	128.06
242.363	137.06
242.597	128.06
242.83	131.06
243.064	156.06
243.298	145.06
243.531	124.06
243.765	139.06
243.998	140.06
244.232	152.06
244.465	129.06
244.699	146.06
244.932	153.06
245.166	156.06
245.399	144.06
245.633	155.06
245.866	151.06
246.099	139.06
246.333	166.06
246.566	140.06
246.8	152.06
247.033	135.06
247.266	166.06
247.5	158.06
247.733	168.06
247.966	157.06
248.2	170.06
248.433	168.06
248.666	175.06
248.899	186.06
249.133	172.06
249.366	215.06
249.599	192.06
249.832	180.06
250.066	183.06
250.299	181.06
250.532	205.06
250.765	198.06
250.998	215.06
251.231	220.06
251.465	223.06
251.698	214.06
251.931	215.06
252.164	209.06
252.397	201.06
252.63	205.06
252.863	215.06
253.096	210.06
253.329	244.06
253.562	226.06
253.795	225.06
254.028	224.06
254.261	214.06
254.494	234.06
254.727	255.06
254.96	274.06
255.193	272.06
255.426	262.06
255.659	229.06
255.892	242.06
256.124	242.06
256.357	243.06
256.59	225.06
256.823	234.06
257.056	232.06
257.289	218.06
257.521	228.06
257.754	231.06
257.987	218.06
258.22	231.06
258.452	205.06
258.685	212.06
258.918	202.06
259.151	235.06
259.383	232.06
259.616	219.06
259.849	234.06
260.081	245.06
260.314	268.06
260.547	259.06
260.779	259.06
261.012	247.06
261.244	255.06
261.477	244.06
261.71	227.06
261.942	251.06
262.175	234.06
262.407	243.06
262.64	242.06
262.872	223.06
263.105	239.06
263.337	232.06
263.57	234.06
263.802	217.06
264.035	220.06
264.267	223.06
264.499	220.06
264.732	239.06
264.964	231.06
265.197	230.06
265.429	218.06
265.661	216.06
265.894	242.06
266.126	224.06
266.358	228.06
266.591	224.06
266.823	225.06
267.055	241.06
267.287	239.06
267.52	233.06
267.752	234.06
267.984	239.06
268.216	229.06
268.448	248.06
268.681	255.06
268.913	262.06
269.145	288.06
269.377	298.06
269.609	296.06
269.841	292.06
270.073	295.06
270.306	303.06
270.538	326.06
270.77	339.06
271.002	324.06
271.234	327.06
271.466	333.06
271.698	342.06
271.93	347.06
272.162	337.06
272.394	340.06
272.626	328.06
272.858	318.06
273.09	293.06
273.322	285.06
273.553	287.06
273.785	289.06
274.017	284.06
274.249	285.06
274.481	276.06
274.713	282.06
274.945	283.06
275.176	282.06
275.408	279.06
275.64	290.06
275.872	267.06
276.104	271.06
276.335	275.06
276.567	284.06
276.799	285.06
277.031	310.06
277.262	321.06
277.494	317.06
277.726	310.06
277.957	306.06
278.189	319.06
278.421	268.06
278.652	288.06
278.884	292.06
279.115	268.06
279.347	288.06
279.579	288.06
279.81	263.06
280.042	276.06
280.273	267.06
280.505	282.06
280.736	277.06
280.968	299.06
281.199	286.06
281.431	274.06
281.662	294.06
281.894	275.06
282.125	284.06
282.356	290.06
282.588	314.06
282.819	290.06
283.051	298.06
283.282	294.06
283.513	289.06
283.745	281.06
283.976	315.06
284.207	303.06
284.439	296.06
284.67	295.06
284.901	296.06
285.132	292.06
285.364	263.06
285.595	285.06
285.826	288.06
286.057	298.06
286.288	298.06
286.52	306.06
286.751	298.06
286.982	300.06
287.213	307.06
287.444	287.06
287.675	298.06
287.906	316.06
288.138	305.06
288.369	325.06
288.6	310.06
288.831	328.06
289.062	328.06
289.293	306.06
289.524	303.06
289.755	294.06
289.986	292.06
290.217	301.06
290.448	291.06
290.679	319.06
290.91	289.06
291.141	281.06
291.371	309.06
291.602	302.06
291.833	301.06
292.064	311.06
292.295	293.06
292.526	289.06
292.757	306.06
292.987	301.06
293.218	314.06
293.449	308.06
293.68	311.06
293.91	302.06
294.141	299.06
294.372	310.06
294.603	311.06
294.833	302.06
295.064	295.06
295.295	306.06
295.525	293.06
295.756	314.06
295.987	324.06
296.217	330.06
296.448	334.06
296.679	312.06
296.909	319.06
297.14	302.06
297.37	312.06
297.601	314.06
297.831	312.06
298.062	320.06
298.292	318.06
298.523	306.06
298.753	298.06
298.984	313.06
299.214	317.06
299.445	316.06
299.675	319.06
299.905	319.06
300.136	316.06
300.366	321.06
300.597	327.06
300.827	327.06
301.057	323.06
301.288	345.06
301.518	337.06
301.748	336.06
301.979	331.06
302.209	334.06
302.439	335.06
302.669	346.06
302.9	340.06
303.13	320.06
303.36	341.06
303.59	346.06
303.82	348.06
304.051	331.06
304.281	341.06
304.511	341.06
304.741	351.06
304.971	342.06
305.201	337.06
305.431	350.06
305.661	328.06
305.891	337.06
306.121	343.06
306.352	346.06
306.582	343.06
306.812	354.06
307.042	340.06
307.272	354.06
307.502	335.06
307.731	338.06
307.961	331.06
308.191	336.06
308.421	342.06
308.651	351.06
308.881	343.06
309.111	344.06
309.341	355.06
309.571	365.06
309.8	391.06
310.03	376.06
310.26	374.06
310.49	381.06
310.72	395.06
310.949	408.06
311.179	403.06
311.409	390.06
311.639	398.06
311.868	406.06
312.098	398.06
312.328	402.06
312.557	400.06
312.787	409.06
313.017	406.06
313.246	396.06
313.476	386.06
313.706	394.06
313.935	385.06
314.165	388.06
314.394	424.06
314.624	404.06
314.853	388.06
315.083	406.06
315.312	396.06
315.542	375.06
315.771	378.06
316.001	401.06
316.23	384.06
316.46	393.06
316.689	376.06
316.919	402.06
317.148	382.06
317.377	408.06
317.607	378.06
317.836	370.06
318.065	393.06
318.295	393.06
318.524	395.06
318.753	392.06
318.983	403.06
319.212	401.06
319.441	397.06
319.67	394.06
319.9	390.06
320.129	385.06
320.358	406.06
320.587	400.06
320.816	395.06
321.046	400.06
321.275	412.06
321.504	401.06
321.733	415.06
321.962	421.06
322.191	436.06
322.42	452.06
322.649	438.06
322.878	469.06
323.108	475.06
323.337	471.06
323.566	500.06
323.795	546.06
324.024	570.06
324.253	707.06
324.482	990.06
324.71	1508.06
324.939	2059.06
325.168	1730.06
325.397	924.06
325.626	650.06
325.855	569.06
326.084	521.06
326.313	500.06
326.542	528.06
326.77	568.06
326.999	665.06
327.228	906.06
327.457	1355.06
327.686	1504.06
327.914	1003.06
328.143	695.06
328.372	624.06
328.6	592.06
328.829	557.06
329.058	567.06
329.287	585.06
329.515	534.06
329.744	543.06
329.972	535.06
330.201	536.06
330.43	562.06
330.658	588.06
330.887	600.06
331.115	551.06
331.344	522.06
331.572	475.06
331.801	490.06
332.03	478.06
332.258	483.06
332.486	455.06
332.715	445.06
332.943	444.06
333.172	469.06
333.4	442.06
333.629	471.06
333.857	463.06
334.085	457.06
334.314	503.06
334.542	527.06
334.771	546.06
334.999	493.06
335.227	470.06
335.455	467.06
335.684	473.06
335.912	450.06
336.14	431.06
336.369	448.06
336.597	462.06
336.825	457.06
337.053	444.06
337.281	439.06
337.51	450.06
337.738	445.06
337.966	450.06
338.194	442.06
338.422	427.06
338.65	453.06
338.878	420.06
339.106	427.06
339.334	436.06
339.562	431.06
339.79	430.06
340.018	436.06
340.246	424.06
340.474	417.06
340.702	433.06
340.93	420.06
341.158	415.06
341.386	416.06
341.614	432.06
341.842	433.06
342.07	420.06
342.298	411.06
342.526	436.06
342.754	397.06
342.981	411.06
343.209	411.06
343.437	418.06
343.665	418.06
343.893	431.06
344.12	417.06
344.348	429.06
344.576	426.06
344.804	426.06
345.031	435.06
345.259	445.06
345.487	430.06
345.714	434.06
345.942	416.06
346.17	418.06
346.397	405.06
346.625	418.06
346.853	416.06
347.08	420.06
347.308	407.06
347.535	435.06
347.763	412.06
347.99	400.06
348.218	406.06
348.445	420.06
348.673	428.06
348.9	394.06
349.128	418.06
349.355	405.06
349.583	405.06
349.81	403.06
350.037	378.06
350.265	403.06
350.492	391.06
350.72	375.06
350.947	396.06
351.174	411.06
351.402	383.06
351.629	419.06
351.856	391.06
352.083	405.06
352.311	413.06
352.538	408.06
352.765	418.06
352.992	424.06
353.22	421.06
353.447	394.06
353.674	406.06
353.901	384.06
354.128	368.06
354.355	381.06
354.583	381.06
354.81	380.06
355.037	387.06
355.264	391.06
355.491	356.06
355.718	370.06
355.945	387.06
356.172	388.06
356.399	363.06
356.626	367.06
356.853	341.06
357.08	358.06
357.307	370.06
357.534	366.06
357.761	372.06
357.988	372.06
358.215	375.06
358.441	379.06
358.668	380.06
358.895	382.06
359.122	377.06
359.349	391.06
359.576	400.06
359.802	412.06
360.029	412.06
360.256	430.06
360.483	412.06
360.709	398.06
360.936	384.06
361.163	390.06
361.39	396.06
361.616	389.06
361.843	375.06
362.07	390.06
362.296	413.06
362.523	394.06
362.749	388.06
362.976	390.06
363.203	399.06
363.429	373.06
363.656	374.06
363.882	359.06
364.109	395.06
364.335	377.06
364.562	379.06
364.788	360.06
365.015	382.06
365.241	366.06
365.468	381.06
365.694	374.06
365.92	376.06
366.147	362.06
366.373	384.06
366.599	378.06
366.826	383.06
367.052	376.06
367.278	361.06
367.505	363.06
367.731	371.06
367.957	376.06
368.184	376.06
368.41	373.06
368.636	378.06
368.862	390.06
369.089	366.06
369.315	367.06
369.541	377.06
369.767	365.06
369.993	370.06
370.219	368.06
370.445	363.06
370.672	365.06
370.898	365.06
371.124	373.06
371.35	357.06
371.576	358.06
371.802	373.06
372.028	373.06
372.254	389.06
372.48	367.06
372.706	370.06
372.932	371.06
373.158	366.06
373.384	384.06
373.61	376.06
373.835	358.06
374.061	363.06
374.287	375.06
374.513	381.06
374.739	357.06
374.965	362.06
375.191	372.06
375.416	391.06
375.642	363.06
375.868	348.06
376.094	374.06
376.319	367.06
376.545	394.06
376.771	353.06
376.997	365.06
377.222	348.06
377.448	366.06
377.674	357.06
377.899	356.06
378.125	351.06
378.35	346.06
378.576	357.06
378.802	356.06
379.027	359.06
379.253	362.06
379.478	367.06
379.704	375.06
379.929	347.06
380.155	359.06
380.38	376.06
380.606	356.06
380.831	361.06
381.057	367.06
381.282	361.06
381.507	357.06
381.733	374.06
381.958	358.06
382.184	354.06
382.409	367.06
382.634	350.06
382.86	360.06
383.085	363.06
383.31	359.06
383.535	379.06
383.761	380.06
383.986	360.06
384.211	382.06
384.436	377.06
384.662	349.06
384.887	367.06
385.112	396.06
385.337	389.06
385.562	364.06
385.787	374.06
386.013	374.06
386.238	381.06
386.463	379.06
386.688	375.06
386.913	370.06
387.138	372.06
387.363	385.06
387.588	390.06
387.813	363.06
388.038	392.06
388.263	384.06
388.488	374.06
388.713	377.06
388.938	380.06
389.163	373.06
389.387	388.06
389.612	372.06
389.837	379.06
390.062	375.06
390.287	396.06
390.512	376.06
390.736	358.06
390.961	366.06
391.186	376.06
391.411	378.06
391.636	390.06
391.86	400.06
392.085	366.06
392.31	384.06
392.534	378.06
392.759	384.06
392.984	375.06
393.208	387.06
393.433	388.06
393.658	362.06
393.882	364.06
394.107	363.06
394.331	385.06
394.556	370.06
394.78	383.06
395.005	394.06
395.229	386.06
395.454	395.06
395.678	397.06
395.903	394.06
396.127	423.06
396.352	401.06
396.576	393.06
396.801	392.06
397.025	382.06
397.249	391.06
397.474	398.06
397.698	380.06
397.922	420.06
398.147	405.06
398.371	426.06
398.595	419.06
398.82	430.06
399.044	432.06
399.268	450.06
399.492	471.06
399.717	481.06
399.941	482.06
400.165	508.06
400.389	542.06
400.613	471.06
400.837	434.06
401.062	433.06
401.286	411.06
401.51	426.06
401.734	413.06
401.958	418.06
402.182	427.06
402.406	440.06
402.63	418.06
402.854	414.06
403.078	432.06
403.302	425.06
403.526	414.06
403.75	455.06
403.974	431.06
404.198	426.06
404.422	419.06
404.645	448.06
404.869	454.06
405.093	471.06
405.317	490.06
405.541	525.06
405.765	468.06
405.988	454.06
406.212	461.06
406.436	485.06
406.66	475.06
406.883	482.06
407.107	475.06
407.331	520.06
407.555	565.06
407.778	569.06
408.002	514.06
408.226	490.06
408.449	466.06
408.673	472.06
408.896	520.06
409.12	547.06
409.344	505.06
409.567	427.06
409.791	424.06
410.014	420.06
410.238	449.06
410.461	426.06
410.685	434.06
410.908	450.06
411.132	471.06
411.355	498.06
411.578	502.06
411.802	447.06
412.025	423.06
412.249	444.06
412.472	459.06
412.695	490.06
412.919	473.06
413.142	438.06
413.365	422.06
413.589	413.06
413.812	396.06
414.035	404.06
414.258	393.06
414.482	420.06
414.705	406.06
414.928	426.06
415.151	399.06
415.374	404.06
415.597	402.06
415.821	414.06
416.044	421.06
416.267	413.06
416.49	412.06
416.713	408.06
416.936	395.06
417.159	419.06
417.382	400.06
417.605	411.06
417.828	425.06
418.051	409.06
418.274	416.06
418.497	389.06
418.72	407.06
418.943	412.06
419.166	415.06
419.389	438.06
419.611	442.06
419.834	421.06
420.057	436.06
420.28	429.06
420.503	414.06
420.726	436.06
420.948	434.06
421.171	465.06
421.394	481.06
421.617	432.06
421.839	437.06
422.062	426.06
422.285	463.06
422.507	486.06
422.73	548.06
422.953	523.06
423.175	473.06
423.398	458.06
423.621	460.06
423.843	452.06
424.066	469.06
424.288	478.06
424.511	470.06
424.733	521.06
424.956	578.06
425.178	583.06
425.401	553.06
425.623	573.06
425.846	476.06
426.068	471.06
426.291	436.06
426.513	448.06
426.735	462.06
426.958	495.06
427.18	575.06
427.402	687.06
427.625	730.06
427.847	642.06
428.069	559.06
428.292	502.06
428.514	470.06
428.736	434.06
428.958	443.06
429.181	429.06
429.403	415.06
429.625	411.06
429.847	474.06
430.069	518.06
430.292	510.06
430.514	457.06
430.736	413.06
430.958	411.06
431.18	405.06
431.402	387.06
431.624	395.06
431.846	402.06
432.068	392.06
432.29	394.06
432.512	402.06
432.734	389.06
432.956	406.06
433.178	414.06
433.4	399.06
433.622	406.06
433.844	400.06
434.066	399.06
434.287	377.06
434.509	391.06
434.731	411.06
434.953	410.06
435.175	411.06
435.397	445.06
435.618	477.06
435.84	495.06
436.062	565.06
436.284	602.06
436.505	525.06
436.727	495.06
436.949	453.06
437.17	436.06
437.392	446.06
437.614	433.06
437.835	458.06
438.057	556.06
438.278	610.06
438.5	643.06
438.721	681.06
438.943	634.06
439.165	486.06
439.386	475.06
439.608	479.06
439.829	462.06
440.05	512.06
440.272	524.06
440.493	494.06
440.715	445.06
440.936	441.06
441.158	440.06
441.379	435.06
441.6	439.06
441.822	463.06
442.043	478.06
442.264	552.06
442.486	589.06
442.707	530.06
442.928	462.06
443.149	483.06
443.371	477.06
443.592	520.06
443.813	623.06
444.034	656.06
444.255	539.06
444.476	474.06
444.698	461.06
444.919	457.06
445.14	543.06
445.361	512.06
445.582	499.06
445.803	544.06
446.024	636.06
446.245	636.06
446.466	591.06
446.687	505.06
446.908	476.06
447.129	468.06
447.35	446.06
447.571	422.06
447.792	432.06
448.013	434.06
448.234	451.06
448.455	502.06
448.675	588.06
448.896	669.06
449.117	580.06
449.338	543.06
449.559	644.06
449.779	687.06
450	575.06
450.221	453.06
450.442	438.06
450.662	437.06
450.883	432.06
451.104	411.06
451.324	404.06
451.545	406.06
451.766	387.06
451.986	393.06
452.207	377.06
452.428	360.06
452.648	374.06
452.869	391.06
453.089	389.06
453.31	400.06
453.53	382.06
453.751	362.06
453.971	382.06
454.192	378.06
454.412	380.06
454.633	375.06
454.853	374.06
455.073	388.06
455.294	412.06
455.514	459.06
455.734	438.06
455.955	383.06
456.175	375.06
456.395	352.06
456.616	364.06
456.836	357.06
457.056	332.06
457.276	327.06
457.497	345.06
457.717	358.06
457.937	380.06
458.157	373.06
458.377	351.06
458.598	388.06
458.818	414.06
459.038	480.06
459.258	507.06
459.478	408.06
459.698	381.06
459.918	367.06
460.138	395.06
460.358	388.06
460.578	389.06
460.798	375.06
461.018	387.06
461.238	400.06
461.458	401.06
461.678	388.06
461.898	381.06
462.118	396.06
462.338	385.06
462.558	404.06
462.777	415.06
462.997	416.06
463.217	420.06
463.437	422.06
463.657	415.06
463.876	404.06
464.096	418.06
464.316	421.06
464.536	412.06
464.755	429.06
464.975	407.06
465.195	470.06
465.414	510.06
465.634	438.06
465.854	423.06
466.073	390.06
466.293	383.06
466.512	369.06
466.732	392.06
466.951	382.06
467.171	392.06
467.391	387.06
467.61	390.06
467.829	393.06
468.049	391.06
468.268	388.06
468.488	391.06
468.707	388.06
468.927	373.06
469.146	372.06
469.365	372.06
469.585	368.06
469.804	373.06
470.023	388.06
470.243	384.06
470.462	390.06
470.681	413.06
470.901	399.06
471.12	378.06
471.339	385.06
471.558	381.06
471.777	396.06
471.997	407.06
472.216	392.06
472.435	411.06
472.654	394.06
472.873	379.06
473.092	372.06
473.311	361.06
473.53	383.06
473.749	398.06
473.968	422.06
474.187	512.06
474.406	540.06
474.625	432.06
474.844	420.06
475.063	401.06
475.282	386.06
475.501	400.06
475.72	396.06
475.939	389.06
476.158	399.06
476.377	399.06
476.596	380.06
476.814	404.06
477.033	405.06
477.252	412.06
477.471	399.06
477.69	383.06
477.908	406.06
478.127	416.06
478.346	412.06
478.564	428.06
478.783	428.06
479.002	420.06
479.22	439.06
479.439	449.06
479.658	460.06
479.876	458.06
480.095	458.06
480.313	503.06
480.532	514.06
480.751	476.06
480.969	462.06
481.188	510.06
481.406	518.06
481.624	475.06
481.843	467.06
482.061	462.06
482.28	458.06
482.498	454.06
482.717	426.06
482.935	447.06
483.153	452.06
483.372	462.06
483.59	474.06
483.808	436.06
484.027	451.06
484.245	481.06
484.463	454.06
484.681	441.06
484.9	479.06
485.118	457.06
485.336	456.06
485.554	463.06
485.772	457.06
485.99	465.06
486.209	464.06
486.427	458.06
486.645	458.06
486.863	470.06
487.081	499.06
487.299	456.06
487.517	485.06
487.735	467.06
487.953	472.06
488.171	489.06
488.389	488.06
488.607	482.06
488.825	500.06
489.043	460.06
489.261	463.06
489.479	494.06
489.696	494.06
489.914	492.06
490.132	500.06
490.35	502.06
490.568	523.06
490.786	493.06
491.003	536.06
491.221	546.06
491.439	545.06
491.657	550.06
491.874	548.06
492.092	546.06
492.31	544.06
492.527	553.06
492.745	574.06
492.963	564.06
493.18	582.06
493.398	550.06
493.615	570.06
493.833	573.06
494.05	582.06
494.268	564.06
494.485	583.06
494.703	551.06
494.92	575.06
495.138	583.06
495.355	574.06
495.573	575.06
495.79	583.06
496.008	578.06
496.225	566.06
496.442	559.06
496.66	548.06
496.877	568.06
497.094	584.06
497.312	571.06
497.529	581.06
497.746	607.06
497.963	586.06
498.181	591.06
498.398	616.06
498.615	616.06
498.832	619.06
499.049	613.06
499.267	619.06
499.484	621.06
499.701	674.06
499.918	706.06
500.135	726.06
500.352	755.06
500.569	749.06
500.786	740.06
501.003	724.06
501.22	726.06
501.437	689.06
501.654	692.06
501.871	678.06
