Data from 1971.PennyLincolnUp.Lamp.En5.5.200Scan.071719.P1._HRD10591_15-18-33-841.txt Node
Date: Thu Jul 18 15:18:33 EDT 2019
User: cochatt
Spectrometer: HR+D1059
Trigger mode: 1
Integration Time (sec): 1.000000E-1
Scans to average: 1
Electric dark correction enabled: true
Nonlinearity correction enabled: false
Boxcar width: 0
XAxis mode: Wavelengths
Number of Pixels in Spectrum: 2048
>>>>>Begin Spectral Data<<<<<
223.165	-21.75
223.4	-21.75
223.635	-21.75
223.869	-21.75
224.104	-19.75
224.338	-14.75
224.573	-11.75
224.808	-5.75
225.042	1.25
225.277	-6.75
225.511	-9.75
225.746	7.25
225.98	7.25
226.215	8.25
226.449	19.25
226.683	20.25
226.918	28.25
227.152	20.25
227.387	31.25
227.621	42.25
227.856	41.25
228.09	54.25
228.324	49.25
228.559	56.25
228.793	68.25
229.027	94.25
229.262	89.25
229.496	107.25
229.73	111.25
229.964	119.25
230.199	130.25
230.433	116.25
230.667	117.25
230.901	102.25
231.136	116.25
231.37	112.25
231.604	106.25
231.838	124.25
232.072	111.25
232.306	118.25
232.541	116.25
232.775	103.25
233.009	116.25
233.243	118.25
233.477	110.25
233.711	104.25
233.945	122.25
234.179	119.25
234.413	113.25
234.647	124.25
234.881	128.25
235.115	117.25
235.349	106.25
235.583	116.25
235.817	118.25
236.051	113.25
236.285	122.25
236.519	125.25
236.753	133.25
236.987	140.25
237.221	174.25
237.455	201.25
237.689	153.25
237.922	123.25
238.156	122.25
238.39	136.25
238.624	129.25
238.858	123.25
239.091	127.25
239.325	124.25
239.559	125.25
239.793	125.25
240.027	111.25
240.26	142.25
240.494	132.25
240.728	137.25
240.961	144.25
241.195	144.25
241.429	126.25
241.662	136.25
241.896	131.25
242.13	131.25
242.363	126.25
242.597	132.25
242.83	118.25
243.064	128.25
243.298	141.25
243.531	128.25
243.765	144.25
243.998	135.25
244.232	126.25
244.465	132.25
244.699	140.25
244.932	123.25
245.166	158.25
245.399	147.25
245.633	146.25
245.866	135.25
246.099	133.25
246.333	145.25
246.566	135.25
246.8	141.25
247.033	158.25
247.266	161.25
247.5	163.25
247.733	166.25
247.966	157.25
248.2	158.25
248.433	159.25
248.666	169.25
248.899	175.25
249.133	174.25
249.366	175.25
249.599	184.25
249.832	164.25
250.066	184.25
250.299	189.25
250.532	196.25
250.765	181.25
250.998	219.25
251.231	226.25
251.465	209.25
251.698	206.25
251.931	186.25
252.164	193.25
252.397	198.25
252.63	209.25
252.863	191.25
253.096	195.25
253.329	206.25
253.562	217.25
253.795	209.25
254.028	213.25
254.261	221.25
254.494	222.25
254.727	251.25
254.96	262.25
255.193	261.25
255.426	239.25
255.659	221.25
255.892	234.25
256.124	227.25
256.357	231.25
256.59	221.25
256.823	228.25
257.056	223.25
257.289	212.25
257.521	194.25
257.754	209.25
257.987	206.25
258.22	211.25
258.452	199.25
258.685	194.25
258.918	200.25
259.151	220.25
259.383	209.25
259.616	227.25
259.849	229.25
260.081	225.25
260.314	252.25
260.547	239.25
260.779	227.25
261.012	224.25
261.244	226.25
261.477	218.25
261.71	232.25
261.942	228.25
262.175	226.25
262.407	241.25
262.64	193.25
262.872	206.25
263.105	212.25
263.337	216.25
263.57	220.25
263.802	223.25
264.035	201.25
264.267	205.25
264.499	205.25
264.732	226.25
264.964	209.25
265.197	214.25
265.429	217.25
265.661	216.25
265.894	213.25
266.126	223.25
266.358	207.25
266.591	225.25
266.823	209.25
267.055	216.25
267.287	223.25
267.52	208.25
267.752	225.25
267.984	229.25
268.216	238.25
268.448	233.25
268.681	237.25
268.913	252.25
269.145	261.25
269.377	264.25
269.609	255.25
269.841	266.25
270.073	256.25
270.306	282.25
270.538	289.25
270.77	304.25
271.002	282.25
271.234	296.25
271.466	304.25
271.698	292.25
271.93	304.25
272.162	303.25
272.394	309.25
272.626	300.25
272.858	281.25
273.09	300.25
273.322	271.25
273.553	272.25
273.785	253.25
274.017	262.25
274.249	273.25
274.481	265.25
274.713	249.25
274.945	270.25
275.176	272.25
275.408	241.25
275.64	266.25
275.872	268.25
276.104	242.25
276.335	259.25
276.567	265.25
276.799	273.25
277.031	297.25
277.262	288.25
277.494	296.25
277.726	299.25
277.957	278.25
278.189	283.25
278.421	275.25
278.652	273.25
278.884	268.25
279.115	272.25
279.347	275.25
279.579	264.25
279.81	270.25
280.042	280.25
280.273	268.25
280.505	270.25
280.736	268.25
280.968	247.25
281.199	274.25
281.431	255.25
281.662	285.25
281.894	255.25
282.125	273.25
282.356	274.25
282.588	289.25
282.819	308.25
283.051	281.25
283.282	270.25
283.513	273.25
283.745	275.25
283.976	292.25
284.207	269.25
284.439	279.25
284.67	272.25
284.901	297.25
285.132	296.25
285.364	274.25
285.595	268.25
285.826	265.25
286.057	294.25
286.288	276.25
286.52	289.25
286.751	274.25
286.982	290.25
287.213	273.25
287.444	284.25
287.675	285.25
287.906	293.25
288.138	310.25
288.369	310.25
288.6	302.25
288.831	303.25
289.062	298.25
289.293	294.25
289.524	282.25
289.755	284.25
289.986	290.25
290.217	282.25
290.448	288.25
290.679	276.25
290.91	298.25
291.141	276.25
291.371	296.25
291.602	296.25
291.833	292.25
292.064	301.25
292.295	310.25
292.526	284.25
292.757	282.25
292.987	292.25
293.218	289.25
293.449	292.25
293.68	280.25
293.91	298.25
294.141	304.25
294.372	300.25
294.603	279.25
294.833	294.25
295.064	281.25
295.295	314.25
295.525	287.25
295.756	293.25
295.987	294.25
296.217	297.25
296.448	313.25
296.679	309.25
296.909	309.25
297.14	297.25
297.37	286.25
297.601	317.25
297.831	307.25
298.062	313.25
298.292	312.25
298.523	309.25
298.753	309.25
298.984	305.25
299.214	318.25
299.445	304.25
299.675	310.25
299.905	306.25
300.136	316.25
300.366	314.25
300.597	305.25
300.827	310.25
301.057	310.25
301.288	314.25
301.518	311.25
301.748	310.25
301.979	323.25
302.209	316.25
302.439	327.25
302.669	317.25
302.9	324.25
303.13	320.25
303.36	319.25
303.59	314.25
303.82	335.25
304.051	359.25
304.281	328.25
304.511	323.25
304.741	338.25
304.971	325.25
305.201	300.25
305.431	326.25
305.661	331.25
305.891	336.25
306.121	325.25
306.352	338.25
306.582	348.25
306.812	330.25
307.042	321.25
307.272	324.25
307.502	336.25
307.731	312.25
307.961	331.25
308.191	321.25
308.421	326.25
308.651	331.25
308.881	336.25
309.111	327.25
309.341	350.25
309.571	333.25
309.8	359.25
310.03	350.25
310.26	354.25
310.49	355.25
310.72	362.25
310.949	380.25
311.179	371.25
311.409	357.25
311.639	374.25
311.868	364.25
312.098	362.25
312.328	369.25
312.557	372.25
312.787	398.25
313.017	380.25
313.246	369.25
313.476	382.25
313.706	353.25
313.935	350.25
314.165	375.25
314.394	372.25
314.624	395.25
314.853	362.25
315.083	357.25
315.312	372.25
315.542	376.25
315.771	367.25
316.001	365.25
316.23	357.25
316.46	354.25
316.689	360.25
316.919	367.25
317.148	367.25
317.377	369.25
317.607	372.25
317.836	386.25
318.065	368.25
318.295	362.25
318.524	362.25
318.753	374.25
318.983	380.25
319.212	364.25
319.441	378.25
319.67	374.25
319.9	374.25
320.129	393.25
320.358	382.25
320.587	394.25
320.816	371.25
321.046	388.25
321.275	401.25
321.504	369.25
321.733	374.25
321.962	407.25
322.191	372.25
322.42	412.25
322.649	412.25
322.878	428.25
323.108	430.25
323.337	445.25
323.566	448.25
323.795	495.25
324.024	502.25
324.253	618.25
324.482	845.25
324.71	1304.25
324.939	1698.25
325.168	1444.25
325.397	820.25
325.626	567.25
325.855	489.25
326.084	480.25
326.313	453.25
326.542	474.25
326.77	511.25
326.999	616.25
327.228	782.25
327.457	1116.25
327.686	1299.25
327.914	900.25
328.143	575.25
328.372	558.25
328.6	516.25
328.829	504.25
329.058	501.25
329.287	508.25
329.515	492.25
329.744	453.25
329.972	465.25
330.201	465.25
330.43	516.25
330.658	528.25
330.887	538.25
331.115	510.25
331.344	485.25
331.572	457.25
331.801	461.25
332.03	460.25
332.258	456.25
332.486	423.25
332.715	420.25
332.943	430.25
333.172	429.25
333.4	407.25
333.629	417.25
333.857	449.25
334.085	443.25
334.314	460.25
334.542	471.25
334.771	479.25
334.999	452.25
335.227	421.25
335.455	421.25
335.684	431.25
335.912	414.25
336.14	410.25
336.369	408.25
336.597	410.25
336.825	423.25
337.053	421.25
337.281	398.25
337.51	409.25
337.738	407.25
337.966	416.25
338.194	401.25
338.422	395.25
338.65	406.25
338.878	407.25
339.106	403.25
339.334	396.25
339.562	390.25
339.79	402.25
340.018	412.25
340.246	388.25
340.474	385.25
340.702	427.25
340.93	400.25
341.158	379.25
341.386	404.25
341.614	418.25
341.842	408.25
342.07	414.25
342.298	402.25
342.526	390.25
342.754	396.25
342.981	377.25
343.209	384.25
343.437	416.25
343.665	395.25
343.893	412.25
344.12	402.25
344.348	402.25
344.576	409.25
344.804	399.25
345.031	407.25
345.259	414.25
345.487	419.25
345.714	381.25
345.942	379.25
346.17	399.25
346.397	382.25
346.625	386.25
346.853	388.25
347.08	381.25
347.308	385.25
347.535	379.25
347.763	386.25
347.99	382.25
348.218	398.25
348.445	400.25
348.673	390.25
348.9	399.25
349.128	394.25
349.355	381.25
349.583	390.25
349.81	364.25
350.037	367.25
350.265	382.25
350.492	372.25
350.72	373.25
350.947	367.25
351.174	372.25
351.402	399.25
351.629	390.25
351.856	389.25
352.083	366.25
352.311	388.25
352.538	384.25
352.765	380.25
352.992	389.25
353.22	382.25
353.447	385.25
353.674	374.25
353.901	358.25
354.128	382.25
354.355	354.25
354.583	361.25
354.81	375.25
355.037	346.25
355.264	344.25
355.491	332.25
355.718	354.25
355.945	378.25
356.172	364.25
356.399	357.25
356.626	366.25
356.853	356.25
357.08	361.25
357.307	339.25
357.534	346.25
357.761	349.25
357.988	368.25
358.215	368.25
358.441	350.25
358.668	351.25
358.895	390.25
359.122	362.25
359.349	383.25
359.576	366.25
359.802	376.25
360.029	394.25
360.256	392.25
360.483	393.25
360.709	364.25
360.936	374.25
361.163	378.25
361.39	362.25
361.616	391.25
361.843	361.25
362.07	380.25
362.296	360.25
362.523	376.25
362.749	354.25
362.976	360.25
363.203	380.25
363.429	354.25
363.656	377.25
363.882	365.25
364.109	367.25
364.335	360.25
364.562	357.25
364.788	353.25
365.015	344.25
365.241	347.25
365.468	367.25
365.694	357.25
365.92	345.25
366.147	370.25
366.373	345.25
366.599	338.25
366.826	362.25
367.052	340.25
367.278	363.25
367.505	353.25
367.731	346.25
367.957	358.25
368.184	353.25
368.41	362.25
368.636	361.25
368.862	391.25
369.089	374.25
369.315	360.25
369.541	347.25
369.767	353.25
369.993	340.25
370.219	350.25
370.445	345.25
370.672	347.25
370.898	346.25
371.124	354.25
371.35	361.25
371.576	327.25
371.802	350.25
372.028	342.25
372.254	356.25
372.48	360.25
372.706	351.25
372.932	355.25
373.158	352.25
373.384	357.25
373.61	357.25
373.835	348.25
374.061	353.25
374.287	356.25
374.513	344.25
374.739	350.25
374.965	359.25
375.191	352.25
375.416	354.25
375.642	358.25
375.868	358.25
376.094	370.25
376.319	360.25
376.545	348.25
376.771	373.25
376.997	360.25
377.222	351.25
377.448	353.25
377.674	346.25
377.899	329.25
378.125	341.25
378.35	333.25
378.576	359.25
378.802	347.25
379.027	344.25
379.253	341.25
379.478	346.25
379.704	336.25
379.929	348.25
380.155	338.25
380.38	342.25
380.606	345.25
380.831	338.25
381.057	358.25
381.282	361.25
381.507	359.25
381.733	350.25
381.958	353.25
382.184	358.25
382.409	344.25
382.634	362.25
382.86	350.25
383.085	342.25
383.31	360.25
383.535	344.25
383.761	353.25
383.986	363.25
384.211	361.25
384.436	370.25
384.662	365.25
384.887	350.25
385.112	344.25
385.337	360.25
385.562	360.25
385.787	369.25
386.013	368.25
386.238	366.25
386.463	362.25
386.688	372.25
386.913	350.25
387.138	364.25
387.363	370.25
387.588	362.25
387.813	372.25
388.038	380.25
388.263	364.25
388.488	367.25
388.713	362.25
388.938	385.25
389.163	351.25
389.387	352.25
389.612	352.25
389.837	370.25
390.062	359.25
390.287	358.25
390.512	347.25
390.736	344.25
390.961	363.25
391.186	367.25
391.411	350.25
391.636	364.25
391.86	376.25
392.085	379.25
392.31	380.25
392.534	373.25
392.759	362.25
392.984	361.25
393.208	362.25
393.433	380.25
393.658	390.25
393.882	366.25
394.107	348.25
394.331	359.25
394.556	391.25
394.78	360.25
395.005	344.25
395.229	361.25
395.454	357.25
395.678	378.25
395.903	378.25
396.127	396.25
396.352	376.25
396.576	357.25
396.801	366.25
397.025	369.25
397.249	378.25
397.474	378.25
397.698	380.25
397.922	402.25
398.147	401.25
398.371	413.25
398.595	394.25
398.82	414.25
399.044	390.25
399.268	416.25
399.492	427.25
399.717	439.25
399.941	475.25
400.165	496.25
400.389	490.25
400.613	469.25
400.837	419.25
401.062	408.25
401.286	403.25
401.51	397.25
401.734	400.25
401.958	407.25
402.182	396.25
402.406	411.25
402.63	427.25
402.854	410.25
403.078	399.25
403.302	426.25
403.526	401.25
403.75	421.25
403.974	409.25
404.198	400.25
404.422	411.25
404.645	415.25
404.869	419.25
405.093	435.25
405.317	461.25
405.541	483.25
405.765	442.25
405.988	450.25
406.212	452.25
406.436	440.25
406.66	453.25
406.883	440.25
407.107	459.25
407.331	494.25
407.555	551.25
407.778	529.25
408.002	473.25
408.226	443.25
408.449	427.25
408.673	443.25
408.896	471.25
409.12	488.25
409.344	461.25
409.567	428.25
409.791	428.25
410.014	419.25
410.238	399.25
410.461	408.25
410.685	419.25
410.908	409.25
411.132	443.25
411.355	476.25
411.578	452.25
411.802	406.25
412.025	399.25
412.249	416.25
412.472	447.25
412.695	464.25
412.919	453.25
413.142	414.25
413.365	387.25
413.589	398.25
413.812	399.25
414.035	396.25
414.258	389.25
414.482	406.25
414.705	398.25
414.928	391.25
415.151	377.25
415.374	385.25
415.597	369.25
415.821	364.25
416.044	396.25
416.267	386.25
416.49	379.25
416.713	369.25
416.936	374.25
417.159	377.25
417.382	400.25
417.605	397.25
417.828	401.25
418.051	395.25
418.274	391.25
418.497	382.25
418.72	393.25
418.943	390.25
419.166	418.25
419.389	410.25
419.611	402.25
419.834	399.25
420.057	402.25
420.28	413.25
420.503	413.25
420.726	398.25
420.948	422.25
421.171	456.25
421.394	454.25
421.617	425.25
421.839	433.25
422.062	419.25
422.285	424.25
422.507	468.25
422.73	501.25
422.953	473.25
423.175	425.25
423.398	420.25
423.621	418.25
423.843	436.25
424.066	463.25
424.288	444.25
424.511	470.25
424.733	474.25
424.956	550.25
425.178	537.25
425.401	514.25
425.623	536.25
425.846	465.25
426.068	428.25
426.291	442.25
426.513	420.25
426.735	426.25
426.958	466.25
427.18	538.25
427.402	618.25
427.625	679.25
427.847	613.25
428.069	522.25
428.292	466.25
428.514	438.25
428.736	406.25
428.958	407.25
429.181	397.25
429.403	400.25
429.625	415.25
429.847	447.25
430.069	495.25
430.292	481.25
430.514	417.25
430.736	412.25
430.958	402.25
431.18	381.25
431.402	376.25
431.624	384.25
431.846	371.25
432.068	376.25
432.29	374.25
432.512	363.25
432.734	397.25
432.956	384.25
433.178	386.25
433.4	396.25
433.622	382.25
433.844	390.25
434.066	377.25
434.287	365.25
434.509	367.25
434.731	376.25
434.953	386.25
435.175	430.25
435.397	441.25
435.618	441.25
435.84	473.25
436.062	544.25
436.284	565.25
436.505	470.25
436.727	420.25
436.949	419.25
437.17	384.25
437.392	391.25
437.614	414.25
437.835	420.25
438.057	524.25
438.278	565.25
438.5	595.25
438.721	628.25
438.943	605.25
439.165	502.25
439.386	450.25
439.608	446.25
439.829	427.25
440.05	450.25
440.272	492.25
440.493	442.25
440.715	426.25
440.936	423.25
441.158	402.25
441.379	412.25
441.6	431.25
441.822	406.25
442.043	470.25
442.264	500.25
442.486	553.25
442.707	480.25
442.928	429.25
443.149	436.25
443.371	479.25
443.592	501.25
443.813	559.25
444.034	580.25
444.255	504.25
444.476	446.25
444.698	448.25
444.919	463.25
445.14	581.25
445.361	505.25
445.582	467.25
445.803	493.25
446.024	588.25
446.245	599.25
446.466	542.25
446.687	464.25
446.908	450.25
447.129	427.25
447.35	396.25
447.571	409.25
447.792	403.25
448.013	402.25
448.234	425.25
448.455	439.25
448.675	514.25
448.896	601.25
449.117	542.25
449.338	511.25
449.559	596.25
449.779	652.25
450	551.25
450.221	422.25
450.442	398.25
450.662	401.25
450.883	399.25
451.104	410.25
451.324	390.25
451.545	366.25
451.766	362.25
451.986	361.25
452.207	352.25
452.428	364.25
452.648	337.25
452.869	367.25
453.089	376.25
453.31	364.25
453.53	367.25
453.751	361.25
453.971	353.25
454.192	361.25
454.412	358.25
454.633	345.25
454.853	341.25
455.073	362.25
455.294	392.25
455.514	412.25
455.734	406.25
455.955	373.25
456.175	354.25
456.395	329.25
456.616	309.25
456.836	326.25
457.056	323.25
457.276	337.25
457.497	326.25
457.717	312.25
457.937	333.25
458.157	354.25
458.377	339.25
458.598	360.25
458.818	406.25
459.038	444.25
459.258	451.25
459.478	398.25
459.698	358.25
459.918	386.25
460.138	374.25
460.358	373.25
460.578	379.25
460.798	385.25
461.018	363.25
461.238	382.25
461.458	386.25
461.678	360.25
461.898	381.25
462.118	367.25
462.338	368.25
462.558	392.25
462.777	397.25
462.997	392.25
463.217	406.25
463.437	406.25
463.657	401.25
463.876	403.25
464.096	402.25
464.316	400.25
464.536	406.25
464.755	407.25
464.975	404.25
465.195	410.25
465.414	464.25
465.634	407.25
465.854	386.25
466.073	374.25
466.293	373.25
466.512	356.25
466.732	369.25
466.951	377.25
467.171	370.25
467.391	351.25
467.61	379.25
467.829	386.25
468.049	360.25
468.268	348.25
468.488	350.25
468.707	356.25
468.927	346.25
469.146	354.25
469.365	356.25
469.585	362.25
469.804	385.25
470.023	381.25
470.243	364.25
470.462	364.25
470.681	372.25
470.901	366.25
471.12	377.25
471.339	376.25
471.558	367.25
471.777	369.25
471.997	355.25
472.216	367.25
472.435	375.25
472.654	372.25
472.873	347.25
473.092	366.25
473.311	363.25
473.53	364.25
473.749	377.25
473.968	412.25
474.187	493.25
474.406	509.25
474.625	421.25
474.844	386.25
475.063	381.25
475.282	366.25
475.501	356.25
475.72	363.25
475.939	385.25
476.158	376.25
476.377	370.25
476.596	365.25
476.814	386.25
477.033	398.25
477.252	375.25
477.471	385.25
477.69	397.25
477.908	412.25
478.127	402.25
478.346	380.25
478.564	412.25
478.783	393.25
479.002	403.25
479.22	406.25
479.439	424.25
479.658	430.25
479.876	430.25
480.095	432.25
480.313	444.25
480.532	452.25
480.751	429.25
480.969	449.25
481.188	494.25
481.406	464.25
481.624	444.25
481.843	443.25
482.061	415.25
482.28	422.25
482.498	419.25
482.717	432.25
482.935	409.25
483.153	439.25
483.372	436.25
483.59	430.25
483.808	424.25
484.027	417.25
484.245	430.25
484.463	430.25
484.681	440.25
484.9	428.25
485.118	479.25
485.336	424.25
485.554	427.25
485.772	435.25
485.99	439.25
486.209	443.25
486.427	442.25
486.645	454.25
486.863	437.25
487.081	466.25
487.299	448.25
487.517	460.25
487.735	455.25
487.953	458.25
488.171	465.25
488.389	477.25
488.607	461.25
488.825	454.25
489.043	471.25
489.261	473.25
489.479	449.25
489.696	472.25
489.914	440.25
490.132	453.25
490.35	468.25
490.568	489.25
490.786	495.25
491.003	484.25
491.221	486.25
491.439	513.25
491.657	499.25
491.874	533.25
492.092	529.25
492.31	553.25
492.527	516.25
492.745	548.25
492.963	538.25
493.18	521.25
493.398	533.25
493.615	539.25
493.833	551.25
494.05	518.25
494.268	525.25
494.485	528.25
494.703	522.25
494.92	527.25
495.138	537.25
495.355	531.25
495.573	541.25
495.79	540.25
496.008	545.25
496.225	534.25
496.442	534.25
496.66	513.25
496.877	542.25
497.094	543.25
497.312	544.25
497.529	561.25
497.746	554.25
497.963	551.25
498.181	573.25
498.398	582.25
498.615	592.25
498.832	580.25
499.049	606.25
499.267	632.25
499.484	625.25
499.701	614.25
499.918	671.25
500.135	696.25
500.352	707.25
500.569	702.25
500.786	718.25
501.003	698.25
501.22	694.25
501.437	689.25
501.654	684.25
501.871	654.25
502.088	631.25
