Data from 1971.PennyLincolnUp.Lamp.En5.5.200Scan.071719.P1.Scan 2. Changed Angle._HRD10591_15-22-44-841.txt Node
Date: Thu Jul 18 15:22:44 EDT 2019
User: cochatt
Spectrometer: HR+D1059
Trigger mode: 1
Integration Time (sec): 1.000000E-1
Scans to average: 1
Electric dark correction enabled: true
Nonlinearity correction enabled: false
Boxcar width: 0
XAxis mode: Wavelengths
Number of Pixels in Spectrum: 2048
>>>>>Begin Spectral Data<<<<<
223.165	-15.56
223.4	-15.56
223.635	-15.56
223.869	-12.56
224.104	-14.56
224.338	-6.56
224.573	-29.56
224.808	-13.56
225.042	-8.56
225.277	-6.56
225.511	-2.56
225.746	8.44
225.98	3.44
226.215	10.44
226.449	0.44
226.683	27.44
226.918	20.44
227.152	39.44
227.387	19.44
227.621	42.44
227.856	37.44
228.09	41.44
228.324	46.44
228.559	58.44
228.793	52.44
229.027	87.44
229.262	101.44
229.496	110.44
229.73	126.44
229.964	170.44
230.199	116.44
230.433	120.44
230.667	117.44
230.901	108.44
231.136	110.44
231.37	127.44
231.604	106.44
231.838	96.44
232.072	98.44
232.306	104.44
232.541	113.44
232.775	103.44
233.009	102.44
233.243	114.44
233.477	120.44
233.711	115.44
233.945	97.44
234.179	108.44
234.413	118.44
234.647	106.44
234.881	102.44
235.115	120.44
235.349	112.44
235.583	106.44
235.817	124.44
236.051	132.44
236.285	136.44
236.519	126.44
236.753	109.44
236.987	144.44
237.221	196.44
237.455	236.44
237.689	181.44
237.922	146.44
238.156	119.44
238.39	124.44
238.624	128.44
238.858	135.44
239.091	118.44
239.325	114.44
239.559	131.44
239.793	107.44
240.027	122.44
240.26	136.44
240.494	148.44
240.728	142.44
240.961	150.44
241.195	136.44
241.429	135.44
241.662	137.44
241.896	141.44
242.13	117.44
242.363	128.44
242.597	134.44
242.83	137.44
243.064	130.44
243.298	144.44
243.531	134.44
243.765	132.44
243.998	127.44
244.232	144.44
244.465	137.44
244.699	140.44
244.932	133.44
245.166	134.44
245.399	149.44
245.633	142.44
245.866	153.44
246.099	137.44
246.333	161.44
246.566	163.44
246.8	136.44
247.033	152.44
247.266	146.44
247.5	140.44
247.733	180.44
247.966	143.44
248.2	184.44
248.433	167.44
248.666	169.44
248.899	167.44
249.133	184.44
249.366	208.44
249.599	180.44
249.832	190.44
250.066	183.44
250.299	186.44
250.532	182.44
250.765	207.44
250.998	224.44
251.231	221.44
251.465	214.44
251.698	212.44
251.931	192.44
252.164	201.44
252.397	190.44
252.63	199.44
252.863	214.44
253.096	229.44
253.329	211.44
253.562	228.44
253.795	227.44
254.028	201.44
254.261	192.44
254.494	214.44
254.727	232.44
254.96	268.44
255.193	267.44
255.426	234.44
255.659	231.44
255.892	224.44
256.124	233.44
256.357	231.44
256.59	221.44
256.823	203.44
257.056	195.44
257.289	204.44
257.521	207.44
257.754	189.44
257.987	205.44
258.22	206.44
258.452	210.44
258.685	192.44
258.918	187.44
259.151	208.44
259.383	202.44
259.616	202.44
259.849	222.44
260.081	218.44
260.314	223.44
260.547	239.44
260.779	227.44
261.012	216.44
261.244	219.44
261.477	217.44
261.71	214.44
261.942	210.44
262.175	245.44
262.407	222.44
262.64	202.44
262.872	209.44
263.105	183.44
263.337	198.44
263.57	188.44
263.802	195.44
264.035	189.44
264.267	200.44
264.499	182.44
264.732	200.44
264.964	201.44
265.197	189.44
265.429	187.44
265.661	203.44
265.894	194.44
266.126	215.44
266.358	187.44
266.591	210.44
266.823	207.44
267.055	186.44
267.287	213.44
267.52	200.44
267.752	195.44
267.984	201.44
268.216	216.44
268.448	208.44
268.681	216.44
268.913	233.44
269.145	229.44
269.377	252.44
269.609	235.44
269.841	239.44
270.073	260.44
270.306	260.44
270.538	289.44
270.77	286.44
271.002	278.44
271.234	271.44
271.466	271.44
271.698	293.44
271.93	286.44
272.162	285.44
272.394	285.44
272.626	270.44
272.858	251.44
273.09	251.44
273.322	262.44
273.553	245.44
273.785	250.44
274.017	255.44
274.249	266.44
274.481	238.44
274.713	249.44
274.945	260.44
275.176	228.44
275.408	246.44
275.64	245.44
275.872	236.44
276.104	245.44
276.335	226.44
276.567	256.44
276.799	246.44
277.031	271.44
277.262	294.44
277.494	276.44
277.726	256.44
277.957	238.44
278.189	266.44
278.421	234.44
278.652	240.44
278.884	248.44
279.115	243.44
279.347	248.44
279.579	227.44
279.81	232.44
280.042	242.44
280.273	233.44
280.505	234.44
280.736	231.44
280.968	233.44
281.199	237.44
281.431	223.44
281.662	227.44
281.894	232.44
282.125	246.44
282.356	263.44
282.588	267.44
282.819	237.44
283.051	248.44
283.282	235.44
283.513	230.44
283.745	251.44
283.976	244.44
284.207	255.44
284.439	248.44
284.67	237.44
284.901	248.44
285.132	259.44
285.364	235.44
285.595	241.44
285.826	226.44
286.057	245.44
286.288	230.44
286.52	233.44
286.751	236.44
286.982	233.44
287.213	248.44
287.444	227.44
287.675	228.44
287.906	250.44
288.138	272.44
288.369	243.44
288.6	266.44
288.831	248.44
289.062	264.44
289.293	262.44
289.524	262.44
289.755	240.44
289.986	239.44
290.217	246.44
290.448	239.44
290.679	241.44
290.91	242.44
291.141	260.44
291.371	243.44
291.602	285.44
291.833	248.44
292.064	250.44
292.295	248.44
292.526	244.44
292.757	246.44
292.987	240.44
293.218	239.44
293.449	255.44
293.68	250.44
293.91	263.44
294.141	243.44
294.372	238.44
294.603	236.44
294.833	242.44
295.064	259.44
295.295	250.44
295.525	265.44
295.756	249.44
295.987	250.44
296.217	287.44
296.448	287.44
296.679	266.44
296.909	255.44
297.14	248.44
297.37	251.44
297.601	253.44
297.831	271.44
298.062	259.44
298.292	265.44
298.523	253.44
298.753	264.44
298.984	262.44
299.214	262.44
299.445	263.44
299.675	261.44
299.905	251.44
300.136	266.44
300.366	280.44
300.597	276.44
300.827	269.44
301.057	278.44
301.288	287.44
301.518	280.44
301.748	270.44
301.979	269.44
302.209	257.44
302.439	286.44
302.669	286.44
302.9	274.44
303.13	283.44
303.36	274.44
303.59	303.44
303.82	292.44
304.051	296.44
304.281	267.44
304.511	283.44
304.741	263.44
304.971	285.44
305.201	266.44
305.431	280.44
305.661	273.44
305.891	267.44
306.121	265.44
306.352	285.44
306.582	295.44
306.812	289.44
307.042	286.44
307.272	285.44
307.502	263.44
307.731	299.44
307.961	286.44
308.191	287.44
308.421	286.44
308.651	295.44
308.881	298.44
309.111	303.44
309.341	300.44
309.571	310.44
309.8	308.44
310.03	308.44
310.26	332.44
310.49	326.44
310.72	331.44
310.949	340.44
311.179	343.44
311.409	311.44
311.639	328.44
311.868	315.44
312.098	335.44
312.328	354.44
312.557	339.44
312.787	362.44
313.017	349.44
313.246	334.44
313.476	311.44
313.706	326.44
313.935	308.44
314.165	359.44
314.394	348.44
314.624	366.44
314.853	351.44
315.083	336.44
315.312	307.44
315.542	324.44
315.771	327.44
316.001	326.44
316.23	331.44
316.46	326.44
316.689	318.44
316.919	338.44
317.148	324.44
317.377	346.44
317.607	338.44
317.836	311.44
318.065	338.44
318.295	318.44
318.524	322.44
318.753	321.44
318.983	338.44
319.212	306.44
319.441	343.44
319.67	340.44
319.9	328.44
320.129	343.44
320.358	351.44
320.587	340.44
320.816	339.44
321.046	360.44
321.275	351.44
321.504	366.44
321.733	341.44
321.962	360.44
322.191	384.44
322.42	364.44
322.649	386.44
322.878	421.44
323.108	403.44
323.337	442.44
323.566	427.44
323.795	470.44
324.024	548.44
324.253	635.44
324.482	909.44
324.71	1410.44
324.939	2026.44
325.168	1719.44
325.397	893.44
325.626	596.44
325.855	482.44
326.084	470.44
326.313	454.44
326.542	467.44
326.77	505.44
326.999	574.44
327.228	792.44
327.457	1223.44
327.686	1498.44
327.914	1022.44
328.143	666.44
328.372	574.44
328.6	540.44
328.829	504.44
329.058	524.44
329.287	543.44
329.515	460.44
329.744	441.44
329.972	445.44
330.201	488.44
330.43	491.44
330.658	509.44
330.887	556.44
331.115	554.44
331.344	464.44
331.572	438.44
331.801	432.44
332.03	435.44
332.258	406.44
332.486	402.44
332.715	399.44
332.943	378.44
333.172	402.44
333.4	410.44
333.629	414.44
333.857	384.44
334.085	407.44
334.314	432.44
334.542	444.44
334.771	436.44
334.999	406.44
335.227	403.44
335.455	390.44
335.684	388.44
335.912	384.44
336.14	368.44
336.369	409.44
336.597	408.44
336.825	387.44
337.053	391.44
337.281	373.44
337.51	406.44
337.738	392.44
337.966	390.44
338.194	397.44
338.422	395.44
338.65	376.44
338.878	381.44
339.106	365.44
339.334	386.44
339.562	369.44
339.79	371.44
340.018	374.44
340.246	363.44
340.474	380.44
340.702	376.44
340.93	380.44
341.158	377.44
341.386	374.44
341.614	379.44
341.842	383.44
342.07	374.44
342.298	386.44
342.526	387.44
342.754	352.44
342.981	354.44
343.209	366.44
343.437	382.44
343.665	375.44
343.893	376.44
344.12	371.44
344.348	382.44
344.576	395.44
344.804	390.44
345.031	383.44
345.259	409.44
345.487	390.44
345.714	378.44
345.942	379.44
346.17	381.44
346.397	372.44
346.625	371.44
346.853	363.44
347.08	379.44
347.308	376.44
347.535	393.44
347.763	384.44
347.99	388.44
348.218	370.44
348.445	375.44
348.673	382.44
348.9	372.44
349.128	367.44
349.355	364.44
349.583	367.44
349.81	342.44
350.037	341.44
350.265	355.44
350.492	358.44
350.72	371.44
350.947	362.44
351.174	379.44
351.402	380.44
351.629	368.44
351.856	370.44
352.083	398.44
352.311	391.44
352.538	394.44
352.765	399.44
352.992	378.44
353.22	376.44
353.447	380.44
353.674	390.44
353.901	354.44
354.128	375.44
354.355	363.44
354.583	345.44
354.81	348.44
355.037	374.44
355.264	351.44
355.491	350.44
355.718	351.44
355.945	346.44
356.172	348.44
356.399	348.44
356.626	358.44
356.853	357.44
357.08	341.44
357.307	342.44
357.534	348.44
357.761	358.44
357.988	357.44
358.215	353.44
358.441	374.44
358.668	362.44
358.895	360.44
359.122	356.44
359.349	357.44
359.576	388.44
359.802	394.44
360.029	433.44
360.256	443.44
360.483	408.44
360.709	399.44
360.936	382.44
361.163	368.44
361.39	381.44
361.616	364.44
361.843	379.44
362.07	376.44
362.296	385.44
362.523	390.44
362.749	378.44
362.976	384.44
363.203	384.44
363.429	380.44
363.656	385.44
363.882	379.44
364.109	375.44
364.335	377.44
364.562	358.44
364.788	374.44
365.015	368.44
365.241	376.44
365.468	370.44
365.694	367.44
365.92	378.44
366.147	359.44
366.373	360.44
366.599	350.44
366.826	349.44
367.052	386.44
367.278	377.44
367.505	367.44
367.731	365.44
367.957	358.44
368.184	358.44
368.41	404.44
368.636	386.44
368.862	398.44
369.089	385.44
369.315	367.44
369.541	374.44
369.767	370.44
369.993	374.44
370.219	370.44
370.445	358.44
370.672	350.44
370.898	348.44
371.124	366.44
371.35	365.44
371.576	348.44
371.802	363.44
372.028	362.44
372.254	367.44
372.48	359.44
372.706	358.44
372.932	366.44
373.158	358.44
373.384	372.44
373.61	380.44
373.835	380.44
374.061	365.44
374.287	376.44
374.513	385.44
374.739	382.44
374.965	369.44
375.191	378.44
375.416	378.44
375.642	366.44
375.868	399.44
376.094	373.44
376.319	386.44
376.545	367.44
376.771	380.44
376.997	347.44
377.222	358.44
377.448	384.44
377.674	352.44
377.899	377.44
378.125	372.44
378.35	360.44
378.576	374.44
378.802	376.44
379.027	364.44
379.253	374.44
379.478	367.44
379.704	367.44
379.929	368.44
380.155	365.44
380.38	389.44
380.606	386.44
380.831	375.44
381.057	398.44
381.282	379.44
381.507	371.44
381.733	380.44
381.958	373.44
382.184	383.44
382.409	369.44
382.634	389.44
382.86	374.44
383.085	395.44
383.31	387.44
383.535	395.44
383.761	385.44
383.986	400.44
384.211	405.44
384.436	383.44
384.662	390.44
384.887	400.44
385.112	411.44
385.337	407.44
385.562	391.44
385.787	408.44
386.013	403.44
386.238	412.44
386.463	427.44
386.688	411.44
386.913	393.44
387.138	397.44
387.363	405.44
387.588	414.44
387.813	389.44
388.038	398.44
388.263	394.44
388.488	418.44
388.713	411.44
388.938	421.44
389.163	412.44
389.387	398.44
389.612	407.44
389.837	386.44
390.062	416.44
390.287	423.44
390.512	400.44
390.736	410.44
390.961	416.44
391.186	407.44
391.411	429.44
391.636	409.44
391.86	394.44
392.085	414.44
392.31	417.44
392.534	400.44
392.759	424.44
392.984	413.44
393.208	436.44
393.433	446.44
393.658	446.44
393.882	425.44
394.107	412.44
394.331	393.44
394.556	398.44
394.78	416.44
395.005	424.44
395.229	413.44
395.454	426.44
395.678	452.44
395.903	431.44
396.127	459.44
396.352	448.44
396.576	418.44
396.801	444.44
397.025	455.44
397.249	438.44
397.474	434.44
397.698	427.44
397.922	453.44
398.147	445.44
398.371	457.44
398.595	441.44
398.82	450.44
399.044	459.44
399.268	461.44
399.492	490.44
399.717	518.44
399.941	523.44
400.165	563.44
400.389	562.44
400.613	526.44
400.837	526.44
401.062	448.44
401.286	467.44
401.51	468.44
401.734	451.44
401.958	468.44
402.182	461.44
402.406	481.44
402.63	484.44
402.854	489.44
403.078	500.44
403.302	493.44
403.526	490.44
403.75	464.44
403.974	480.44
404.198	454.44
404.422	480.44
404.645	491.44
404.869	483.44
405.093	526.44
405.317	570.44
405.541	573.44
405.765	538.44
405.988	529.44
406.212	518.44
406.436	536.44
406.66	543.44
406.883	534.44
407.107	558.44
407.331	587.44
407.555	624.44
407.778	636.44
408.002	574.44
408.226	534.44
408.449	544.44
408.673	542.44
408.896	564.44
409.12	603.44
409.344	574.44
409.567	526.44
409.791	511.44
410.014	488.44
410.238	490.44
410.461	500.44
410.685	489.44
410.908	510.44
411.132	532.44
411.355	580.44
411.578	573.44
411.802	530.44
412.025	487.44
412.249	474.44
412.472	510.44
412.695	546.44
412.919	543.44
413.142	500.44
413.365	478.44
413.589	480.44
413.812	463.44
414.035	494.44
414.258	473.44
414.482	466.44
414.705	455.44
414.928	467.44
415.151	450.44
415.374	448.44
415.597	458.44
415.821	465.44
416.044	462.44
416.267	442.44
416.49	461.44
416.713	460.44
416.936	439.44
417.159	472.44
417.382	468.44
417.605	466.44
417.828	500.44
418.051	485.44
418.274	494.44
418.497	463.44
418.72	477.44
418.943	454.44
419.166	449.44
419.389	507.44
419.611	484.44
419.834	510.44
420.057	502.44
420.28	479.44
420.503	491.44
420.726	525.44
420.948	500.44
421.171	532.44
421.394	563.44
421.617	519.44
421.839	503.44
422.062	501.44
422.285	503.44
422.507	567.44
422.73	623.44
422.953	616.44
423.175	553.44
423.398	524.44
423.621	503.44
423.843	544.44
424.066	534.44
424.288	547.44
424.511	558.44
424.733	640.44
424.956	679.44
425.178	674.44
425.401	652.44
425.623	662.44
425.846	564.44
426.068	564.44
426.291	539.44
426.513	542.44
426.735	558.44
426.958	570.44
427.18	658.44
427.402	788.44
427.625	871.44
427.847	755.44
428.069	649.44
428.292	598.44
428.514	548.44
428.736	517.44
428.958	541.44
429.181	510.44
429.403	504.44
429.625	527.44
429.847	569.44
430.069	614.44
430.292	630.44
430.514	529.44
430.736	502.44
430.958	497.44
431.18	464.44
431.402	483.44
431.624	471.44
431.846	462.44
432.068	468.44
432.29	481.44
432.512	468.44
432.734	487.44
432.956	488.44
433.178	494.44
433.4	479.44
433.622	483.44
433.844	473.44
434.066	460.44
434.287	466.44
434.509	475.44
434.731	492.44
434.953	492.44
435.175	487.44
435.397	535.44
435.618	532.44
435.84	591.44
436.062	652.44
436.284	726.44
436.505	636.44
436.727	585.44
436.949	556.44
437.17	537.44
437.392	496.44
437.614	538.44
437.835	566.44
438.057	653.44
438.278	776.44
438.5	760.44
438.721	796.44
438.943	780.44
439.165	655.44
439.386	578.44
439.608	566.44
439.829	547.44
440.05	584.44
440.272	642.44
440.493	606.44
440.715	545.44
440.936	526.44
441.158	524.44
441.379	495.44
441.6	537.44
441.822	553.44
442.043	587.44
442.264	663.44
442.486	702.44
442.707	612.44
442.928	564.44
443.149	551.44
443.371	593.44
443.592	650.44
443.813	727.44
444.034	772.44
444.255	642.44
444.476	579.44
444.698	532.44
444.919	538.44
445.14	652.44
445.361	615.44
445.582	604.44
445.803	658.44
446.024	734.44
446.245	759.44
446.466	692.44
446.687	592.44
446.908	582.44
447.129	532.44
447.35	534.44
447.571	534.44
447.792	507.44
448.013	528.44
448.234	548.44
448.455	571.44
448.675	704.44
448.896	788.44
449.117	687.44
449.338	644.44
449.559	758.44
449.779	834.44
450	697.44
450.221	564.44
450.442	540.44
450.662	488.44
450.883	509.44
451.104	526.44
451.324	525.44
451.545	492.44
451.766	475.44
451.986	441.44
452.207	445.44
452.428	458.44
452.648	443.44
452.869	444.44
453.089	453.44
453.31	476.44
453.53	450.44
453.751	460.44
453.971	476.44
454.192	489.44
454.412	471.44
454.633	452.44
454.853	443.44
455.073	443.44
455.294	485.44
455.514	537.44
455.734	526.44
455.955	475.44
456.175	443.44
456.395	424.44
456.616	406.44
456.836	442.44
457.056	421.44
457.276	424.44
457.497	431.44
457.717	435.44
457.937	431.44
458.157	436.44
458.377	444.44
458.598	460.44
458.818	522.44
459.038	598.44
459.258	608.44
459.478	532.44
459.698	483.44
459.918	459.44
460.138	471.44
460.358	480.44
460.578	458.44
460.798	491.44
461.018	486.44
461.238	462.44
461.458	463.44
461.678	476.44
461.898	493.44
462.118	478.44
462.338	489.44
462.558	469.44
462.777	491.44
462.997	508.44
463.217	488.44
463.437	503.44
463.657	503.44
463.876	503.44
464.096	499.44
464.316	489.44
464.536	506.44
464.755	503.44
464.975	506.44
465.195	570.44
465.414	637.44
465.634	555.44
465.854	525.44
466.073	499.44
466.293	487.44
466.512	473.44
466.732	459.44
466.951	459.44
467.171	447.44
467.391	442.44
467.61	464.44
467.829	495.44
468.049	485.44
468.268	469.44
468.488	448.44
468.707	451.44
468.927	442.44
469.146	468.44
469.365	470.44
469.585	471.44
469.804	474.44
470.023	453.44
470.243	466.44
470.462	508.44
470.681	504.44
470.901	501.44
471.12	487.44
471.339	490.44
471.558	456.44
471.777	471.44
471.997	480.44
472.216	482.44
472.435	492.44
472.654	463.44
472.873	475.44
473.092	471.44
473.311	462.44
473.53	467.44
473.749	479.44
473.968	537.44
474.187	621.44
474.406	625.44
474.625	555.44
474.844	502.44
475.063	463.44
475.282	475.44
475.501	471.44
475.72	488.44
475.939	503.44
476.158	487.44
476.377	503.44
476.596	492.44
476.814	518.44
477.033	507.44
477.252	502.44
477.471	503.44
477.69	523.44
477.908	507.44
478.127	518.44
478.346	536.44
478.564	549.44
478.783	534.44
479.002	544.44
479.22	557.44
479.439	546.44
479.658	550.44
479.876	566.44
480.095	570.44
480.313	600.44
480.532	570.44
480.751	556.44
480.969	614.44
481.188	636.44
481.406	658.44
481.624	603.44
481.843	576.44
482.061	550.44
482.28	575.44
482.498	557.44
482.717	546.44
482.935	557.44
483.153	563.44
483.372	589.44
483.59	597.44
483.808	564.44
484.027	561.44
484.245	584.44
484.463	553.44
484.681	592.44
484.9	581.44
485.118	590.44
485.336	582.44
485.554	595.44
485.772	579.44
485.99	604.44
486.209	578.44
486.427	597.44
486.645	609.44
486.863	629.44
487.081	626.44
487.299	622.44
487.517	614.44
487.735	627.44
487.953	628.44
488.171	639.44
488.389	623.44
488.607	619.44
488.825	610.44
489.043	627.44
489.261	622.44
489.479	639.44
489.696	634.44
489.914	642.44
490.132	608.44
490.35	655.44
490.568	668.44
490.786	672.44
491.003	666.44
491.221	678.44
491.439	702.44
491.657	696.44
491.874	702.44
492.092	725.44
492.31	724.44
492.527	708.44
492.745	707.44
492.963	712.44
493.18	729.44
493.398	724.44
493.615	730.44
493.833	733.44
494.05	738.44
494.268	745.44
494.485	709.44
494.703	738.44
494.92	725.44
495.138	722.44
495.355	724.44
495.573	735.44
495.79	747.44
496.008	746.44
496.225	724.44
496.442	742.44
496.66	748.44
496.877	744.44
497.094	745.44
497.312	752.44
497.529	742.44
497.746	765.44
497.963	745.44
498.181	774.44
498.398	791.44
498.615	810.44
498.832	802.44
499.049	813.44
499.267	822.44
499.484	825.44
499.701	866.44
499.918	884.44
500.135	927.44
500.352	924.44
500.569	944.44
500.786	950.44
501.003	930.44
501.22	922.44
501.437	887.44
501.654	884.44
