Data from 1971.PennyLincolnUp.Lamp.En5.5.200Scan.071719.P1.Scan 2. Changed Angle._HRD10591_15-24-32-843.txt Node
Date: Thu Jul 18 15:24:32 EDT 2019
User: cochatt
Spectrometer: HR+D1059
Trigger mode: 1
Integration Time (sec): 1.000000E-1
Scans to average: 1
Electric dark correction enabled: true
Nonlinearity correction enabled: false
Boxcar width: 0
XAxis mode: Wavelengths
Number of Pixels in Spectrum: 2048
>>>>>Begin Spectral Data<<<<<
223.165	-12.38
223.4	-12.38
223.635	-12.38
223.869	-16.38
224.104	-23.38
224.338	-8.38
224.573	-11.38
224.808	-12.38
225.042	2.62
225.277	-9.38
225.511	-16.38
225.746	2.62
225.98	7.62
226.215	15.62
226.449	4.62
226.683	14.62
226.918	25.62
227.152	36.62
227.387	36.62
227.621	39.62
227.856	47.62
228.09	47.62
228.324	55.62
228.559	60.62
228.793	72.62
229.027	107.62
229.262	111.62
229.496	131.62
229.73	150.62
229.964	173.62
230.199	156.62
230.433	140.62
230.667	130.62
230.901	124.62
231.136	126.62
231.37	119.62
231.604	116.62
231.838	117.62
232.072	105.62
232.306	109.62
232.541	117.62
232.775	109.62
233.009	127.62
233.243	101.62
233.477	117.62
233.711	132.62
233.945	125.62
234.179	126.62
234.413	123.62
234.647	115.62
234.881	111.62
235.115	118.62
235.349	119.62
235.583	123.62
235.817	128.62
236.051	157.62
236.285	144.62
236.519	145.62
236.753	140.62
236.987	154.62
237.221	214.62
237.455	276.62
237.689	206.62
237.922	166.62
238.156	142.62
238.39	126.62
238.624	132.62
238.858	130.62
239.091	129.62
239.325	128.62
239.559	133.62
239.793	151.62
240.027	142.62
240.26	156.62
240.494	169.62
240.728	163.62
240.961	170.62
241.195	168.62
241.429	147.62
241.662	126.62
241.896	134.62
242.13	143.62
242.363	149.62
242.597	143.62
242.83	143.62
243.064	163.62
243.298	144.62
243.531	150.62
243.765	146.62
243.998	147.62
244.232	144.62
244.465	150.62
244.699	172.62
244.932	167.62
245.166	152.62
245.399	170.62
245.633	154.62
245.866	159.62
246.099	165.62
246.333	163.62
246.566	171.62
246.8	166.62
247.033	169.62
247.266	160.62
247.5	188.62
247.733	185.62
247.966	190.62
248.2	169.62
248.433	171.62
248.666	186.62
248.899	198.62
249.133	220.62
249.366	234.62
249.599	223.62
249.832	210.62
250.066	196.62
250.299	197.62
250.532	222.62
250.765	222.62
250.998	244.62
251.231	250.62
251.465	245.62
251.698	240.62
251.931	217.62
252.164	217.62
252.397	216.62
252.63	211.62
252.863	223.62
253.096	232.62
253.329	258.62
253.562	255.62
253.795	270.62
254.028	242.62
254.261	246.62
254.494	245.62
254.727	273.62
254.96	310.62
255.193	290.62
255.426	295.62
255.659	269.62
255.892	270.62
256.124	276.62
256.357	278.62
256.59	259.62
256.823	248.62
257.056	227.62
257.289	230.62
257.521	223.62
257.754	204.62
257.987	227.62
258.22	240.62
258.452	218.62
258.685	230.62
258.918	237.62
259.151	215.62
259.383	218.62
259.616	223.62
259.849	239.62
260.081	234.62
260.314	279.62
260.547	278.62
260.779	267.62
261.012	250.62
261.244	259.62
261.477	259.62
261.71	240.62
261.942	254.62
262.175	246.62
262.407	264.62
262.64	250.62
262.872	225.62
263.105	214.62
263.337	230.62
263.57	227.62
263.802	229.62
264.035	214.62
264.267	235.62
264.499	224.62
264.732	231.62
264.964	220.62
265.197	218.62
265.429	218.62
265.661	218.62
265.894	221.62
266.126	245.62
266.358	234.62
266.591	237.62
266.823	235.62
267.055	238.62
267.287	238.62
267.52	254.62
267.752	237.62
267.984	240.62
268.216	236.62
268.448	234.62
268.681	227.62
268.913	266.62
269.145	271.62
269.377	261.62
269.609	278.62
269.841	288.62
270.073	291.62
270.306	319.62
270.538	348.62
270.77	344.62
271.002	322.62
271.234	298.62
271.466	323.62
271.698	328.62
271.93	353.62
272.162	344.62
272.394	331.62
272.626	314.62
272.858	326.62
273.09	303.62
273.322	293.62
273.553	280.62
273.785	276.62
274.017	283.62
274.249	265.62
274.481	295.62
274.713	268.62
274.945	283.62
275.176	272.62
275.408	276.62
275.64	278.62
275.872	258.62
276.104	267.62
276.335	285.62
276.567	277.62
276.799	303.62
277.031	326.62
277.262	346.62
277.494	336.62
277.726	310.62
277.957	296.62
278.189	295.62
278.421	297.62
278.652	290.62
278.884	285.62
279.115	246.62
279.347	298.62
279.579	278.62
279.81	290.62
280.042	271.62
280.273	269.62
280.505	292.62
280.736	286.62
280.968	281.62
281.199	293.62
281.431	282.62
281.662	261.62
281.894	282.62
282.125	272.62
282.356	288.62
282.588	308.62
282.819	324.62
283.051	269.62
283.282	263.62
283.513	266.62
283.745	278.62
283.976	283.62
284.207	277.62
284.439	265.62
284.67	297.62
284.901	266.62
285.132	278.62
285.364	277.62
285.595	265.62
285.826	266.62
286.057	285.62
286.288	292.62
286.52	276.62
286.751	277.62
286.982	283.62
287.213	273.62
287.444	279.62
287.675	285.62
287.906	308.62
288.138	295.62
288.369	299.62
288.6	290.62
288.831	292.62
289.062	302.62
289.293	285.62
289.524	279.62
289.755	282.62
289.986	277.62
290.217	278.62
290.448	295.62
290.679	278.62
290.91	284.62
291.141	280.62
291.371	291.62
291.602	294.62
291.833	284.62
292.064	294.62
292.295	290.62
292.526	291.62
292.757	285.62
292.987	291.62
293.218	293.62
293.449	295.62
293.68	286.62
293.91	298.62
294.141	298.62
294.372	282.62
294.603	287.62
294.833	299.62
295.064	300.62
295.295	292.62
295.525	289.62
295.756	294.62
295.987	288.62
296.217	317.62
296.448	338.62
296.679	300.62
296.909	291.62
297.14	326.62
297.37	297.62
297.601	308.62
297.831	296.62
298.062	286.62
298.292	294.62
298.523	310.62
298.753	306.62
298.984	306.62
299.214	303.62
299.445	306.62
299.675	306.62
299.905	315.62
300.136	302.62
300.366	299.62
300.597	286.62
300.827	318.62
301.057	324.62
301.288	331.62
301.518	327.62
301.748	325.62
301.979	322.62
302.209	326.62
302.439	328.62
302.669	333.62
302.9	303.62
303.13	331.62
303.36	335.62
303.59	330.62
303.82	357.62
304.051	328.62
304.281	317.62
304.511	326.62
304.741	329.62
304.971	312.62
305.201	326.62
305.431	316.62
305.661	297.62
305.891	351.62
306.121	328.62
306.352	340.62
306.582	340.62
306.812	341.62
307.042	335.62
307.272	344.62
307.502	334.62
307.731	345.62
307.961	323.62
308.191	330.62
308.421	327.62
308.651	343.62
308.881	350.62
309.111	362.62
309.341	370.62
309.571	370.62
309.8	347.62
310.03	378.62
310.26	375.62
310.49	384.62
310.72	424.62
310.949	417.62
311.179	434.62
311.409	393.62
311.639	380.62
311.868	393.62
312.098	392.62
312.328	406.62
312.557	430.62
312.787	430.62
313.017	430.62
313.246	408.62
313.476	407.62
313.706	424.62
313.935	404.62
314.165	410.62
314.394	413.62
314.624	408.62
314.853	389.62
315.083	390.62
315.312	387.62
315.542	365.62
315.771	376.62
316.001	396.62
316.23	382.62
316.46	384.62
316.689	376.62
316.919	388.62
317.148	411.62
317.377	392.62
317.607	419.62
317.836	399.62
318.065	388.62
318.295	386.62
318.524	388.62
318.753	390.62
318.983	389.62
319.212	394.62
319.441	390.62
319.67	406.62
319.9	393.62
320.129	394.62
320.358	388.62
320.587	400.62
320.816	427.62
321.046	419.62
321.275	421.62
321.504	437.62
321.733	408.62
321.962	427.62
322.191	457.62
322.42	479.62
322.649	488.62
322.878	516.62
323.108	521.62
323.337	529.62
323.566	582.62
323.795	605.62
324.024	671.62
324.253	805.62
324.482	1226.62
324.71	1910.62
324.939	2706.62
325.168	2286.62
325.397	1189.62
325.626	778.62
325.855	662.62
326.084	585.62
326.313	578.62
326.542	565.62
326.77	630.62
326.999	766.62
327.228	1095.62
327.457	1669.62
327.686	2075.62
327.914	1361.62
328.143	862.62
328.372	746.62
328.6	675.62
328.829	652.62
329.058	672.62
329.287	693.62
329.515	642.62
329.744	603.62
329.972	589.62
330.201	598.62
330.43	633.62
330.658	657.62
330.887	705.62
331.115	681.62
331.344	558.62
331.572	549.62
331.801	568.62
332.03	529.62
332.258	519.62
332.486	507.62
332.715	487.62
332.943	463.62
333.172	476.62
333.4	475.62
333.629	479.62
333.857	498.62
334.085	512.62
334.314	526.62
334.542	572.62
334.771	580.62
334.999	537.62
335.227	512.62
335.455	472.62
335.684	460.62
335.912	440.62
336.14	450.62
336.369	435.62
336.597	478.62
336.825	472.62
337.053	469.62
337.281	426.62
337.51	444.62
337.738	468.62
337.966	461.62
338.194	448.62
338.422	441.62
338.65	452.62
338.878	464.62
339.106	452.62
339.334	458.62
339.562	442.62
339.79	434.62
340.018	444.62
340.246	457.62
340.474	478.62
340.702	448.62
340.93	452.62
341.158	443.62
341.386	441.62
341.614	471.62
341.842	455.62
342.07	434.62
342.298	432.62
342.526	431.62
342.754	438.62
342.981	420.62
343.209	435.62
343.437	434.62
343.665	430.62
343.893	443.62
344.12	442.62
344.348	436.62
344.576	438.62
344.804	463.62
345.031	478.62
345.259	486.62
345.487	448.62
345.714	468.62
345.942	462.62
346.17	444.62
346.397	437.62
346.625	449.62
346.853	449.62
347.08	450.62
347.308	459.62
347.535	442.62
347.763	472.62
347.99	460.62
348.218	470.62
348.445	468.62
348.673	468.62
348.9	442.62
349.128	438.62
349.355	427.62
349.583	410.62
349.81	440.62
350.037	423.62
350.265	438.62
350.492	434.62
350.72	439.62
350.947	452.62
351.174	444.62
351.402	455.62
351.629	459.62
351.856	442.62
352.083	447.62
352.311	480.62
352.538	471.62
352.765	477.62
352.992	468.62
353.22	462.62
353.447	452.62
353.674	425.62
353.901	420.62
354.128	397.62
354.355	426.62
354.583	417.62
354.81	424.62
355.037	406.62
355.264	399.62
355.491	416.62
355.718	421.62
355.945	407.62
356.172	409.62
356.399	402.62
356.626	414.62
356.853	403.62
357.08	412.62
357.307	407.62
357.534	398.62
357.761	396.62
357.988	403.62
358.215	424.62
358.441	417.62
358.668	409.62
358.895	425.62
359.122	423.62
359.349	434.62
359.576	443.62
359.802	472.62
360.029	516.62
360.256	543.62
360.483	486.62
360.709	462.62
360.936	464.62
361.163	440.62
361.39	450.62
361.616	461.62
361.843	444.62
362.07	434.62
362.296	467.62
362.523	439.62
362.749	470.62
362.976	458.62
363.203	456.62
363.429	422.62
363.656	428.62
363.882	421.62
364.109	431.62
364.335	443.62
364.562	412.62
364.788	413.62
365.015	410.62
365.241	417.62
365.468	440.62
365.694	446.62
365.92	447.62
366.147	403.62
366.373	408.62
366.599	429.62
366.826	408.62
367.052	417.62
367.278	436.62
367.505	439.62
367.731	447.62
367.957	405.62
368.184	428.62
368.41	441.62
368.636	456.62
368.862	451.62
369.089	444.62
369.315	426.62
369.541	444.62
369.767	411.62
369.993	394.62
370.219	414.62
370.445	405.62
370.672	429.62
370.898	410.62
371.124	406.62
371.35	426.62
371.576	402.62
371.802	432.62
372.028	432.62
372.254	413.62
372.48	419.62
372.706	414.62
372.932	405.62
373.158	407.62
373.384	439.62
373.61	441.62
373.835	431.62
374.061	414.62
374.287	422.62
374.513	430.62
374.739	411.62
374.965	441.62
375.191	420.62
375.416	431.62
375.642	422.62
375.868	430.62
376.094	435.62
376.319	417.62
376.545	406.62
376.771	404.62
376.997	425.62
377.222	414.62
377.448	412.62
377.674	412.62
377.899	424.62
378.125	407.62
378.35	402.62
378.576	432.62
378.802	421.62
379.027	416.62
379.253	418.62
379.478	433.62
379.704	429.62
379.929	407.62
380.155	408.62
380.38	427.62
380.606	422.62
380.831	426.62
381.057	435.62
381.282	426.62
381.507	431.62
381.733	429.62
381.958	424.62
382.184	423.62
382.409	436.62
382.634	428.62
382.86	438.62
383.085	433.62
383.31	438.62
383.535	443.62
383.761	446.62
383.986	443.62
384.211	444.62
384.436	430.62
384.662	456.62
384.887	443.62
385.112	442.62
385.337	448.62
385.562	444.62
385.787	466.62
386.013	464.62
386.238	458.62
386.463	476.62
386.688	453.62
386.913	472.62
387.138	455.62
387.363	448.62
387.588	462.62
387.813	461.62
388.038	474.62
388.263	452.62
388.488	468.62
388.713	460.62
388.938	451.62
389.163	435.62
389.387	465.62
389.612	447.62
389.837	472.62
390.062	456.62
390.287	461.62
390.512	465.62
390.736	447.62
390.961	475.62
391.186	479.62
391.411	451.62
391.636	445.62
391.86	451.62
392.085	480.62
392.31	463.62
392.534	469.62
392.759	481.62
392.984	464.62
393.208	464.62
393.433	484.62
393.658	463.62
393.882	453.62
394.107	471.62
394.331	447.62
394.556	471.62
394.78	469.62
395.005	472.62
395.229	472.62
395.454	486.62
395.678	460.62
395.903	489.62
396.127	496.62
396.352	520.62
396.576	494.62
396.801	467.62
397.025	482.62
397.249	472.62
397.474	459.62
397.698	489.62
397.922	505.62
398.147	535.62
398.371	537.62
398.595	512.62
398.82	516.62
399.044	508.62
399.268	524.62
399.492	548.62
399.717	537.62
399.941	616.62
400.165	631.62
400.389	651.62
400.613	613.62
400.837	576.62
401.062	541.62
401.286	531.62
401.51	542.62
401.734	536.62
401.958	522.62
402.182	526.62
402.406	539.62
402.63	558.62
402.854	512.62
403.078	542.62
403.302	551.62
403.526	555.62
403.75	556.62
403.974	545.62
404.198	542.62
404.422	544.62
404.645	578.62
404.869	557.62
405.093	600.62
405.317	640.62
405.541	669.62
405.765	632.62
405.988	590.62
406.212	617.62
406.436	642.62
406.66	638.62
406.883	583.62
407.107	628.62
407.331	690.62
407.555	734.62
407.778	743.62
408.002	676.62
408.226	633.62
408.449	616.62
408.673	627.62
408.896	656.62
409.12	717.62
409.344	648.62
409.567	584.62
409.791	558.62
410.014	571.62
410.238	562.62
410.461	545.62
410.685	550.62
410.908	579.62
411.132	636.62
411.355	683.62
411.578	627.62
411.802	591.62
412.025	576.62
412.249	570.62
412.472	578.62
412.695	633.62
412.919	626.62
413.142	568.62
413.365	536.62
413.589	534.62
413.812	527.62
414.035	531.62
414.258	522.62
414.482	523.62
414.705	508.62
414.928	538.62
415.151	509.62
415.374	528.62
415.597	531.62
415.821	520.62
416.044	531.62
416.267	541.62
416.49	528.62
416.713	520.62
416.936	537.62
417.159	538.62
417.382	548.62
417.605	534.62
417.828	574.62
418.051	583.62
418.274	574.62
418.497	536.62
418.72	532.62
418.943	550.62
419.166	541.62
419.389	581.62
419.611	562.62
419.834	543.62
420.057	561.62
420.28	542.62
420.503	571.62
420.726	553.62
420.948	582.62
421.171	636.62
421.394	668.62
421.617	597.62
421.839	572.62
422.062	577.62
422.285	575.62
422.507	652.62
422.73	740.62
422.953	728.62
423.175	626.62
423.398	598.62
423.621	593.62
423.843	615.62
424.066	614.62
424.288	637.62
424.511	656.62
424.733	700.62
424.956	778.62
425.178	739.62
425.401	764.62
425.623	794.62
425.846	664.62
426.068	637.62
426.291	618.62
426.513	639.62
426.735	646.62
426.958	694.62
427.18	805.62
427.402	902.62
427.625	1014.62
427.847	948.62
428.069	806.62
428.292	729.62
428.514	662.62
428.736	610.62
428.958	590.62
429.181	582.62
429.403	583.62
429.625	614.62
429.847	650.62
430.069	690.62
430.292	710.62
430.514	604.62
430.736	576.62
430.958	575.62
431.18	571.62
431.402	546.62
431.624	545.62
431.846	526.62
432.068	528.62
432.29	552.62
432.512	531.62
432.734	546.62
432.956	557.62
433.178	578.62
433.4	558.62
433.622	573.62
433.844	543.62
434.066	530.62
434.287	556.62
434.509	533.62
434.731	546.62
434.953	585.62
435.175	586.62
435.397	613.62
435.618	638.62
435.84	658.62
436.062	791.62
436.284	826.62
436.505	727.62
436.727	646.62
436.949	618.62
437.17	605.62
437.392	584.62
437.614	599.62
437.835	678.62
438.057	772.62
438.278	888.62
438.5	898.62
438.721	954.62
438.943	896.62
439.165	715.62
439.386	687.62
439.608	667.62
439.829	661.62
440.05	687.62
440.272	753.62
440.493	667.62
440.715	667.62
440.936	647.62
441.158	591.62
441.379	595.62
441.6	607.62
441.822	637.62
442.043	678.62
442.264	788.62
442.486	835.62
442.707	720.62
442.928	644.62
443.149	647.62
443.371	674.62
443.592	722.62
443.813	834.62
444.034	884.62
444.255	746.62
444.476	662.62
444.698	633.62
444.919	631.62
445.14	759.62
445.361	724.62
445.582	678.62
445.803	753.62
446.024	875.62
446.245	883.62
446.466	853.62
446.687	695.62
446.908	644.62
447.129	617.62
447.35	611.62
447.571	612.62
447.792	581.62
448.013	610.62
448.234	618.62
448.455	689.62
448.675	806.62
448.896	932.62
449.117	769.62
449.338	772.62
449.559	883.62
449.779	972.62
450	821.62
450.221	682.62
450.442	602.62
450.662	605.62
450.883	613.62
451.104	619.62
451.324	619.62
451.545	584.62
451.766	560.62
451.986	559.62
452.207	524.62
452.428	507.62
452.648	526.62
452.869	527.62
453.089	530.62
453.31	556.62
453.53	543.62
453.751	519.62
453.971	565.62
454.192	554.62
454.412	562.62
454.633	532.62
454.853	531.62
455.073	555.62
455.294	554.62
455.514	638.62
455.734	628.62
455.955	556.62
456.175	517.62
456.395	482.62
456.616	498.62
456.836	500.62
457.056	513.62
457.276	486.62
457.497	495.62
457.717	504.62
457.937	484.62
458.157	502.62
458.377	507.62
458.598	540.62
458.818	647.62
459.038	760.62
459.258	726.62
459.478	596.62
459.698	543.62
459.918	545.62
460.138	533.62
460.358	535.62
460.578	511.62
460.798	556.62
461.018	566.62
461.238	548.62
461.458	517.62
461.678	519.62
461.898	551.62
462.118	525.62
462.338	521.62
462.558	520.62
462.777	534.62
462.997	548.62
463.217	555.62
463.437	571.62
463.657	551.62
463.876	557.62
464.096	563.62
464.316	550.62
464.536	562.62
464.755	578.62
464.975	589.62
465.195	637.62
465.414	749.62
465.634	675.62
465.854	617.62
466.073	597.62
466.293	555.62
466.512	545.62
466.732	549.62
466.951	538.62
467.171	528.62
467.391	501.62
467.61	536.62
467.829	562.62
468.049	569.62
468.268	584.62
468.488	534.62
468.707	502.62
468.927	558.62
469.146	514.62
469.365	533.62
469.585	502.62
469.804	548.62
470.023	560.62
470.243	556.62
470.462	535.62
470.681	568.62
470.901	550.62
471.12	532.62
471.339	581.62
471.558	559.62
471.777	564.62
471.997	530.62
472.216	566.62
472.435	582.62
472.654	596.62
472.873	565.62
473.092	549.62
473.311	536.62
473.53	547.62
473.749	571.62
473.968	606.62
474.187	738.62
474.406	730.62
474.625	610.62
474.844	575.62
475.063	536.62
475.282	532.62
475.501	544.62
475.72	566.62
475.939	588.62
476.158	570.62
476.377	596.62
476.596	573.62
476.814	580.62
477.033	574.62
477.252	590.62
477.471	597.62
477.69	596.62
477.908	601.62
478.127	603.62
478.346	599.62
478.564	578.62
478.783	601.62
479.002	619.62
479.22	634.62
479.439	643.62
479.658	654.62
479.876	669.62
480.095	660.62
480.313	708.62
480.532	679.62
480.751	673.62
480.969	692.62
481.188	761.62
481.406	794.62
481.624	770.62
481.843	684.62
482.061	666.62
482.28	656.62
482.498	664.62
482.717	650.62
482.935	670.62
483.153	652.62
483.372	648.62
483.59	659.62
483.808	656.62
484.027	657.62
484.245	626.62
484.463	648.62
484.681	664.62
484.9	675.62
485.118	650.62
485.336	660.62
485.554	695.62
485.772	656.62
485.99	668.62
486.209	672.62
486.427	703.62
486.645	681.62
486.863	709.62
487.081	702.62
487.299	698.62
487.517	682.62
487.735	699.62
487.953	712.62
488.171	692.62
488.389	721.62
488.607	702.62
488.825	704.62
489.043	702.62
489.261	704.62
489.479	747.62
489.696	716.62
489.914	727.62
490.132	761.62
490.35	724.62
490.568	743.62
490.786	758.62
491.003	780.62
491.221	788.62
491.439	819.62
491.657	806.62
491.874	824.62
492.092	849.62
492.31	823.62
492.527	814.62
492.745	845.62
492.963	831.62
493.18	871.62
493.398	862.62
493.615	858.62
493.833	868.62
494.05	858.62
494.268	868.62
494.485	838.62
494.703	864.62
494.92	861.62
495.138	866.62
495.355	851.62
495.573	858.62
495.79	859.62
496.008	859.62
496.225	889.62
496.442	850.62
496.66	878.62
496.877	858.62
497.094	849.62
497.312	858.62
497.529	869.62
497.746	866.62
497.963	893.62
498.181	892.62
498.398	902.62
498.615	912.62
498.832	926.62
499.049	932.62
499.267	956.62
499.484	943.62
499.701	972.62
499.918	983.62
500.135	1030.62
500.352	1022.62
500.569	1060.62
500.786	1048.62
501.003	1037.62
501.22	1054.62
501.437	1035.62
