Data from 1971.PennyLincolnUp.Lamp.En5.5.200Scan.071719.P1.Scan 2. Changed Angle._HRD10591_15-24-08-843.txt Node
Date: Thu Jul 18 15:24:08 EDT 2019
User: cochatt
Spectrometer: HR+D1059
Trigger mode: 1
Integration Time (sec): 1.000000E-1
Scans to average: 1
Electric dark correction enabled: true
Nonlinearity correction enabled: false
Boxcar width: 0
XAxis mode: Wavelengths
Number of Pixels in Spectrum: 2048
>>>>>Begin Spectral Data<<<<<
223.165	-15.88
223.4	-15.88
223.635	-15.88
223.869	-12.88
224.104	-13.88
224.338	-15.88
224.573	-19.88
224.808	-12.88
225.042	-16.88
225.277	-0.88
225.511	-5.88
225.746	-4.88
225.98	0.12
226.215	16.12
226.449	26.12
226.683	19.12
226.918	23.12
227.152	35.12
227.387	30.12
227.621	25.12
227.856	43.12
228.09	50.12
228.324	44.12
228.559	48.12
228.793	75.12
229.027	116.12
229.262	136.12
229.496	126.12
229.73	148.12
229.964	173.12
230.199	150.12
230.433	121.12
230.667	131.12
230.901	120.12
231.136	114.12
231.37	125.12
231.604	120.12
231.838	125.12
232.072	122.12
232.306	118.12
232.541	123.12
232.775	120.12
233.009	121.12
233.243	118.12
233.477	116.12
233.711	116.12
233.945	105.12
234.179	110.12
234.413	122.12
234.647	122.12
234.881	121.12
235.115	114.12
235.349	126.12
235.583	137.12
235.817	128.12
236.051	134.12
236.285	128.12
236.519	142.12
236.753	150.12
236.987	185.12
237.221	194.12
237.455	266.12
237.689	216.12
237.922	158.12
238.156	150.12
238.39	132.12
238.624	133.12
238.858	144.12
239.091	138.12
239.325	136.12
239.559	126.12
239.793	119.12
240.027	151.12
240.26	128.12
240.494	181.12
240.728	178.12
240.961	167.12
241.195	158.12
241.429	145.12
241.662	150.12
241.896	146.12
242.13	156.12
242.363	139.12
242.597	152.12
242.83	155.12
243.064	140.12
243.298	130.12
243.531	154.12
243.765	143.12
243.998	154.12
244.232	150.12
244.465	150.12
244.699	151.12
244.932	146.12
245.166	153.12
245.399	164.12
245.633	181.12
245.866	154.12
246.099	147.12
246.333	159.12
246.566	158.12
246.8	170.12
247.033	160.12
247.266	170.12
247.5	174.12
247.733	179.12
247.966	174.12
248.2	187.12
248.433	178.12
248.666	182.12
248.899	202.12
249.133	222.12
249.366	239.12
249.599	228.12
249.832	188.12
250.066	202.12
250.299	178.12
250.532	198.12
250.765	223.12
250.998	229.12
251.231	255.12
251.465	240.12
251.698	222.12
251.931	215.12
252.164	217.12
252.397	199.12
252.63	215.12
252.863	229.12
253.096	241.12
253.329	247.12
253.562	246.12
253.795	234.12
254.028	247.12
254.261	226.12
254.494	254.12
254.727	271.12
254.96	319.12
255.193	290.12
255.426	270.12
255.659	252.12
255.892	244.12
256.124	229.12
256.357	250.12
256.59	258.12
256.823	231.12
257.056	234.12
257.289	215.12
257.521	235.12
257.754	222.12
257.987	224.12
258.22	226.12
258.452	214.12
258.685	231.12
258.918	215.12
259.151	219.12
259.383	232.12
259.616	217.12
259.849	242.12
260.081	252.12
260.314	272.12
260.547	280.12
260.779	263.12
261.012	261.12
261.244	246.12
261.477	243.12
261.71	227.12
261.942	239.12
262.175	267.12
262.407	252.12
262.64	220.12
262.872	214.12
263.105	215.12
263.337	222.12
263.57	218.12
263.802	220.12
264.035	228.12
264.267	208.12
264.499	219.12
264.732	232.12
264.964	235.12
265.197	220.12
265.429	214.12
265.661	200.12
265.894	235.12
266.126	242.12
266.358	214.12
266.591	225.12
266.823	227.12
267.055	254.12
267.287	239.12
267.52	236.12
267.752	225.12
267.984	232.12
268.216	254.12
268.448	240.12
268.681	242.12
268.913	265.12
269.145	277.12
269.377	293.12
269.609	269.12
269.841	278.12
270.073	276.12
270.306	305.12
270.538	330.12
270.77	324.12
271.002	316.12
271.234	316.12
271.466	320.12
271.698	334.12
271.93	354.12
272.162	331.12
272.394	336.12
272.626	317.12
272.858	326.12
273.09	291.12
273.322	287.12
273.553	260.12
273.785	272.12
274.017	282.12
274.249	271.12
274.481	251.12
274.713	276.12
274.945	280.12
275.176	275.12
275.408	275.12
275.64	248.12
275.872	270.12
276.104	280.12
276.335	276.12
276.567	277.12
276.799	295.12
277.031	305.12
277.262	327.12
277.494	338.12
277.726	312.12
277.957	295.12
278.189	270.12
278.421	269.12
278.652	278.12
278.884	270.12
279.115	262.12
279.347	280.12
279.579	257.12
279.81	268.12
280.042	269.12
280.273	258.12
280.505	241.12
280.736	269.12
280.968	262.12
281.199	268.12
281.431	262.12
281.662	267.12
281.894	263.12
282.125	274.12
282.356	288.12
282.588	306.12
282.819	306.12
283.051	270.12
283.282	273.12
283.513	255.12
283.745	268.12
283.976	282.12
284.207	277.12
284.439	274.12
284.67	280.12
284.901	272.12
285.132	276.12
285.364	273.12
285.595	248.12
285.826	265.12
286.057	262.12
286.288	300.12
286.52	264.12
286.751	266.12
286.982	283.12
287.213	269.12
287.444	264.12
287.675	279.12
287.906	303.12
288.138	294.12
288.369	312.12
288.6	300.12
288.831	298.12
289.062	281.12
289.293	282.12
289.524	282.12
289.755	287.12
289.986	278.12
290.217	282.12
290.448	265.12
290.679	280.12
290.91	271.12
291.141	274.12
291.371	258.12
291.602	248.12
291.833	279.12
292.064	268.12
292.295	259.12
292.526	284.12
292.757	263.12
292.987	285.12
293.218	274.12
293.449	266.12
293.68	264.12
293.91	282.12
294.141	258.12
294.372	273.12
294.603	292.12
294.833	287.12
295.064	282.12
295.295	280.12
295.525	277.12
295.756	286.12
295.987	296.12
296.217	312.12
296.448	320.12
296.679	308.12
296.909	296.12
297.14	298.12
297.37	278.12
297.601	278.12
297.831	298.12
298.062	274.12
298.292	285.12
298.523	292.12
298.753	299.12
298.984	281.12
299.214	280.12
299.445	295.12
299.675	293.12
299.905	295.12
300.136	310.12
300.366	296.12
300.597	299.12
300.827	294.12
301.057	315.12
301.288	288.12
301.518	340.12
301.748	294.12
301.979	322.12
302.209	315.12
302.439	316.12
302.669	317.12
302.9	328.12
303.13	303.12
303.36	322.12
303.59	311.12
303.82	332.12
304.051	324.12
304.281	318.12
304.511	319.12
304.741	315.12
304.971	292.12
305.201	299.12
305.431	312.12
305.661	318.12
305.891	323.12
306.121	316.12
306.352	323.12
306.582	340.12
306.812	319.12
307.042	325.12
307.272	299.12
307.502	315.12
307.731	325.12
307.961	319.12
308.191	314.12
308.421	321.12
308.651	310.12
308.881	342.12
309.111	332.12
309.341	346.12
309.571	352.12
309.8	350.12
310.03	371.12
310.26	382.12
310.49	367.12
310.72	390.12
310.949	392.12
311.179	417.12
311.409	380.12
311.639	373.12
311.868	374.12
312.098	395.12
312.328	394.12
312.557	407.12
312.787	409.12
313.017	412.12
313.246	406.12
313.476	387.12
313.706	363.12
313.935	386.12
314.165	394.12
314.394	402.12
314.624	398.12
314.853	368.12
315.083	374.12
315.312	366.12
315.542	375.12
315.771	365.12
316.001	354.12
316.23	351.12
316.46	370.12
316.689	376.12
316.919	389.12
317.148	398.12
317.377	381.12
317.607	378.12
317.836	393.12
318.065	361.12
318.295	372.12
318.524	390.12
318.753	383.12
318.983	374.12
319.212	377.12
319.441	385.12
319.67	382.12
319.9	407.12
320.129	355.12
320.358	394.12
320.587	392.12
320.816	390.12
321.046	398.12
321.275	403.12
321.504	427.12
321.733	420.12
321.962	405.12
322.191	428.12
322.42	442.12
322.649	450.12
322.878	477.12
323.108	479.12
323.337	513.12
323.566	552.12
323.795	558.12
324.024	641.12
324.253	771.12
324.482	1181.12
324.71	1786.12
324.939	2594.12
325.168	2227.12
325.397	1132.12
325.626	752.12
325.855	611.12
326.084	580.12
326.313	532.12
326.542	548.12
326.77	597.12
326.999	749.12
327.228	994.12
327.457	1595.12
327.686	1913.12
327.914	1272.12
328.143	853.12
328.372	708.12
328.6	668.12
328.829	628.12
329.058	639.12
329.287	642.12
329.515	610.12
329.744	562.12
329.972	541.12
330.201	582.12
330.43	626.12
330.658	624.12
330.887	707.12
331.115	681.12
331.344	552.12
331.572	524.12
331.801	521.12
332.03	521.12
332.258	485.12
332.486	460.12
332.715	472.12
332.943	451.12
333.172	461.12
333.4	467.12
333.629	487.12
333.857	478.12
334.085	495.12
334.314	495.12
334.542	538.12
334.771	549.12
334.999	499.12
335.227	470.12
335.455	455.12
335.684	450.12
335.912	452.12
336.14	442.12
336.369	440.12
336.597	460.12
336.825	472.12
337.053	429.12
337.281	423.12
337.51	432.12
337.738	433.12
337.966	441.12
338.194	444.12
338.422	458.12
338.65	422.12
338.878	447.12
339.106	410.12
339.334	404.12
339.562	423.12
339.79	453.12
340.018	413.12
340.246	436.12
340.474	442.12
340.702	432.12
340.93	421.12
341.158	408.12
341.386	426.12
341.614	438.12
341.842	446.12
342.07	427.12
342.298	411.12
342.526	423.12
342.754	400.12
342.981	400.12
343.209	410.12
343.437	407.12
343.665	423.12
343.893	427.12
344.12	425.12
344.348	405.12
344.576	438.12
344.804	455.12
345.031	459.12
345.259	471.12
345.487	454.12
345.714	411.12
345.942	419.12
346.17	439.12
346.397	409.12
346.625	449.12
346.853	424.12
347.08	412.12
347.308	438.12
347.535	436.12
347.763	433.12
347.99	439.12
348.218	430.12
348.445	434.12
348.673	443.12
348.9	439.12
349.128	412.12
349.355	410.12
349.583	382.12
349.81	396.12
350.037	384.12
350.265	419.12
350.492	413.12
350.72	397.12
350.947	425.12
351.174	421.12
351.402	440.12
351.629	404.12
351.856	445.12
352.083	446.12
352.311	456.12
352.538	477.12
352.765	463.12
352.992	467.12
353.22	422.12
353.447	425.12
353.674	409.12
353.901	416.12
354.128	406.12
354.355	398.12
354.583	385.12
354.81	398.12
355.037	384.12
355.264	408.12
355.491	390.12
355.718	389.12
355.945	389.12
356.172	397.12
356.399	399.12
356.626	375.12
356.853	399.12
357.08	407.12
357.307	379.12
357.534	395.12
357.761	411.12
357.988	379.12
358.215	382.12
358.441	402.12
358.668	403.12
358.895	404.12
359.122	400.12
359.349	406.12
359.576	450.12
359.802	456.12
360.029	516.12
360.256	532.12
360.483	486.12
360.709	416.12
360.936	458.12
361.163	428.12
361.39	426.12
361.616	440.12
361.843	438.12
362.07	429.12
362.296	460.12
362.523	418.12
362.749	432.12
362.976	411.12
363.203	430.12
363.429	410.12
363.656	429.12
363.882	410.12
364.109	418.12
364.335	416.12
364.562	401.12
364.788	432.12
365.015	408.12
365.241	411.12
365.468	426.12
365.694	406.12
365.92	426.12
366.147	430.12
366.373	413.12
366.599	407.12
366.826	413.12
367.052	420.12
367.278	408.12
367.505	421.12
367.731	416.12
367.957	412.12
368.184	409.12
368.41	417.12
368.636	439.12
368.862	429.12
369.089	412.12
369.315	417.12
369.541	408.12
369.767	401.12
369.993	407.12
370.219	412.12
370.445	402.12
370.672	414.12
370.898	406.12
371.124	393.12
371.35	397.12
371.576	397.12
371.802	392.12
372.028	398.12
372.254	399.12
372.48	400.12
372.706	405.12
372.932	418.12
373.158	409.12
373.384	407.12
373.61	401.12
373.835	400.12
374.061	378.12
374.287	432.12
374.513	413.12
374.739	407.12
374.965	384.12
375.191	403.12
375.416	412.12
375.642	418.12
375.868	405.12
376.094	398.12
376.319	396.12
376.545	409.12
376.771	408.12
376.997	393.12
377.222	393.12
377.448	378.12
377.674	398.12
377.899	400.12
378.125	401.12
378.35	380.12
378.576	410.12
378.802	394.12
379.027	390.12
379.253	426.12
379.478	377.12
379.704	411.12
379.929	427.12
380.155	410.12
380.38	384.12
380.606	427.12
380.831	404.12
381.057	400.12
381.282	406.12
381.507	393.12
381.733	410.12
381.958	412.12
382.184	429.12
382.409	414.12
382.634	415.12
382.86	410.12
383.085	418.12
383.31	410.12
383.535	405.12
383.761	420.12
383.986	427.12
384.211	409.12
384.436	404.12
384.662	420.12
384.887	427.12
385.112	437.12
385.337	431.12
385.562	418.12
385.787	437.12
386.013	440.12
386.238	428.12
386.463	444.12
386.688	452.12
386.913	407.12
387.138	418.12
387.363	418.12
387.588	445.12
387.813	440.12
388.038	436.12
388.263	456.12
388.488	429.12
388.713	426.12
388.938	444.12
389.163	442.12
389.387	458.12
389.612	436.12
389.837	440.12
390.062	442.12
390.287	419.12
390.512	426.12
390.736	434.12
390.961	430.12
391.186	436.12
391.411	453.12
391.636	436.12
391.86	450.12
392.085	443.12
392.31	446.12
392.534	451.12
392.759	446.12
392.984	443.12
393.208	441.12
393.433	456.12
393.658	450.12
393.882	460.12
394.107	432.12
394.331	425.12
394.556	426.12
394.78	435.12
395.005	444.12
395.229	454.12
395.454	452.12
395.678	475.12
395.903	475.12
396.127	508.12
396.352	488.12
396.576	479.12
396.801	464.12
397.025	466.12
397.249	478.12
397.474	472.12
397.698	483.12
397.922	506.12
398.147	522.12
398.371	509.12
398.595	481.12
398.82	507.12
399.044	488.12
399.268	512.12
399.492	535.12
399.717	559.12
399.941	559.12
400.165	596.12
400.389	610.12
400.613	567.12
400.837	544.12
401.062	530.12
401.286	521.12
401.51	517.12
401.734	498.12
401.958	530.12
402.182	499.12
402.406	527.12
402.63	531.12
402.854	531.12
403.078	504.12
403.302	506.12
403.526	512.12
403.75	523.12
403.974	528.12
404.198	533.12
404.422	529.12
404.645	534.12
404.869	568.12
405.093	578.12
405.317	599.12
405.541	647.12
405.765	578.12
405.988	579.12
406.212	574.12
406.436	605.12
406.66	613.12
406.883	579.12
407.107	622.12
407.331	650.12
407.555	695.12
407.778	701.12
408.002	642.12
408.226	619.12
408.449	585.12
408.673	605.12
408.896	613.12
409.12	651.12
409.344	618.12
409.567	566.12
409.791	540.12
410.014	546.12
410.238	532.12
410.461	542.12
410.685	550.12
410.908	566.12
411.132	607.12
411.355	640.12
411.578	609.12
411.802	554.12
412.025	527.12
412.249	546.12
412.472	569.12
412.695	634.12
412.919	598.12
413.142	539.12
413.365	559.12
413.589	536.12
413.812	526.12
414.035	514.12
414.258	524.12
414.482	507.12
414.705	506.12
414.928	482.12
415.151	488.12
415.374	488.12
415.597	499.12
415.821	506.12
416.044	502.12
416.267	513.12
416.49	520.12
416.713	500.12
416.936	512.12
417.159	527.12
417.382	520.12
417.605	524.12
417.828	515.12
418.051	539.12
418.274	524.12
418.497	527.12
418.72	523.12
418.943	510.12
419.166	510.12
419.389	541.12
419.611	555.12
419.834	532.12
420.057	529.12
420.28	548.12
420.503	546.12
420.726	542.12
420.948	559.12
421.171	612.12
421.394	638.12
421.617	577.12
421.839	557.12
422.062	556.12
422.285	543.12
422.507	626.12
422.73	717.12
422.953	670.12
423.175	586.12
423.398	562.12
423.621	574.12
423.843	595.12
424.066	595.12
424.288	579.12
424.511	623.12
424.733	675.12
424.956	765.12
425.178	738.12
425.401	758.12
425.623	776.12
425.846	669.12
426.068	614.12
426.291	598.12
426.513	586.12
426.735	606.12
426.958	660.12
427.18	780.12
427.402	902.12
427.625	980.12
427.847	880.12
428.069	770.12
428.292	690.12
428.514	619.12
428.736	566.12
428.958	592.12
429.181	547.12
429.403	540.12
429.625	560.12
429.847	634.12
430.069	685.12
430.292	690.12
430.514	582.12
430.736	554.12
430.958	558.12
431.18	548.12
431.402	536.12
431.624	519.12
431.846	520.12
432.068	508.12
432.29	529.12
432.512	522.12
432.734	540.12
432.956	546.12
433.178	543.12
433.4	556.12
433.622	546.12
433.844	522.12
434.066	529.12
434.287	540.12
434.509	528.12
434.731	522.12
434.953	521.12
435.175	569.12
435.397	579.12
435.618	608.12
435.84	657.12
436.062	757.12
436.284	835.12
436.505	700.12
436.727	621.12
436.949	575.12
437.17	542.12
437.392	583.12
437.614	594.12
437.835	635.12
438.057	743.12
438.278	834.12
438.5	823.12
438.721	904.12
438.943	839.12
439.165	706.12
439.386	643.12
439.608	606.12
439.829	649.12
440.05	660.12
440.272	731.12
440.493	658.12
440.715	614.12
440.936	578.12
441.158	558.12
441.379	579.12
441.6	602.12
441.822	620.12
442.043	659.12
442.264	759.12
442.486	801.12
442.707	683.12
442.928	648.12
443.149	635.12
443.371	654.12
443.592	705.12
443.813	807.12
444.034	867.12
444.255	721.12
444.476	642.12
444.698	598.12
444.919	606.12
445.14	707.12
445.361	665.12
445.582	659.12
445.803	752.12
446.024	869.12
446.245	854.12
446.466	781.12
446.687	696.12
446.908	604.12
447.129	603.12
447.35	573.12
447.571	557.12
447.792	592.12
448.013	562.12
448.234	613.12
448.455	670.12
448.675	805.12
448.896	899.12
449.117	780.12
449.338	728.12
449.559	846.12
449.779	926.12
450	775.12
450.221	659.12
450.442	589.12
450.662	556.12
450.883	578.12
451.104	597.12
451.324	603.12
451.545	557.12
451.766	532.12
451.986	527.12
452.207	500.12
452.428	514.12
452.648	511.12
452.869	526.12
453.089	529.12
453.31	544.12
453.53	530.12
453.751	510.12
453.971	523.12
454.192	549.12
454.412	524.12
454.633	484.12
454.853	512.12
455.073	498.12
455.294	539.12
455.514	634.12
455.734	612.12
455.955	544.12
456.175	475.12
456.395	485.12
456.616	454.12
456.836	475.12
457.056	467.12
457.276	471.12
457.497	469.12
457.717	461.12
457.937	465.12
458.157	478.12
458.377	489.12
458.598	511.12
458.818	582.12
459.038	722.12
459.258	692.12
459.478	598.12
459.698	554.12
459.918	517.12
460.138	515.12
460.358	504.12
460.578	525.12
460.798	525.12
461.018	524.12
461.238	530.12
461.458	514.12
461.678	508.12
461.898	508.12
462.118	507.12
462.338	519.12
462.558	516.12
462.777	542.12
462.997	536.12
463.217	541.12
463.437	542.12
463.657	536.12
463.876	529.12
464.096	546.12
464.316	550.12
464.536	577.12
464.755	556.12
464.975	582.12
465.195	608.12
465.414	748.12
465.634	620.12
465.854	579.12
466.073	572.12
466.293	536.12
466.512	508.12
466.732	517.12
466.951	508.12
467.171	483.12
467.391	508.12
467.61	523.12
467.829	527.12
468.049	543.12
468.268	542.12
468.488	513.12
468.707	521.12
468.927	510.12
469.146	490.12
469.365	496.12
469.585	496.12
469.804	507.12
470.023	527.12
470.243	516.12
470.462	528.12
470.681	560.12
470.901	558.12
471.12	519.12
471.339	542.12
471.558	524.12
471.777	537.12
471.997	523.12
472.216	539.12
472.435	576.12
472.654	570.12
472.873	526.12
473.092	523.12
473.311	523.12
473.53	547.12
473.749	539.12
473.968	577.12
474.187	677.12
474.406	711.12
474.625	621.12
474.844	556.12
475.063	517.12
475.282	531.12
475.501	538.12
475.72	546.12
475.939	533.12
476.158	538.12
476.377	548.12
476.596	530.12
476.814	539.12
477.033	541.12
477.252	543.12
477.471	566.12
477.69	566.12
477.908	553.12
478.127	572.12
478.346	564.12
478.564	588.12
478.783	585.12
479.002	595.12
479.22	604.12
479.439	619.12
479.658	632.12
479.876	638.12
480.095	649.12
480.313	682.12
480.532	641.12
480.751	632.12
480.969	659.12
481.188	708.12
481.406	803.12
481.624	685.12
481.843	650.12
482.061	644.12
482.28	645.12
482.498	628.12
482.717	616.12
482.935	621.12
483.153	634.12
483.372	635.12
483.59	618.12
483.808	593.12
484.027	628.12
484.245	638.12
484.463	607.12
484.681	636.12
484.9	644.12
485.118	653.12
485.336	629.12
485.554	671.12
485.772	656.12
485.99	651.12
486.209	651.12
486.427	658.12
486.645	655.12
486.863	678.12
487.081	698.12
487.299	671.12
487.517	702.12
487.735	675.12
487.953	686.12
488.171	696.12
488.389	688.12
488.607	710.12
488.825	681.12
489.043	687.12
489.261	695.12
489.479	713.12
489.696	716.12
489.914	712.12
490.132	715.12
490.35	707.12
490.568	710.12
490.786	723.12
491.003	772.12
491.221	747.12
491.439	775.12
491.657	774.12
491.874	779.12
492.092	819.12
492.31	820.12
492.527	828.12
492.745	792.12
492.963	812.12
493.18	830.12
493.398	809.12
493.615	848.12
493.833	824.12
494.05	836.12
494.268	819.12
494.485	838.12
494.703	840.12
494.92	824.12
495.138	825.12
495.355	819.12
495.573	804.12
495.79	838.12
496.008	843.12
496.225	825.12
496.442	818.12
496.66	830.12
496.877	835.12
497.094	832.12
497.312	837.12
497.529	819.12
497.746	859.12
497.963	860.12
498.181	887.12
498.398	875.12
498.615	896.12
498.832	899.12
499.049	901.12
499.267	899.12
499.484	924.12
499.701	924.12
499.918	921.12
500.135	969.12
500.352	1016.12
500.569	971.12
500.786	1024.12
501.003	1026.12
501.22	993.12
501.437	956.12
