Data from 1971.PennyLincolnUp.Lamp.En5.5.200Scan.071719.P1._HRD10591_15-20-55-842.txt Node
Date: Thu Jul 18 15:20:55 EDT 2019
User: cochatt
Spectrometer: HR+D1059
Trigger mode: 1
Integration Time (sec): 1.000000E-1
Scans to average: 1
Electric dark correction enabled: true
Nonlinearity correction enabled: false
Boxcar width: 0
XAxis mode: Wavelengths
Number of Pixels in Spectrum: 2048
>>>>>Begin Spectral Data<<<<<
223.165	-14.56
223.4	-14.56
223.635	-14.56
223.869	-18.56
224.104	-11.56
224.338	-3.56
224.573	-21.56
224.808	-10.56
225.042	-7.56
225.277	7.44
225.511	-9.56
225.746	4.44
225.98	3.44
226.215	10.44
226.449	9.44
226.683	6.44
226.918	19.44
227.152	36.44
227.387	26.44
227.621	39.44
227.856	40.44
228.09	48.44
228.324	60.44
228.559	64.44
228.793	73.44
229.027	96.44
229.262	115.44
229.496	122.44
229.73	122.44
229.964	163.44
230.199	124.44
230.433	121.44
230.667	106.44
230.901	112.44
231.136	120.44
231.37	124.44
231.604	104.44
231.838	105.44
232.072	104.44
232.306	110.44
232.541	104.44
232.775	108.44
233.009	118.44
233.243	126.44
233.477	119.44
233.711	105.44
233.945	118.44
234.179	105.44
234.413	124.44
234.647	108.44
234.881	120.44
235.115	126.44
235.349	111.44
235.583	118.44
235.817	126.44
236.051	118.44
236.285	121.44
236.519	135.44
236.753	127.44
236.987	147.44
237.221	175.44
237.455	224.44
237.689	174.44
237.922	136.44
238.156	134.44
238.39	127.44
238.624	122.44
238.858	136.44
239.091	134.44
239.325	127.44
239.559	134.44
239.793	145.44
240.027	138.44
240.26	153.44
240.494	166.44
240.728	144.44
240.961	151.44
241.195	144.44
241.429	124.44
241.662	128.44
241.896	157.44
242.13	154.44
242.363	139.44
242.597	135.44
242.83	149.44
243.064	144.44
243.298	143.44
243.531	139.44
243.765	154.44
243.998	144.44
244.232	151.44
244.465	144.44
244.699	148.44
244.932	142.44
245.166	154.44
245.399	158.44
245.633	161.44
245.866	162.44
246.099	153.44
246.333	165.44
246.566	158.44
246.8	142.44
247.033	161.44
247.266	154.44
247.5	165.44
247.733	194.44
247.966	202.44
248.2	176.44
248.433	182.44
248.666	183.44
248.899	201.44
249.133	205.44
249.366	216.44
249.599	207.44
249.832	207.44
250.066	205.44
250.299	195.44
250.532	224.44
250.765	222.44
250.998	231.44
251.231	231.44
251.465	213.44
251.698	214.44
251.931	193.44
252.164	203.44
252.397	205.44
252.63	220.44
252.863	223.44
253.096	239.44
253.329	236.44
253.562	253.44
253.795	230.44
254.028	235.44
254.261	225.44
254.494	242.44
254.727	273.44
254.96	293.44
255.193	284.44
255.426	263.44
255.659	250.44
255.892	258.44
256.124	248.44
256.357	252.44
256.59	243.44
256.823	227.44
257.056	238.44
257.289	216.44
257.521	221.44
257.754	236.44
257.987	218.44
258.22	212.44
258.452	228.44
258.685	233.44
258.918	233.44
259.151	241.44
259.383	228.44
259.616	249.44
259.849	237.44
260.081	239.44
260.314	256.44
260.547	271.44
260.779	251.44
261.012	261.44
261.244	247.44
261.477	231.44
261.71	238.44
261.942	222.44
262.175	236.44
262.407	258.44
262.64	231.44
262.872	235.44
263.105	230.44
263.337	232.44
263.57	224.44
263.802	223.44
264.035	227.44
264.267	234.44
264.499	238.44
264.732	220.44
264.964	223.44
265.197	221.44
265.429	226.44
265.661	230.44
265.894	220.44
266.126	227.44
266.358	229.44
266.591	239.44
266.823	231.44
267.055	243.44
267.287	228.44
267.52	226.44
267.752	254.44
267.984	256.44
268.216	254.44
268.448	267.44
268.681	252.44
268.913	252.44
269.145	275.44
269.377	293.44
269.609	295.44
269.841	291.44
270.073	289.44
270.306	308.44
270.538	339.44
270.77	338.44
271.002	319.44
271.234	313.44
271.466	324.44
271.698	338.44
271.93	323.44
272.162	340.44
272.394	359.44
272.626	347.44
272.858	310.44
273.09	293.44
273.322	308.44
273.553	276.44
273.785	298.44
274.017	278.44
274.249	287.44
274.481	292.44
274.713	274.44
274.945	282.44
275.176	280.44
275.408	280.44
275.64	281.44
275.872	284.44
276.104	300.44
276.335	287.44
276.567	291.44
276.799	286.44
277.031	319.44
277.262	340.44
277.494	348.44
277.726	327.44
277.957	322.44
278.189	306.44
278.421	298.44
278.652	280.44
278.884	310.44
279.115	308.44
279.347	288.44
279.579	314.44
279.81	286.44
280.042	277.44
280.273	304.44
280.505	291.44
280.736	292.44
280.968	292.44
281.199	281.44
281.431	298.44
281.662	277.44
281.894	294.44
282.125	288.44
282.356	315.44
282.588	316.44
282.819	312.44
283.051	311.44
283.282	272.44
283.513	287.44
283.745	303.44
283.976	283.44
284.207	284.44
284.439	308.44
284.67	324.44
284.901	295.44
285.132	314.44
285.364	301.44
285.595	307.44
285.826	301.44
286.057	275.44
286.288	298.44
286.52	290.44
286.751	315.44
286.982	298.44
287.213	310.44
287.444	286.44
287.675	287.44
287.906	319.44
288.138	318.44
288.369	324.44
288.6	298.44
288.831	323.44
289.062	309.44
289.293	327.44
289.524	306.44
289.755	312.44
289.986	326.44
290.217	303.44
290.448	319.44
290.679	321.44
290.91	321.44
291.141	306.44
291.371	285.44
291.602	310.44
291.833	308.44
292.064	335.44
292.295	315.44
292.526	296.44
292.757	314.44
292.987	310.44
293.218	306.44
293.449	315.44
293.68	302.44
293.91	299.44
294.141	307.44
294.372	312.44
294.603	308.44
294.833	316.44
295.064	300.44
295.295	320.44
295.525	333.44
295.756	311.44
295.987	313.44
296.217	321.44
296.448	339.44
296.679	333.44
296.909	302.44
297.14	302.44
297.37	306.44
297.601	312.44
297.831	310.44
298.062	319.44
298.292	322.44
298.523	324.44
298.753	362.44
298.984	318.44
299.214	330.44
299.445	310.44
299.675	338.44
299.905	330.44
300.136	331.44
300.366	339.44
300.597	339.44
300.827	312.44
301.057	335.44
301.288	354.44
301.518	341.44
301.748	336.44
301.979	349.44
302.209	336.44
302.439	335.44
302.669	335.44
302.9	340.44
303.13	356.44
303.36	358.44
303.59	348.44
303.82	352.44
304.051	356.44
304.281	356.44
304.511	355.44
304.741	335.44
304.971	357.44
305.201	348.44
305.431	332.44
305.661	353.44
305.891	344.44
306.121	351.44
306.352	370.44
306.582	357.44
306.812	375.44
307.042	356.44
307.272	351.44
307.502	341.44
307.731	358.44
307.961	339.44
308.191	355.44
308.421	358.44
308.651	368.44
308.881	362.44
309.111	366.44
309.341	364.44
309.571	383.44
309.8	362.44
310.03	384.44
310.26	406.44
310.49	391.44
310.72	409.44
310.949	410.44
311.179	420.44
311.409	390.44
311.639	379.44
311.868	401.44
312.098	408.44
312.328	395.44
312.557	408.44
312.787	422.44
313.017	428.44
313.246	415.44
313.476	388.44
313.706	406.44
313.935	405.44
314.165	398.44
314.394	420.44
314.624	439.44
314.853	409.44
315.083	394.44
315.312	428.44
315.542	386.44
315.771	383.44
316.001	394.44
316.23	396.44
316.46	389.44
316.689	394.44
316.919	419.44
317.148	401.44
317.377	416.44
317.607	400.44
317.836	398.44
318.065	398.44
318.295	392.44
318.524	391.44
318.753	413.44
318.983	392.44
319.212	396.44
319.441	416.44
319.67	400.44
319.9	416.44
320.129	405.44
320.358	398.44
320.587	436.44
320.816	399.44
321.046	425.44
321.275	422.44
321.504	419.44
321.733	424.44
321.962	442.44
322.191	436.44
322.42	464.44
322.649	461.44
322.878	468.44
323.108	490.44
323.337	513.44
323.566	508.44
323.795	560.44
324.024	609.44
324.253	738.44
324.482	1046.44
324.71	1542.44
324.939	2134.44
325.168	1795.44
325.397	940.44
325.626	654.44
325.855	592.44
326.084	547.44
326.313	541.44
326.542	520.44
326.77	582.44
326.999	673.44
327.228	917.44
327.457	1310.44
327.686	1594.44
327.914	1046.44
328.143	708.44
328.372	626.44
328.6	600.44
328.829	583.44
329.058	567.44
329.287	572.44
329.515	544.44
329.744	533.44
329.972	510.44
330.201	574.44
330.43	583.44
330.658	599.44
330.887	618.44
331.115	583.44
331.344	540.44
331.572	503.44
331.801	514.44
332.03	487.44
332.258	466.44
332.486	478.44
332.715	481.44
332.943	472.44
333.172	479.44
333.4	475.44
333.629	474.44
333.857	516.44
334.085	514.44
334.314	521.44
334.542	522.44
334.771	534.44
334.999	498.44
335.227	492.44
335.455	461.44
335.684	460.44
335.912	461.44
336.14	445.44
336.369	443.44
336.597	485.44
336.825	464.44
337.053	434.44
337.281	435.44
337.51	457.44
337.738	453.44
337.966	449.44
338.194	468.44
338.422	448.44
338.65	451.44
338.878	438.44
339.106	439.44
339.334	451.44
339.562	428.44
339.79	422.44
340.018	454.44
340.246	443.44
340.474	450.44
340.702	445.44
340.93	440.44
341.158	446.44
341.386	426.44
341.614	436.44
341.842	440.44
342.07	451.44
342.298	424.44
342.526	423.44
342.754	415.44
342.981	431.44
343.209	418.44
343.437	450.44
343.665	431.44
343.893	419.44
344.12	456.44
344.348	437.44
344.576	455.44
344.804	457.44
345.031	455.44
345.259	464.44
345.487	458.44
345.714	434.44
345.942	416.44
346.17	424.44
346.397	409.44
346.625	434.44
346.853	428.44
347.08	420.44
347.308	439.44
347.535	427.44
347.763	443.44
347.99	424.44
348.218	428.44
348.445	411.44
348.673	428.44
348.9	416.44
349.128	409.44
349.355	390.44
349.583	408.44
349.81	409.44
350.037	407.44
350.265	403.44
350.492	410.44
350.72	376.44
350.947	400.44
351.174	415.44
351.402	422.44
351.629	428.44
351.856	425.44
352.083	418.44
352.311	444.44
352.538	436.44
352.765	437.44
352.992	421.44
353.22	417.44
353.447	402.44
353.674	396.44
353.901	398.44
354.128	384.44
354.355	387.44
354.583	391.44
354.81	387.44
355.037	412.44
355.264	379.44
355.491	364.44
355.718	394.44
355.945	381.44
356.172	363.44
356.399	386.44
356.626	376.44
356.853	381.44
357.08	377.44
357.307	392.44
357.534	367.44
357.761	376.44
357.988	372.44
358.215	379.44
358.441	388.44
358.668	390.44
358.895	403.44
359.122	387.44
359.349	391.44
359.576	395.44
359.802	411.44
360.029	446.44
360.256	442.44
360.483	438.44
360.709	410.44
360.936	394.44
361.163	414.44
361.39	401.44
361.616	412.44
361.843	401.44
362.07	407.44
362.296	378.44
362.523	378.44
362.749	380.44
362.976	379.44
363.203	384.44
363.429	379.44
363.656	381.44
363.882	381.44
364.109	395.44
364.335	380.44
364.562	397.44
364.788	411.44
365.015	380.44
365.241	389.44
365.468	391.44
365.694	408.44
365.92	394.44
366.147	394.44
366.373	378.44
366.599	364.44
366.826	380.44
367.052	382.44
367.278	369.44
367.505	390.44
367.731	376.44
367.957	366.44
368.184	385.44
368.41	396.44
368.636	399.44
368.862	391.44
369.089	403.44
369.315	387.44
369.541	376.44
369.767	373.44
369.993	379.44
370.219	380.44
370.445	366.44
370.672	356.44
370.898	373.44
371.124	378.44
371.35	380.44
371.576	384.44
371.802	385.44
372.028	356.44
372.254	358.44
372.48	370.44
372.706	378.44
372.932	353.44
373.158	372.44
373.384	386.44
373.61	380.44
373.835	375.44
374.061	372.44
374.287	363.44
374.513	375.44
374.739	368.44
374.965	385.44
375.191	358.44
375.416	363.44
375.642	377.44
375.868	378.44
376.094	377.44
376.319	367.44
376.545	351.44
376.771	363.44
376.997	357.44
377.222	375.44
377.448	375.44
377.674	364.44
377.899	352.44
378.125	358.44
378.35	365.44
378.576	368.44
378.802	372.44
379.027	354.44
379.253	364.44
379.478	360.44
379.704	374.44
379.929	377.44
380.155	366.44
380.38	347.44
380.606	380.44
380.831	359.44
381.057	368.44
381.282	365.44
381.507	365.44
381.733	373.44
381.958	357.44
382.184	354.44
382.409	366.44
382.634	381.44
382.86	374.44
383.085	358.44
383.31	366.44
383.535	382.44
383.761	390.44
383.986	378.44
384.211	387.44
384.436	375.44
384.662	386.44
384.887	370.44
385.112	360.44
385.337	382.44
385.562	384.44
385.787	389.44
386.013	399.44
386.238	405.44
386.463	399.44
386.688	382.44
386.913	376.44
387.138	401.44
387.363	394.44
387.588	380.44
387.813	371.44
388.038	383.44
388.263	380.44
388.488	390.44
388.713	374.44
388.938	401.44
389.163	380.44
389.387	387.44
389.612	383.44
389.837	392.44
390.062	386.44
390.287	395.44
390.512	379.44
390.736	379.44
390.961	376.44
391.186	382.44
391.411	381.44
391.636	371.44
391.86	388.44
392.085	410.44
392.31	398.44
392.534	397.44
392.759	372.44
392.984	379.44
393.208	380.44
393.433	395.44
393.658	384.44
393.882	372.44
394.107	377.44
394.331	388.44
394.556	381.44
394.78	376.44
395.005	384.44
395.229	372.44
395.454	393.44
395.678	399.44
395.903	409.44
396.127	423.44
396.352	423.44
396.576	404.44
396.801	403.44
397.025	395.44
397.249	394.44
397.474	383.44
397.698	380.44
397.922	396.44
398.147	438.44
398.371	428.44
398.595	425.44
398.82	428.44
399.044	418.44
399.268	448.44
399.492	480.44
399.717	477.44
399.941	511.44
400.165	526.44
400.389	529.44
400.613	506.44
400.837	455.44
401.062	424.44
401.286	446.44
401.51	435.44
401.734	426.44
401.958	429.44
402.182	423.44
402.406	453.44
402.63	451.44
402.854	435.44
403.078	431.44
403.302	426.44
403.526	459.44
403.75	429.44
403.974	452.44
404.198	438.44
404.422	463.44
404.645	469.44
404.869	465.44
405.093	480.44
405.317	515.44
405.541	562.44
405.765	499.44
405.988	463.44
406.212	471.44
406.436	481.44
406.66	500.44
406.883	478.44
407.107	523.44
407.331	506.44
407.555	595.44
407.778	604.44
408.002	535.44
408.226	502.44
408.449	491.44
408.673	495.44
408.896	506.44
409.12	553.44
409.344	503.44
409.567	458.44
409.791	465.44
410.014	439.44
410.238	442.44
410.461	434.44
410.685	442.44
410.908	479.44
411.132	486.44
411.355	508.44
411.578	484.44
411.802	450.44
412.025	445.44
412.249	451.44
412.472	453.44
412.695	502.44
412.919	503.44
413.142	445.44
413.365	434.44
413.589	418.44
413.812	441.44
414.035	439.44
414.258	417.44
414.482	410.44
414.705	419.44
414.928	418.44
415.151	411.44
415.374	430.44
415.597	418.44
415.821	419.44
416.044	423.44
416.267	428.44
416.49	416.44
416.713	396.44
416.936	416.44
417.159	422.44
417.382	419.44
417.605	437.44
417.828	427.44
418.051	438.44
418.274	426.44
418.497	420.44
418.72	395.44
418.943	420.44
419.166	423.44
419.389	456.44
419.611	440.44
419.834	448.44
420.057	448.44
420.28	451.44
420.503	423.44
420.726	452.44
420.948	469.44
421.171	481.44
421.394	516.44
421.617	457.44
421.839	440.44
422.062	423.44
422.285	458.44
422.507	510.44
422.73	564.44
422.953	545.44
423.175	499.44
423.398	450.44
423.621	447.44
423.843	487.44
424.066	478.44
424.288	470.44
424.511	501.44
424.733	527.44
424.956	607.44
425.178	586.44
425.401	586.44
425.623	586.44
425.846	523.44
426.068	495.44
426.291	477.44
426.513	468.44
426.735	476.44
426.958	521.44
427.18	586.44
427.402	688.44
427.625	752.44
427.847	647.44
428.069	596.44
428.292	526.44
428.514	472.44
428.736	455.44
428.958	428.44
429.181	437.44
429.403	428.44
429.625	440.44
429.847	480.44
430.069	521.44
430.292	516.44
430.514	442.44
430.736	428.44
430.958	426.44
431.18	412.44
431.402	422.44
431.624	420.44
431.846	403.44
432.068	420.44
432.29	402.44
432.512	422.44
432.734	427.44
432.956	401.44
433.178	408.44
433.4	422.44
433.622	435.44
433.844	420.44
434.066	388.44
434.287	405.44
434.509	414.44
434.731	396.44
434.953	426.44
435.175	413.44
435.397	467.44
435.618	485.44
435.84	501.44
436.062	578.44
436.284	625.44
436.505	526.44
436.727	483.44
436.949	459.44
437.17	434.44
437.392	426.44
437.614	456.44
437.835	481.44
438.057	521.44
438.278	614.44
438.5	630.44
438.721	677.44
438.943	662.44
439.165	556.44
439.386	477.44
439.608	482.44
439.829	488.44
440.05	500.44
440.272	543.44
440.493	526.44
440.715	463.44
440.936	453.44
441.158	413.44
441.379	451.44
441.6	462.44
441.822	482.44
442.043	512.44
442.264	557.44
442.486	600.44
442.707	501.44
442.928	464.44
443.149	498.44
443.371	518.44
443.592	538.44
443.813	607.44
444.034	668.44
444.255	570.44
444.476	482.44
444.698	480.44
444.919	483.44
445.14	576.44
445.361	535.44
445.582	518.44
445.803	559.44
446.024	638.44
446.245	677.44
446.466	619.44
446.687	516.44
446.908	476.44
447.129	452.44
447.35	441.44
447.571	413.44
447.792	426.44
448.013	446.44
448.234	461.44
448.455	486.44
448.675	598.44
448.896	681.44
449.117	580.44
449.338	552.44
449.559	652.44
449.779	733.44
450	602.44
450.221	480.44
450.442	462.44
450.662	418.44
450.883	437.44
451.104	441.44
451.324	426.44
451.545	418.44
451.766	400.44
451.986	386.44
452.207	391.44
452.428	387.44
452.648	392.44
452.869	394.44
453.089	382.44
453.31	396.44
453.53	393.44
453.751	395.44
453.971	398.44
454.192	418.44
454.412	382.44
454.633	389.44
454.853	384.44
455.073	378.44
455.294	428.44
455.514	473.44
455.734	463.44
455.955	384.44
456.175	378.44
456.395	361.44
456.616	364.44
456.836	372.44
457.056	358.44
457.276	347.44
457.497	361.44
457.717	357.44
457.937	366.44
458.157	364.44
458.377	356.44
458.598	396.44
458.818	426.44
459.038	525.44
459.258	493.44
459.478	439.44
459.698	404.44
459.918	389.44
460.138	394.44
460.358	411.44
460.578	387.44
460.798	388.44
461.018	419.44
461.238	399.44
461.458	403.44
461.678	396.44
461.898	423.44
462.118	397.44
462.338	402.44
462.558	395.44
462.777	413.44
462.997	436.44
463.217	441.44
463.437	457.44
463.657	437.44
463.876	403.44
464.096	414.44
464.316	404.44
464.536	437.44
464.755	437.44
464.975	443.44
465.195	460.44
465.414	506.44
465.634	456.44
465.854	442.44
466.073	400.44
466.293	396.44
466.512	398.44
466.732	396.44
466.951	375.44
467.171	388.44
467.391	383.44
467.61	413.44
467.829	414.44
468.049	430.44
468.268	404.44
468.488	376.44
468.707	389.44
468.927	386.44
469.146	374.44
469.365	371.44
469.585	380.44
469.804	404.44
470.023	395.44
470.243	403.44
470.462	395.44
470.681	414.44
470.901	398.44
471.12	418.44
471.339	393.44
471.558	390.44
471.777	397.44
471.997	427.44
472.216	398.44
472.435	424.44
472.654	398.44
472.873	400.44
473.092	391.44
473.311	401.44
473.53	379.44
473.749	413.44
473.968	465.44
474.187	544.44
474.406	555.44
474.625	440.44
474.844	424.44
475.063	399.44
475.282	385.44
475.501	400.44
475.72	393.44
475.939	416.44
476.158	400.44
476.377	401.44
476.596	418.44
476.814	426.44
477.033	407.44
477.252	426.44
477.471	424.44
477.69	429.44
477.908	421.44
478.127	414.44
478.346	422.44
478.564	428.44
478.783	448.44
479.002	446.44
479.22	467.44
479.439	462.44
479.658	488.44
479.876	460.44
480.095	464.44
480.313	511.44
480.532	495.44
480.751	482.44
480.969	505.44
481.188	522.44
481.406	571.44
481.624	482.44
481.843	470.44
482.061	466.44
482.28	472.44
482.498	469.44
482.717	439.44
482.935	452.44
483.153	455.44
483.372	467.44
483.59	463.44
483.808	470.44
484.027	467.44
484.245	457.44
484.463	484.44
484.681	468.44
484.9	469.44
485.118	473.44
485.336	475.44
485.554	500.44
485.772	454.44
485.99	469.44
486.209	473.44
486.427	471.44
486.645	477.44
486.863	509.44
487.081	495.44
487.299	488.44
487.517	491.44
487.735	494.44
487.953	501.44
488.171	510.44
488.389	511.44
488.607	498.44
488.825	468.44
489.043	495.44
489.261	514.44
489.479	510.44
489.696	506.44
489.914	507.44
490.132	481.44
490.35	503.44
490.568	520.44
490.786	537.44
491.003	526.44
491.221	546.44
491.439	555.44
491.657	556.44
491.874	564.44
492.092	572.44
492.31	599.44
492.527	576.44
492.745	586.44
492.963	568.44
493.18	597.44
493.398	580.44
493.615	597.44
493.833	612.44
494.05	588.44
494.268	571.44
494.485	563.44
494.703	613.44
494.92	589.44
495.138	576.44
495.355	599.44
495.573	596.44
495.79	575.44
496.008	579.44
496.225	571.44
496.442	584.44
496.66	597.44
496.877	600.44
497.094	596.44
497.312	599.44
497.529	602.44
497.746	624.44
497.963	598.44
498.181	621.44
498.398	606.44
498.615	631.44
498.832	684.44
499.049	636.44
499.267	687.44
499.484	689.44
499.701	692.44
499.918	700.44
500.135	730.44
500.352	783.44
500.569	764.44
500.786	733.44
501.003	746.44
501.22	764.44
501.437	751.44
501.654	724.44
501.871	713.44
