Data from 1971.PennyLincolnUp.Lamp.En5.5.200Scan.071719.P1._HRD10591_15-20-12-842.txt Node
Date: Thu Jul 18 15:20:12 EDT 2019
User: cochatt
Spectrometer: HR+D1059
Trigger mode: 1
Integration Time (sec): 1.000000E-1
Scans to average: 1
Electric dark correction enabled: true
Nonlinearity correction enabled: false
Boxcar width: 0
XAxis mode: Wavelengths
Number of Pixels in Spectrum: 2048
>>>>>Begin Spectral Data<<<<<
223.165	-6.5
223.4	-6.5
223.635	-6.5
223.869	-4.5
224.104	-22.5
224.338	-25.5
224.573	-8.5
224.808	-14.5
225.042	5.5
225.277	-4.5
225.511	6.5
225.746	0.5
225.98	-6.5
226.215	-5.5
226.449	29.5
226.683	13.5
226.918	17.5
227.152	25.5
227.387	37.5
227.621	38.5
227.856	43.5
228.09	38.5
228.324	56.5
228.559	45.5
228.793	69.5
229.027	107.5
229.262	102.5
229.496	128.5
229.73	123.5
229.964	142.5
230.199	122.5
230.433	113.5
230.667	127.5
230.901	120.5
231.136	124.5
231.37	97.5
231.604	108.5
231.838	118.5
232.072	119.5
232.306	119.5
232.541	117.5
232.775	99.5
233.009	119.5
233.243	107.5
233.477	115.5
233.711	115.5
233.945	116.5
234.179	120.5
234.413	115.5
234.647	127.5
234.881	112.5
235.115	119.5
235.349	110.5
235.583	134.5
235.817	122.5
236.051	115.5
236.285	124.5
236.519	122.5
236.753	129.5
236.987	148.5
237.221	183.5
237.455	207.5
237.689	171.5
237.922	142.5
238.156	139.5
238.39	128.5
238.624	122.5
238.858	148.5
239.091	129.5
239.325	129.5
239.559	127.5
239.793	136.5
240.027	126.5
240.26	140.5
240.494	158.5
240.728	165.5
240.961	162.5
241.195	139.5
241.429	122.5
241.662	142.5
241.896	137.5
242.13	144.5
242.363	133.5
242.597	138.5
242.83	128.5
243.064	147.5
243.298	136.5
243.531	147.5
243.765	136.5
243.998	151.5
244.232	145.5
244.465	137.5
244.699	153.5
244.932	149.5
245.166	146.5
245.399	144.5
245.633	143.5
245.866	135.5
246.099	149.5
246.333	157.5
246.566	170.5
246.8	153.5
247.033	152.5
247.266	154.5
247.5	192.5
247.733	177.5
247.966	174.5
248.2	177.5
248.433	176.5
248.666	173.5
248.899	192.5
249.133	207.5
249.366	208.5
249.599	209.5
249.832	205.5
250.066	193.5
250.299	183.5
250.532	183.5
250.765	214.5
250.998	213.5
251.231	235.5
251.465	239.5
251.698	219.5
251.931	221.5
252.164	205.5
252.397	210.5
252.63	218.5
252.863	216.5
253.096	228.5
253.329	219.5
253.562	223.5
253.795	235.5
254.028	211.5
254.261	219.5
254.494	237.5
254.727	249.5
254.96	290.5
255.193	266.5
255.426	258.5
255.659	241.5
255.892	243.5
256.124	249.5
256.357	239.5
256.59	245.5
256.823	223.5
257.056	230.5
257.289	209.5
257.521	225.5
257.754	226.5
257.987	205.5
258.22	219.5
258.452	202.5
258.685	229.5
258.918	219.5
259.151	249.5
259.383	238.5
259.616	226.5
259.849	248.5
260.081	246.5
260.314	271.5
260.547	266.5
260.779	258.5
261.012	247.5
261.244	251.5
261.477	231.5
261.71	223.5
261.942	220.5
262.175	231.5
262.407	237.5
262.64	257.5
262.872	246.5
263.105	223.5
263.337	215.5
263.57	242.5
263.802	224.5
264.035	223.5
264.267	219.5
264.499	217.5
264.732	217.5
264.964	225.5
265.197	216.5
265.429	214.5
265.661	238.5
265.894	211.5
266.126	224.5
266.358	213.5
266.591	217.5
266.823	238.5
267.055	241.5
267.287	245.5
267.52	245.5
267.752	244.5
267.984	235.5
268.216	265.5
268.448	256.5
268.681	239.5
268.913	261.5
269.145	288.5
269.377	307.5
269.609	291.5
269.841	282.5
270.073	282.5
270.306	306.5
270.538	340.5
270.77	325.5
271.002	330.5
271.234	311.5
271.466	319.5
271.698	332.5
271.93	340.5
272.162	338.5
272.394	345.5
272.626	333.5
272.858	291.5
273.09	305.5
273.322	302.5
273.553	286.5
273.785	262.5
274.017	270.5
274.249	277.5
274.481	283.5
274.713	265.5
274.945	287.5
275.176	279.5
275.408	273.5
275.64	293.5
275.872	281.5
276.104	297.5
276.335	275.5
276.567	288.5
276.799	296.5
277.031	320.5
277.262	321.5
277.494	338.5
277.726	327.5
277.957	306.5
278.189	302.5
278.421	289.5
278.652	293.5
278.884	296.5
279.115	283.5
279.347	273.5
279.579	297.5
279.81	288.5
280.042	283.5
280.273	296.5
280.505	302.5
280.736	278.5
280.968	289.5
281.199	296.5
281.431	290.5
281.662	310.5
281.894	284.5
282.125	295.5
282.356	305.5
282.588	322.5
282.819	320.5
283.051	293.5
283.282	275.5
283.513	279.5
283.745	302.5
283.976	311.5
284.207	300.5
284.439	289.5
284.67	289.5
284.901	304.5
285.132	297.5
285.364	299.5
285.595	297.5
285.826	297.5
286.057	306.5
286.288	309.5
286.52	303.5
286.751	293.5
286.982	305.5
287.213	294.5
287.444	287.5
287.675	303.5
287.906	305.5
288.138	307.5
288.369	320.5
288.6	298.5
288.831	305.5
289.062	320.5
289.293	319.5
289.524	286.5
289.755	305.5
289.986	300.5
290.217	297.5
290.448	320.5
290.679	305.5
290.91	287.5
291.141	298.5
291.371	289.5
291.602	334.5
291.833	313.5
292.064	295.5
292.295	276.5
292.526	300.5
292.757	291.5
292.987	322.5
293.218	305.5
293.449	305.5
293.68	294.5
293.91	320.5
294.141	305.5
294.372	314.5
294.603	307.5
294.833	316.5
295.064	295.5
295.295	284.5
295.525	310.5
295.756	319.5
295.987	307.5
296.217	330.5
296.448	338.5
296.679	334.5
296.909	321.5
297.14	314.5
297.37	301.5
297.601	311.5
297.831	294.5
298.062	325.5
298.292	299.5
298.523	336.5
298.753	319.5
298.984	312.5
299.214	331.5
299.445	325.5
299.675	316.5
299.905	315.5
300.136	336.5
300.366	314.5
300.597	313.5
300.827	310.5
301.057	329.5
301.288	331.5
301.518	344.5
301.748	338.5
301.979	339.5
302.209	335.5
302.439	346.5
302.669	337.5
302.9	334.5
303.13	326.5
303.36	343.5
303.59	332.5
303.82	349.5
304.051	359.5
304.281	344.5
304.511	344.5
304.741	344.5
304.971	338.5
305.201	335.5
305.431	330.5
305.661	348.5
305.891	341.5
306.121	331.5
306.352	338.5
306.582	343.5
306.812	332.5
307.042	326.5
307.272	337.5
307.502	360.5
307.731	348.5
307.961	341.5
308.191	346.5
308.421	346.5
308.651	350.5
308.881	346.5
309.111	339.5
309.341	353.5
309.571	374.5
309.8	369.5
310.03	393.5
310.26	385.5
310.49	387.5
310.72	395.5
310.949	400.5
311.179	409.5
311.409	382.5
311.639	391.5
311.868	385.5
312.098	370.5
312.328	391.5
312.557	425.5
312.787	415.5
313.017	413.5
313.246	401.5
313.476	389.5
313.706	382.5
313.935	406.5
314.165	400.5
314.394	413.5
314.624	423.5
314.853	395.5
315.083	381.5
315.312	394.5
315.542	389.5
315.771	385.5
316.001	415.5
316.23	376.5
316.46	381.5
316.689	395.5
316.919	401.5
317.148	397.5
317.377	406.5
317.607	390.5
317.836	403.5
318.065	395.5
318.295	395.5
318.524	393.5
318.753	394.5
318.983	397.5
319.212	399.5
319.441	413.5
319.67	393.5
319.9	396.5
320.129	403.5
320.358	404.5
320.587	399.5
320.816	401.5
321.046	403.5
321.275	388.5
321.504	403.5
321.733	409.5
321.962	421.5
322.191	428.5
322.42	430.5
322.649	457.5
322.878	455.5
323.108	483.5
323.337	496.5
323.566	483.5
323.795	535.5
324.024	603.5
324.253	724.5
324.482	994.5
324.71	1486.5
324.939	2043.5
325.168	1714.5
325.397	878.5
325.626	636.5
325.855	557.5
326.084	519.5
326.313	502.5
326.542	511.5
326.77	570.5
326.999	645.5
327.228	895.5
327.457	1322.5
327.686	1499.5
327.914	998.5
328.143	675.5
328.372	605.5
328.6	591.5
328.829	547.5
329.058	554.5
329.287	550.5
329.515	540.5
329.744	526.5
329.972	505.5
330.201	530.5
330.43	570.5
330.658	575.5
330.887	574.5
331.115	574.5
331.344	516.5
331.572	499.5
331.801	489.5
332.03	485.5
332.258	465.5
332.486	446.5
332.715	462.5
332.943	467.5
333.172	457.5
333.4	449.5
333.629	465.5
333.857	461.5
334.085	477.5
334.314	486.5
334.542	513.5
334.771	535.5
334.999	493.5
335.227	465.5
335.455	468.5
335.684	462.5
335.912	447.5
336.14	424.5
336.369	449.5
336.597	470.5
336.825	459.5
337.053	440.5
337.281	438.5
337.51	419.5
337.738	418.5
337.966	450.5
338.194	428.5
338.422	442.5
338.65	435.5
338.878	443.5
339.106	434.5
339.334	427.5
339.562	441.5
339.79	422.5
340.018	417.5
340.246	438.5
340.474	443.5
340.702	434.5
340.93	428.5
341.158	430.5
341.386	429.5
341.614	435.5
341.842	414.5
342.07	413.5
342.298	414.5
342.526	415.5
342.754	403.5
342.981	425.5
343.209	426.5
343.437	426.5
343.665	420.5
343.893	453.5
344.12	429.5
344.348	423.5
344.576	434.5
344.804	421.5
345.031	451.5
345.259	443.5
345.487	447.5
345.714	428.5
345.942	417.5
346.17	422.5
346.397	425.5
346.625	409.5
346.853	407.5
347.08	408.5
347.308	400.5
347.535	404.5
347.763	421.5
347.99	419.5
348.218	433.5
348.445	438.5
348.673	421.5
348.9	405.5
349.128	408.5
349.355	404.5
349.583	394.5
349.81	392.5
350.037	400.5
350.265	393.5
350.492	379.5
350.72	406.5
350.947	393.5
351.174	406.5
351.402	431.5
351.629	409.5
351.856	403.5
352.083	421.5
352.311	428.5
352.538	415.5
352.765	418.5
352.992	402.5
353.22	399.5
353.447	389.5
353.674	371.5
353.901	387.5
354.128	387.5
354.355	391.5
354.583	377.5
354.81	364.5
355.037	387.5
355.264	362.5
355.491	366.5
355.718	363.5
355.945	378.5
356.172	364.5
356.399	361.5
356.626	374.5
356.853	376.5
357.08	385.5
357.307	369.5
357.534	375.5
357.761	378.5
357.988	362.5
358.215	385.5
358.441	381.5
358.668	384.5
358.895	389.5
359.122	381.5
359.349	402.5
359.576	364.5
359.802	417.5
360.029	429.5
360.256	446.5
360.483	400.5
360.709	408.5
360.936	393.5
361.163	368.5
361.39	366.5
361.616	406.5
361.843	381.5
362.07	399.5
362.296	397.5
362.523	380.5
362.749	395.5
362.976	381.5
363.203	386.5
363.429	384.5
363.656	390.5
363.882	390.5
364.109	379.5
364.335	375.5
364.562	352.5
364.788	345.5
365.015	380.5
365.241	391.5
365.468	389.5
365.694	393.5
365.92	376.5
366.147	370.5
366.373	366.5
366.599	379.5
366.826	373.5
367.052	362.5
367.278	378.5
367.505	369.5
367.731	389.5
367.957	381.5
368.184	382.5
368.41	389.5
368.636	366.5
368.862	381.5
369.089	371.5
369.315	363.5
369.541	364.5
369.767	370.5
369.993	363.5
370.219	382.5
370.445	362.5
370.672	394.5
370.898	350.5
371.124	361.5
371.35	357.5
371.576	365.5
371.802	361.5
372.028	370.5
372.254	362.5
372.48	352.5
372.706	377.5
372.932	362.5
373.158	387.5
373.384	368.5
373.61	371.5
373.835	363.5
374.061	361.5
374.287	376.5
374.513	361.5
374.739	370.5
374.965	375.5
375.191	367.5
375.416	373.5
375.642	363.5
375.868	377.5
376.094	354.5
376.319	369.5
376.545	366.5
376.771	334.5
376.997	351.5
377.222	354.5
377.448	358.5
377.674	354.5
377.899	348.5
378.125	353.5
378.35	366.5
378.576	374.5
378.802	350.5
379.027	346.5
379.253	370.5
379.478	351.5
379.704	348.5
379.929	348.5
380.155	366.5
380.38	355.5
380.606	347.5
380.831	355.5
381.057	341.5
381.282	359.5
381.507	370.5
381.733	369.5
381.958	378.5
382.184	377.5
382.409	366.5
382.634	364.5
382.86	356.5
383.085	368.5
383.31	377.5
383.535	359.5
383.761	361.5
383.986	379.5
384.211	352.5
384.436	378.5
384.662	375.5
384.887	368.5
385.112	365.5
385.337	369.5
385.562	374.5
385.787	377.5
386.013	389.5
386.238	392.5
386.463	399.5
386.688	375.5
386.913	353.5
387.138	366.5
387.363	376.5
387.588	372.5
387.813	366.5
388.038	382.5
388.263	385.5
388.488	373.5
388.713	379.5
388.938	404.5
389.163	368.5
389.387	394.5
389.612	377.5
389.837	375.5
390.062	352.5
390.287	379.5
390.512	370.5
390.736	359.5
390.961	387.5
391.186	380.5
391.411	374.5
391.636	392.5
391.86	398.5
392.085	389.5
392.31	385.5
392.534	375.5
392.759	377.5
392.984	381.5
393.208	378.5
393.433	381.5
393.658	405.5
393.882	377.5
394.107	374.5
394.331	376.5
394.556	373.5
394.78	397.5
395.005	390.5
395.229	366.5
395.454	395.5
395.678	391.5
395.903	398.5
396.127	392.5
396.352	410.5
396.576	396.5
396.801	404.5
397.025	408.5
397.249	393.5
397.474	404.5
397.698	414.5
397.922	416.5
398.147	443.5
398.371	432.5
398.595	433.5
398.82	417.5
399.044	402.5
399.268	445.5
399.492	447.5
399.717	489.5
399.941	492.5
400.165	522.5
400.389	528.5
400.613	486.5
400.837	444.5
401.062	417.5
401.286	405.5
401.51	429.5
401.734	411.5
401.958	416.5
402.182	430.5
402.406	438.5
402.63	446.5
402.854	432.5
403.078	424.5
403.302	444.5
403.526	416.5
403.75	429.5
403.974	432.5
404.198	411.5
404.422	429.5
404.645	445.5
404.869	455.5
405.093	476.5
405.317	510.5
405.541	521.5
405.765	479.5
405.988	458.5
406.212	471.5
406.436	480.5
406.66	473.5
406.883	474.5
407.107	501.5
407.331	514.5
407.555	569.5
407.778	565.5
408.002	527.5
408.226	495.5
408.449	494.5
408.673	487.5
408.896	489.5
409.12	532.5
409.344	494.5
409.567	449.5
409.791	447.5
410.014	437.5
410.238	440.5
410.461	438.5
410.685	416.5
410.908	446.5
411.132	477.5
411.355	502.5
411.578	498.5
411.802	443.5
412.025	418.5
412.249	450.5
412.472	462.5
412.695	483.5
412.919	470.5
413.142	464.5
413.365	431.5
413.589	430.5
413.812	419.5
414.035	406.5
414.258	406.5
414.482	419.5
414.705	397.5
414.928	418.5
415.151	408.5
415.374	414.5
415.597	417.5
415.821	415.5
416.044	413.5
416.267	404.5
416.49	395.5
416.713	419.5
416.936	401.5
417.159	406.5
417.382	403.5
417.605	403.5
417.828	432.5
418.051	416.5
418.274	416.5
418.497	416.5
418.72	407.5
418.943	398.5
419.166	417.5
419.389	454.5
419.611	451.5
419.834	407.5
420.057	423.5
420.28	429.5
420.503	425.5
420.726	432.5
420.948	451.5
421.171	497.5
421.394	488.5
421.617	443.5
421.839	425.5
422.062	432.5
422.285	427.5
422.507	501.5
422.73	552.5
422.953	515.5
423.175	447.5
423.398	431.5
423.621	445.5
423.843	457.5
424.066	469.5
424.288	446.5
424.511	498.5
424.733	542.5
424.956	596.5
425.178	558.5
425.401	546.5
425.623	560.5
425.846	505.5
426.068	467.5
426.291	468.5
426.513	461.5
426.735	458.5
426.958	521.5
427.18	584.5
427.402	667.5
427.625	735.5
427.847	636.5
428.069	557.5
428.292	481.5
428.514	473.5
428.736	443.5
428.958	422.5
429.181	399.5
429.403	419.5
429.625	432.5
429.847	472.5
430.069	524.5
430.292	508.5
430.514	459.5
430.736	454.5
430.958	419.5
431.18	419.5
431.402	418.5
431.624	397.5
431.846	387.5
432.068	393.5
432.29	379.5
432.512	422.5
432.734	437.5
432.956	403.5
433.178	413.5
433.4	419.5
433.622	418.5
433.844	401.5
434.066	417.5
434.287	398.5
434.509	393.5
434.731	394.5
434.953	397.5
435.175	416.5
435.397	457.5
435.618	441.5
435.84	477.5
436.062	600.5
436.284	638.5
436.505	507.5
436.727	462.5
436.949	435.5
437.17	446.5
437.392	432.5
437.614	434.5
437.835	456.5
438.057	549.5
438.278	607.5
438.5	614.5
438.721	659.5
438.943	645.5
439.165	532.5
439.386	484.5
439.608	481.5
439.829	472.5
440.05	490.5
440.272	538.5
440.493	503.5
440.715	445.5
440.936	429.5
441.158	432.5
441.379	440.5
441.6	442.5
441.822	426.5
442.043	477.5
442.264	574.5
442.486	592.5
442.707	509.5
442.928	473.5
443.149	491.5
443.371	512.5
443.592	531.5
443.813	605.5
444.034	621.5
444.255	527.5
444.476	463.5
444.698	477.5
444.919	457.5
445.14	559.5
445.361	516.5
445.582	488.5
445.803	567.5
446.024	641.5
446.245	634.5
446.466	572.5
446.687	499.5
446.908	455.5
447.129	426.5
447.35	449.5
447.571	424.5
447.792	417.5
448.013	432.5
448.234	449.5
448.455	488.5
448.675	591.5
448.896	687.5
449.117	578.5
449.338	547.5
449.559	616.5
449.779	679.5
450	575.5
450.221	506.5
450.442	455.5
450.662	437.5
450.883	409.5
451.104	423.5
451.324	419.5
451.545	406.5
451.766	391.5
451.986	380.5
452.207	383.5
452.428	385.5
452.648	370.5
452.869	379.5
453.089	370.5
453.31	381.5
453.53	371.5
453.751	378.5
453.971	373.5
454.192	388.5
454.412	396.5
454.633	379.5
454.853	376.5
455.073	358.5
455.294	381.5
455.514	478.5
455.734	457.5
455.955	387.5
456.175	373.5
456.395	354.5
456.616	354.5
456.836	357.5
457.056	349.5
457.276	352.5
457.497	377.5
457.717	358.5
457.937	372.5
458.157	373.5
458.377	341.5
458.598	387.5
458.818	425.5
459.038	496.5
459.258	489.5
459.478	447.5
459.698	397.5
459.918	395.5
460.138	382.5
460.358	389.5
460.578	397.5
460.798	407.5
461.018	400.5
461.238	393.5
461.458	408.5
461.678	406.5
461.898	407.5
462.118	393.5
462.338	415.5
462.558	399.5
462.777	433.5
462.997	407.5
463.217	428.5
463.437	422.5
463.657	412.5
463.876	411.5
464.096	406.5
464.316	416.5
464.536	417.5
464.755	438.5
464.975	426.5
465.195	458.5
465.414	492.5
465.634	453.5
465.854	397.5
466.073	402.5
466.293	400.5
466.512	400.5
466.732	373.5
466.951	393.5
467.171	363.5
467.391	383.5
467.61	395.5
467.829	385.5
468.049	381.5
468.268	398.5
468.488	378.5
468.707	381.5
468.927	365.5
469.146	372.5
469.365	370.5
469.585	389.5
469.804	393.5
470.023	390.5
470.243	397.5
470.462	393.5
470.681	411.5
470.901	385.5
471.12	390.5
471.339	375.5
471.558	387.5
471.777	402.5
471.997	387.5
472.216	401.5
472.435	415.5
472.654	411.5
472.873	382.5
473.092	399.5
473.311	400.5
473.53	366.5
473.749	396.5
473.968	427.5
474.187	525.5
474.406	543.5
474.625	457.5
474.844	410.5
475.063	409.5
475.282	392.5
475.501	390.5
475.72	402.5
475.939	418.5
476.158	396.5
476.377	393.5
476.596	381.5
476.814	405.5
477.033	408.5
477.252	401.5
477.471	409.5
477.69	397.5
477.908	412.5
478.127	421.5
478.346	428.5
478.564	430.5
478.783	435.5
479.002	424.5
479.22	423.5
479.439	451.5
479.658	464.5
479.876	447.5
480.095	470.5
480.313	487.5
480.532	449.5
480.751	460.5
480.969	474.5
481.188	503.5
481.406	537.5
481.624	475.5
481.843	444.5
482.061	464.5
482.28	429.5
482.498	453.5
482.717	466.5
482.935	450.5
483.153	449.5
483.372	439.5
483.59	448.5
483.808	456.5
484.027	460.5
484.245	454.5
484.463	440.5
484.681	460.5
484.9	449.5
485.118	468.5
485.336	439.5
485.554	466.5
485.772	450.5
485.99	448.5
486.209	472.5
486.427	477.5
486.645	464.5
486.863	476.5
487.081	499.5
487.299	490.5
487.517	493.5
487.735	478.5
487.953	481.5
488.171	476.5
488.389	480.5
488.607	473.5
488.825	484.5
489.043	484.5
489.261	483.5
489.479	488.5
489.696	491.5
489.914	474.5
490.132	505.5
490.35	497.5
490.568	497.5
490.786	500.5
491.003	531.5
491.221	530.5
491.439	556.5
491.657	550.5
491.874	541.5
492.092	558.5
492.31	569.5
492.527	585.5
492.745	566.5
492.963	568.5
493.18	579.5
493.398	568.5
493.615	569.5
493.833	559.5
494.05	561.5
494.268	579.5
494.485	579.5
494.703	587.5
494.92	589.5
495.138	567.5
495.355	585.5
495.573	565.5
495.79	581.5
496.008	593.5
496.225	571.5
496.442	592.5
496.66	583.5
496.877	573.5
497.094	582.5
497.312	611.5
497.529	589.5
497.746	614.5
497.963	616.5
498.181	602.5
498.398	603.5
498.615	611.5
498.832	614.5
499.049	651.5
499.267	657.5
499.484	648.5
499.701	676.5
499.918	690.5
500.135	714.5
500.352	749.5
500.569	752.5
500.786	746.5
501.003	758.5
501.22	742.5
501.437	699.5
501.654	706.5
501.871	684.5
502.088	675.5
502.305	648.5
502.522	615.5
502.739	600.5
502.956	601.5
503.172	603.5
503.389	601.5
503.606	583.5
503.823	583.5
504.04	571.5
504.256	561.5
504.473	578.5
504.69	563.5
504.907	576.5
505.123	566.5
505.34	549.5
505.557	557.5
505.773	554.5
505.99	541.5
506.207	559.5
506.423	560.5
506.64	571.5
506.856	557.5
507.073	551.5
507.289	541.5
507.506	543.5
507.722	530.5
507.939	543.5
508.155	540.5
508.372	532.5
508.588	521.5
508.805	526.5
509.021	521.5
509.238	535.5
509.454	553.5
509.67	526.5
509.887	523.5
510.103	507.5
510.319	529.5
510.536	603.5
510.752	941.5
510.968	744.5
511.184	543.5
511.401	498.5
511.617	519.5
511.833	487.5
512.049	490.5
512.265	492.5
512.481	482.5
512.698	493.5
512.914	509.5
513.13	487.5
513.346	461.5
513.562	471.5
513.778	475.5
513.994	490.5
514.21	496.5
514.426	496.5
514.642	541.5
514.858	570.5
515.074	606.5
515.29	699.5
515.506	978.5
515.721	799.5
515.937	588.5
516.153	538.5
516.369	513.5
516.585	496.5
516.801	506.5
517.016	471.5
517.232	490.5
517.448	511.5
517.664	501.5
517.879	505.5
518.095	489.5
518.311	496.5
518.527	479.5
518.742	483.5
518.958	474.5
519.173	474.5
519.389	469.5
519.605	446.5
519.82	492.5
520.036	480.5
