Data from 1971.PennyLincolnUp.Lamp.En5.5.200Scan.071719.P1.Scan 2. Changed Angle._HRD10591_15-24-41-842.txt Node
Date: Thu Jul 18 15:24:41 EDT 2019
User: cochatt
Spectrometer: HR+D1059
Trigger mode: 1
Integration Time (sec): 1.000000E-1
Scans to average: 1
Electric dark correction enabled: true
Nonlinearity correction enabled: false
Boxcar width: 0
XAxis mode: Wavelengths
Number of Pixels in Spectrum: 2048
>>>>>Begin Spectral Data<<<<<
223.165	-21.75
223.4	-21.75
223.635	-21.75
223.869	-15.75
224.104	-17.75
224.338	-3.75
224.573	-1.75
224.808	-13.75
225.042	-7.75
225.277	7.25
225.511	-11.75
225.746	-8.75
225.98	-1.75
226.215	17.25
226.449	0.25
226.683	11.25
226.918	30.25
227.152	38.25
227.387	34.25
227.621	35.25
227.856	41.25
228.09	43.25
228.324	45.25
228.559	57.25
228.793	76.25
229.027	96.25
229.262	105.25
229.496	136.25
229.73	161.25
229.964	178.25
230.199	158.25
230.433	130.25
230.667	129.25
230.901	121.25
231.136	127.25
231.37	120.25
231.604	113.25
231.838	126.25
232.072	118.25
232.306	127.25
232.541	112.25
232.775	122.25
233.009	118.25
233.243	123.25
233.477	133.25
233.711	128.25
233.945	142.25
234.179	126.25
234.413	118.25
234.647	112.25
234.881	114.25
235.115	122.25
235.349	119.25
235.583	125.25
235.817	128.25
236.051	135.25
236.285	144.25
236.519	156.25
236.753	127.25
236.987	173.25
237.221	196.25
237.455	276.25
237.689	206.25
237.922	163.25
238.156	155.25
238.39	157.25
238.624	123.25
238.858	139.25
239.091	125.25
239.325	131.25
239.559	150.25
239.793	142.25
240.027	158.25
240.26	149.25
240.494	186.25
240.728	157.25
240.961	163.25
241.195	153.25
241.429	158.25
241.662	152.25
241.896	140.25
242.13	156.25
242.363	141.25
242.597	146.25
242.83	157.25
243.064	146.25
243.298	141.25
243.531	147.25
243.765	154.25
243.998	145.25
244.232	149.25
244.465	147.25
244.699	153.25
244.932	168.25
245.166	144.25
245.399	162.25
245.633	163.25
245.866	159.25
246.099	162.25
246.333	165.25
246.566	149.25
246.8	163.25
247.033	178.25
247.266	172.25
247.5	168.25
247.733	190.25
247.966	190.25
248.2	190.25
248.433	194.25
248.666	197.25
248.899	211.25
249.133	244.25
249.366	226.25
249.599	235.25
249.832	202.25
250.066	201.25
250.299	198.25
250.532	204.25
250.765	217.25
250.998	248.25
251.231	258.25
251.465	237.25
251.698	244.25
251.931	221.25
252.164	222.25
252.397	217.25
252.63	226.25
252.863	217.25
253.096	236.25
253.329	260.25
253.562	260.25
253.795	240.25
254.028	231.25
254.261	235.25
254.494	254.25
254.727	287.25
254.96	323.25
255.193	308.25
255.426	283.25
255.659	268.25
255.892	283.25
256.124	271.25
256.357	244.25
256.59	239.25
256.823	256.25
257.056	246.25
257.289	229.25
257.521	232.25
257.754	230.25
257.987	227.25
258.22	212.25
258.452	228.25
258.685	235.25
258.918	247.25
259.151	244.25
259.383	236.25
259.616	247.25
259.849	239.25
260.081	243.25
260.314	275.25
260.547	264.25
260.779	270.25
261.012	257.25
261.244	233.25
261.477	263.25
261.71	231.25
261.942	263.25
262.175	274.25
262.407	245.25
262.64	235.25
262.872	234.25
263.105	216.25
263.337	223.25
263.57	228.25
263.802	221.25
264.035	229.25
264.267	208.25
264.499	231.25
264.732	212.25
264.964	214.25
265.197	220.25
265.429	222.25
265.661	223.25
265.894	248.25
266.126	235.25
266.358	223.25
266.591	229.25
266.823	243.25
267.055	258.25
267.287	236.25
267.52	245.25
267.752	248.25
267.984	235.25
268.216	242.25
268.448	250.25
268.681	259.25
268.913	267.25
269.145	283.25
269.377	303.25
269.609	325.25
269.841	295.25
270.073	316.25
270.306	319.25
270.538	357.25
270.77	334.25
271.002	336.25
271.234	326.25
271.466	320.25
271.698	322.25
271.93	350.25
272.162	348.25
272.394	364.25
272.626	329.25
272.858	322.25
273.09	302.25
273.322	296.25
273.553	284.25
273.785	284.25
274.017	281.25
274.249	272.25
274.481	285.25
274.713	284.25
274.945	305.25
275.176	291.25
275.408	271.25
275.64	287.25
275.872	270.25
276.104	288.25
276.335	277.25
276.567	286.25
276.799	301.25
277.031	321.25
277.262	334.25
277.494	351.25
277.726	327.25
277.957	322.25
278.189	304.25
278.421	287.25
278.652	301.25
278.884	276.25
279.115	295.25
279.347	282.25
279.579	278.25
279.81	275.25
280.042	264.25
280.273	288.25
280.505	286.25
280.736	266.25
280.968	260.25
281.199	276.25
281.431	284.25
281.662	270.25
281.894	260.25
282.125	275.25
282.356	312.25
282.588	321.25
282.819	303.25
283.051	285.25
283.282	263.25
283.513	293.25
283.745	287.25
283.976	297.25
284.207	282.25
284.439	288.25
284.67	281.25
284.901	279.25
285.132	273.25
285.364	285.25
285.595	294.25
285.826	276.25
286.057	284.25
286.288	275.25
286.52	280.25
286.751	270.25
286.982	271.25
287.213	274.25
287.444	290.25
287.675	284.25
287.906	321.25
288.138	300.25
288.369	302.25
288.6	310.25
288.831	308.25
289.062	279.25
289.293	295.25
289.524	285.25
289.755	289.25
289.986	298.25
290.217	274.25
290.448	283.25
290.679	285.25
290.91	289.25
291.141	293.25
291.371	280.25
291.602	289.25
291.833	294.25
292.064	295.25
292.295	288.25
292.526	298.25
292.757	290.25
292.987	294.25
293.218	293.25
293.449	268.25
293.68	299.25
293.91	285.25
294.141	287.25
294.372	305.25
294.603	286.25
294.833	294.25
295.064	308.25
295.295	282.25
295.525	287.25
295.756	282.25
295.987	318.25
296.217	343.25
296.448	355.25
296.679	308.25
296.909	290.25
297.14	278.25
297.37	301.25
297.601	292.25
297.831	292.25
298.062	297.25
298.292	298.25
298.523	294.25
298.753	313.25
298.984	299.25
299.214	305.25
299.445	283.25
299.675	304.25
299.905	300.25
300.136	323.25
300.366	303.25
300.597	307.25
300.827	333.25
301.057	312.25
301.288	315.25
301.518	317.25
301.748	327.25
301.979	309.25
302.209	314.25
302.439	312.25
302.669	324.25
302.9	314.25
303.13	307.25
303.36	317.25
303.59	319.25
303.82	347.25
304.051	338.25
304.281	347.25
304.511	332.25
304.741	341.25
304.971	336.25
305.201	322.25
305.431	324.25
305.661	320.25
305.891	321.25
306.121	318.25
306.352	328.25
306.582	354.25
306.812	324.25
307.042	315.25
307.272	321.25
307.502	342.25
307.731	324.25
307.961	352.25
308.191	346.25
308.421	332.25
308.651	328.25
308.881	313.25
309.111	357.25
309.341	332.25
309.571	364.25
309.8	380.25
310.03	374.25
310.26	390.25
310.49	377.25
310.72	404.25
310.949	407.25
311.179	426.25
311.409	399.25
311.639	391.25
311.868	411.25
312.098	414.25
312.328	417.25
312.557	449.25
312.787	437.25
313.017	432.25
313.246	411.25
313.476	394.25
313.706	385.25
313.935	380.25
314.165	409.25
314.394	421.25
314.624	431.25
314.853	388.25
315.083	390.25
315.312	397.25
315.542	374.25
315.771	377.25
316.001	379.25
316.23	385.25
316.46	397.25
316.689	393.25
316.919	377.25
317.148	421.25
317.377	415.25
317.607	408.25
317.836	400.25
318.065	397.25
318.295	374.25
318.524	385.25
318.753	389.25
318.983	391.25
319.212	404.25
319.441	410.25
319.67	410.25
319.9	411.25
320.129	399.25
320.358	403.25
320.587	399.25
320.816	413.25
321.046	428.25
321.275	426.25
321.504	420.25
321.733	429.25
321.962	431.25
322.191	446.25
322.42	490.25
322.649	485.25
322.878	509.25
323.108	513.25
323.337	548.25
323.566	569.25
323.795	626.25
324.024	687.25
324.253	847.25
324.482	1276.25
324.71	1962.25
324.939	2840.25
325.168	2423.25
325.397	1256.25
325.626	811.25
325.855	676.25
326.084	598.25
326.313	586.25
326.542	590.25
326.77	640.25
326.999	825.25
327.228	1123.25
327.457	1749.25
327.686	2121.25
327.914	1420.25
328.143	910.25
328.372	794.25
328.6	706.25
328.829	666.25
329.058	696.25
329.287	718.25
329.515	671.25
329.744	610.25
329.972	600.25
330.201	628.25
330.43	683.25
330.658	734.25
330.887	733.25
331.115	723.25
331.344	586.25
331.572	573.25
331.801	535.25
332.03	538.25
332.258	485.25
332.486	493.25
332.715	473.25
332.943	458.25
333.172	460.25
333.4	460.25
333.629	493.25
333.857	491.25
334.085	505.25
334.314	542.25
334.542	574.25
334.771	607.25
334.999	561.25
335.227	489.25
335.455	480.25
335.684	458.25
335.912	451.25
336.14	466.25
336.369	472.25
336.597	464.25
336.825	477.25
337.053	484.25
337.281	460.25
337.51	455.25
337.738	440.25
337.966	456.25
338.194	458.25
338.422	457.25
338.65	460.25
338.878	461.25
339.106	436.25
339.334	434.25
339.562	438.25
339.79	452.25
340.018	454.25
340.246	446.25
340.474	468.25
340.702	452.25
340.93	461.25
341.158	428.25
341.386	445.25
341.614	462.25
341.842	471.25
342.07	447.25
342.298	451.25
342.526	437.25
342.754	441.25
342.981	420.25
343.209	421.25
343.437	435.25
343.665	439.25
343.893	447.25
344.12	450.25
344.348	450.25
344.576	434.25
344.804	461.25
345.031	463.25
345.259	454.25
345.487	472.25
345.714	475.25
345.942	438.25
346.17	438.25
346.397	443.25
346.625	437.25
346.853	450.25
347.08	438.25
347.308	474.25
347.535	452.25
347.763	481.25
347.99	454.25
348.218	461.25
348.445	468.25
348.673	478.25
348.9	443.25
349.128	440.25
349.355	439.25
349.583	411.25
349.81	438.25
350.037	432.25
350.265	408.25
350.492	408.25
350.72	437.25
350.947	426.25
351.174	447.25
351.402	463.25
351.629	447.25
351.856	436.25
352.083	452.25
352.311	462.25
352.538	475.25
352.765	474.25
352.992	457.25
353.22	461.25
353.447	455.25
353.674	427.25
353.901	422.25
354.128	431.25
354.355	439.25
354.583	429.25
354.81	414.25
355.037	424.25
355.264	415.25
355.491	401.25
355.718	408.25
355.945	383.25
356.172	404.25
356.399	391.25
356.626	415.25
356.853	410.25
357.08	380.25
357.307	383.25
357.534	417.25
357.761	390.25
357.988	381.25
358.215	389.25
358.441	396.25
358.668	422.25
358.895	425.25
359.122	418.25
359.349	444.25
359.576	462.25
359.802	491.25
360.029	512.25
360.256	546.25
360.483	527.25
360.709	459.25
360.936	473.25
361.163	452.25
361.39	463.25
361.616	450.25
361.843	440.25
362.07	455.25
362.296	463.25
362.523	446.25
362.749	441.25
362.976	456.25
363.203	426.25
363.429	441.25
363.656	442.25
363.882	437.25
364.109	452.25
364.335	431.25
364.562	439.25
364.788	448.25
365.015	439.25
365.241	418.25
365.468	457.25
365.694	454.25
365.92	456.25
366.147	435.25
366.373	429.25
366.599	402.25
366.826	431.25
367.052	427.25
367.278	423.25
367.505	432.25
367.731	436.25
367.957	441.25
368.184	427.25
368.41	437.25
368.636	449.25
368.862	428.25
369.089	432.25
369.315	418.25
369.541	447.25
369.767	424.25
369.993	436.25
370.219	419.25
370.445	415.25
370.672	401.25
370.898	431.25
371.124	412.25
371.35	406.25
371.576	434.25
371.802	415.25
372.028	435.25
372.254	408.25
372.48	408.25
372.706	411.25
372.932	402.25
373.158	406.25
373.384	415.25
373.61	419.25
373.835	419.25
374.061	418.25
374.287	432.25
374.513	428.25
374.739	413.25
374.965	438.25
375.191	427.25
375.416	443.25
375.642	434.25
375.868	423.25
376.094	400.25
376.319	422.25
376.545	440.25
376.771	430.25
376.997	415.25
377.222	419.25
377.448	422.25
377.674	422.25
377.899	419.25
378.125	415.25
378.35	427.25
378.576	419.25
378.802	415.25
379.027	420.25
379.253	420.25
379.478	394.25
379.704	408.25
379.929	429.25
380.155	441.25
380.38	429.25
380.606	435.25
380.831	412.25
381.057	447.25
381.282	432.25
381.507	423.25
381.733	410.25
381.958	431.25
382.184	422.25
382.409	424.25
382.634	447.25
382.86	431.25
383.085	446.25
383.31	427.25
383.535	418.25
383.761	411.25
383.986	439.25
384.211	443.25
384.436	440.25
384.662	425.25
384.887	468.25
385.112	446.25
385.337	449.25
385.562	450.25
385.787	457.25
386.013	484.25
386.238	462.25
386.463	445.25
386.688	466.25
386.913	463.25
387.138	454.25
387.363	463.25
387.588	456.25
387.813	447.25
388.038	447.25
388.263	460.25
388.488	457.25
388.713	459.25
388.938	446.25
389.163	473.25
389.387	438.25
389.612	450.25
389.837	451.25
390.062	446.25
390.287	443.25
390.512	450.25
390.736	456.25
390.961	447.25
391.186	460.25
391.411	462.25
391.636	477.25
391.86	483.25
392.085	444.25
392.31	468.25
392.534	469.25
392.759	450.25
392.984	455.25
393.208	463.25
393.433	464.25
393.658	453.25
393.882	480.25
394.107	470.25
394.331	470.25
394.556	442.25
394.78	443.25
395.005	479.25
395.229	452.25
395.454	463.25
395.678	459.25
395.903	479.25
396.127	495.25
396.352	489.25
396.576	486.25
396.801	507.25
397.025	470.25
397.249	484.25
397.474	469.25
397.698	510.25
397.922	519.25
398.147	504.25
398.371	528.25
398.595	521.25
398.82	515.25
399.044	503.25
399.268	538.25
399.492	555.25
399.717	587.25
399.941	615.25
400.165	644.25
400.389	660.25
400.613	584.25
400.837	557.25
401.062	543.25
401.286	537.25
401.51	540.25
401.734	528.25
401.958	563.25
402.182	538.25
402.406	556.25
402.63	546.25
402.854	538.25
403.078	563.25
403.302	562.25
403.526	536.25
403.75	554.25
403.974	547.25
404.198	541.25
404.422	566.25
404.645	565.25
404.869	574.25
405.093	583.25
405.317	638.25
405.541	674.25
405.765	628.25
405.988	564.25
406.212	615.25
406.436	611.25
406.66	619.25
406.883	635.25
407.107	649.25
407.331	667.25
407.555	717.25
407.778	751.25
408.002	694.25
408.226	640.25
408.449	610.25
408.673	630.25
408.896	638.25
409.12	666.25
409.344	649.25
409.567	572.25
409.791	571.25
410.014	586.25
410.238	584.25
410.461	542.25
410.685	569.25
410.908	606.25
411.132	640.25
411.355	664.25
411.578	614.25
411.802	584.25
412.025	558.25
412.249	574.25
412.472	595.25
412.695	656.25
412.919	629.25
413.142	575.25
413.365	546.25
413.589	564.25
413.812	542.25
414.035	535.25
414.258	517.25
414.482	538.25
414.705	540.25
414.928	523.25
415.151	505.25
415.374	525.25
415.597	518.25
415.821	520.25
416.044	514.25
416.267	536.25
416.49	546.25
416.713	521.25
416.936	541.25
417.159	545.25
417.382	523.25
417.605	554.25
417.828	554.25
418.051	575.25
418.274	536.25
418.497	547.25
418.72	530.25
418.943	543.25
419.166	531.25
419.389	576.25
419.611	551.25
419.834	552.25
420.057	583.25
420.28	554.25
420.503	563.25
420.726	575.25
420.948	572.25
421.171	610.25
421.394	665.25
421.617	583.25
421.839	592.25
422.062	574.25
422.285	585.25
422.507	657.25
422.73	737.25
422.953	710.25
423.175	631.25
423.398	603.25
423.621	590.25
423.843	620.25
424.066	643.25
424.288	630.25
424.511	652.25
424.733	707.25
424.956	824.25
425.178	788.25
425.401	774.25
425.623	798.25
425.846	665.25
426.068	638.25
426.291	634.25
426.513	642.25
426.735	650.25
426.958	692.25
427.18	806.25
427.402	928.25
427.625	1026.25
427.847	935.25
428.069	820.25
428.292	727.25
428.514	624.25
428.736	615.25
428.958	618.25
429.181	611.25
429.403	602.25
429.625	610.25
429.847	657.25
430.069	732.25
430.292	718.25
430.514	623.25
430.736	591.25
430.958	590.25
431.18	566.25
431.402	551.25
431.624	542.25
431.846	540.25
432.068	554.25
432.29	534.25
432.512	553.25
432.734	572.25
432.956	542.25
433.178	546.25
433.4	574.25
433.622	538.25
433.844	564.25
434.066	546.25
434.287	554.25
434.509	547.25
434.731	549.25
434.953	562.25
435.175	601.25
435.397	638.25
435.618	644.25
435.84	721.25
436.062	827.25
436.284	870.25
436.505	733.25
436.727	674.25
436.949	618.25
437.17	615.25
437.392	612.25
437.614	598.25
437.835	670.25
438.057	785.25
438.278	878.25
438.5	862.25
438.721	953.25
438.943	909.25
439.165	748.25
439.386	682.25
439.608	652.25
439.829	655.25
440.05	682.25
440.272	742.25
440.493	718.25
440.715	622.25
440.936	616.25
441.158	586.25
441.379	606.25
441.6	607.25
441.822	632.25
442.043	695.25
442.264	800.25
442.486	844.25
442.707	704.25
442.928	666.25
443.149	672.25
443.371	701.25
443.592	724.25
443.813	862.25
444.034	902.25
444.255	731.25
444.476	664.25
444.698	628.25
444.919	631.25
445.14	750.25
445.361	716.25
445.582	673.25
445.803	767.25
446.024	923.25
446.245	885.25
446.466	818.25
446.687	718.25
446.908	642.25
447.129	603.25
447.35	602.25
447.571	599.25
447.792	591.25
448.013	585.25
448.234	629.25
448.455	712.25
448.675	820.25
448.896	932.25
449.117	829.25
449.338	779.25
449.559	896.25
449.779	943.25
450	748.25
450.221	674.25
450.442	600.25
450.662	610.25
450.883	640.25
451.104	623.25
451.324	616.25
451.545	595.25
451.766	565.25
451.986	524.25
452.207	521.25
452.428	523.25
452.648	514.25
452.869	547.25
453.089	550.25
453.31	575.25
453.53	554.25
453.751	546.25
453.971	544.25
454.192	584.25
454.412	568.25
454.633	552.25
454.853	532.25
455.073	530.25
455.294	558.25
455.514	639.25
455.734	607.25
455.955	531.25
456.175	516.25
456.395	495.25
456.616	486.25
456.836	492.25
457.056	489.25
457.276	493.25
457.497	469.25
457.717	488.25
457.937	520.25
458.157	522.25
458.377	544.25
458.598	553.25
458.818	624.25
459.038	738.25
459.258	740.25
459.478	639.25
459.698	551.25
459.918	533.25
460.138	503.25
460.358	518.25
460.578	519.25
460.798	548.25
461.018	558.25
461.238	531.25
461.458	545.25
461.678	515.25
461.898	546.25
462.118	549.25
462.338	546.25
462.558	573.25
462.777	549.25
462.997	547.25
463.217	546.25
463.437	575.25
463.657	557.25
463.876	570.25
464.096	592.25
464.316	569.25
464.536	574.25
464.755	589.25
464.975	614.25
465.195	639.25
465.414	783.25
465.634	687.25
465.854	614.25
466.073	578.25
466.293	558.25
466.512	567.25
466.732	538.25
466.951	532.25
467.171	546.25
467.391	528.25
467.61	552.25
467.829	566.25
468.049	563.25
468.268	554.25
468.488	538.25
468.707	520.25
468.927	532.25
469.146	524.25
469.365	507.25
469.585	517.25
469.804	517.25
470.023	532.25
470.243	559.25
470.462	556.25
470.681	572.25
470.901	572.25
471.12	544.25
471.339	530.25
471.558	550.25
471.777	552.25
471.997	537.25
472.216	546.25
472.435	608.25
472.654	610.25
472.873	545.25
473.092	538.25
473.311	556.25
473.53	528.25
473.749	561.25
473.968	602.25
474.187	732.25
474.406	759.25
474.625	624.25
474.844	576.25
475.063	562.25
475.282	571.25
475.501	572.25
475.72	567.25
475.939	574.25
476.158	581.25
476.377	572.25
476.596	568.25
476.814	573.25
477.033	555.25
477.252	574.25
477.471	587.25
477.69	578.25
477.908	598.25
478.127	580.25
478.346	586.25
478.564	609.25
478.783	602.25
479.002	607.25
479.22	622.25
479.439	631.25
479.658	681.25
479.876	657.25
480.095	692.25
480.313	716.25
480.532	684.25
480.751	662.25
480.969	674.25
481.188	790.25
481.406	818.25
481.624	707.25
481.843	686.25
482.061	676.25
482.28	649.25
482.498	660.25
482.717	654.25
482.935	667.25
483.153	648.25
483.372	648.25
483.59	636.25
483.808	643.25
484.027	648.25
484.245	675.25
484.463	648.25
484.681	679.25
484.9	658.25
485.118	668.25
485.336	664.25
485.554	673.25
485.772	675.25
485.99	674.25
486.209	670.25
486.427	687.25
486.645	722.25
486.863	725.25
487.081	718.25
487.299	697.25
487.517	690.25
487.735	703.25
487.953	726.25
488.171	726.25
488.389	705.25
488.607	745.25
488.825	716.25
489.043	719.25
489.261	709.25
489.479	742.25
489.696	723.25
489.914	721.25
490.132	728.25
490.35	738.25
490.568	730.25
490.786	776.25
491.003	781.25
491.221	784.25
491.439	780.25
491.657	830.25
491.874	839.25
492.092	847.25
492.31	843.25
492.527	818.25
492.745	856.25
492.963	848.25
493.18	832.25
493.398	856.25
493.615	828.25
493.833	847.25
494.05	871.25
494.268	863.25
494.485	834.25
494.703	840.25
494.92	867.25
495.138	839.25
495.355	869.25
495.573	874.25
495.79	852.25
496.008	876.25
496.225	851.25
496.442	851.25
496.66	836.25
496.877	849.25
497.094	862.25
497.312	872.25
497.529	872.25
497.746	899.25
497.963	866.25
498.181	912.25
498.398	898.25
498.615	904.25
498.832	923.25
499.049	932.25
499.267	932.25
499.484	960.25
499.701	973.25
499.918	971.25
500.135	979.25
500.352	1062.25
500.569	1038.25
500.786	1059.25
501.003	1054.25
501.22	1044.25
501.437	1037.25
