Data from 1971.PennyLincolnUp.Lamp.En5.5.200Scan.071719.P1.Scan 2. Changed Angle._HRD10591_15-23-43-842.txt Node
Date: Thu Jul 18 15:23:43 EDT 2019
User: cochatt
Spectrometer: HR+D1059
Trigger mode: 1
Integration Time (sec): 1.000000E-1
Scans to average: 1
Electric dark correction enabled: true
Nonlinearity correction enabled: false
Boxcar width: 0
XAxis mode: Wavelengths
Number of Pixels in Spectrum: 2048
>>>>>Begin Spectral Data<<<<<
223.165	-14.81
223.4	-14.81
223.635	-14.81
223.869	-23.81
224.104	-13.81
224.338	-9.81
224.573	-23.81
224.808	-24.81
225.042	-2.81
225.277	4.19
225.511	-0.81
225.746	-4.81
225.98	-0.81
226.215	7.19
226.449	21.19
226.683	29.19
226.918	32.19
227.152	26.19
227.387	27.19
227.621	30.19
227.856	40.19
228.09	37.19
228.324	36.19
228.559	42.19
228.793	65.19
229.027	94.19
229.262	121.19
229.496	121.19
229.73	139.19
229.964	162.19
230.199	136.19
230.433	114.19
230.667	118.19
230.901	113.19
231.136	106.19
231.37	106.19
231.604	123.19
231.838	120.19
232.072	101.19
232.306	120.19
232.541	112.19
232.775	105.19
233.009	123.19
233.243	102.19
233.477	100.19
233.711	121.19
233.945	112.19
234.179	120.19
234.413	121.19
234.647	125.19
234.881	111.19
235.115	126.19
235.349	123.19
235.583	123.19
235.817	121.19
236.051	121.19
236.285	133.19
236.519	125.19
236.753	129.19
236.987	162.19
237.221	209.19
237.455	246.19
237.689	208.19
237.922	150.19
238.156	138.19
238.39	137.19
238.624	128.19
238.858	136.19
239.091	126.19
239.325	135.19
239.559	132.19
239.793	130.19
240.027	147.19
240.26	166.19
240.494	170.19
240.728	148.19
240.961	141.19
241.195	145.19
241.429	140.19
241.662	152.19
241.896	140.19
242.13	138.19
242.363	134.19
242.597	138.19
242.83	150.19
243.064	143.19
243.298	139.19
243.531	136.19
243.765	138.19
243.998	133.19
244.232	136.19
244.465	140.19
244.699	139.19
244.932	144.19
245.166	135.19
245.399	154.19
245.633	153.19
245.866	144.19
246.099	149.19
246.333	155.19
246.566	157.19
246.8	160.19
247.033	151.19
247.266	175.19
247.5	169.19
247.733	175.19
247.966	190.19
248.2	171.19
248.433	176.19
248.666	181.19
248.899	186.19
249.133	209.19
249.366	224.19
249.599	211.19
249.832	202.19
250.066	180.19
250.299	190.19
250.532	208.19
250.765	204.19
250.998	235.19
251.231	239.19
251.465	235.19
251.698	209.19
251.931	210.19
252.164	210.19
252.397	206.19
252.63	219.19
252.863	230.19
253.096	214.19
253.329	242.19
253.562	242.19
253.795	219.19
254.028	248.19
254.261	229.19
254.494	249.19
254.727	287.19
254.96	305.19
255.193	298.19
255.426	272.19
255.659	242.19
255.892	243.19
256.124	241.19
256.357	248.19
256.59	231.19
256.823	220.19
257.056	227.19
257.289	203.19
257.521	214.19
257.754	226.19
257.987	215.19
258.22	194.19
258.452	220.19
258.685	196.19
258.918	223.19
259.151	222.19
259.383	228.19
259.616	222.19
259.849	236.19
260.081	250.19
260.314	279.19
260.547	271.19
260.779	244.19
261.012	264.19
261.244	248.19
261.477	228.19
261.71	230.19
261.942	243.19
262.175	254.19
262.407	243.19
262.64	227.19
262.872	231.19
263.105	209.19
263.337	206.19
263.57	212.19
263.802	224.19
264.035	230.19
264.267	211.19
264.499	214.19
264.732	200.19
264.964	208.19
265.197	203.19
265.429	203.19
265.661	211.19
265.894	196.19
266.126	204.19
266.358	204.19
266.591	206.19
266.823	217.19
267.055	218.19
267.287	234.19
267.52	233.19
267.752	234.19
267.984	219.19
268.216	221.19
268.448	224.19
268.681	221.19
268.913	248.19
269.145	270.19
269.377	278.19
269.609	280.19
269.841	282.19
270.073	278.19
270.306	286.19
270.538	308.19
270.77	336.19
271.002	314.19
271.234	310.19
271.466	298.19
271.698	326.19
271.93	329.19
272.162	347.19
272.394	352.19
272.626	321.19
272.858	294.19
273.09	286.19
273.322	288.19
273.553	265.19
273.785	263.19
274.017	264.19
274.249	258.19
274.481	254.19
274.713	281.19
274.945	262.19
275.176	295.19
275.408	280.19
275.64	271.19
275.872	269.19
276.104	272.19
276.335	275.19
276.567	274.19
276.799	275.19
277.031	314.19
277.262	314.19
277.494	320.19
277.726	315.19
277.957	291.19
278.189	286.19
278.421	267.19
278.652	271.19
278.884	248.19
279.115	262.19
279.347	275.19
279.579	231.19
279.81	267.19
280.042	256.19
280.273	242.19
280.505	266.19
280.736	245.19
280.968	251.19
281.199	249.19
281.431	268.19
281.662	235.19
281.894	242.19
282.125	256.19
282.356	275.19
282.588	309.19
282.819	300.19
283.051	268.19
283.282	266.19
283.513	252.19
283.745	272.19
283.976	264.19
284.207	259.19
284.439	267.19
284.67	267.19
284.901	264.19
285.132	276.19
285.364	264.19
285.595	248.19
285.826	253.19
286.057	274.19
286.288	268.19
286.52	275.19
286.751	276.19
286.982	271.19
287.213	286.19
287.444	263.19
287.675	275.19
287.906	278.19
288.138	290.19
288.369	294.19
288.6	298.19
288.831	282.19
289.062	274.19
289.293	272.19
289.524	259.19
289.755	274.19
289.986	266.19
290.217	267.19
290.448	270.19
290.679	272.19
290.91	274.19
291.141	271.19
291.371	255.19
291.602	263.19
291.833	260.19
292.064	260.19
292.295	278.19
292.526	280.19
292.757	268.19
292.987	282.19
293.218	262.19
293.449	260.19
293.68	281.19
293.91	274.19
294.141	270.19
294.372	276.19
294.603	296.19
294.833	280.19
295.064	266.19
295.295	276.19
295.525	287.19
295.756	281.19
295.987	286.19
296.217	318.19
296.448	330.19
296.679	299.19
296.909	282.19
297.14	286.19
297.37	277.19
297.601	278.19
297.831	268.19
298.062	276.19
298.292	295.19
298.523	270.19
298.753	277.19
298.984	291.19
299.214	296.19
299.445	287.19
299.675	300.19
299.905	300.19
300.136	287.19
300.366	283.19
300.597	290.19
300.827	295.19
301.057	304.19
301.288	338.19
301.518	317.19
301.748	306.19
301.979	303.19
302.209	313.19
302.439	307.19
302.669	310.19
302.9	289.19
303.13	301.19
303.36	296.19
303.59	314.19
303.82	306.19
304.051	342.19
304.281	309.19
304.511	306.19
304.741	306.19
304.971	294.19
305.201	309.19
305.431	295.19
305.661	296.19
305.891	305.19
306.121	289.19
306.352	323.19
306.582	322.19
306.812	327.19
307.042	331.19
307.272	317.19
307.502	320.19
307.731	304.19
307.961	318.19
308.191	318.19
308.421	313.19
308.651	306.19
308.881	329.19
309.111	344.19
309.341	342.19
309.571	342.19
309.8	371.19
310.03	374.19
310.26	362.19
310.49	374.19
310.72	369.19
310.949	409.19
311.179	395.19
311.409	381.19
311.639	374.19
311.868	386.19
312.098	382.19
312.328	387.19
312.557	403.19
312.787	431.19
313.017	432.19
313.246	376.19
313.476	370.19
313.706	375.19
313.935	387.19
314.165	383.19
314.394	392.19
314.624	419.19
314.853	397.19
315.083	381.19
315.312	376.19
315.542	386.19
315.771	347.19
316.001	358.19
316.23	354.19
316.46	347.19
316.689	363.19
316.919	392.19
317.148	377.19
317.377	362.19
317.607	361.19
317.836	375.19
318.065	366.19
318.295	364.19
318.524	378.19
318.753	356.19
318.983	355.19
319.212	362.19
319.441	393.19
319.67	382.19
319.9	361.19
320.129	362.19
320.358	378.19
320.587	380.19
320.816	375.19
321.046	400.19
321.275	400.19
321.504	407.19
321.733	415.19
321.962	418.19
322.191	426.19
322.42	426.19
322.649	453.19
322.878	452.19
323.108	475.19
323.337	518.19
323.566	530.19
323.795	592.19
324.024	634.19
324.253	772.19
324.482	1132.19
324.71	1799.19
324.939	2627.19
325.168	2216.19
325.397	1167.19
325.626	768.19
325.855	629.19
326.084	542.19
326.313	530.19
326.542	562.19
326.77	613.19
326.999	729.19
327.228	1059.19
327.457	1598.19
327.686	1931.19
327.914	1302.19
328.143	852.19
328.372	725.19
328.6	674.19
328.829	624.19
329.058	630.19
329.287	650.19
329.515	594.19
329.744	564.19
329.972	549.19
330.201	578.19
330.43	616.19
330.658	668.19
330.887	676.19
331.115	671.19
331.344	571.19
331.572	513.19
331.801	488.19
332.03	523.19
332.258	484.19
332.486	458.19
332.715	451.19
332.943	428.19
333.172	468.19
333.4	460.19
333.629	460.19
333.857	478.19
334.085	494.19
334.314	498.19
334.542	516.19
334.771	564.19
334.999	495.19
335.227	468.19
335.455	472.19
335.684	440.19
335.912	413.19
336.14	410.19
336.369	433.19
336.597	464.19
336.825	449.19
337.053	419.19
337.281	428.19
337.51	418.19
337.738	430.19
337.966	416.19
338.194	431.19
338.422	444.19
338.65	435.19
338.878	418.19
339.106	433.19
339.334	426.19
339.562	412.19
339.79	414.19
340.018	418.19
340.246	423.19
340.474	423.19
340.702	433.19
340.93	412.19
341.158	418.19
341.386	421.19
341.614	416.19
341.842	410.19
342.07	410.19
342.298	419.19
342.526	422.19
342.754	396.19
342.981	402.19
343.209	396.19
343.437	410.19
343.665	391.19
343.893	407.19
344.12	432.19
344.348	396.19
344.576	420.19
344.804	441.19
345.031	438.19
345.259	458.19
345.487	432.19
345.714	415.19
345.942	395.19
346.17	429.19
346.397	425.19
346.625	412.19
346.853	430.19
347.08	419.19
347.308	416.19
347.535	422.19
347.763	459.19
347.99	424.19
348.218	434.19
348.445	457.19
348.673	432.19
348.9	418.19
349.128	424.19
349.355	410.19
349.583	400.19
349.81	414.19
350.037	387.19
350.265	403.19
350.492	386.19
350.72	416.19
350.947	414.19
351.174	437.19
351.402	445.19
351.629	415.19
351.856	428.19
352.083	440.19
352.311	447.19
352.538	430.19
352.765	444.19
352.992	429.19
353.22	422.19
353.447	407.19
353.674	413.19
353.901	406.19
354.128	398.19
354.355	396.19
354.583	391.19
354.81	391.19
355.037	376.19
355.264	389.19
355.491	387.19
355.718	375.19
355.945	378.19
356.172	376.19
356.399	392.19
356.626	383.19
356.853	376.19
357.08	377.19
357.307	384.19
357.534	382.19
357.761	380.19
357.988	383.19
358.215	399.19
358.441	375.19
358.668	400.19
358.895	392.19
359.122	398.19
359.349	393.19
359.576	436.19
359.802	456.19
360.029	495.19
360.256	505.19
360.483	507.19
360.709	425.19
360.936	439.19
361.163	446.19
361.39	418.19
361.616	452.19
361.843	411.19
362.07	433.19
362.296	420.19
362.523	407.19
362.749	433.19
362.976	436.19
363.203	408.19
363.429	394.19
363.656	392.19
363.882	386.19
364.109	406.19
364.335	420.19
364.562	420.19
364.788	403.19
365.015	415.19
365.241	392.19
365.468	400.19
365.694	405.19
365.92	410.19
366.147	411.19
366.373	401.19
366.599	381.19
366.826	399.19
367.052	411.19
367.278	415.19
367.505	407.19
367.731	394.19
367.957	401.19
368.184	415.19
368.41	416.19
368.636	431.19
368.862	412.19
369.089	412.19
369.315	394.19
369.541	400.19
369.767	412.19
369.993	406.19
370.219	407.19
370.445	387.19
370.672	404.19
370.898	406.19
371.124	397.19
371.35	395.19
371.576	393.19
371.802	376.19
372.028	388.19
372.254	409.19
372.48	393.19
372.706	392.19
372.932	405.19
373.158	398.19
373.384	386.19
373.61	421.19
373.835	392.19
374.061	383.19
374.287	419.19
374.513	393.19
374.739	412.19
374.965	407.19
375.191	389.19
375.416	371.19
375.642	402.19
375.868	411.19
376.094	391.19
376.319	387.19
376.545	386.19
376.771	398.19
376.997	399.19
377.222	400.19
377.448	409.19
377.674	387.19
377.899	373.19
378.125	388.19
378.35	395.19
378.576	394.19
378.802	401.19
379.027	389.19
379.253	387.19
379.478	412.19
379.704	394.19
379.929	404.19
380.155	415.19
380.38	400.19
380.606	400.19
380.831	407.19
381.057	395.19
381.282	388.19
381.507	406.19
381.733	408.19
381.958	392.19
382.184	404.19
382.409	392.19
382.634	396.19
382.86	411.19
383.085	413.19
383.31	388.19
383.535	393.19
383.761	417.19
383.986	398.19
384.211	418.19
384.436	402.19
384.662	411.19
384.887	424.19
385.112	423.19
385.337	424.19
385.562	423.19
385.787	443.19
386.013	433.19
386.238	451.19
386.463	450.19
386.688	431.19
386.913	422.19
387.138	430.19
387.363	412.19
387.588	423.19
387.813	411.19
388.038	408.19
388.263	436.19
388.488	421.19
388.713	424.19
388.938	437.19
389.163	433.19
389.387	410.19
389.612	407.19
389.837	431.19
390.062	415.19
390.287	401.19
390.512	431.19
390.736	425.19
390.961	426.19
391.186	435.19
391.411	424.19
391.636	418.19
391.86	425.19
392.085	429.19
392.31	435.19
392.534	434.19
392.759	415.19
392.984	431.19
393.208	423.19
393.433	436.19
393.658	447.19
393.882	431.19
394.107	434.19
394.331	424.19
394.556	401.19
394.78	443.19
395.005	434.19
395.229	446.19
395.454	442.19
395.678	439.19
395.903	444.19
396.127	458.19
396.352	481.19
396.576	448.19
396.801	461.19
397.025	454.19
397.249	455.19
397.474	461.19
397.698	475.19
397.922	490.19
398.147	489.19
398.371	479.19
398.595	484.19
398.82	471.19
399.044	488.19
399.268	513.19
399.492	539.19
399.717	531.19
399.941	542.19
400.165	615.19
400.389	604.19
400.613	567.19
400.837	521.19
401.062	489.19
401.286	508.19
401.51	514.19
401.734	473.19
401.958	498.19
402.182	514.19
402.406	506.19
402.63	511.19
402.854	497.19
403.078	485.19
403.302	504.19
403.526	542.19
403.75	498.19
403.974	514.19
404.198	513.19
404.422	512.19
404.645	524.19
404.869	524.19
405.093	576.19
405.317	608.19
405.541	641.19
405.765	561.19
405.988	551.19
406.212	574.19
406.436	594.19
406.66	601.19
406.883	587.19
407.107	613.19
407.331	631.19
407.555	688.19
407.778	686.19
408.002	636.19
408.226	599.19
408.449	575.19
408.673	583.19
408.896	613.19
409.12	642.19
409.344	613.19
409.567	553.19
409.791	540.19
410.014	517.19
410.238	522.19
410.461	535.19
410.685	531.19
410.908	545.19
411.132	574.19
411.355	623.19
411.578	592.19
411.802	558.19
412.025	526.19
412.249	525.19
412.472	558.19
412.695	603.19
412.919	628.19
413.142	544.19
413.365	538.19
413.589	512.19
413.812	507.19
414.035	495.19
414.258	468.19
414.482	476.19
414.705	479.19
414.928	472.19
415.151	496.19
415.374	474.19
415.597	514.19
415.821	503.19
416.044	506.19
416.267	511.19
416.49	476.19
416.713	492.19
416.936	496.19
417.159	505.19
417.382	504.19
417.605	486.19
417.828	515.19
418.051	533.19
418.274	526.19
418.497	503.19
418.72	521.19
418.943	499.19
419.166	502.19
419.389	551.19
419.611	524.19
419.834	543.19
420.057	524.19
420.28	537.19
420.503	510.19
420.726	542.19
420.948	558.19
421.171	591.19
421.394	620.19
421.617	560.19
421.839	542.19
422.062	530.19
422.285	571.19
422.507	596.19
422.73	693.19
422.953	660.19
423.175	609.19
423.398	594.19
423.621	575.19
423.843	601.19
424.066	597.19
424.288	598.19
424.511	604.19
424.733	693.19
424.956	772.19
425.178	734.19
425.401	716.19
425.623	735.19
425.846	640.19
426.068	597.19
426.291	614.19
426.513	622.19
426.735	587.19
426.958	646.19
427.18	750.19
427.402	890.19
427.625	966.19
427.847	865.19
428.069	758.19
428.292	662.19
428.514	596.19
428.736	596.19
428.958	561.19
429.181	538.19
429.403	551.19
429.625	588.19
429.847	608.19
430.069	670.19
430.292	689.19
430.514	590.19
430.736	564.19
430.958	536.19
431.18	541.19
431.402	560.19
431.624	530.19
431.846	525.19
432.068	527.19
432.29	502.19
432.512	498.19
432.734	530.19
432.956	524.19
433.178	510.19
433.4	536.19
433.622	510.19
433.844	525.19
434.066	494.19
434.287	514.19
434.509	527.19
434.731	496.19
434.953	535.19
435.175	555.19
435.397	583.19
435.618	627.19
435.84	634.19
436.062	758.19
436.284	804.19
436.505	697.19
436.727	630.19
436.949	596.19
437.17	568.19
437.392	543.19
437.614	587.19
437.835	622.19
438.057	735.19
438.278	824.19
438.5	842.19
438.721	895.19
438.943	841.19
439.165	694.19
439.386	642.19
439.608	656.19
439.829	628.19
440.05	666.19
440.272	716.19
440.493	648.19
440.715	613.19
440.936	578.19
441.158	562.19
441.379	564.19
441.6	586.19
441.822	600.19
442.043	646.19
442.264	719.19
442.486	772.19
442.707	695.19
442.928	642.19
443.149	658.19
443.371	635.19
443.592	688.19
443.813	805.19
444.034	863.19
444.255	699.19
444.476	607.19
444.698	604.19
444.919	588.19
445.14	663.19
445.361	640.19
445.582	634.19
445.803	706.19
446.024	834.19
446.245	838.19
446.466	791.19
446.687	656.19
446.908	628.19
447.129	576.19
447.35	570.19
447.571	557.19
447.792	566.19
448.013	571.19
448.234	600.19
448.455	644.19
448.675	768.19
448.896	876.19
449.117	743.19
449.338	738.19
449.559	801.19
449.779	909.19
450	742.19
450.221	648.19
450.442	582.19
450.662	558.19
450.883	582.19
451.104	574.19
451.324	594.19
451.545	564.19
451.766	512.19
451.986	511.19
452.207	483.19
452.428	483.19
452.648	487.19
452.869	505.19
453.089	503.19
453.31	513.19
453.53	520.19
453.751	505.19
453.971	537.19
454.192	546.19
454.412	548.19
454.633	525.19
454.853	520.19
455.073	495.19
455.294	516.19
455.514	611.19
455.734	615.19
455.955	523.19
456.175	474.19
456.395	473.19
456.616	447.19
456.836	470.19
457.056	458.19
457.276	433.19
457.497	439.19
457.717	465.19
457.937	474.19
458.157	497.19
458.377	503.19
458.598	500.19
458.818	588.19
459.038	705.19
459.258	694.19
459.478	601.19
459.698	528.19
459.918	530.19
460.138	485.19
460.358	524.19
460.578	497.19
460.798	504.19
461.018	497.19
461.238	491.19
461.458	516.19
461.678	499.19
461.898	508.19
462.118	520.19
462.338	489.19
462.558	511.19
462.777	498.19
462.997	536.19
463.217	548.19
463.437	549.19
463.657	510.19
463.876	520.19
464.096	523.19
464.316	536.19
464.536	535.19
464.755	545.19
464.975	557.19
465.195	630.19
465.414	731.19
465.634	645.19
465.854	576.19
466.073	549.19
466.293	533.19
466.512	504.19
466.732	499.19
466.951	538.19
467.171	483.19
467.391	495.19
467.61	524.19
467.829	560.19
468.049	540.19
468.268	526.19
468.488	503.19
468.707	486.19
468.927	482.19
469.146	484.19
469.365	513.19
469.585	483.19
469.804	497.19
470.023	517.19
470.243	504.19
470.462	514.19
470.681	555.19
470.901	553.19
471.12	533.19
471.339	517.19
471.558	534.19
471.777	516.19
471.997	503.19
472.216	523.19
472.435	582.19
472.654	555.19
472.873	511.19
473.092	524.19
473.311	514.19
473.53	512.19
473.749	533.19
473.968	579.19
474.187	722.19
474.406	715.19
474.625	594.19
474.844	537.19
475.063	520.19
475.282	525.19
475.501	544.19
475.72	503.19
475.939	521.19
476.158	536.19
476.377	525.19
476.596	546.19
476.814	532.19
477.033	545.19
477.252	567.19
477.471	538.19
477.69	553.19
477.908	556.19
478.127	584.19
478.346	539.19
478.564	544.19
478.783	555.19
479.002	568.19
479.22	589.19
479.439	611.19
479.658	632.19
479.876	623.19
480.095	617.19
480.313	659.19
480.532	647.19
480.751	626.19
480.969	624.19
481.188	712.19
481.406	796.19
481.624	678.19
481.843	638.19
482.061	628.19
482.28	629.19
482.498	619.19
482.717	612.19
482.935	613.19
483.153	617.19
483.372	605.19
483.59	608.19
483.808	634.19
484.027	604.19
484.245	614.19
484.463	610.19
484.681	617.19
484.9	632.19
485.118	634.19
485.336	641.19
485.554	645.19
485.772	633.19
485.99	621.19
486.209	626.19
486.427	646.19
486.645	679.19
486.863	695.19
487.081	673.19
487.299	660.19
487.517	645.19
487.735	646.19
487.953	676.19
488.171	682.19
488.389	681.19
488.607	678.19
488.825	662.19
489.043	683.19
489.261	680.19
489.479	710.19
489.696	682.19
489.914	687.19
490.132	682.19
490.35	706.19
490.568	700.19
490.786	724.19
491.003	726.19
491.221	770.19
491.439	768.19
491.657	753.19
491.874	780.19
492.092	780.19
492.31	791.19
492.527	801.19
492.745	802.19
492.963	778.19
493.18	792.19
493.398	794.19
493.615	790.19
493.833	799.19
494.05	831.19
494.268	814.19
494.485	800.19
494.703	817.19
494.92	797.19
495.138	793.19
495.355	804.19
495.573	805.19
495.79	810.19
496.008	826.19
496.225	819.19
496.442	808.19
496.66	792.19
496.877	841.19
497.094	786.19
497.312	819.19
497.529	857.19
497.746	831.19
497.963	841.19
498.181	867.19
498.398	816.19
498.615	863.19
498.832	879.19
499.049	850.19
499.267	890.19
499.484	887.19
499.701	883.19
499.918	912.19
500.135	988.19
500.352	994.19
500.569	1001.19
500.786	987.19
501.003	976.19
501.22	981.19
501.437	970.19
501.654	951.19
