Data from 1971.PennyLincolnUp.Lamp.En5.5.200Scan.071719.P1._HRD10591_15-19-23-841.txt Node
Date: Thu Jul 18 15:19:23 EDT 2019
User: cochatt
Spectrometer: HR+D1059
Trigger mode: 1
Integration Time (sec): 1.000000E-1
Scans to average: 1
Electric dark correction enabled: true
Nonlinearity correction enabled: false
Boxcar width: 0
XAxis mode: Wavelengths
Number of Pixels in Spectrum: 2048
>>>>>Begin Spectral Data<<<<<
223.165	-22.19
223.4	-22.19
223.635	-22.19
223.869	-23.19
224.104	-10.19
224.338	-9.19
224.573	-13.19
224.808	-9.19
225.042	-10.19
225.277	-9.19
225.511	-12.19
225.746	11.81
225.98	1.81
226.215	15.81
226.449	19.81
226.683	11.81
226.918	28.81
227.152	28.81
227.387	27.81
227.621	32.81
227.856	35.81
228.09	45.81
228.324	52.81
228.559	59.81
228.793	62.81
229.027	85.81
229.262	106.81
229.496	107.81
229.73	120.81
229.964	137.81
230.199	128.81
230.433	108.81
230.667	95.81
230.901	100.81
231.136	118.81
231.37	109.81
231.604	114.81
231.838	98.81
232.072	92.81
232.306	111.81
232.541	95.81
232.775	115.81
233.009	106.81
233.243	98.81
233.477	114.81
233.711	102.81
233.945	113.81
234.179	116.81
234.413	121.81
234.647	114.81
234.881	97.81
235.115	120.81
235.349	106.81
235.583	120.81
235.817	117.81
236.051	110.81
236.285	130.81
236.519	117.81
236.753	128.81
236.987	136.81
237.221	168.81
237.455	198.81
237.689	174.81
237.922	137.81
238.156	123.81
238.39	126.81
238.624	121.81
238.858	120.81
239.091	114.81
239.325	131.81
239.559	115.81
239.793	129.81
240.027	123.81
240.26	143.81
240.494	153.81
240.728	146.81
240.961	146.81
241.195	135.81
241.429	138.81
241.662	128.81
241.896	147.81
242.13	122.81
242.363	130.81
242.597	142.81
242.83	122.81
243.064	153.81
243.298	131.81
243.531	126.81
243.765	132.81
243.998	148.81
244.232	137.81
244.465	148.81
244.699	145.81
244.932	137.81
245.166	158.81
245.399	147.81
245.633	155.81
245.866	136.81
246.099	149.81
246.333	154.81
246.566	140.81
246.8	145.81
247.033	141.81
247.266	144.81
247.5	165.81
247.733	169.81
247.966	161.81
248.2	172.81
248.433	164.81
248.666	154.81
248.899	184.81
249.133	177.81
249.366	198.81
249.599	196.81
249.832	188.81
250.066	185.81
250.299	200.81
250.532	215.81
250.765	175.81
250.998	204.81
251.231	212.81
251.465	213.81
251.698	216.81
251.931	202.81
252.164	195.81
252.397	196.81
252.63	215.81
252.863	201.81
253.096	223.81
253.329	218.81
253.562	225.81
253.795	219.81
254.028	219.81
254.261	218.81
254.494	250.81
254.727	260.81
254.96	275.81
255.193	271.81
255.426	255.81
255.659	241.81
255.892	230.81
256.124	223.81
256.357	216.81
256.59	235.81
256.823	210.81
257.056	223.81
257.289	213.81
257.521	218.81
257.754	219.81
257.987	207.81
258.22	199.81
258.452	205.81
258.685	208.81
258.918	207.81
259.151	198.81
259.383	213.81
259.616	215.81
259.849	217.81
260.081	242.81
260.314	255.81
260.547	258.81
260.779	247.81
261.012	236.81
261.244	226.81
261.477	226.81
261.71	217.81
261.942	225.81
262.175	229.81
262.407	235.81
262.64	200.81
262.872	227.81
263.105	206.81
263.337	224.81
263.57	209.81
263.802	218.81
264.035	213.81
264.267	208.81
264.499	217.81
264.732	212.81
264.964	221.81
265.197	218.81
265.429	223.81
265.661	213.81
265.894	228.81
266.126	217.81
266.358	224.81
266.591	216.81
266.823	226.81
267.055	227.81
267.287	241.81
267.52	247.81
267.752	226.81
267.984	222.81
268.216	229.81
268.448	241.81
268.681	232.81
268.913	246.81
269.145	251.81
269.377	287.81
269.609	269.81
269.841	279.81
270.073	283.81
270.306	270.81
270.538	320.81
270.77	327.81
271.002	309.81
271.234	308.81
271.466	315.81
271.698	315.81
271.93	331.81
272.162	302.81
272.394	317.81
272.626	291.81
272.858	287.81
273.09	312.81
273.322	289.81
273.553	269.81
273.785	266.81
274.017	279.81
274.249	270.81
274.481	282.81
274.713	264.81
274.945	278.81
275.176	276.81
275.408	262.81
275.64	265.81
275.872	266.81
276.104	246.81
276.335	264.81
276.567	279.81
276.799	281.81
277.031	303.81
277.262	323.81
277.494	320.81
277.726	307.81
277.957	305.81
278.189	294.81
278.421	296.81
278.652	272.81
278.884	273.81
279.115	265.81
279.347	284.81
279.579	279.81
279.81	268.81
280.042	275.81
280.273	276.81
280.505	269.81
280.736	259.81
280.968	281.81
281.199	259.81
281.431	268.81
281.662	274.81
281.894	271.81
282.125	286.81
282.356	281.81
282.588	323.81
282.819	308.81
283.051	281.81
283.282	276.81
283.513	295.81
283.745	283.81
283.976	280.81
284.207	284.81
284.439	299.81
284.67	280.81
284.901	284.81
285.132	275.81
285.364	277.81
285.595	295.81
285.826	296.81
286.057	293.81
286.288	284.81
286.52	278.81
286.751	289.81
286.982	301.81
287.213	292.81
287.444	293.81
287.675	284.81
287.906	301.81
288.138	317.81
288.369	310.81
288.6	287.81
288.831	292.81
289.062	321.81
289.293	303.81
289.524	288.81
289.755	288.81
289.986	278.81
290.217	279.81
290.448	288.81
290.679	295.81
290.91	296.81
291.141	296.81
291.371	294.81
291.602	290.81
291.833	299.81
292.064	291.81
292.295	285.81
292.526	300.81
292.757	291.81
292.987	309.81
293.218	292.81
293.449	296.81
293.68	307.81
293.91	289.81
294.141	297.81
294.372	289.81
294.603	293.81
294.833	278.81
295.064	300.81
295.295	288.81
295.525	312.81
295.756	293.81
295.987	325.81
296.217	322.81
296.448	319.81
296.679	310.81
296.909	314.81
297.14	306.81
297.37	308.81
297.601	314.81
297.831	298.81
298.062	303.81
298.292	309.81
298.523	311.81
298.753	306.81
298.984	332.81
299.214	318.81
299.445	300.81
299.675	303.81
299.905	311.81
300.136	308.81
300.366	331.81
300.597	301.81
300.827	326.81
301.057	324.81
301.288	336.81
301.518	330.81
301.748	324.81
301.979	330.81
302.209	344.81
302.439	341.81
302.669	320.81
302.9	326.81
303.13	315.81
303.36	346.81
303.59	318.81
303.82	329.81
304.051	340.81
304.281	342.81
304.511	335.81
304.741	322.81
304.971	335.81
305.201	322.81
305.431	330.81
305.661	328.81
305.891	311.81
306.121	331.81
306.352	342.81
306.582	330.81
306.812	342.81
307.042	333.81
307.272	333.81
307.502	342.81
307.731	346.81
307.961	335.81
308.191	337.81
308.421	331.81
308.651	339.81
308.881	346.81
309.111	342.81
309.341	338.81
309.571	369.81
309.8	375.81
310.03	341.81
310.26	367.81
310.49	354.81
310.72	403.81
310.949	412.81
311.179	389.81
311.409	363.81
311.639	365.81
311.868	368.81
312.098	353.81
312.328	371.81
312.557	379.81
312.787	425.81
313.017	410.81
313.246	390.81
313.476	392.81
313.706	380.81
313.935	379.81
314.165	394.81
314.394	404.81
314.624	384.81
314.853	395.81
315.083	381.81
315.312	371.81
315.542	387.81
315.771	373.81
316.001	363.81
316.23	372.81
316.46	373.81
316.689	381.81
316.919	375.81
317.148	378.81
317.377	368.81
317.607	373.81
317.836	379.81
318.065	365.81
318.295	371.81
318.524	385.81
318.753	373.81
318.983	389.81
319.212	394.81
319.441	390.81
319.67	401.81
319.9	387.81
320.129	378.81
320.358	381.81
320.587	383.81
320.816	403.81
321.046	401.81
321.275	398.81
321.504	400.81
321.733	374.81
321.962	391.81
322.191	409.81
322.42	412.81
322.649	432.81
322.878	449.81
323.108	461.81
323.337	474.81
323.566	483.81
323.795	498.81
324.024	565.81
324.253	701.81
324.482	974.81
324.71	1457.81
324.939	1985.81
325.168	1615.81
325.397	895.81
325.626	630.81
325.855	547.81
326.084	495.81
326.313	495.81
326.542	498.81
326.77	519.81
326.999	642.81
327.228	860.81
327.457	1235.81
327.686	1458.81
327.914	964.81
328.143	671.81
328.372	576.81
328.6	552.81
328.829	553.81
329.058	563.81
329.287	567.81
329.515	514.81
329.744	516.81
329.972	497.81
330.201	518.81
330.43	512.81
330.658	556.81
330.887	553.81
331.115	549.81
331.344	517.81
331.572	492.81
331.801	475.81
332.03	465.81
332.258	462.81
332.486	432.81
332.715	436.81
332.943	454.81
333.172	450.81
333.4	435.81
333.629	457.81
333.857	465.81
334.085	463.81
334.314	497.81
334.542	502.81
334.771	502.81
334.999	485.81
335.227	477.81
335.455	443.81
335.684	450.81
335.912	428.81
336.14	409.81
336.369	419.81
336.597	418.81
336.825	433.81
337.053	428.81
337.281	435.81
337.51	422.81
337.738	423.81
337.966	435.81
338.194	407.81
338.422	436.81
338.65	411.81
338.878	416.81
339.106	412.81
339.334	422.81
339.562	420.81
339.79	451.81
340.018	421.81
340.246	416.81
340.474	421.81
340.702	406.81
340.93	422.81
341.158	410.81
341.386	405.81
341.614	402.81
341.842	424.81
342.07	405.81
342.298	412.81
342.526	426.81
342.754	409.81
342.981	388.81
343.209	381.81
343.437	410.81
343.665	405.81
343.893	411.81
344.12	415.81
344.348	432.81
344.576	428.81
344.804	414.81
345.031	421.81
345.259	405.81
345.487	404.81
345.714	413.81
345.942	393.81
346.17	383.81
346.397	393.81
346.625	396.81
346.853	398.81
347.08	385.81
347.308	383.81
347.535	415.81
347.763	416.81
347.99	407.81
348.218	411.81
348.445	418.81
348.673	415.81
348.9	400.81
349.128	390.81
349.355	383.81
349.583	383.81
349.81	387.81
350.037	386.81
350.265	381.81
350.492	380.81
350.72	402.81
350.947	406.81
351.174	393.81
351.402	392.81
351.629	412.81
351.856	402.81
352.083	399.81
352.311	402.81
352.538	417.81
352.765	403.81
352.992	404.81
353.22	403.81
353.447	401.81
353.674	370.81
353.901	371.81
354.128	368.81
354.355	376.81
354.583	373.81
354.81	350.81
355.037	354.81
355.264	372.81
355.491	351.81
355.718	355.81
355.945	373.81
356.172	362.81
356.399	369.81
356.626	349.81
356.853	359.81
357.08	348.81
357.307	348.81
357.534	353.81
357.761	348.81
357.988	360.81
358.215	365.81
358.441	371.81
358.668	364.81
358.895	371.81
359.122	356.81
359.349	379.81
359.576	380.81
359.802	414.81
360.029	417.81
360.256	432.81
360.483	397.81
360.709	369.81
360.936	379.81
361.163	381.81
361.39	395.81
361.616	380.81
361.843	382.81
362.07	364.81
362.296	369.81
362.523	373.81
362.749	383.81
362.976	364.81
363.203	383.81
363.429	343.81
363.656	359.81
363.882	353.81
364.109	385.81
364.335	367.81
364.562	359.81
364.788	351.81
365.015	371.81
365.241	370.81
365.468	368.81
365.694	377.81
365.92	355.81
366.147	368.81
366.373	349.81
366.599	371.81
366.826	359.81
367.052	337.81
367.278	368.81
367.505	368.81
367.731	371.81
367.957	346.81
368.184	353.81
368.41	362.81
368.636	381.81
368.862	383.81
369.089	361.81
369.315	365.81
369.541	344.81
369.767	350.81
369.993	353.81
370.219	363.81
370.445	357.81
370.672	362.81
370.898	355.81
371.124	340.81
371.35	356.81
371.576	356.81
371.802	339.81
372.028	350.81
372.254	355.81
372.48	364.81
372.706	359.81
372.932	339.81
373.158	367.81
373.384	348.81
373.61	362.81
373.835	364.81
374.061	355.81
374.287	343.81
374.513	361.81
374.739	363.81
374.965	354.81
375.191	365.81
375.416	340.81
375.642	344.81
375.868	357.81
376.094	348.81
376.319	346.81
376.545	340.81
376.771	352.81
376.997	360.81
377.222	353.81
377.448	347.81
377.674	348.81
377.899	344.81
378.125	344.81
378.35	347.81
378.576	335.81
378.802	335.81
379.027	340.81
379.253	334.81
379.478	337.81
379.704	346.81
379.929	332.81
380.155	338.81
380.38	363.81
380.606	334.81
380.831	351.81
381.057	364.81
381.282	339.81
381.507	352.81
381.733	349.81
381.958	349.81
382.184	372.81
382.409	353.81
382.634	353.81
382.86	341.81
383.085	359.81
383.31	356.81
383.535	369.81
383.761	353.81
383.986	351.81
384.211	351.81
384.436	375.81
384.662	353.81
384.887	346.81
385.112	368.81
385.337	376.81
385.562	353.81
385.787	367.81
386.013	388.81
386.238	356.81
386.463	374.81
386.688	374.81
386.913	354.81
387.138	361.81
387.363	379.81
387.588	371.81
387.813	387.81
388.038	377.81
388.263	374.81
388.488	369.81
388.713	385.81
388.938	373.81
389.163	377.81
389.387	376.81
389.612	368.81
389.837	370.81
390.062	368.81
390.287	351.81
390.512	348.81
390.736	363.81
390.961	370.81
391.186	365.81
391.411	365.81
391.636	356.81
391.86	375.81
392.085	352.81
392.31	365.81
392.534	389.81
392.759	373.81
392.984	361.81
393.208	372.81
393.433	383.81
393.658	372.81
393.882	355.81
394.107	357.81
394.331	356.81
394.556	359.81
394.78	368.81
395.005	371.81
395.229	354.81
395.454	385.81
395.678	403.81
395.903	387.81
396.127	404.81
396.352	408.81
396.576	385.81
396.801	367.81
397.025	379.81
397.249	388.81
397.474	387.81
397.698	395.81
397.922	418.81
398.147	416.81
398.371	412.81
398.595	396.81
398.82	423.81
399.044	415.81
399.268	419.81
399.492	444.81
399.717	471.81
399.941	489.81
400.165	473.81
400.389	523.81
400.613	459.81
400.837	415.81
401.062	428.81
401.286	415.81
401.51	415.81
401.734	415.81
401.958	419.81
402.182	411.81
402.406	428.81
402.63	423.81
402.854	426.81
403.078	391.81
403.302	405.81
403.526	432.81
403.75	418.81
403.974	422.81
404.198	435.81
404.422	416.81
404.645	417.81
404.869	418.81
405.093	467.81
405.317	492.81
405.541	499.81
405.765	462.81
405.988	464.81
406.212	443.81
406.436	473.81
406.66	469.81
406.883	437.81
407.107	464.81
407.331	503.81
407.555	559.81
407.778	566.81
408.002	509.81
408.226	467.81
408.449	476.81
408.673	461.81
408.896	485.81
409.12	514.81
409.344	477.81
409.567	448.81
409.791	439.81
410.014	419.81
410.238	421.81
410.461	427.81
410.685	412.81
410.908	417.81
411.132	475.81
411.355	495.81
411.578	461.81
411.802	441.81
412.025	409.81
412.249	424.81
412.472	428.81
412.695	468.81
412.919	441.81
413.142	421.81
413.365	419.81
413.589	396.81
413.812	420.81
414.035	402.81
414.258	392.81
414.482	395.81
414.705	397.81
414.928	411.81
415.151	399.81
415.374	401.81
415.597	393.81
415.821	406.81
416.044	396.81
416.267	386.81
416.49	392.81
416.713	394.81
416.936	401.81
417.159	381.81
417.382	394.81
417.605	402.81
417.828	407.81
418.051	402.81
418.274	393.81
418.497	391.81
418.72	398.81
418.943	381.81
419.166	408.81
419.389	424.81
419.611	401.81
419.834	421.81
420.057	426.81
420.28	405.81
420.503	405.81
420.726	409.81
420.948	445.81
421.171	454.81
421.394	476.81
421.617	419.81
421.839	408.81
422.062	418.81
422.285	435.81
422.507	471.81
422.73	528.81
422.953	499.81
423.175	467.81
423.398	443.81
423.621	433.81
423.843	465.81
424.066	445.81
424.288	446.81
424.511	465.81
424.733	518.81
424.956	546.81
425.178	568.81
425.401	531.81
425.623	544.81
425.846	484.81
426.068	449.81
426.291	454.81
426.513	453.81
426.735	428.81
426.958	490.81
427.18	544.81
427.402	637.81
427.625	714.81
427.847	617.81
428.069	545.81
428.292	487.81
428.514	431.81
428.736	440.81
428.958	434.81
429.181	418.81
429.403	418.81
429.625	414.81
429.847	471.81
430.069	495.81
430.292	499.81
430.514	424.81
430.736	411.81
430.958	411.81
431.18	381.81
431.402	382.81
431.624	378.81
431.846	393.81
432.068	364.81
432.29	391.81
432.512	379.81
432.734	391.81
432.956	394.81
433.178	374.81
433.4	419.81
433.622	400.81
433.844	390.81
434.066	365.81
434.287	385.81
434.509	380.81
434.731	403.81
434.953	404.81
435.175	417.81
435.397	462.81
435.618	445.81
435.84	475.81
436.062	551.81
436.284	611.81
436.505	515.81
436.727	455.81
436.949	419.81
437.17	399.81
437.392	413.81
437.614	419.81
437.835	451.81
438.057	509.81
438.278	600.81
438.5	617.81
438.721	647.81
438.943	626.81
439.165	492.81
439.386	463.81
439.608	457.81
439.829	469.81
440.05	469.81
440.272	491.81
440.493	456.81
440.715	433.81
440.936	423.81
441.158	416.81
441.379	412.81
441.6	407.81
441.822	426.81
442.043	472.81
442.264	548.81
442.486	577.81
442.707	488.81
442.928	450.81
443.149	456.81
443.371	484.81
443.592	543.81
443.813	596.81
444.034	607.81
444.255	524.81
444.476	446.81
444.698	447.81
444.919	453.81
445.14	568.81
445.361	503.81
445.582	468.81
445.803	540.81
446.024	595.81
446.245	622.81
446.466	567.81
446.687	502.81
446.908	464.81
447.129	425.81
447.35	435.81
447.571	415.81
447.792	411.81
448.013	439.81
448.234	458.81
448.455	468.81
448.675	571.81
448.896	655.81
449.117	567.81
449.338	534.81
449.559	619.81
449.779	680.81
450	554.81
450.221	483.81
450.442	440.81
450.662	434.81
450.883	433.81
451.104	433.81
451.324	390.81
451.545	391.81
451.766	384.81
451.986	376.81
452.207	361.81
452.428	351.81
452.648	363.81
452.869	354.81
453.089	382.81
453.31	368.81
453.53	374.81
453.751	362.81
453.971	377.81
454.192	377.81
454.412	348.81
454.633	334.81
454.853	356.81
455.073	363.81
455.294	379.81
455.514	441.81
455.734	415.81
455.955	377.81
456.175	375.81
456.395	363.81
456.616	352.81
456.836	339.81
457.056	339.81
457.276	342.81
457.497	332.81
457.717	365.81
457.937	356.81
458.157	350.81
458.377	350.81
458.598	379.81
458.818	410.81
459.038	448.81
459.258	479.81
459.478	416.81
459.698	384.81
459.918	382.81
460.138	380.81
460.358	364.81
460.578	382.81
460.798	378.81
461.018	386.81
461.238	410.81
461.458	387.81
461.678	378.81
461.898	385.81
462.118	411.81
462.338	390.81
462.558	404.81
462.777	405.81
462.997	411.81
463.217	406.81
463.437	422.81
463.657	394.81
463.876	398.81
464.096	393.81
464.316	393.81
464.536	412.81
464.755	388.81
464.975	409.81
465.195	440.81
465.414	480.81
465.634	405.81
465.854	407.81
466.073	398.81
466.293	394.81
466.512	380.81
466.732	372.81
466.951	360.81
467.171	356.81
467.391	377.81
467.61	391.81
467.829	382.81
468.049	383.81
468.268	365.81
468.488	362.81
468.707	364.81
468.927	368.81
469.146	346.81
469.365	361.81
469.585	339.81
469.804	354.81
470.023	384.81
470.243	367.81
470.462	386.81
470.681	401.81
470.901	371.81
471.12	364.81
471.339	395.81
471.558	416.81
471.777	379.81
471.997	359.81
472.216	371.81
472.435	385.81
472.654	383.81
472.873	381.81
473.092	385.81
473.311	372.81
473.53	387.81
473.749	415.81
473.968	431.81
474.187	491.81
474.406	517.81
474.625	457.81
474.844	379.81
475.063	381.81
475.282	385.81
475.501	378.81
475.72	390.81
475.939	367.81
476.158	381.81
476.377	393.81
476.596	360.81
476.814	383.81
477.033	393.81
477.252	396.81
477.471	383.81
477.69	397.81
477.908	381.81
478.127	414.81
478.346	415.81
478.564	405.81
478.783	410.81
479.002	421.81
479.22	421.81
479.439	418.81
479.658	444.81
479.876	437.81
480.095	465.81
480.313	489.81
480.532	482.81
480.751	458.81
480.969	475.81
481.188	501.81
481.406	513.81
481.624	460.81
481.843	432.81
482.061	447.81
482.28	442.81
482.498	408.81
482.717	435.81
482.935	433.81
483.153	444.81
483.372	445.81
483.59	447.81
483.808	412.81
484.027	443.81
484.245	443.81
484.463	422.81
484.681	446.81
484.9	443.81
485.118	445.81
485.336	445.81
485.554	436.81
485.772	425.81
485.99	431.81
486.209	457.81
486.427	455.81
486.645	454.81
486.863	469.81
487.081	470.81
487.299	476.81
487.517	459.81
487.735	479.81
487.953	476.81
488.171	469.81
488.389	470.81
488.607	476.81
488.825	471.81
489.043	480.81
489.261	460.81
489.479	486.81
489.696	484.81
489.914	474.81
490.132	477.81
490.35	493.81
490.568	481.81
490.786	507.81
491.003	496.81
491.221	511.81
491.439	535.81
491.657	554.81
491.874	546.81
492.092	538.81
492.31	549.81
492.527	556.81
492.745	545.81
492.963	561.81
493.18	546.81
493.398	539.81
493.615	568.81
493.833	561.81
494.05	554.81
494.268	581.81
494.485	573.81
494.703	549.81
494.92	571.81
495.138	561.81
495.355	554.81
495.573	547.81
495.79	550.81
496.008	545.81
496.225	555.81
496.442	563.81
496.66	563.81
496.877	573.81
497.094	576.81
497.312	572.81
497.529	589.81
497.746	584.81
497.963	567.81
498.181	589.81
498.398	624.81
498.615	595.81
498.832	621.81
499.049	635.81
499.267	624.81
499.484	641.81
499.701	672.81
499.918	687.81
500.135	716.81
500.352	727.81
500.569	739.81
500.786	747.81
501.003	723.81
501.22	723.81
501.437	693.81
501.654	691.81
501.871	674.81
502.088	697.81
