Data from 1971.PennyLincolnUp.Lamp.En5.5.200Scan.071719.P1._HRD10591_15-20-00-841.txt Node
Date: Thu Jul 18 15:20:00 EDT 2019
User: cochatt
Spectrometer: HR+D1059
Trigger mode: 1
Integration Time (sec): 1.000000E-1
Scans to average: 1
Electric dark correction enabled: true
Nonlinearity correction enabled: false
Boxcar width: 0
XAxis mode: Wavelengths
Number of Pixels in Spectrum: 2048
>>>>>Begin Spectral Data<<<<<
223.165	-13.06
223.4	-13.06
223.635	-13.06
223.869	-12.06
224.104	-10.06
224.338	-25.06
224.573	-5.06
224.808	-27.06
225.042	-11.06
225.277	-10.06
225.511	8.94
225.746	7.94
225.98	5.94
226.215	8.94
226.449	6.94
226.683	24.94
226.918	17.94
227.152	31.94
227.387	20.94
227.621	34.94
227.856	45.94
228.09	47.94
228.324	54.94
228.559	51.94
228.793	55.94
229.027	105.94
229.262	110.94
229.496	105.94
229.73	122.94
229.964	159.94
230.199	129.94
230.433	115.94
230.667	112.94
230.901	111.94
231.136	106.94
231.37	97.94
231.604	100.94
231.838	112.94
232.072	110.94
232.306	100.94
232.541	109.94
232.775	102.94
233.009	117.94
233.243	108.94
233.477	104.94
233.711	126.94
233.945	117.94
234.179	107.94
234.413	100.94
234.647	122.94
234.881	127.94
235.115	116.94
235.349	111.94
235.583	127.94
235.817	118.94
236.051	130.94
236.285	129.94
236.519	120.94
236.753	125.94
236.987	137.94
237.221	200.94
237.455	207.94
237.689	157.94
237.922	137.94
238.156	126.94
238.39	131.94
238.624	132.94
238.858	127.94
239.091	133.94
239.325	110.94
239.559	145.94
239.793	123.94
240.027	128.94
240.26	155.94
240.494	147.94
240.728	147.94
240.961	154.94
241.195	146.94
241.429	141.94
241.662	135.94
241.896	141.94
242.13	139.94
242.363	136.94
242.597	124.94
242.83	139.94
243.064	153.94
243.298	139.94
243.531	146.94
243.765	141.94
243.998	146.94
244.232	156.94
244.465	159.94
244.699	147.94
244.932	140.94
245.166	155.94
245.399	140.94
245.633	155.94
245.866	144.94
246.099	161.94
246.333	144.94
246.566	145.94
246.8	138.94
247.033	175.94
247.266	173.94
247.5	165.94
247.733	166.94
247.966	168.94
248.2	174.94
248.433	173.94
248.666	185.94
248.899	198.94
249.133	206.94
249.366	193.94
249.599	203.94
249.832	197.94
250.066	186.94
250.299	195.94
250.532	175.94
250.765	216.94
250.998	228.94
251.231	225.94
251.465	235.94
251.698	230.94
251.931	201.94
252.164	196.94
252.397	212.94
252.63	199.94
252.863	213.94
253.096	224.94
253.329	245.94
253.562	238.94
253.795	224.94
254.028	229.94
254.261	223.94
254.494	231.94
254.727	255.94
254.96	274.94
255.193	272.94
255.426	241.94
255.659	236.94
255.892	243.94
256.124	253.94
256.357	252.94
256.59	232.94
256.823	218.94
257.056	232.94
257.289	228.94
257.521	225.94
257.754	228.94
257.987	217.94
258.22	225.94
258.452	205.94
258.685	208.94
258.918	206.94
259.151	239.94
259.383	218.94
259.616	238.94
259.849	224.94
260.081	252.94
260.314	266.94
260.547	271.94
260.779	243.94
261.012	254.94
261.244	233.94
261.477	234.94
261.71	235.94
261.942	224.94
262.175	255.94
262.407	236.94
262.64	231.94
262.872	221.94
263.105	233.94
263.337	229.94
263.57	246.94
263.802	222.94
264.035	229.94
264.267	217.94
264.499	207.94
264.732	233.94
264.964	237.94
265.197	225.94
265.429	234.94
265.661	230.94
265.894	220.94
266.126	209.94
266.358	207.94
266.591	233.94
266.823	221.94
267.055	239.94
267.287	243.94
267.52	234.94
267.752	248.94
267.984	239.94
268.216	258.94
268.448	251.94
268.681	239.94
268.913	255.94
269.145	256.94
269.377	261.94
269.609	285.94
269.841	269.94
270.073	283.94
270.306	326.94
270.538	328.94
270.77	325.94
271.002	331.94
271.234	291.94
271.466	328.94
271.698	319.94
271.93	347.94
272.162	315.94
272.394	315.94
272.626	304.94
272.858	307.94
273.09	298.94
273.322	290.94
273.553	288.94
273.785	288.94
274.017	290.94
274.249	295.94
274.481	276.94
274.713	283.94
274.945	290.94
275.176	287.94
275.408	271.94
275.64	273.94
275.872	284.94
276.104	286.94
276.335	289.94
276.567	301.94
276.799	309.94
277.031	320.94
277.262	324.94
277.494	332.94
277.726	321.94
277.957	291.94
278.189	293.94
278.421	295.94
278.652	299.94
278.884	283.94
279.115	285.94
279.347	280.94
279.579	288.94
279.81	273.94
280.042	280.94
280.273	284.94
280.505	277.94
280.736	300.94
280.968	273.94
281.199	281.94
281.431	270.94
281.662	290.94
281.894	288.94
282.125	280.94
282.356	292.94
282.588	315.94
282.819	316.94
283.051	292.94
283.282	302.94
283.513	296.94
283.745	307.94
283.976	288.94
284.207	296.94
284.439	304.94
284.67	287.94
284.901	288.94
285.132	313.94
285.364	297.94
285.595	298.94
285.826	307.94
286.057	303.94
286.288	295.94
286.52	287.94
286.751	291.94
286.982	304.94
287.213	288.94
287.444	289.94
287.675	307.94
287.906	305.94
288.138	322.94
288.369	311.94
288.6	330.94
288.831	307.94
289.062	292.94
289.293	293.94
289.524	310.94
289.755	281.94
289.986	303.94
290.217	288.94
290.448	313.94
290.679	292.94
290.91	307.94
291.141	301.94
291.371	308.94
291.602	311.94
291.833	295.94
292.064	291.94
292.295	324.94
292.526	319.94
292.757	309.94
292.987	308.94
293.218	294.94
293.449	311.94
293.68	313.94
293.91	316.94
294.141	288.94
294.372	304.94
294.603	319.94
294.833	310.94
295.064	327.94
295.295	328.94
295.525	328.94
295.756	311.94
295.987	307.94
296.217	340.94
296.448	332.94
296.679	328.94
296.909	293.94
297.14	315.94
297.37	304.94
297.601	327.94
297.831	332.94
298.062	329.94
298.292	329.94
298.523	331.94
298.753	339.94
298.984	326.94
299.214	314.94
299.445	323.94
299.675	320.94
299.905	335.94
300.136	337.94
300.366	335.94
300.597	328.94
300.827	297.94
301.057	342.94
301.288	352.94
301.518	353.94
301.748	327.94
301.979	335.94
302.209	344.94
302.439	329.94
302.669	352.94
302.9	335.94
303.13	348.94
303.36	355.94
303.59	331.94
303.82	348.94
304.051	341.94
304.281	350.94
304.511	332.94
304.741	346.94
304.971	339.94
305.201	348.94
305.431	345.94
305.661	340.94
305.891	336.94
306.121	347.94
306.352	342.94
306.582	363.94
306.812	350.94
307.042	354.94
307.272	333.94
307.502	343.94
307.731	338.94
307.961	351.94
308.191	349.94
308.421	353.94
308.651	355.94
308.881	352.94
309.111	363.94
309.341	343.94
309.571	360.94
309.8	377.94
310.03	375.94
310.26	397.94
310.49	395.94
310.72	400.94
310.949	419.94
311.179	413.94
311.409	387.94
311.639	378.94
311.868	391.94
312.098	382.94
312.328	384.94
312.557	405.94
312.787	405.94
313.017	404.94
313.246	395.94
313.476	415.94
313.706	414.94
313.935	397.94
314.165	406.94
314.394	395.94
314.624	401.94
314.853	402.94
315.083	380.94
315.312	397.94
315.542	389.94
315.771	384.94
316.001	379.94
316.23	387.94
316.46	393.94
316.689	392.94
316.919	366.94
317.148	411.94
317.377	422.94
317.607	396.94
317.836	401.94
318.065	405.94
318.295	404.94
318.524	414.94
318.753	377.94
318.983	395.94
319.212	402.94
319.441	394.94
319.67	418.94
319.9	388.94
320.129	414.94
320.358	390.94
320.587	393.94
320.816	403.94
321.046	399.94
321.275	428.94
321.504	411.94
321.733	433.94
321.962	426.94
322.191	432.94
322.42	442.94
322.649	481.94
322.878	473.94
323.108	480.94
323.337	477.94
323.566	503.94
323.795	551.94
324.024	587.94
324.253	704.94
324.482	983.94
324.71	1478.94
324.939	2008.94
325.168	1664.94
325.397	904.94
325.626	641.94
325.855	535.94
326.084	525.94
326.313	505.94
326.542	507.94
326.77	544.94
326.999	677.94
327.228	881.94
327.457	1231.94
327.686	1468.94
327.914	989.94
328.143	680.94
328.372	590.94
328.6	583.94
328.829	583.94
329.058	560.94
329.287	559.94
329.515	552.94
329.744	513.94
329.972	504.94
330.201	542.94
330.43	559.94
330.658	566.94
330.887	585.94
331.115	604.94
331.344	518.94
331.572	500.94
331.801	492.94
332.03	461.94
332.258	468.94
332.486	459.94
332.715	451.94
332.943	470.94
333.172	481.94
333.4	469.94
333.629	488.94
333.857	477.94
334.085	504.94
334.314	510.94
334.542	513.94
334.771	533.94
334.999	501.94
335.227	479.94
335.455	457.94
335.684	473.94
335.912	460.94
336.14	467.94
336.369	442.94
336.597	457.94
336.825	444.94
337.053	460.94
337.281	422.94
337.51	430.94
337.738	445.94
337.966	441.94
338.194	431.94
338.422	441.94
338.65	443.94
338.878	425.94
339.106	432.94
339.334	469.94
339.562	412.94
339.79	428.94
340.018	432.94
340.246	453.94
340.474	439.94
340.702	432.94
340.93	429.94
341.158	412.94
341.386	404.94
341.614	422.94
341.842	427.94
342.07	439.94
342.298	436.94
342.526	411.94
342.754	438.94
342.981	405.94
343.209	401.94
343.437	401.94
343.665	416.94
343.893	414.94
344.12	442.94
344.348	435.94
344.576	419.94
344.804	446.94
345.031	429.94
345.259	425.94
345.487	439.94
345.714	447.94
345.942	447.94
346.17	429.94
346.397	413.94
346.625	421.94
346.853	397.94
347.08	418.94
347.308	417.94
347.535	426.94
347.763	422.94
347.99	407.94
348.218	420.94
348.445	437.94
348.673	436.94
348.9	399.94
349.128	383.94
349.355	399.94
349.583	400.94
349.81	389.94
350.037	402.94
350.265	398.94
350.492	394.94
350.72	390.94
350.947	385.94
351.174	411.94
351.402	433.94
351.629	420.94
351.856	416.94
352.083	421.94
352.311	439.94
352.538	417.94
352.765	420.94
352.992	411.94
353.22	399.94
353.447	389.94
353.674	399.94
353.901	397.94
354.128	395.94
354.355	385.94
354.583	402.94
354.81	403.94
355.037	380.94
355.264	404.94
355.491	373.94
355.718	380.94
355.945	384.94
356.172	381.94
356.399	381.94
356.626	381.94
356.853	374.94
357.08	366.94
357.307	364.94
357.534	373.94
357.761	375.94
357.988	382.94
358.215	361.94
358.441	396.94
358.668	372.94
358.895	394.94
359.122	392.94
359.349	373.94
359.576	398.94
359.802	416.94
360.029	444.94
360.256	437.94
360.483	405.94
360.709	395.94
360.936	385.94
361.163	386.94
361.39	393.94
361.616	418.94
361.843	397.94
362.07	395.94
362.296	375.94
362.523	401.94
362.749	408.94
362.976	380.94
363.203	392.94
363.429	373.94
363.656	379.94
363.882	379.94
364.109	367.94
364.335	368.94
364.562	377.94
364.788	391.94
365.015	375.94
365.241	367.94
365.468	371.94
365.694	383.94
365.92	373.94
366.147	375.94
366.373	380.94
366.599	376.94
366.826	372.94
367.052	351.94
367.278	374.94
367.505	383.94
367.731	378.94
367.957	367.94
368.184	372.94
368.41	381.94
368.636	371.94
368.862	380.94
369.089	353.94
369.315	364.94
369.541	381.94
369.767	358.94
369.993	363.94
370.219	353.94
370.445	355.94
370.672	379.94
370.898	371.94
371.124	368.94
371.35	360.94
371.576	372.94
371.802	374.94
372.028	377.94
372.254	366.94
372.48	385.94
372.706	368.94
372.932	371.94
373.158	358.94
373.384	367.94
373.61	367.94
373.835	374.94
374.061	367.94
374.287	378.94
374.513	393.94
374.739	381.94
374.965	373.94
375.191	374.94
375.416	371.94
375.642	379.94
375.868	378.94
376.094	380.94
376.319	379.94
376.545	359.94
376.771	356.94
376.997	374.94
377.222	358.94
377.448	359.94
377.674	353.94
377.899	359.94
378.125	351.94
378.35	353.94
378.576	380.94
378.802	373.94
379.027	351.94
379.253	367.94
379.478	357.94
379.704	356.94
379.929	361.94
380.155	355.94
380.38	365.94
380.606	356.94
380.831	348.94
381.057	363.94
381.282	355.94
381.507	368.94
381.733	385.94
381.958	373.94
382.184	347.94
382.409	357.94
382.634	363.94
382.86	343.94
383.085	359.94
383.31	367.94
383.535	386.94
383.761	377.94
383.986	381.94
384.211	375.94
384.436	372.94
384.662	368.94
384.887	365.94
385.112	357.94
385.337	368.94
385.562	375.94
385.787	380.94
386.013	393.94
386.238	388.94
386.463	368.94
386.688	398.94
386.913	368.94
387.138	389.94
387.363	362.94
387.588	375.94
387.813	377.94
388.038	373.94
388.263	369.94
388.488	379.94
388.713	379.94
388.938	397.94
389.163	401.94
389.387	401.94
389.612	385.94
389.837	383.94
390.062	404.94
390.287	371.94
390.512	389.94
390.736	397.94
390.961	378.94
391.186	377.94
391.411	367.94
391.636	386.94
391.86	394.94
392.085	394.94
392.31	396.94
392.534	393.94
392.759	392.94
392.984	392.94
393.208	407.94
393.433	385.94
393.658	384.94
393.882	394.94
394.107	371.94
394.331	409.94
394.556	375.94
394.78	392.94
395.005	379.94
395.229	381.94
395.454	398.94
395.678	404.94
395.903	402.94
396.127	424.94
396.352	393.94
396.576	418.94
396.801	395.94
397.025	397.94
397.249	377.94
397.474	391.94
397.698	396.94
397.922	424.94
398.147	407.94
398.371	422.94
398.595	419.94
398.82	423.94
399.044	430.94
399.268	455.94
399.492	467.94
399.717	468.94
399.941	509.94
400.165	500.94
400.389	504.94
400.613	469.94
400.837	463.94
401.062	428.94
401.286	419.94
401.51	417.94
401.734	447.94
401.958	439.94
402.182	415.94
402.406	439.94
402.63	457.94
402.854	432.94
403.078	424.94
403.302	419.94
403.526	445.94
403.75	444.94
403.974	433.94
404.198	428.94
404.422	448.94
404.645	444.94
404.869	473.94
405.093	485.94
405.317	498.94
405.541	533.94
405.765	485.94
405.988	445.94
406.212	477.94
406.436	497.94
406.66	493.94
406.883	473.94
407.107	511.94
407.331	541.94
407.555	578.94
407.778	572.94
408.002	526.94
408.226	499.94
408.449	465.94
408.673	462.94
408.896	518.94
409.12	534.94
409.344	513.94
409.567	455.94
409.791	420.94
410.014	431.94
410.238	436.94
410.461	420.94
410.685	426.94
410.908	439.94
411.132	465.94
411.355	501.94
411.578	491.94
411.802	456.94
412.025	425.94
412.249	449.94
412.472	451.94
412.695	483.94
412.919	485.94
413.142	438.94
413.365	432.94
413.589	425.94
413.812	417.94
414.035	420.94
414.258	404.94
414.482	419.94
414.705	397.94
414.928	398.94
415.151	407.94
415.374	401.94
415.597	404.94
415.821	385.94
416.044	422.94
416.267	413.94
416.49	409.94
416.713	412.94
416.936	401.94
417.159	393.94
417.382	404.94
417.605	417.94
417.828	430.94
418.051	412.94
418.274	421.94
418.497	408.94
418.72	430.94
418.943	406.94
419.166	423.94
419.389	428.94
419.611	459.94
419.834	421.94
420.057	424.94
420.28	412.94
420.503	437.94
420.726	432.94
420.948	453.94
421.171	488.94
421.394	503.94
421.617	461.94
421.839	429.94
422.062	439.94
422.285	445.94
422.507	472.94
422.73	568.94
422.953	524.94
423.175	479.94
423.398	477.94
423.621	453.94
423.843	440.94
424.066	462.94
424.288	481.94
424.511	484.94
424.733	529.94
424.956	572.94
425.178	565.94
425.401	563.94
425.623	577.94
425.846	512.94
426.068	470.94
426.291	450.94
426.513	446.94
426.735	475.94
426.958	480.94
427.18	564.94
427.402	669.94
427.625	725.94
427.847	628.94
428.069	564.94
428.292	480.94
428.514	457.94
428.736	435.94
428.958	443.94
429.181	417.94
429.403	424.94
429.625	426.94
429.847	452.94
430.069	494.94
430.292	541.94
430.514	464.94
430.736	435.94
430.958	419.94
431.18	408.94
431.402	429.94
431.624	387.94
431.846	415.94
432.068	401.94
432.29	388.94
432.512	393.94
432.734	439.94
432.956	405.94
433.178	451.94
433.4	416.94
433.622	403.94
433.844	397.94
434.066	409.94
434.287	396.94
434.509	410.94
434.731	404.94
434.953	419.94
435.175	446.94
435.397	445.94
435.618	451.94
435.84	486.94
436.062	578.94
436.284	631.94
436.505	530.94
436.727	478.94
436.949	446.94
437.17	440.94
437.392	434.94
437.614	441.94
437.835	460.94
438.057	536.94
438.278	607.94
438.5	634.94
438.721	679.94
438.943	633.94
439.165	519.94
439.386	463.94
439.608	471.94
439.829	455.94
440.05	486.94
440.272	532.94
440.493	496.94
440.715	452.94
440.936	424.94
441.158	436.94
441.379	443.94
441.6	439.94
441.822	432.94
442.043	490.94
442.264	581.94
442.486	602.94
442.707	508.94
442.928	494.94
443.149	444.94
443.371	496.94
443.592	549.94
443.813	624.94
444.034	653.94
444.255	528.94
444.476	475.94
444.698	488.94
444.919	457.94
445.14	560.94
445.361	517.94
445.582	485.94
445.803	568.94
446.024	625.94
446.245	664.94
446.466	581.94
446.687	497.94
446.908	466.94
447.129	447.94
447.35	438.94
447.571	409.94
447.792	407.94
448.013	422.94
448.234	451.94
448.455	486.94
448.675	565.94
448.896	659.94
449.117	569.94
449.338	550.94
449.559	620.94
449.779	732.94
450	569.94
450.221	475.94
450.442	439.94
450.662	421.94
450.883	428.94
451.104	430.94
451.324	429.94
451.545	380.94
451.766	379.94
451.986	401.94
452.207	387.94
452.428	369.94
452.648	385.94
452.869	365.94
453.089	381.94
453.31	406.94
453.53	385.94
453.751	381.94
453.971	367.94
454.192	388.94
454.412	377.94
454.633	381.94
454.853	380.94
455.073	388.94
455.294	409.94
455.514	472.94
455.734	447.94
455.955	392.94
456.175	364.94
456.395	364.94
456.616	353.94
456.836	346.94
457.056	364.94
457.276	340.94
457.497	352.94
457.717	363.94
457.937	357.94
458.157	357.94
458.377	372.94
458.598	371.94
458.818	405.94
459.038	470.94
459.258	491.94
459.478	432.94
459.698	394.94
459.918	394.94
460.138	389.94
460.358	404.94
460.578	415.94
460.798	412.94
461.018	408.94
461.238	400.94
461.458	409.94
461.678	382.94
461.898	405.94
462.118	406.94
462.338	400.94
462.558	419.94
462.777	427.94
462.997	416.94
463.217	428.94
463.437	427.94
463.657	421.94
463.876	411.94
464.096	432.94
464.316	407.94
464.536	401.94
464.755	418.94
464.975	464.94
465.195	469.94
465.414	474.94
465.634	467.94
465.854	407.94
466.073	419.94
466.293	415.94
466.512	404.94
466.732	394.94
466.951	388.94
467.171	396.94
467.391	375.94
467.61	377.94
467.829	406.94
468.049	388.94
468.268	399.94
468.488	360.94
468.707	383.94
468.927	368.94
469.146	373.94
469.365	365.94
469.585	366.94
469.804	383.94
470.023	375.94
470.243	377.94
470.462	398.94
470.681	407.94
470.901	406.94
471.12	388.94
471.339	387.94
471.558	394.94
471.777	381.94
471.997	389.94
472.216	406.94
472.435	421.94
472.654	392.94
472.873	380.94
473.092	390.94
473.311	390.94
473.53	391.94
473.749	405.94
473.968	439.94
474.187	515.94
474.406	531.94
474.625	432.94
474.844	393.94
475.063	375.94
475.282	398.94
475.501	392.94
475.72	383.94
475.939	389.94
476.158	400.94
476.377	425.94
476.596	397.94
476.814	380.94
477.033	393.94
477.252	421.94
477.471	401.94
477.69	413.94
477.908	432.94
478.127	406.94
478.346	423.94
478.564	446.94
478.783	408.94
479.002	435.94
479.22	430.94
479.439	454.94
479.658	469.94
479.876	452.94
480.095	468.94
480.313	481.94
480.532	477.94
480.751	463.94
480.969	472.94
481.188	541.94
481.406	505.94
481.624	476.94
481.843	463.94
482.061	456.94
482.28	478.94
482.498	473.94
482.717	444.94
482.935	467.94
483.153	454.94
483.372	462.94
483.59	445.94
483.808	469.94
484.027	447.94
484.245	458.94
484.463	452.94
484.681	466.94
484.9	442.94
485.118	470.94
485.336	461.94
485.554	455.94
485.772	485.94
485.99	462.94
486.209	453.94
486.427	461.94
486.645	455.94
486.863	509.94
487.081	469.94
487.299	478.94
487.517	483.94
487.735	491.94
487.953	496.94
488.171	504.94
488.389	489.94
488.607	488.94
488.825	478.94
489.043	500.94
489.261	483.94
489.479	499.94
489.696	473.94
489.914	476.94
490.132	474.94
490.35	510.94
490.568	518.94
490.786	503.94
491.003	534.94
491.221	542.94
491.439	531.94
491.657	573.94
491.874	548.94
492.092	552.94
492.31	560.94
492.527	563.94
492.745	554.94
492.963	571.94
493.18	573.94
493.398	571.94
493.615	585.94
493.833	560.94
494.05	571.94
494.268	574.94
494.485	566.94
494.703	572.94
494.92	583.94
495.138	581.94
495.355	574.94
495.573	567.94
495.79	556.94
496.008	593.94
496.225	576.94
496.442	583.94
496.66	591.94
496.877	575.94
497.094	606.94
497.312	582.94
497.529	600.94
497.746	579.94
497.963	577.94
498.181	617.94
498.398	615.94
498.615	614.94
498.832	638.94
499.049	654.94
499.267	663.94
499.484	689.94
499.701	695.94
499.918	727.94
500.135	751.94
500.352	737.94
500.569	760.94
500.786	761.94
501.003	768.94
501.22	732.94
501.437	727.94
501.654	715.94
501.871	705.94
