Data from 1971.PennyLincolnUp.Lamp.En5.5.200Scan.071719.P1._HRD10591_15-18-46-841.txt Node
Date: Thu Jul 18 15:18:46 EDT 2019
User: cochatt
Spectrometer: HR+D1059
Trigger mode: 1
Integration Time (sec): 1.000000E-1
Scans to average: 1
Electric dark correction enabled: true
Nonlinearity correction enabled: false
Boxcar width: 0
XAxis mode: Wavelengths
Number of Pixels in Spectrum: 2048
>>>>>Begin Spectral Data<<<<<
223.165	-10.81
223.4	-10.81
223.635	-10.81
223.869	-19.81
224.104	-25.81
224.338	-21.81
224.573	-19.81
224.808	-21.81
225.042	8.19
225.277	-1.81
225.511	-11.81
225.746	8.19
225.98	22.19
226.215	7.19
226.449	18.19
226.683	13.19
226.918	31.19
227.152	25.19
227.387	29.19
227.621	44.19
227.856	37.19
228.09	49.19
228.324	68.19
228.559	63.19
228.793	50.19
229.027	97.19
229.262	100.19
229.496	96.19
229.73	111.19
229.964	147.19
230.199	126.19
230.433	114.19
230.667	118.19
230.901	108.19
231.136	106.19
231.37	122.19
231.604	118.19
231.838	112.19
232.072	120.19
232.306	97.19
232.541	113.19
232.775	112.19
233.009	117.19
233.243	123.19
233.477	107.19
233.711	121.19
233.945	110.19
234.179	110.19
234.413	98.19
234.647	103.19
234.881	119.19
235.115	129.19
235.349	108.19
235.583	120.19
235.817	111.19
236.051	112.19
236.285	117.19
236.519	124.19
236.753	123.19
236.987	139.19
237.221	154.19
237.455	205.19
237.689	176.19
237.922	128.19
238.156	128.19
238.39	120.19
238.624	118.19
238.858	128.19
239.091	114.19
239.325	120.19
239.559	124.19
239.793	123.19
240.027	136.19
240.26	125.19
240.494	164.19
240.728	136.19
240.961	142.19
241.195	146.19
241.429	149.19
241.662	118.19
241.896	136.19
242.13	120.19
242.363	136.19
242.597	145.19
242.83	140.19
243.064	138.19
243.298	142.19
243.531	133.19
243.765	153.19
243.998	159.19
244.232	143.19
244.465	144.19
244.699	148.19
244.932	136.19
245.166	132.19
245.399	141.19
245.633	147.19
245.866	170.19
246.099	161.19
246.333	141.19
246.566	148.19
246.8	173.19
247.033	143.19
247.266	152.19
247.5	172.19
247.733	170.19
247.966	170.19
248.2	173.19
248.433	177.19
248.666	172.19
248.899	180.19
249.133	194.19
249.366	199.19
249.599	177.19
249.832	184.19
250.066	191.19
250.299	188.19
250.532	189.19
250.765	188.19
250.998	217.19
251.231	212.19
251.465	214.19
251.698	204.19
251.931	197.19
252.164	187.19
252.397	198.19
252.63	190.19
252.863	220.19
253.096	220.19
253.329	216.19
253.562	228.19
253.795	209.19
254.028	217.19
254.261	234.19
254.494	232.19
254.727	263.19
254.96	289.19
255.193	264.19
255.426	230.19
255.659	224.19
255.892	235.19
256.124	244.19
256.357	241.19
256.59	219.19
256.823	219.19
257.056	223.19
257.289	213.19
257.521	202.19
257.754	216.19
257.987	205.19
258.22	213.19
258.452	212.19
258.685	211.19
258.918	208.19
259.151	218.19
259.383	227.19
259.616	212.19
259.849	234.19
260.081	260.19
260.314	266.19
260.547	270.19
260.779	258.19
261.012	244.19
261.244	232.19
261.477	229.19
261.71	205.19
261.942	215.19
262.175	240.19
262.407	237.19
262.64	228.19
262.872	212.19
263.105	210.19
263.337	225.19
263.57	194.19
263.802	215.19
264.035	222.19
264.267	226.19
264.499	236.19
264.732	225.19
264.964	215.19
265.197	219.19
265.429	229.19
265.661	230.19
265.894	237.19
266.126	225.19
266.358	225.19
266.591	214.19
266.823	231.19
267.055	221.19
267.287	225.19
267.52	224.19
267.752	226.19
267.984	215.19
268.216	237.19
268.448	234.19
268.681	236.19
268.913	239.19
269.145	270.19
269.377	280.19
269.609	273.19
269.841	275.19
270.073	293.19
270.306	300.19
270.538	301.19
270.77	311.19
271.002	297.19
271.234	302.19
271.466	291.19
271.698	295.19
271.93	310.19
272.162	321.19
272.394	298.19
272.626	300.19
272.858	297.19
273.09	288.19
273.322	281.19
273.553	252.19
273.785	269.19
274.017	267.19
274.249	289.19
274.481	277.19
274.713	256.19
274.945	285.19
275.176	274.19
275.408	289.19
275.64	252.19
275.872	280.19
276.104	259.19
276.335	289.19
276.567	288.19
276.799	289.19
277.031	287.19
277.262	323.19
277.494	312.19
277.726	297.19
277.957	301.19
278.189	278.19
278.421	280.19
278.652	272.19
278.884	281.19
279.115	262.19
279.347	256.19
279.579	254.19
279.81	274.19
280.042	278.19
280.273	251.19
280.505	258.19
280.736	269.19
280.968	270.19
281.199	273.19
281.431	270.19
281.662	260.19
281.894	263.19
282.125	266.19
282.356	294.19
282.588	303.19
282.819	310.19
283.051	278.19
283.282	286.19
283.513	267.19
283.745	261.19
283.976	279.19
284.207	286.19
284.439	295.19
284.67	278.19
284.901	260.19
285.132	290.19
285.364	280.19
285.595	281.19
285.826	280.19
286.057	268.19
286.288	293.19
286.52	284.19
286.751	277.19
286.982	287.19
287.213	283.19
287.444	290.19
287.675	292.19
287.906	282.19
288.138	305.19
288.369	321.19
288.6	307.19
288.831	294.19
289.062	286.19
289.293	298.19
289.524	272.19
289.755	284.19
289.986	289.19
290.217	284.19
290.448	288.19
290.679	295.19
290.91	284.19
291.141	305.19
291.371	291.19
291.602	298.19
291.833	288.19
292.064	302.19
292.295	308.19
292.526	298.19
292.757	304.19
292.987	285.19
293.218	289.19
293.449	306.19
293.68	289.19
293.91	290.19
294.141	296.19
294.372	293.19
294.603	292.19
294.833	286.19
295.064	295.19
295.295	276.19
295.525	292.19
295.756	315.19
295.987	316.19
296.217	312.19
296.448	316.19
296.679	312.19
296.909	297.19
297.14	308.19
297.37	299.19
297.601	298.19
297.831	298.19
298.062	298.19
298.292	300.19
298.523	318.19
298.753	306.19
298.984	319.19
299.214	301.19
299.445	301.19
299.675	305.19
299.905	327.19
300.136	320.19
300.366	318.19
300.597	310.19
300.827	309.19
301.057	323.19
301.288	331.19
301.518	324.19
301.748	303.19
301.979	328.19
302.209	336.19
302.439	325.19
302.669	344.19
302.9	315.19
303.13	334.19
303.36	322.19
303.59	337.19
303.82	350.19
304.051	337.19
304.281	346.19
304.511	335.19
304.741	314.19
304.971	316.19
305.201	338.19
305.431	328.19
305.661	325.19
305.891	324.19
306.121	336.19
306.352	338.19
306.582	332.19
306.812	345.19
307.042	328.19
307.272	338.19
307.502	334.19
307.731	332.19
307.961	315.19
308.191	329.19
308.421	333.19
308.651	357.19
308.881	338.19
309.111	342.19
309.341	337.19
309.571	345.19
309.8	349.19
310.03	364.19
310.26	347.19
310.49	373.19
310.72	358.19
310.949	384.19
311.179	396.19
311.409	377.19
311.639	357.19
311.868	361.19
312.098	354.19
312.328	374.19
312.557	377.19
312.787	381.19
313.017	377.19
313.246	388.19
313.476	390.19
313.706	365.19
313.935	389.19
314.165	384.19
314.394	378.19
314.624	376.19
314.853	406.19
315.083	398.19
315.312	380.19
315.542	377.19
315.771	370.19
316.001	381.19
316.23	372.19
316.46	369.19
316.689	380.19
316.919	362.19
317.148	393.19
317.377	400.19
317.607	380.19
317.836	385.19
318.065	384.19
318.295	378.19
318.524	374.19
318.753	368.19
318.983	366.19
319.212	377.19
319.441	382.19
319.67	384.19
319.9	375.19
320.129	374.19
320.358	387.19
320.587	378.19
320.816	386.19
321.046	388.19
321.275	380.19
321.504	394.19
321.733	415.19
321.962	417.19
322.191	409.19
322.42	412.19
322.649	434.19
322.878	440.19
323.108	431.19
323.337	462.19
323.566	485.19
323.795	489.19
324.024	552.19
324.253	664.19
324.482	888.19
324.71	1364.19
324.939	1796.19
325.168	1534.19
325.397	806.19
325.626	582.19
325.855	523.19
326.084	495.19
326.313	497.19
326.542	484.19
326.77	572.19
326.999	640.19
327.228	821.19
327.457	1123.19
327.686	1302.19
327.914	913.19
328.143	639.19
328.372	571.19
328.6	516.19
328.829	537.19
329.058	518.19
329.287	522.19
329.515	492.19
329.744	492.19
329.972	481.19
330.201	492.19
330.43	487.19
330.658	525.19
330.887	551.19
331.115	532.19
331.344	497.19
331.572	463.19
331.801	461.19
332.03	468.19
332.258	434.19
332.486	440.19
332.715	426.19
332.943	440.19
333.172	426.19
333.4	437.19
333.629	448.19
333.857	452.19
334.085	455.19
334.314	473.19
334.542	489.19
334.771	476.19
334.999	457.19
335.227	426.19
335.455	433.19
335.684	426.19
335.912	440.19
336.14	419.19
336.369	432.19
336.597	436.19
336.825	444.19
337.053	411.19
337.281	429.19
337.51	431.19
337.738	428.19
337.966	432.19
338.194	409.19
338.422	402.19
338.65	402.19
338.878	421.19
339.106	398.19
339.334	422.19
339.562	402.19
339.79	416.19
340.018	402.19
340.246	424.19
340.474	402.19
340.702	425.19
340.93	411.19
341.158	417.19
341.386	402.19
341.614	401.19
341.842	378.19
342.07	405.19
342.298	401.19
342.526	415.19
342.754	406.19
342.981	402.19
343.209	402.19
343.437	380.19
343.665	373.19
343.893	407.19
344.12	406.19
344.348	408.19
344.576	408.19
344.804	415.19
345.031	407.19
345.259	431.19
345.487	427.19
345.714	397.19
345.942	385.19
346.17	398.19
346.397	394.19
346.625	396.19
346.853	389.19
347.08	413.19
347.308	399.19
347.535	403.19
347.763	404.19
347.99	392.19
348.218	390.19
348.445	416.19
348.673	406.19
348.9	417.19
349.128	404.19
349.355	384.19
349.583	408.19
349.81	393.19
350.037	379.19
350.265	379.19
350.492	372.19
350.72	391.19
350.947	375.19
351.174	395.19
351.402	388.19
351.629	382.19
351.856	390.19
352.083	389.19
352.311	394.19
352.538	414.19
352.765	396.19
352.992	395.19
353.22	382.19
353.447	388.19
353.674	378.19
353.901	369.19
354.128	359.19
354.355	357.19
354.583	365.19
354.81	370.19
355.037	356.19
355.264	351.19
355.491	359.19
355.718	358.19
355.945	366.19
356.172	356.19
356.399	367.19
356.626	358.19
356.853	351.19
357.08	352.19
357.307	359.19
357.534	353.19
357.761	364.19
357.988	351.19
358.215	384.19
358.441	383.19
358.668	364.19
358.895	361.19
359.122	369.19
359.349	390.19
359.576	382.19
359.802	388.19
360.029	408.19
360.256	407.19
360.483	406.19
360.709	396.19
360.936	390.19
361.163	389.19
361.39	372.19
361.616	392.19
361.843	384.19
362.07	363.19
362.296	350.19
362.523	374.19
362.749	358.19
362.976	367.19
363.203	357.19
363.429	358.19
363.656	348.19
363.882	360.19
364.109	356.19
364.335	347.19
364.562	357.19
364.788	365.19
365.015	373.19
365.241	360.19
365.468	367.19
365.694	363.19
365.92	386.19
366.147	374.19
366.373	360.19
366.599	357.19
366.826	372.19
367.052	354.19
367.278	362.19
367.505	373.19
367.731	353.19
367.957	342.19
368.184	360.19
368.41	372.19
368.636	376.19
368.862	377.19
369.089	375.19
369.315	353.19
369.541	363.19
369.767	368.19
369.993	368.19
370.219	357.19
370.445	360.19
370.672	360.19
370.898	365.19
371.124	346.19
371.35	365.19
371.576	351.19
371.802	383.19
372.028	353.19
372.254	367.19
372.48	358.19
372.706	349.19
372.932	347.19
373.158	361.19
373.384	370.19
373.61	358.19
373.835	355.19
374.061	359.19
374.287	364.19
374.513	377.19
374.739	344.19
374.965	382.19
375.191	355.19
375.416	358.19
375.642	362.19
375.868	359.19
376.094	358.19
376.319	356.19
376.545	347.19
376.771	341.19
376.997	353.19
377.222	353.19
377.448	349.19
377.674	364.19
377.899	354.19
378.125	350.19
378.35	360.19
378.576	336.19
378.802	351.19
379.027	343.19
379.253	351.19
379.478	354.19
379.704	336.19
379.929	358.19
380.155	331.19
380.38	338.19
380.606	344.19
380.831	348.19
381.057	348.19
381.282	355.19
381.507	350.19
381.733	365.19
381.958	345.19
382.184	330.19
382.409	364.19
382.634	342.19
382.86	350.19
383.085	357.19
383.31	364.19
383.535	348.19
383.761	376.19
383.986	365.19
384.211	365.19
384.436	333.19
384.662	362.19
384.887	368.19
385.112	379.19
385.337	352.19
385.562	348.19
385.787	357.19
386.013	385.19
386.238	376.19
386.463	354.19
386.688	374.19
386.913	376.19
387.138	366.19
387.363	385.19
387.588	380.19
387.813	385.19
388.038	363.19
388.263	360.19
388.488	383.19
388.713	357.19
388.938	380.19
389.163	358.19
389.387	376.19
389.612	361.19
389.837	372.19
390.062	379.19
390.287	368.19
390.512	360.19
390.736	369.19
390.961	366.19
391.186	348.19
391.411	362.19
391.636	374.19
391.86	379.19
392.085	394.19
392.31	375.19
392.534	362.19
392.759	376.19
392.984	378.19
393.208	372.19
393.433	376.19
393.658	368.19
393.882	378.19
394.107	365.19
394.331	353.19
394.556	380.19
394.78	374.19
395.005	385.19
395.229	368.19
395.454	369.19
395.678	365.19
395.903	403.19
396.127	401.19
396.352	418.19
396.576	395.19
396.801	398.19
397.025	385.19
397.249	390.19
397.474	408.19
397.698	396.19
397.922	429.19
398.147	417.19
398.371	429.19
398.595	422.19
398.82	398.19
399.044	416.19
399.268	414.19
399.492	456.19
399.717	468.19
399.941	491.19
400.165	482.19
400.389	498.19
400.613	473.19
400.837	442.19
401.062	408.19
401.286	413.19
401.51	416.19
401.734	419.19
401.958	410.19
402.182	413.19
402.406	413.19
402.63	402.19
402.854	406.19
403.078	404.19
403.302	408.19
403.526	410.19
403.75	421.19
403.974	402.19
404.198	418.19
404.422	424.19
404.645	423.19
404.869	437.19
405.093	420.19
405.317	477.19
405.541	491.19
405.765	457.19
405.988	440.19
406.212	455.19
406.436	476.19
406.66	456.19
406.883	453.19
407.107	461.19
407.331	511.19
407.555	551.19
407.778	556.19
408.002	515.19
408.226	463.19
408.449	453.19
408.673	461.19
408.896	500.19
409.12	520.19
409.344	479.19
409.567	422.19
409.791	442.19
410.014	416.19
410.238	410.19
410.461	416.19
410.685	410.19
410.908	432.19
411.132	466.19
411.355	487.19
411.578	459.19
411.802	448.19
412.025	422.19
412.249	421.19
412.472	449.19
412.695	458.19
412.919	442.19
413.142	413.19
413.365	408.19
413.589	398.19
413.812	422.19
414.035	399.19
414.258	383.19
414.482	380.19
414.705	406.19
414.928	378.19
415.151	386.19
415.374	400.19
415.597	386.19
415.821	390.19
416.044	388.19
416.267	390.19
416.49	403.19
416.713	412.19
416.936	392.19
417.159	385.19
417.382	410.19
417.605	413.19
417.828	389.19
418.051	413.19
418.274	416.19
418.497	400.19
418.72	402.19
418.943	413.19
419.166	427.19
419.389	418.19
419.611	427.19
419.834	425.19
420.057	438.19
420.28	413.19
420.503	414.19
420.726	412.19
420.948	422.19
421.171	455.19
421.394	476.19
421.617	442.19
421.839	428.19
422.062	425.19
422.285	460.19
422.507	459.19
422.73	545.19
422.953	536.19
423.175	452.19
423.398	442.19
423.621	434.19
423.843	443.19
424.066	460.19
424.288	447.19
424.511	472.19
424.733	520.19
424.956	578.19
425.178	549.19
425.401	521.19
425.623	533.19
425.846	473.19
426.068	450.19
426.291	438.19
426.513	433.19
426.735	456.19
426.958	470.19
427.18	549.19
427.402	656.19
427.625	698.19
427.847	614.19
428.069	558.19
428.292	488.19
428.514	439.19
428.736	446.19
428.958	418.19
429.181	396.19
429.403	402.19
429.625	425.19
429.847	453.19
430.069	484.19
430.292	492.19
430.514	422.19
430.736	426.19
430.958	412.19
431.18	407.19
431.402	379.19
431.624	392.19
431.846	387.19
432.068	380.19
432.29	386.19
432.512	406.19
432.734	392.19
432.956	393.19
433.178	420.19
433.4	424.19
433.622	407.19
433.844	391.19
434.066	375.19
434.287	373.19
434.509	393.19
434.731	389.19
434.953	409.19
435.175	436.19
435.397	448.19
435.618	421.19
435.84	481.19
436.062	567.19
436.284	589.19
436.505	502.19
436.727	448.19
436.949	428.19
437.17	416.19
437.392	425.19
437.614	440.19
437.835	438.19
438.057	506.19
438.278	594.19
438.5	592.19
438.721	685.19
438.943	613.19
439.165	505.19
439.386	458.19
439.608	447.19
439.829	442.19
440.05	471.19
440.272	484.19
440.493	456.19
440.715	396.19
440.936	427.19
441.158	394.19
441.379	424.19
441.6	424.19
441.822	439.19
442.043	476.19
442.264	516.19
442.486	576.19
442.707	485.19
442.928	472.19
443.149	452.19
443.371	490.19
443.592	516.19
443.813	556.19
444.034	636.19
444.255	505.19
444.476	465.19
444.698	455.19
444.919	460.19
445.14	583.19
445.361	497.19
445.582	480.19
445.803	520.19
446.024	595.19
446.245	607.19
446.466	552.19
446.687	486.19
446.908	446.19
447.129	430.19
447.35	408.19
447.571	403.19
447.792	428.19
448.013	423.19
448.234	429.19
448.455	480.19
448.675	566.19
448.896	635.19
449.117	548.19
449.338	520.19
449.559	589.19
449.779	660.19
450	532.19
450.221	476.19
450.442	415.19
450.662	399.19
450.883	399.19
451.104	407.19
451.324	399.19
451.545	381.19
451.766	381.19
451.986	368.19
452.207	358.19
452.428	372.19
452.648	360.19
452.869	364.19
453.089	364.19
453.31	369.19
453.53	379.19
453.751	371.19
453.971	365.19
454.192	396.19
454.412	365.19
454.633	357.19
454.853	382.19
455.073	361.19
455.294	396.19
455.514	449.19
455.734	416.19
455.955	357.19
456.175	350.19
456.395	338.19
456.616	345.19
456.836	320.19
457.056	356.19
457.276	325.19
457.497	325.19
457.717	344.19
457.937	365.19
458.157	346.19
458.377	369.19
458.598	363.19
458.818	403.19
459.038	448.19
459.258	473.19
459.478	412.19
459.698	381.19
459.918	384.19
460.138	383.19
460.358	377.19
460.578	387.19
460.798	393.19
461.018	379.19
461.238	368.19
461.458	386.19
461.678	378.19
461.898	402.19
462.118	387.19
462.338	394.19
462.558	412.19
462.777	405.19
462.997	418.19
463.217	394.19
463.437	425.19
463.657	409.19
463.876	410.19
464.096	400.19
464.316	408.19
464.536	405.19
464.755	414.19
464.975	445.19
465.195	441.19
465.414	475.19
465.634	422.19
465.854	394.19
466.073	394.19
466.293	379.19
466.512	374.19
466.732	380.19
466.951	385.19
467.171	374.19
467.391	367.19
467.61	367.19
467.829	374.19
468.049	374.19
468.268	356.19
468.488	365.19
468.707	366.19
468.927	376.19
469.146	358.19
469.365	339.19
469.585	357.19
469.804	380.19
470.023	368.19
470.243	369.19
470.462	386.19
470.681	392.19
470.901	373.19
471.12	382.19
471.339	388.19
471.558	380.19
471.777	380.19
471.997	361.19
472.216	378.19
472.435	380.19
472.654	375.19
472.873	381.19
473.092	363.19
473.311	370.19
473.53	384.19
473.749	394.19
473.968	416.19
474.187	497.19
474.406	518.19
474.625	422.19
474.844	409.19
475.063	390.19
475.282	394.19
475.501	382.19
475.72	368.19
475.939	382.19
476.158	390.19
476.377	404.19
476.596	389.19
476.814	403.19
477.033	394.19
477.252	396.19
477.471	388.19
477.69	400.19
477.908	426.19
478.127	412.19
478.346	413.19
478.564	395.19
478.783	424.19
479.002	414.19
479.22	423.19
479.439	432.19
479.658	462.19
479.876	440.19
480.095	432.19
480.313	462.19
480.532	454.19
480.751	442.19
480.969	465.19
481.188	500.19
481.406	489.19
481.624	472.19
481.843	468.19
482.061	428.19
482.28	448.19
482.498	432.19
482.717	453.19
482.935	438.19
483.153	446.19
483.372	443.19
483.59	424.19
483.808	448.19
484.027	428.19
484.245	410.19
484.463	423.19
484.681	448.19
484.9	457.19
485.118	439.19
485.336	458.19
485.554	454.19
485.772	464.19
485.99	464.19
486.209	448.19
486.427	470.19
486.645	442.19
486.863	457.19
487.081	494.19
487.299	475.19
487.517	469.19
487.735	463.19
487.953	480.19
488.171	472.19
488.389	472.19
488.607	469.19
488.825	473.19
489.043	464.19
489.261	475.19
489.479	481.19
489.696	471.19
489.914	466.19
490.132	476.19
490.35	475.19
490.568	482.19
490.786	494.19
491.003	507.19
491.221	492.19
491.439	539.19
491.657	533.19
491.874	539.19
492.092	539.19
492.31	558.19
492.527	534.19
492.745	556.19
492.963	556.19
493.18	564.19
493.398	557.19
493.615	561.19
493.833	546.19
494.05	551.19
494.268	545.19
494.485	532.19
494.703	527.19
494.92	551.19
495.138	551.19
495.355	551.19
495.573	557.19
495.79	545.19
496.008	571.19
496.225	554.19
496.442	559.19
496.66	546.19
496.877	549.19
497.094	543.19
497.312	561.19
497.529	575.19
497.746	588.19
497.963	598.19
498.181	580.19
498.398	601.19
498.615	580.19
498.832	613.19
499.049	607.19
499.267	642.19
499.484	623.19
499.701	656.19
499.918	693.19
500.135	692.19
500.352	740.19
500.569	718.19
500.786	706.19
501.003	756.19
501.22	682.19
501.437	720.19
501.654	689.19
501.871	660.19
