Data from 1971.PennyLincolnUp.Lamp.En5.5.200Scan.071719.P1._HRD10591_15-20-33-842.txt Node
Date: Thu Jul 18 15:20:33 EDT 2019
User: cochatt
Spectrometer: HR+D1059
Trigger mode: 1
Integration Time (sec): 1.000000E-1
Scans to average: 1
Electric dark correction enabled: true
Nonlinearity correction enabled: false
Boxcar width: 0
XAxis mode: Wavelengths
Number of Pixels in Spectrum: 2048
>>>>>Begin Spectral Data<<<<<
223.165	-5.06
223.4	-5.06
223.635	-5.06
223.869	-10.06
224.104	-21.06
224.338	-13.06
224.573	-5.06
224.808	-9.06
225.042	-8.06
225.277	-3.06
225.511	-14.06
225.746	5.94
225.98	5.94
226.215	19.94
226.449	5.94
226.683	14.94
226.918	14.94
227.152	20.94
227.387	30.94
227.621	33.94
227.856	38.94
228.09	37.94
228.324	48.94
228.559	67.94
228.793	58.94
229.027	78.94
229.262	91.94
229.496	113.94
229.73	108.94
229.964	143.94
230.199	109.94
230.433	105.94
230.667	109.94
230.901	120.94
231.136	110.94
231.37	98.94
231.604	106.94
231.838	105.94
232.072	108.94
232.306	91.94
232.541	103.94
232.775	105.94
233.009	99.94
233.243	102.94
233.477	113.94
233.711	115.94
233.945	115.94
234.179	106.94
234.413	113.94
234.647	110.94
234.881	106.94
235.115	119.94
235.349	119.94
235.583	143.94
235.817	110.94
236.051	129.94
236.285	121.94
236.519	122.94
236.753	134.94
236.987	149.94
237.221	163.94
237.455	223.94
237.689	181.94
237.922	138.94
238.156	124.94
238.39	133.94
238.624	114.94
238.858	129.94
239.091	122.94
239.325	119.94
239.559	132.94
239.793	131.94
240.027	126.94
240.26	146.94
240.494	147.94
240.728	152.94
240.961	142.94
241.195	156.94
241.429	129.94
241.662	136.94
241.896	131.94
242.13	124.94
242.363	137.94
242.597	141.94
242.83	131.94
243.064	115.94
243.298	132.94
243.531	153.94
243.765	131.94
243.998	131.94
244.232	132.94
244.465	137.94
244.699	149.94
244.932	143.94
245.166	137.94
245.399	147.94
245.633	150.94
245.866	147.94
246.099	139.94
246.333	157.94
246.566	129.94
246.8	161.94
247.033	155.94
247.266	146.94
247.5	148.94
247.733	170.94
247.966	168.94
248.2	156.94
248.433	170.94
248.666	167.94
248.899	184.94
249.133	204.94
249.366	203.94
249.599	190.94
249.832	174.94
250.066	175.94
250.299	192.94
250.532	191.94
250.765	199.94
250.998	220.94
251.231	219.94
251.465	234.94
251.698	190.94
251.931	199.94
252.164	190.94
252.397	209.94
252.63	211.94
252.863	214.94
253.096	217.94
253.329	237.94
253.562	245.94
253.795	217.94
254.028	221.94
254.261	229.94
254.494	248.94
254.727	273.94
254.96	258.94
255.193	286.94
255.426	248.94
255.659	227.94
255.892	236.94
256.124	230.94
256.357	229.94
256.59	238.94
256.823	224.94
257.056	221.94
257.289	227.94
257.521	220.94
257.754	217.94
257.987	221.94
258.22	212.94
258.452	196.94
258.685	205.94
258.918	207.94
259.151	210.94
259.383	241.94
259.616	223.94
259.849	229.94
260.081	245.94
260.314	263.94
260.547	263.94
260.779	258.94
261.012	258.94
261.244	213.94
261.477	233.94
261.71	225.94
261.942	239.94
262.175	244.94
262.407	236.94
262.64	223.94
262.872	215.94
263.105	205.94
263.337	219.94
263.57	216.94
263.802	215.94
264.035	214.94
264.267	221.94
264.499	227.94
264.732	232.94
264.964	215.94
265.197	223.94
265.429	239.94
265.661	239.94
265.894	219.94
266.126	243.94
266.358	236.94
266.591	232.94
266.823	231.94
267.055	225.94
267.287	235.94
267.52	222.94
267.752	229.94
267.984	230.94
268.216	231.94
268.448	242.94
268.681	245.94
268.913	251.94
269.145	279.94
269.377	286.94
269.609	286.94
269.841	279.94
270.073	287.94
270.306	297.94
270.538	317.94
270.77	346.94
271.002	319.94
271.234	309.94
271.466	315.94
271.698	313.94
271.93	325.94
272.162	322.94
272.394	327.94
272.626	316.94
272.858	299.94
273.09	289.94
273.322	283.94
273.553	277.94
273.785	283.94
274.017	286.94
274.249	296.94
274.481	266.94
274.713	283.94
274.945	294.94
275.176	268.94
275.408	278.94
275.64	283.94
275.872	285.94
276.104	266.94
276.335	298.94
276.567	286.94
276.799	283.94
277.031	310.94
277.262	311.94
277.494	331.94
277.726	299.94
277.957	296.94
278.189	289.94
278.421	277.94
278.652	288.94
278.884	289.94
279.115	298.94
279.347	270.94
279.579	270.94
279.81	292.94
280.042	293.94
280.273	284.94
280.505	277.94
280.736	263.94
280.968	285.94
281.199	286.94
281.431	277.94
281.662	271.94
281.894	286.94
282.125	278.94
282.356	291.94
282.588	309.94
282.819	332.94
283.051	279.94
283.282	276.94
283.513	273.94
283.745	281.94
283.976	292.94
284.207	292.94
284.439	288.94
284.67	300.94
284.901	283.94
285.132	299.94
285.364	284.94
285.595	278.94
285.826	293.94
286.057	285.94
286.288	288.94
286.52	309.94
286.751	299.94
286.982	287.94
287.213	286.94
287.444	285.94
287.675	305.94
287.906	311.94
288.138	302.94
288.369	299.94
288.6	305.94
288.831	302.94
289.062	319.94
289.293	313.94
289.524	299.94
289.755	297.94
289.986	286.94
290.217	301.94
290.448	296.94
290.679	301.94
290.91	300.94
291.141	293.94
291.371	300.94
291.602	305.94
291.833	307.94
292.064	285.94
292.295	300.94
292.526	312.94
292.757	307.94
292.987	303.94
293.218	300.94
293.449	303.94
293.68	308.94
293.91	280.94
294.141	305.94
294.372	309.94
294.603	318.94
294.833	291.94
295.064	314.94
295.295	299.94
295.525	311.94
295.756	301.94
295.987	314.94
296.217	334.94
296.448	329.94
296.679	330.94
296.909	305.94
297.14	305.94
297.37	302.94
297.601	305.94
297.831	305.94
298.062	315.94
298.292	311.94
298.523	344.94
298.753	322.94
298.984	297.94
299.214	315.94
299.445	309.94
299.675	319.94
299.905	314.94
300.136	309.94
300.366	318.94
300.597	326.94
300.827	323.94
301.057	332.94
301.288	314.94
301.518	334.94
301.748	326.94
301.979	323.94
302.209	340.94
302.439	328.94
302.669	326.94
302.9	338.94
303.13	347.94
303.36	348.94
303.59	337.94
303.82	337.94
304.051	346.94
304.281	333.94
304.511	324.94
304.741	339.94
304.971	329.94
305.201	319.94
305.431	325.94
305.661	342.94
305.891	345.94
306.121	327.94
306.352	341.94
306.582	350.94
306.812	337.94
307.042	345.94
307.272	349.94
307.502	336.94
307.731	350.94
307.961	351.94
308.191	337.94
308.421	330.94
308.651	353.94
308.881	350.94
309.111	361.94
309.341	343.94
309.571	387.94
309.8	361.94
310.03	385.94
310.26	387.94
310.49	393.94
310.72	394.94
310.949	374.94
311.179	401.94
311.409	380.94
311.639	385.94
311.868	371.94
312.098	400.94
312.328	389.94
312.557	395.94
312.787	424.94
313.017	421.94
313.246	382.94
313.476	381.94
313.706	394.94
313.935	376.94
314.165	410.94
314.394	410.94
314.624	413.94
314.853	396.94
315.083	398.94
315.312	404.94
315.542	388.94
315.771	377.94
316.001	367.94
316.23	371.94
316.46	362.94
316.689	379.94
316.919	389.94
317.148	394.94
317.377	399.94
317.607	366.94
317.836	410.94
318.065	385.94
318.295	395.94
318.524	386.94
318.753	371.94
318.983	373.94
319.212	386.94
319.441	385.94
319.67	386.94
319.9	399.94
320.129	405.94
320.358	389.94
320.587	397.94
320.816	409.94
321.046	436.94
321.275	419.94
321.504	423.94
321.733	418.94
321.962	414.94
322.191	450.94
322.42	452.94
322.649	437.94
322.878	455.94
323.108	469.94
323.337	494.94
323.566	493.94
323.795	548.94
324.024	580.94
324.253	721.94
324.482	987.94
324.71	1497.94
324.939	2061.94
325.168	1707.94
325.397	892.94
325.626	639.94
325.855	533.94
326.084	515.94
326.313	503.94
326.542	501.94
326.77	558.94
326.999	665.94
327.228	917.94
327.457	1315.94
327.686	1532.94
327.914	1052.94
328.143	686.94
328.372	605.94
328.6	570.94
328.829	578.94
329.058	554.94
329.287	570.94
329.515	551.94
329.744	532.94
329.972	539.94
330.201	522.94
330.43	561.94
330.658	554.94
330.887	602.94
331.115	570.94
331.344	501.94
331.572	478.94
331.801	490.94
332.03	469.94
332.258	444.94
332.486	455.94
332.715	437.94
332.943	449.94
333.172	451.94
333.4	447.94
333.629	449.94
333.857	460.94
334.085	458.94
334.314	485.94
334.542	495.94
334.771	490.94
334.999	486.94
335.227	476.94
335.455	464.94
335.684	450.94
335.912	427.94
336.14	426.94
336.369	428.94
336.597	455.94
336.825	437.94
337.053	450.94
337.281	437.94
337.51	435.94
337.738	459.94
337.966	443.94
338.194	433.94
338.422	411.94
338.65	427.94
338.878	435.94
339.106	413.94
339.334	444.94
339.562	443.94
339.79	419.94
340.018	430.94
340.246	409.94
340.474	438.94
340.702	435.94
340.93	417.94
341.158	430.94
341.386	428.94
341.614	425.94
341.842	428.94
342.07	422.94
342.298	426.94
342.526	416.94
342.754	425.94
342.981	402.94
343.209	414.94
343.437	405.94
343.665	423.94
343.893	443.94
344.12	443.94
344.348	428.94
344.576	416.94
344.804	431.94
345.031	420.94
345.259	445.94
345.487	431.94
345.714	394.94
345.942	401.94
346.17	411.94
346.397	391.94
346.625	407.94
346.853	413.94
347.08	388.94
347.308	434.94
347.535	421.94
347.763	429.94
347.99	407.94
348.218	423.94
348.445	409.94
348.673	417.94
348.9	398.94
349.128	398.94
349.355	407.94
349.583	379.94
349.81	407.94
350.037	389.94
350.265	371.94
350.492	402.94
350.72	376.94
350.947	398.94
351.174	404.94
351.402	409.94
351.629	388.94
351.856	399.94
352.083	412.94
352.311	387.94
352.538	406.94
352.765	420.94
352.992	405.94
353.22	404.94
353.447	391.94
353.674	389.94
353.901	391.94
354.128	381.94
354.355	383.94
354.583	372.94
354.81	382.94
355.037	380.94
355.264	381.94
355.491	360.94
355.718	362.94
355.945	351.94
356.172	362.94
356.399	372.94
356.626	378.94
356.853	356.94
357.08	371.94
357.307	374.94
357.534	372.94
357.761	369.94
357.988	372.94
358.215	375.94
358.441	377.94
358.668	376.94
358.895	373.94
359.122	381.94
359.349	376.94
359.576	377.94
359.802	412.94
360.029	431.94
360.256	434.94
360.483	395.94
360.709	398.94
360.936	394.94
361.163	390.94
361.39	391.94
361.616	395.94
361.843	388.94
362.07	390.94
362.296	380.94
362.523	382.94
362.749	381.94
362.976	377.94
363.203	367.94
363.429	391.94
363.656	386.94
363.882	371.94
364.109	369.94
364.335	369.94
364.562	383.94
364.788	374.94
365.015	382.94
365.241	364.94
365.468	363.94
365.694	377.94
365.92	357.94
366.147	371.94
366.373	381.94
366.599	375.94
366.826	359.94
367.052	370.94
367.278	374.94
367.505	367.94
367.731	351.94
367.957	380.94
368.184	369.94
368.41	381.94
368.636	397.94
368.862	376.94
369.089	370.94
369.315	372.94
369.541	373.94
369.767	349.94
369.993	376.94
370.219	356.94
370.445	375.94
370.672	376.94
370.898	341.94
371.124	370.94
371.35	354.94
371.576	349.94
371.802	350.94
372.028	362.94
372.254	343.94
372.48	348.94
372.706	369.94
372.932	378.94
373.158	382.94
373.384	378.94
373.61	351.94
373.835	372.94
374.061	348.94
374.287	366.94
374.513	359.94
374.739	364.94
374.965	381.94
375.191	364.94
375.416	385.94
375.642	384.94
375.868	371.94
376.094	353.94
376.319	351.94
376.545	350.94
376.771	355.94
376.997	334.94
377.222	373.94
377.448	355.94
377.674	349.94
377.899	345.94
378.125	345.94
378.35	334.94
378.576	349.94
378.802	357.94
379.027	355.94
379.253	363.94
379.478	343.94
379.704	351.94
379.929	360.94
380.155	357.94
380.38	354.94
380.606	345.94
380.831	334.94
381.057	335.94
381.282	373.94
381.507	353.94
381.733	362.94
381.958	344.94
382.184	333.94
382.409	363.94
382.634	343.94
382.86	358.94
383.085	361.94
383.31	353.94
383.535	360.94
383.761	365.94
383.986	367.94
384.211	393.94
384.436	360.94
384.662	367.94
384.887	365.94
385.112	376.94
385.337	369.94
385.562	373.94
385.787	375.94
386.013	399.94
386.238	389.94
386.463	401.94
386.688	379.94
386.913	362.94
387.138	379.94
387.363	381.94
387.588	388.94
387.813	348.94
388.038	367.94
388.263	374.94
388.488	365.94
388.713	383.94
388.938	381.94
389.163	387.94
389.387	369.94
389.612	385.94
389.837	359.94
390.062	377.94
390.287	379.94
390.512	365.94
390.736	381.94
390.961	357.94
391.186	376.94
391.411	377.94
391.636	387.94
391.86	383.94
392.085	379.94
392.31	371.94
392.534	389.94
392.759	375.94
392.984	395.94
393.208	377.94
393.433	377.94
393.658	363.94
393.882	363.94
394.107	373.94
394.331	373.94
394.556	370.94
394.78	386.94
395.005	386.94
395.229	375.94
395.454	380.94
395.678	378.94
395.903	404.94
396.127	411.94
396.352	408.94
396.576	386.94
396.801	379.94
397.025	400.94
397.249	379.94
397.474	409.94
397.698	385.94
397.922	416.94
398.147	414.94
398.371	412.94
398.595	408.94
398.82	425.94
399.044	436.94
399.268	438.94
399.492	439.94
399.717	475.94
399.941	493.94
400.165	506.94
400.389	517.94
400.613	469.94
400.837	435.94
401.062	426.94
401.286	428.94
401.51	425.94
401.734	417.94
401.958	415.94
402.182	412.94
402.406	421.94
402.63	420.94
402.854	427.94
403.078	434.94
403.302	415.94
403.526	429.94
403.75	417.94
403.974	409.94
404.198	422.94
404.422	426.94
404.645	451.94
404.869	452.94
405.093	453.94
405.317	486.94
405.541	538.94
405.765	478.94
405.988	453.94
406.212	467.94
406.436	462.94
406.66	487.94
406.883	460.94
407.107	464.94
407.331	514.94
407.555	549.94
407.778	558.94
408.002	505.94
408.226	473.94
408.449	492.94
408.673	472.94
408.896	496.94
409.12	498.94
409.344	492.94
409.567	459.94
409.791	437.94
410.014	438.94
410.238	434.94
410.461	427.94
410.685	451.94
410.908	445.94
411.132	469.94
411.355	497.94
411.578	487.94
411.802	436.94
412.025	431.94
412.249	443.94
412.472	465.94
412.695	476.94
412.919	476.94
413.142	430.94
413.365	435.94
413.589	409.94
413.812	403.94
414.035	415.94
414.258	401.94
414.482	397.94
414.705	406.94
414.928	406.94
415.151	391.94
415.374	399.94
415.597	382.94
415.821	410.94
416.044	386.94
416.267	408.94
416.49	388.94
416.713	403.94
416.936	393.94
417.159	413.94
417.382	399.94
417.605	408.94
417.828	427.94
418.051	438.94
418.274	403.94
418.497	401.94
418.72	387.94
418.943	397.94
419.166	401.94
419.389	437.94
419.611	431.94
419.834	447.94
420.057	411.94
420.28	434.94
420.503	427.94
420.726	440.94
420.948	441.94
421.171	455.94
421.394	495.94
421.617	431.94
421.839	436.94
422.062	420.94
422.285	446.94
422.507	487.94
422.73	570.94
422.953	542.94
423.175	451.94
423.398	447.94
423.621	434.94
423.843	457.94
424.066	466.94
424.288	457.94
424.511	486.94
424.733	521.94
424.956	571.94
425.178	551.94
425.401	546.94
425.623	579.94
425.846	466.94
426.068	468.94
426.291	430.94
426.513	474.94
426.735	471.94
426.958	507.94
427.18	565.94
427.402	691.94
427.625	734.94
427.847	625.94
428.069	557.94
428.292	491.94
428.514	459.94
428.736	426.94
428.958	425.94
429.181	435.94
429.403	420.94
429.625	431.94
429.847	448.94
430.069	490.94
430.292	503.94
430.514	443.94
430.736	434.94
430.958	435.94
431.18	404.94
431.402	399.94
431.624	379.94
431.846	379.94
432.068	371.94
432.29	411.94
432.512	403.94
432.734	389.94
432.956	391.94
433.178	399.94
433.4	399.94
433.622	417.94
433.844	414.94
434.066	398.94
434.287	390.94
434.509	398.94
434.731	391.94
434.953	392.94
435.175	421.94
435.397	445.94
435.618	459.94
435.84	493.94
436.062	558.94
436.284	595.94
436.505	502.94
436.727	466.94
436.949	441.94
437.17	413.94
437.392	422.94
437.614	422.94
437.835	452.94
438.057	539.94
438.278	593.94
438.5	618.94
438.721	679.94
438.943	634.94
439.165	530.94
439.386	482.94
439.608	482.94
439.829	489.94
440.05	510.94
440.272	519.94
440.493	516.94
440.715	459.94
440.936	446.94
441.158	438.94
441.379	408.94
441.6	426.94
441.822	451.94
442.043	484.94
442.264	553.94
442.486	576.94
442.707	513.94
442.928	471.94
443.149	484.94
443.371	481.94
443.592	525.94
443.813	599.94
444.034	621.94
444.255	529.94
444.476	490.94
444.698	454.94
444.919	447.94
445.14	564.94
445.361	515.94
445.582	505.94
445.803	523.94
446.024	630.94
446.245	661.94
446.466	583.94
446.687	491.94
446.908	452.94
447.129	433.94
447.35	427.94
447.571	419.94
447.792	406.94
448.013	423.94
448.234	439.94
448.455	494.94
448.675	589.94
448.896	667.94
449.117	562.94
449.338	537.94
449.559	635.94
449.779	697.94
450	556.94
450.221	463.94
450.442	418.94
450.662	418.94
450.883	419.94
451.104	415.94
451.324	414.94
451.545	381.94
451.766	374.94
451.986	366.94
452.207	371.94
452.428	401.94
452.648	378.94
452.869	386.94
453.089	393.94
453.31	366.94
453.53	367.94
453.751	401.94
453.971	397.94
454.192	375.94
454.412	398.94
454.633	376.94
454.853	373.94
455.073	382.94
455.294	393.94
455.514	435.94
455.734	433.94
455.955	381.94
456.175	360.94
456.395	353.94
456.616	343.94
456.836	344.94
457.056	338.94
457.276	346.94
457.497	351.94
457.717	364.94
457.937	352.94
458.157	340.94
458.377	346.94
458.598	387.94
458.818	426.94
459.038	490.94
459.258	501.94
459.478	435.94
459.698	369.94
459.918	376.94
460.138	400.94
460.358	381.94
460.578	384.94
460.798	390.94
461.018	410.94
461.238	394.94
461.458	388.94
461.678	382.94
461.898	391.94
462.118	391.94
462.338	403.94
462.558	404.94
462.777	389.94
462.997	406.94
463.217	419.94
463.437	428.94
463.657	420.94
463.876	415.94
464.096	420.94
464.316	403.94
464.536	417.94
464.755	421.94
464.975	422.94
465.195	465.94
465.414	492.94
465.634	447.94
465.854	420.94
466.073	405.94
466.293	393.94
466.512	369.94
466.732	391.94
466.951	376.94
467.171	386.94
467.391	375.94
467.61	393.94
467.829	381.94
468.049	368.94
468.268	365.94
468.488	391.94
468.707	387.94
468.927	377.94
469.146	363.94
469.365	389.94
469.585	362.94
469.804	375.94
470.023	381.94
470.243	389.94
470.462	400.94
470.681	398.94
470.901	391.94
471.12	386.94
471.339	378.94
471.558	408.94
471.777	385.94
471.997	388.94
472.216	382.94
472.435	405.94
472.654	397.94
472.873	377.94
473.092	375.94
473.311	391.94
473.53	397.94
473.749	404.94
473.968	441.94
474.187	508.94
474.406	519.94
474.625	420.94
474.844	395.94
475.063	387.94
475.282	394.94
475.501	393.94
475.72	393.94
475.939	392.94
476.158	404.94
476.377	399.94
476.596	378.94
476.814	386.94
477.033	393.94
477.252	388.94
477.471	410.94
477.69	414.94
477.908	387.94
478.127	409.94
478.346	389.94
478.564	419.94
478.783	421.94
479.002	435.94
479.22	429.94
479.439	441.94
479.658	426.94
479.876	454.94
480.095	442.94
480.313	487.94
480.532	473.94
480.751	459.94
480.969	460.94
481.188	525.94
481.406	519.94
481.624	477.94
481.843	457.94
482.061	440.94
482.28	436.94
482.498	427.94
482.717	428.94
482.935	446.94
483.153	444.94
483.372	458.94
483.59	457.94
483.808	425.94
484.027	444.94
484.245	430.94
484.463	439.94
484.681	461.94
484.9	446.94
485.118	449.94
485.336	439.94
485.554	446.94
485.772	446.94
485.99	456.94
486.209	473.94
486.427	445.94
486.645	463.94
486.863	490.94
487.081	500.94
487.299	478.94
487.517	471.94
487.735	461.94
487.953	482.94
488.171	481.94
488.389	469.94
488.607	462.94
488.825	474.94
489.043	461.94
489.261	470.94
489.479	478.94
489.696	480.94
489.914	493.94
490.132	494.94
490.35	494.94
490.568	515.94
490.786	531.94
491.003	516.94
491.221	541.94
491.439	541.94
491.657	554.94
491.874	542.94
492.092	557.94
492.31	554.94
492.527	554.94
492.745	541.94
492.963	538.94
493.18	568.94
493.398	572.94
493.615	567.94
493.833	565.94
494.05	574.94
494.268	559.94
494.485	563.94
494.703	562.94
494.92	561.94
495.138	546.94
495.355	582.94
495.573	551.94
495.79	567.94
496.008	556.94
496.225	594.94
496.442	585.94
496.66	546.94
496.877	570.94
497.094	588.94
497.312	567.94
497.529	569.94
497.746	578.94
497.963	586.94
498.181	598.94
498.398	623.94
498.615	615.94
498.832	605.94
499.049	638.94
499.267	649.94
499.484	656.94
499.701	669.94
499.918	697.94
500.135	706.94
500.352	738.94
500.569	747.94
500.786	761.94
501.003	755.94
501.22	718.94
501.437	695.94
501.654	695.94
501.871	682.94
502.088	683.94
