Data from 1971.PennyLincolnUp.Lamp.En5.5.200Scan.071719.P1.Scan 2. Changed Angle._HRD10591_15-22-38-842.txt Node
Date: Thu Jul 18 15:22:38 EDT 2019
User: cochatt
Spectrometer: HR+D1059
Trigger mode: 1
Integration Time (sec): 1.000000E-1
Scans to average: 1
Electric dark correction enabled: true
Nonlinearity correction enabled: false
Boxcar width: 0
XAxis mode: Wavelengths
Number of Pixels in Spectrum: 2048
>>>>>Begin Spectral Data<<<<<
223.165	-11.25
223.4	-11.25
223.635	-11.25
223.869	-21.25
224.104	-7.25
224.338	-7.25
224.573	-11.25
224.808	-15.25
225.042	-7.25
225.277	-9.25
225.511	-6.25
225.746	4.75
225.98	-1.25
226.215	9.75
226.449	10.75
226.683	21.75
226.918	22.75
227.152	27.75
227.387	29.75
227.621	45.75
227.856	49.75
228.09	37.75
228.324	54.75
228.559	62.75
228.793	75.75
229.027	94.75
229.262	109.75
229.496	102.75
229.73	118.75
229.964	144.75
230.199	132.75
230.433	99.75
230.667	107.75
230.901	109.75
231.136	105.75
231.37	116.75
231.604	109.75
231.838	118.75
232.072	111.75
232.306	114.75
232.541	120.75
232.775	110.75
233.009	111.75
233.243	120.75
233.477	107.75
233.711	132.75
233.945	123.75
234.179	115.75
234.413	126.75
234.647	107.75
234.881	116.75
235.115	120.75
235.349	116.75
235.583	115.75
235.817	108.75
236.051	132.75
236.285	118.75
236.519	112.75
236.753	130.75
236.987	128.75
237.221	152.75
237.455	208.75
237.689	165.75
237.922	141.75
238.156	131.75
238.39	131.75
238.624	127.75
238.858	126.75
239.091	114.75
239.325	114.75
239.559	117.75
239.793	116.75
240.027	119.75
240.26	132.75
240.494	142.75
240.728	139.75
240.961	145.75
241.195	143.75
241.429	155.75
241.662	124.75
241.896	133.75
242.13	123.75
242.363	116.75
242.597	135.75
242.83	112.75
243.064	132.75
243.298	128.75
243.531	131.75
243.765	135.75
243.998	141.75
244.232	131.75
244.465	126.75
244.699	140.75
244.932	115.75
245.166	140.75
245.399	144.75
245.633	141.75
245.866	142.75
246.099	137.75
246.333	135.75
246.566	147.75
246.8	154.75
247.033	151.75
247.266	158.75
247.5	148.75
247.733	161.75
247.966	175.75
248.2	162.75
248.433	162.75
248.666	155.75
248.899	165.75
249.133	189.75
249.366	213.75
249.599	182.75
249.832	158.75
250.066	174.75
250.299	170.75
250.532	180.75
250.765	175.75
250.998	196.75
251.231	208.75
251.465	211.75
251.698	203.75
251.931	195.75
252.164	208.75
252.397	175.75
252.63	196.75
252.863	198.75
253.096	187.75
253.329	190.75
253.562	188.75
253.795	199.75
254.028	182.75
254.261	181.75
254.494	223.75
254.727	228.75
254.96	230.75
255.193	227.75
255.426	230.75
255.659	223.75
255.892	216.75
256.124	217.75
256.357	196.75
256.59	208.75
256.823	192.75
257.056	191.75
257.289	194.75
257.521	182.75
257.754	193.75
257.987	195.75
258.22	190.75
258.452	178.75
258.685	172.75
258.918	197.75
259.151	199.75
259.383	196.75
259.616	207.75
259.849	215.75
260.081	211.75
260.314	223.75
260.547	209.75
260.779	219.75
261.012	214.75
261.244	211.75
261.477	229.75
261.71	213.75
261.942	207.75
262.175	208.75
262.407	197.75
262.64	187.75
262.872	195.75
263.105	189.75
263.337	201.75
263.57	182.75
263.802	191.75
264.035	183.75
264.267	170.75
264.499	190.75
264.732	170.75
264.964	196.75
265.197	194.75
265.429	207.75
265.661	180.75
265.894	184.75
266.126	196.75
266.358	195.75
266.591	190.75
266.823	211.75
267.055	213.75
267.287	202.75
267.52	212.75
267.752	211.75
267.984	219.75
268.216	219.75
268.448	207.75
268.681	214.75
268.913	211.75
269.145	199.75
269.377	243.75
269.609	242.75
269.841	232.75
270.073	228.75
270.306	244.75
270.538	281.75
270.77	276.75
271.002	259.75
271.234	254.75
271.466	262.75
271.698	261.75
271.93	257.75
272.162	270.75
272.394	271.75
272.626	264.75
272.858	247.75
273.09	239.75
273.322	216.75
273.553	225.75
273.785	220.75
274.017	213.75
274.249	229.75
274.481	235.75
274.713	217.75
274.945	229.75
275.176	248.75
275.408	228.75
275.64	244.75
275.872	223.75
276.104	216.75
276.335	232.75
276.567	236.75
276.799	242.75
277.031	261.75
277.262	261.75
277.494	252.75
277.726	262.75
277.957	255.75
278.189	245.75
278.421	230.75
278.652	236.75
278.884	212.75
279.115	232.75
279.347	225.75
279.579	226.75
279.81	219.75
280.042	226.75
280.273	222.75
280.505	222.75
280.736	226.75
280.968	229.75
281.199	223.75
281.431	221.75
281.662	226.75
281.894	215.75
282.125	234.75
282.356	250.75
282.588	244.75
282.819	263.75
283.051	222.75
283.282	218.75
283.513	218.75
283.745	221.75
283.976	232.75
284.207	247.75
284.439	235.75
284.67	227.75
284.901	225.75
285.132	216.75
285.364	216.75
285.595	218.75
285.826	218.75
286.057	246.75
286.288	229.75
286.52	242.75
286.751	243.75
286.982	220.75
287.213	231.75
287.444	231.75
287.675	235.75
287.906	244.75
288.138	240.75
288.369	252.75
288.6	270.75
288.831	228.75
289.062	254.75
289.293	224.75
289.524	230.75
289.755	236.75
289.986	225.75
290.217	229.75
290.448	248.75
290.679	242.75
290.91	254.75
291.141	231.75
291.371	258.75
291.602	229.75
291.833	227.75
292.064	232.75
292.295	227.75
292.526	251.75
292.757	243.75
292.987	236.75
293.218	235.75
293.449	231.75
293.68	225.75
293.91	231.75
294.141	239.75
294.372	238.75
294.603	239.75
294.833	264.75
295.064	244.75
295.295	248.75
295.525	228.75
295.756	246.75
295.987	267.75
296.217	261.75
296.448	267.75
296.679	251.75
296.909	244.75
297.14	230.75
297.37	238.75
297.601	228.75
297.831	239.75
298.062	227.75
298.292	248.75
298.523	259.75
298.753	254.75
298.984	246.75
299.214	236.75
299.445	229.75
299.675	248.75
299.905	260.75
300.136	265.75
300.366	239.75
300.597	251.75
300.827	250.75
301.057	265.75
301.288	270.75
301.518	263.75
301.748	265.75
301.979	251.75
302.209	272.75
302.439	263.75
302.669	272.75
302.9	269.75
303.13	269.75
303.36	270.75
303.59	283.75
303.82	277.75
304.051	276.75
304.281	264.75
304.511	274.75
304.741	273.75
304.971	271.75
305.201	264.75
305.431	271.75
305.661	271.75
305.891	254.75
306.121	270.75
306.352	271.75
306.582	264.75
306.812	265.75
307.042	258.75
307.272	273.75
307.502	283.75
307.731	280.75
307.961	263.75
308.191	280.75
308.421	270.75
308.651	264.75
308.881	274.75
309.111	282.75
309.341	265.75
309.571	268.75
309.8	292.75
310.03	292.75
310.26	288.75
310.49	299.75
310.72	294.75
310.949	299.75
311.179	327.75
311.409	318.75
311.639	311.75
311.868	303.75
312.098	315.75
312.328	306.75
312.557	326.75
312.787	356.75
313.017	330.75
313.246	305.75
313.476	325.75
313.706	310.75
313.935	327.75
314.165	321.75
314.394	333.75
314.624	326.75
314.853	311.75
315.083	320.75
315.312	294.75
315.542	300.75
315.771	297.75
316.001	306.75
316.23	310.75
316.46	312.75
316.689	319.75
316.919	312.75
317.148	321.75
317.377	325.75
317.607	334.75
317.836	306.75
318.065	302.75
318.295	307.75
318.524	306.75
318.753	307.75
318.983	310.75
319.212	312.75
319.441	314.75
319.67	313.75
319.9	295.75
320.129	316.75
320.358	332.75
320.587	315.75
320.816	323.75
321.046	324.75
321.275	324.75
321.504	325.75
321.733	339.75
321.962	339.75
322.191	340.75
322.42	360.75
322.649	344.75
322.878	377.75
323.108	380.75
323.337	404.75
323.566	421.75
323.795	443.75
324.024	477.75
324.253	581.75
324.482	852.75
324.71	1282.75
324.939	1823.75
325.168	1558.75
325.397	829.75
325.626	554.75
325.855	465.75
326.084	427.75
326.313	438.75
326.542	443.75
326.77	450.75
326.999	559.75
327.228	723.75
327.457	1090.75
327.686	1367.75
327.914	902.75
328.143	595.75
328.372	536.75
328.6	502.75
328.829	468.75
329.058	481.75
329.287	484.75
329.515	475.75
329.744	427.75
329.972	420.75
330.201	430.75
330.43	447.75
330.658	452.75
330.887	478.75
331.115	490.75
331.344	435.75
331.572	404.75
331.801	411.75
332.03	383.75
332.258	399.75
332.486	375.75
332.715	374.75
332.943	344.75
333.172	380.75
333.4	370.75
333.629	372.75
333.857	394.75
334.085	378.75
334.314	397.75
334.542	399.75
334.771	418.75
334.999	404.75
335.227	361.75
335.455	377.75
335.684	369.75
335.912	370.75
336.14	352.75
336.369	354.75
336.597	382.75
336.825	362.75
337.053	365.75
337.281	374.75
337.51	351.75
337.738	363.75
337.966	350.75
338.194	363.75
338.422	362.75
338.65	359.75
338.878	352.75
339.106	350.75
339.334	350.75
339.562	347.75
339.79	354.75
340.018	363.75
340.246	339.75
340.474	354.75
340.702	384.75
340.93	354.75
341.158	354.75
341.386	373.75
341.614	361.75
341.842	363.75
342.07	361.75
342.298	351.75
342.526	347.75
342.754	348.75
342.981	361.75
343.209	358.75
343.437	348.75
343.665	351.75
343.893	366.75
344.12	357.75
344.348	356.75
344.576	374.75
344.804	361.75
345.031	357.75
345.259	372.75
345.487	371.75
345.714	359.75
345.942	374.75
346.17	353.75
346.397	342.75
346.625	358.75
346.853	372.75
347.08	362.75
347.308	378.75
347.535	354.75
347.763	375.75
347.99	391.75
348.218	353.75
348.445	361.75
348.673	367.75
348.9	340.75
349.128	348.75
349.355	332.75
349.583	349.75
349.81	350.75
350.037	353.75
350.265	346.75
350.492	354.75
350.72	332.75
350.947	337.75
351.174	366.75
351.402	364.75
351.629	352.75
351.856	358.75
352.083	360.75
352.311	374.75
352.538	388.75
352.765	369.75
352.992	377.75
353.22	355.75
353.447	360.75
353.674	352.75
353.901	358.75
354.128	353.75
354.355	330.75
354.583	342.75
354.81	350.75
355.037	341.75
355.264	330.75
355.491	323.75
355.718	332.75
355.945	335.75
356.172	342.75
356.399	338.75
356.626	313.75
356.853	331.75
357.08	320.75
357.307	335.75
357.534	332.75
357.761	342.75
357.988	324.75
358.215	333.75
358.441	334.75
358.668	343.75
358.895	355.75
359.122	329.75
359.349	324.75
359.576	360.75
359.802	381.75
360.029	410.75
360.256	395.75
360.483	393.75
360.709	362.75
360.936	385.75
361.163	339.75
361.39	379.75
361.616	372.75
361.843	368.75
362.07	351.75
362.296	364.75
362.523	367.75
362.749	354.75
362.976	362.75
363.203	354.75
363.429	354.75
363.656	355.75
363.882	345.75
364.109	327.75
364.335	351.75
364.562	360.75
364.788	343.75
365.015	352.75
365.241	351.75
365.468	372.75
365.694	348.75
365.92	374.75
366.147	345.75
366.373	355.75
366.599	339.75
366.826	351.75
367.052	323.75
367.278	355.75
367.505	332.75
367.731	342.75
367.957	337.75
368.184	359.75
368.41	338.75
368.636	364.75
368.862	365.75
369.089	328.75
369.315	354.75
369.541	344.75
369.767	339.75
369.993	354.75
370.219	351.75
370.445	351.75
370.672	359.75
370.898	342.75
371.124	331.75
371.35	345.75
371.576	348.75
371.802	361.75
372.028	364.75
372.254	348.75
372.48	358.75
372.706	360.75
372.932	339.75
373.158	347.75
373.384	350.75
373.61	352.75
373.835	367.75
374.061	367.75
374.287	364.75
374.513	358.75
374.739	372.75
374.965	357.75
375.191	347.75
375.416	372.75
375.642	355.75
375.868	359.75
376.094	360.75
376.319	365.75
376.545	344.75
376.771	356.75
376.997	355.75
377.222	364.75
377.448	375.75
377.674	365.75
377.899	340.75
378.125	343.75
378.35	363.75
378.576	336.75
378.802	358.75
379.027	363.75
379.253	369.75
379.478	341.75
379.704	362.75
379.929	352.75
380.155	345.75
380.38	348.75
380.606	363.75
380.831	356.75
381.057	380.75
381.282	353.75
381.507	360.75
381.733	349.75
381.958	352.75
382.184	367.75
382.409	362.75
382.634	350.75
382.86	345.75
383.085	380.75
383.31	358.75
383.535	369.75
383.761	380.75
383.986	388.75
384.211	391.75
384.436	358.75
384.662	362.75
384.887	392.75
385.112	378.75
385.337	405.75
385.562	381.75
385.787	396.75
386.013	389.75
386.238	388.75
386.463	379.75
386.688	395.75
386.913	393.75
387.138	404.75
387.363	391.75
387.588	400.75
387.813	376.75
388.038	395.75
388.263	383.75
388.488	390.75
388.713	394.75
388.938	387.75
389.163	379.75
389.387	389.75
389.612	380.75
389.837	399.75
390.062	396.75
390.287	394.75
390.512	370.75
390.736	372.75
390.961	372.75
391.186	395.75
391.411	394.75
391.636	413.75
391.86	389.75
392.085	405.75
392.31	395.75
392.534	392.75
392.759	412.75
392.984	399.75
393.208	391.75
393.433	435.75
393.658	421.75
393.882	390.75
394.107	383.75
394.331	389.75
394.556	412.75
394.78	408.75
395.005	372.75
395.229	386.75
395.454	400.75
395.678	417.75
395.903	424.75
396.127	418.75
396.352	447.75
396.576	427.75
396.801	409.75
397.025	417.75
397.249	426.75
397.474	422.75
397.698	407.75
397.922	426.75
398.147	431.75
398.371	427.75
398.595	422.75
398.82	439.75
399.044	440.75
399.268	450.75
399.492	457.75
399.717	486.75
399.941	508.75
400.165	534.75
400.389	542.75
400.613	507.75
400.837	468.75
401.062	469.75
401.286	449.75
401.51	452.75
401.734	435.75
401.958	428.75
402.182	419.75
402.406	449.75
402.63	469.75
402.854	452.75
403.078	449.75
403.302	447.75
403.526	444.75
403.75	461.75
403.974	461.75
404.198	458.75
404.422	475.75
404.645	471.75
404.869	476.75
405.093	470.75
405.317	522.75
405.541	548.75
405.765	523.75
405.988	481.75
406.212	478.75
406.436	524.75
406.66	530.75
406.883	491.75
407.107	526.75
407.331	568.75
407.555	628.75
407.778	611.75
408.002	557.75
408.226	528.75
408.449	501.75
408.673	510.75
408.896	553.75
409.12	554.75
409.344	537.75
409.567	478.75
409.791	466.75
410.014	471.75
410.238	451.75
410.461	489.75
410.685	495.75
410.908	500.75
411.132	510.75
411.355	551.75
411.578	526.75
411.802	476.75
412.025	459.75
412.249	483.75
412.472	480.75
412.695	515.75
412.919	485.75
413.142	450.75
413.365	467.75
413.589	424.75
413.812	442.75
414.035	452.75
414.258	449.75
414.482	453.75
414.705	431.75
414.928	439.75
415.151	443.75
415.374	436.75
415.597	466.75
415.821	441.75
416.044	439.75
416.267	436.75
416.49	435.75
416.713	471.75
416.936	457.75
417.159	431.75
417.382	441.75
417.605	454.75
417.828	430.75
418.051	462.75
418.274	473.75
418.497	451.75
418.72	457.75
418.943	444.75
419.166	467.75
419.389	475.75
419.611	470.75
419.834	470.75
420.057	460.75
420.28	463.75
420.503	471.75
420.726	451.75
420.948	468.75
421.171	508.75
421.394	550.75
421.617	507.75
421.839	472.75
422.062	488.75
422.285	460.75
422.507	541.75
422.73	594.75
422.953	578.75
423.175	521.75
423.398	508.75
423.621	489.75
423.843	510.75
424.066	518.75
424.288	486.75
424.511	515.75
424.733	574.75
424.956	653.75
425.178	614.75
425.401	584.75
425.623	632.75
425.846	570.75
426.068	518.75
426.291	513.75
426.513	508.75
426.735	520.75
426.958	548.75
427.18	650.75
427.402	757.75
427.625	830.75
427.847	732.75
428.069	628.75
428.292	555.75
428.514	533.75
428.736	488.75
428.958	494.75
429.181	484.75
429.403	477.75
429.625	491.75
429.847	507.75
430.069	596.75
430.292	575.75
430.514	501.75
430.736	471.75
430.958	475.75
431.18	464.75
431.402	465.75
431.624	431.75
431.846	442.75
432.068	457.75
432.29	456.75
432.512	461.75
432.734	453.75
432.956	448.75
433.178	483.75
433.4	481.75
433.622	469.75
433.844	458.75
434.066	439.75
434.287	450.75
434.509	446.75
434.731	446.75
434.953	469.75
435.175	478.75
435.397	494.75
435.618	529.75
435.84	544.75
436.062	634.75
436.284	705.75
436.505	579.75
436.727	535.75
436.949	504.75
437.17	479.75
437.392	486.75
437.614	474.75
437.835	548.75
438.057	601.75
438.278	688.75
438.5	678.75
438.721	752.75
438.943	740.75
439.165	599.75
439.386	538.75
439.608	546.75
439.829	515.75
440.05	555.75
440.272	596.75
440.493	546.75
440.715	525.75
440.936	487.75
441.158	506.75
441.379	482.75
441.6	495.75
441.822	510.75
442.043	548.75
442.264	629.75
442.486	667.75
442.707	572.75
442.928	532.75
443.149	534.75
443.371	562.75
443.592	590.75
443.813	653.75
444.034	718.75
444.255	589.75
444.476	528.75
444.698	523.75
444.919	506.75
445.14	620.75
445.361	595.75
445.582	565.75
445.803	626.75
446.024	699.75
446.245	718.75
446.466	640.75
446.687	567.75
446.908	548.75
447.129	508.75
447.35	500.75
447.571	468.75
447.792	477.75
448.013	507.75
448.234	484.75
448.455	560.75
448.675	654.75
448.896	736.75
449.117	642.75
449.338	622.75
449.559	684.75
449.779	807.75
450	618.75
450.221	531.75
450.442	495.75
450.662	471.75
450.883	478.75
451.104	509.75
451.324	495.75
451.545	471.75
451.766	450.75
451.986	458.75
452.207	439.75
452.428	439.75
452.648	431.75
452.869	434.75
453.089	444.75
453.31	479.75
453.53	448.75
453.751	429.75
453.971	426.75
454.192	455.75
454.412	448.75
454.633	446.75
454.853	437.75
455.073	444.75
455.294	453.75
455.514	516.75
455.734	498.75
455.955	439.75
456.175	418.75
456.395	414.75
456.616	404.75
456.836	387.75
457.056	396.75
457.276	388.75
457.497	399.75
457.717	399.75
457.937	415.75
458.157	433.75
458.377	422.75
458.598	439.75
458.818	504.75
459.038	568.75
459.258	568.75
459.478	495.75
459.698	439.75
459.918	423.75
460.138	446.75
460.358	477.75
460.578	454.75
460.798	450.75
461.018	474.75
461.238	455.75
461.458	464.75
461.678	431.75
461.898	435.75
462.118	446.75
462.338	441.75
462.558	460.75
462.777	467.75
462.997	469.75
463.217	461.75
463.437	495.75
463.657	480.75
463.876	477.75
464.096	484.75
464.316	504.75
464.536	490.75
464.755	506.75
464.975	505.75
465.195	548.75
465.414	598.75
465.634	514.75
465.854	481.75
466.073	464.75
466.293	452.75
466.512	451.75
466.732	449.75
466.951	443.75
467.171	454.75
467.391	457.75
467.61	467.75
467.829	460.75
468.049	441.75
468.268	445.75
468.488	412.75
468.707	425.75
468.927	444.75
469.146	432.75
469.365	413.75
469.585	436.75
469.804	446.75
470.023	454.75
470.243	442.75
470.462	460.75
470.681	464.75
470.901	474.75
471.12	430.75
471.339	444.75
471.558	452.75
471.777	467.75
471.997	455.75
472.216	432.75
472.435	466.75
472.654	478.75
472.873	443.75
473.092	454.75
473.311	415.75
473.53	434.75
473.749	472.75
473.968	511.75
474.187	592.75
474.406	595.75
474.625	523.75
474.844	482.75
475.063	462.75
475.282	444.75
475.501	442.75
475.72	471.75
475.939	447.75
476.158	473.75
476.377	479.75
476.596	472.75
476.814	453.75
477.033	470.75
477.252	470.75
477.471	465.75
477.69	478.75
477.908	483.75
478.127	492.75
478.346	503.75
478.564	519.75
478.783	486.75
479.002	501.75
479.22	490.75
479.439	536.75
479.658	558.75
479.876	542.75
480.095	554.75
480.313	561.75
480.532	560.75
480.751	538.75
480.969	565.75
481.188	589.75
481.406	617.75
481.624	565.75
481.843	552.75
482.061	546.75
482.28	528.75
482.498	545.75
482.717	514.75
482.935	534.75
483.153	543.75
483.372	553.75
483.59	549.75
483.808	538.75
484.027	535.75
484.245	550.75
484.463	540.75
484.681	530.75
484.9	553.75
485.118	555.75
485.336	554.75
485.554	547.75
485.772	552.75
485.99	550.75
486.209	549.75
486.427	554.75
486.645	582.75
486.863	591.75
487.081	594.75
487.299	590.75
487.517	575.75
487.735	592.75
487.953	590.75
488.171	571.75
488.389	584.75
488.607	577.75
488.825	597.75
489.043	578.75
489.261	591.75
489.479	591.75
489.696	596.75
489.914	582.75
490.132	603.75
490.35	612.75
490.568	626.75
490.786	631.75
491.003	633.75
491.221	642.75
491.439	643.75
491.657	646.75
491.874	668.75
492.092	679.75
492.31	668.75
492.527	681.75
492.745	698.75
492.963	657.75
493.18	689.75
493.398	675.75
493.615	670.75
493.833	678.75
494.05	681.75
494.268	680.75
494.485	700.75
494.703	685.75
494.92	690.75
495.138	690.75
495.355	678.75
495.573	694.75
495.79	694.75
496.008	700.75
496.225	694.75
496.442	676.75
496.66	695.75
496.877	692.75
497.094	724.75
497.312	728.75
497.529	708.75
497.746	714.75
497.963	747.75
498.181	757.75
498.398	722.75
498.615	748.75
498.832	767.75
499.049	776.75
499.267	780.75
499.484	827.75
499.701	809.75
499.918	836.75
500.135	890.75
500.352	918.75
500.569	884.75
500.786	889.75
501.003	911.75
501.22	858.75
501.437	822.75
501.654	826.75
