Data from 1971.PennyLincolnUp.Lamp.En5.5.200Scan.071719.P1.Scan 2. Changed Angle._HRD10591_15-25-09-843.txt Node
Date: Thu Jul 18 15:25:09 EDT 2019
User: cochatt
Spectrometer: HR+D1059
Trigger mode: 1
Integration Time (sec): 1.000000E-1
Scans to average: 1
Electric dark correction enabled: true
Nonlinearity correction enabled: false
Boxcar width: 0
XAxis mode: Wavelengths
Number of Pixels in Spectrum: 2048
>>>>>Begin Spectral Data<<<<<
223.165	-12.69
223.4	-12.69
223.635	-12.69
223.869	-20.69
224.104	-10.69
224.338	-8.69
224.573	-19.69
224.808	-1.69
225.042	-8.69
225.277	-26.69
225.511	-9.69
225.746	-0.69
225.98	7.31
226.215	18.31
226.449	42.31
226.683	9.31
226.918	12.31
227.152	30.31
227.387	28.31
227.621	35.31
227.856	41.31
228.09	35.31
228.324	47.31
228.559	75.31
228.793	82.31
229.027	115.31
229.262	115.31
229.496	122.31
229.73	164.31
229.964	177.31
230.199	167.31
230.433	138.31
230.667	120.31
230.901	114.31
231.136	131.31
231.37	105.31
231.604	126.31
231.838	120.31
232.072	124.31
232.306	121.31
232.541	106.31
232.775	108.31
233.009	120.31
233.243	131.31
233.477	120.31
233.711	125.31
233.945	116.31
234.179	119.31
234.413	116.31
234.647	123.31
234.881	130.31
235.115	136.31
235.349	141.31
235.583	140.31
235.817	142.31
236.051	133.31
236.285	134.31
236.519	137.31
236.753	149.31
236.987	169.31
237.221	193.31
237.455	276.31
237.689	219.31
237.922	161.31
238.156	154.31
238.39	131.31
238.624	135.31
238.858	132.31
239.091	126.31
239.325	142.31
239.559	154.31
239.793	155.31
240.027	143.31
240.26	154.31
240.494	172.31
240.728	182.31
240.961	180.31
241.195	162.31
241.429	155.31
241.662	162.31
241.896	158.31
242.13	144.31
242.363	144.31
242.597	143.31
242.83	158.31
243.064	133.31
243.298	149.31
243.531	137.31
243.765	138.31
243.998	162.31
244.232	162.31
244.465	157.31
244.699	142.31
244.932	168.31
245.166	156.31
245.399	164.31
245.633	151.31
245.866	150.31
246.099	159.31
246.333	148.31
246.566	165.31
246.8	144.31
247.033	163.31
247.266	159.31
247.5	169.31
247.733	180.31
247.966	188.31
248.2	184.31
248.433	182.31
248.666	198.31
248.899	205.31
249.133	227.31
249.366	228.31
249.599	237.31
249.832	207.31
250.066	212.31
250.299	220.31
250.532	208.31
250.765	242.31
250.998	252.31
251.231	242.31
251.465	223.31
251.698	216.31
251.931	234.31
252.164	206.31
252.397	214.31
252.63	214.31
252.863	228.31
253.096	237.31
253.329	256.31
253.562	258.31
253.795	251.31
254.028	239.31
254.261	246.31
254.494	264.31
254.727	306.31
254.96	324.31
255.193	306.31
255.426	266.31
255.659	262.31
255.892	247.31
256.124	262.31
256.357	257.31
256.59	246.31
256.823	235.31
257.056	247.31
257.289	242.31
257.521	246.31
257.754	231.31
257.987	214.31
258.22	226.31
258.452	234.31
258.685	240.31
258.918	238.31
259.151	234.31
259.383	249.31
259.616	250.31
259.849	242.31
260.081	283.31
260.314	278.31
260.547	287.31
260.779	286.31
261.012	258.31
261.244	256.31
261.477	246.31
261.71	231.31
261.942	255.31
262.175	256.31
262.407	247.31
262.64	261.31
262.872	233.31
263.105	239.31
263.337	234.31
263.57	210.31
263.802	216.31
264.035	211.31
264.267	228.31
264.499	225.31
264.732	219.31
264.964	212.31
265.197	220.31
265.429	235.31
265.661	220.31
265.894	222.31
266.126	232.31
266.358	217.31
266.591	231.31
266.823	236.31
267.055	223.31
267.287	239.31
267.52	222.31
267.752	232.31
267.984	254.31
268.216	225.31
268.448	232.31
268.681	229.31
268.913	246.31
269.145	272.31
269.377	303.31
269.609	282.31
269.841	290.31
270.073	290.31
270.306	309.31
270.538	350.31
270.77	338.31
271.002	315.31
271.234	310.31
271.466	337.31
271.698	348.31
271.93	337.31
272.162	370.31
272.394	349.31
272.626	335.31
272.858	310.31
273.09	291.31
273.322	290.31
273.553	278.31
273.785	280.31
274.017	252.31
274.249	262.31
274.481	270.31
274.713	289.31
274.945	287.31
275.176	286.31
275.408	296.31
275.64	283.31
275.872	302.31
276.104	260.31
276.335	264.31
276.567	281.31
276.799	298.31
277.031	318.31
277.262	351.31
277.494	346.31
277.726	356.31
277.957	300.31
278.189	291.31
278.421	283.31
278.652	281.31
278.884	294.31
279.115	271.31
279.347	281.31
279.579	252.31
279.81	272.31
280.042	284.31
280.273	279.31
280.505	276.31
280.736	275.31
280.968	273.31
281.199	280.31
281.431	274.31
281.662	286.31
281.894	261.31
282.125	286.31
282.356	282.31
282.588	326.31
282.819	320.31
283.051	290.31
283.282	260.31
283.513	292.31
283.745	278.31
283.976	272.31
284.207	276.31
284.439	278.31
284.67	276.31
284.901	281.31
285.132	278.31
285.364	278.31
285.595	282.31
285.826	279.31
286.057	306.31
286.288	288.31
286.52	287.31
286.751	284.31
286.982	266.31
287.213	271.31
287.444	273.31
287.675	291.31
287.906	299.31
288.138	300.31
288.369	297.31
288.6	303.31
288.831	288.31
289.062	316.31
289.293	306.31
289.524	287.31
289.755	290.31
289.986	294.31
290.217	285.31
290.448	291.31
290.679	294.31
290.91	281.31
291.141	285.31
291.371	315.31
291.602	287.31
291.833	287.31
292.064	287.31
292.295	267.31
292.526	280.31
292.757	290.31
292.987	297.31
293.218	278.31
293.449	294.31
293.68	292.31
293.91	305.31
294.141	284.31
294.372	283.31
294.603	286.31
294.833	284.31
295.064	290.31
295.295	283.31
295.525	289.31
295.756	301.31
295.987	303.31
296.217	352.31
296.448	366.31
296.679	311.31
296.909	303.31
297.14	297.31
297.37	298.31
297.601	284.31
297.831	295.31
298.062	298.31
298.292	296.31
298.523	289.31
298.753	294.31
298.984	295.31
299.214	309.31
299.445	314.31
299.675	296.31
299.905	317.31
300.136	326.31
300.366	302.31
300.597	308.31
300.827	308.31
301.057	331.31
301.288	331.31
301.518	318.31
301.748	320.31
301.979	335.31
302.209	317.31
302.439	336.31
302.669	333.31
302.9	318.31
303.13	319.31
303.36	321.31
303.59	332.31
303.82	345.31
304.051	349.31
304.281	316.31
304.511	301.31
304.741	322.31
304.971	328.31
305.201	319.31
305.431	311.31
305.661	340.31
305.891	328.31
306.121	329.31
306.352	342.31
306.582	315.31
306.812	329.31
307.042	328.31
307.272	327.31
307.502	320.31
307.731	326.31
307.961	318.31
308.191	315.31
308.421	346.31
308.651	342.31
308.881	340.31
309.111	344.31
309.341	333.31
309.571	378.31
309.8	368.31
310.03	376.31
310.26	383.31
310.49	373.31
310.72	414.31
310.949	404.31
311.179	419.31
311.409	400.31
311.639	397.31
311.868	398.31
312.098	403.31
312.328	410.31
312.557	420.31
312.787	437.31
313.017	421.31
313.246	408.31
313.476	386.31
313.706	390.31
313.935	408.31
314.165	425.31
314.394	426.31
314.624	432.31
314.853	389.31
315.083	408.31
315.312	398.31
315.542	370.31
315.771	380.31
316.001	374.31
316.23	397.31
316.46	371.31
316.689	382.31
316.919	402.31
317.148	390.31
317.377	415.31
317.607	386.31
317.836	403.31
318.065	383.31
318.295	376.31
318.524	393.31
318.753	375.31
318.983	378.31
319.212	409.31
319.441	414.31
319.67	397.31
319.9	396.31
320.129	390.31
320.358	388.31
320.587	404.31
320.816	411.31
321.046	427.31
321.275	414.31
321.504	424.31
321.733	420.31
321.962	412.31
322.191	450.31
322.42	472.31
322.649	488.31
322.878	501.31
323.108	510.31
323.337	520.31
323.566	569.31
323.795	600.31
324.024	668.31
324.253	869.31
324.482	1212.31
324.71	1926.31
324.939	2794.31
325.168	2388.31
325.397	1212.31
325.626	815.31
325.855	658.31
326.084	570.31
326.313	586.31
326.542	572.31
326.77	630.31
326.999	778.31
327.228	1071.31
327.457	1691.31
327.686	2066.31
327.914	1389.31
328.143	862.31
328.372	759.31
328.6	701.31
328.829	664.31
329.058	658.31
329.287	678.31
329.515	644.31
329.744	571.31
329.972	576.31
330.201	605.31
330.43	647.31
330.658	685.31
330.887	728.31
331.115	702.31
331.344	592.31
331.572	543.31
331.801	549.31
332.03	551.31
332.258	518.31
332.486	471.31
332.715	476.31
332.943	472.31
333.172	497.31
333.4	494.31
333.629	499.31
333.857	496.31
334.085	507.31
334.314	542.31
334.542	577.31
334.771	600.31
334.999	536.31
335.227	510.31
335.455	469.31
335.684	473.31
335.912	466.31
336.14	456.31
336.369	470.31
336.597	469.31
336.825	482.31
337.053	454.31
337.281	454.31
337.51	433.31
337.738	456.31
337.966	443.31
338.194	460.31
338.422	440.31
338.65	446.31
338.878	438.31
339.106	433.31
339.334	439.31
339.562	429.31
339.79	436.31
340.018	446.31
340.246	429.31
340.474	445.31
340.702	434.31
340.93	430.31
341.158	447.31
341.386	441.31
341.614	456.31
341.842	467.31
342.07	443.31
342.298	428.31
342.526	440.31
342.754	426.31
342.981	428.31
343.209	431.31
343.437	446.31
343.665	420.31
343.893	423.31
344.12	448.31
344.348	427.31
344.576	435.31
344.804	478.31
345.031	470.31
345.259	466.31
345.487	460.31
345.714	468.31
345.942	459.31
346.17	432.31
346.397	421.31
346.625	438.31
346.853	430.31
347.08	433.31
347.308	438.31
347.535	459.31
347.763	472.31
347.99	471.31
348.218	481.31
348.445	466.31
348.673	465.31
348.9	454.31
349.128	450.31
349.355	436.31
349.583	425.31
349.81	424.31
350.037	421.31
350.265	426.31
350.492	438.31
350.72	419.31
350.947	452.31
351.174	443.31
351.402	459.31
351.629	452.31
351.856	450.31
352.083	458.31
352.311	461.31
352.538	457.31
352.765	476.31
352.992	485.31
353.22	458.31
353.447	451.31
353.674	447.31
353.901	431.31
354.128	405.31
354.355	414.31
354.583	414.31
354.81	438.31
355.037	418.31
355.264	387.31
355.491	396.31
355.718	399.31
355.945	378.31
356.172	404.31
356.399	418.31
356.626	392.31
356.853	418.31
357.08	410.31
357.307	407.31
357.534	405.31
357.761	402.31
357.988	420.31
358.215	408.31
358.441	422.31
358.668	414.31
358.895	401.31
359.122	412.31
359.349	437.31
359.576	429.31
359.802	481.31
360.029	541.31
360.256	524.31
360.483	499.31
360.709	475.31
360.936	443.31
361.163	457.31
361.39	462.31
361.616	450.31
361.843	462.31
362.07	450.31
362.296	462.31
362.523	450.31
362.749	446.31
362.976	447.31
363.203	429.31
363.429	438.31
363.656	422.31
363.882	446.31
364.109	427.31
364.335	427.31
364.562	418.31
364.788	447.31
365.015	427.31
365.241	422.31
365.468	432.31
365.694	434.31
365.92	452.31
366.147	442.31
366.373	436.31
366.599	406.31
366.826	422.31
367.052	390.31
367.278	407.31
367.505	424.31
367.731	422.31
367.957	426.31
368.184	412.31
368.41	426.31
368.636	468.31
368.862	454.31
369.089	424.31
369.315	420.31
369.541	418.31
369.767	426.31
369.993	423.31
370.219	434.31
370.445	419.31
370.672	420.31
370.898	398.31
371.124	413.31
371.35	417.31
371.576	413.31
371.802	422.31
372.028	406.31
372.254	426.31
372.48	419.31
372.706	412.31
372.932	402.31
373.158	422.31
373.384	444.31
373.61	422.31
373.835	436.31
374.061	418.31
374.287	432.31
374.513	421.31
374.739	437.31
374.965	423.31
375.191	424.31
375.416	438.31
375.642	412.31
375.868	400.31
376.094	428.31
376.319	430.31
376.545	427.31
376.771	442.31
376.997	429.31
377.222	408.31
377.448	409.31
377.674	416.31
377.899	406.31
378.125	414.31
378.35	402.31
378.576	396.31
378.802	403.31
379.027	430.31
379.253	417.31
379.478	414.31
379.704	436.31
379.929	429.31
380.155	406.31
380.38	422.31
380.606	423.31
380.831	414.31
381.057	438.31
381.282	411.31
381.507	414.31
381.733	427.31
381.958	406.31
382.184	436.31
382.409	436.31
382.634	437.31
382.86	440.31
383.085	440.31
383.31	433.31
383.535	455.31
383.761	432.31
383.986	410.31
384.211	447.31
384.436	468.31
384.662	441.31
384.887	436.31
385.112	457.31
385.337	475.31
385.562	443.31
385.787	464.31
386.013	457.31
386.238	440.31
386.463	457.31
386.688	460.31
386.913	447.31
387.138	439.31
387.363	464.31
387.588	446.31
387.813	443.31
388.038	456.31
388.263	456.31
388.488	441.31
388.713	466.31
388.938	472.31
389.163	471.31
389.387	451.31
389.612	444.31
389.837	477.31
390.062	461.31
390.287	452.31
390.512	439.31
390.736	437.31
390.961	439.31
391.186	445.31
391.411	448.31
391.636	475.31
391.86	467.31
392.085	476.31
392.31	463.31
392.534	443.31
392.759	476.31
392.984	454.31
393.208	467.31
393.433	478.31
393.658	450.31
393.882	470.31
394.107	445.31
394.331	462.31
394.556	448.31
394.78	458.31
395.005	468.31
395.229	472.31
395.454	476.31
395.678	454.31
395.903	458.31
396.127	494.31
396.352	516.31
396.576	487.31
396.801	463.31
397.025	456.31
397.249	477.31
397.474	482.31
397.698	474.31
397.922	500.31
398.147	505.31
398.371	525.31
398.595	508.31
398.82	500.31
399.044	524.31
399.268	536.31
399.492	539.31
399.717	579.31
399.941	596.31
400.165	636.31
400.389	658.31
400.613	587.31
400.837	562.31
401.062	547.31
401.286	524.31
401.51	530.31
401.734	500.31
401.958	519.31
402.182	536.31
402.406	538.31
402.63	532.31
402.854	568.31
403.078	532.31
403.302	542.31
403.526	550.31
403.75	548.31
403.974	521.31
404.198	551.31
404.422	546.31
404.645	540.31
404.869	565.31
405.093	610.31
405.317	627.31
405.541	678.31
405.765	610.31
405.988	573.31
406.212	612.31
406.436	636.31
406.66	631.31
406.883	602.31
407.107	652.31
407.331	647.31
407.555	736.31
407.778	735.31
408.002	666.31
408.226	629.31
408.449	626.31
408.673	618.31
408.896	668.31
409.12	686.31
409.344	669.31
409.567	601.31
409.791	562.31
410.014	578.31
410.238	555.31
410.461	548.31
410.685	575.31
410.908	594.31
411.132	615.31
411.355	672.31
411.578	609.31
411.802	578.31
412.025	570.31
412.249	558.31
412.472	571.31
412.695	636.31
412.919	618.31
413.142	569.31
413.365	566.31
413.589	535.31
413.812	552.31
414.035	513.31
414.258	514.31
414.482	519.31
414.705	521.31
414.928	517.31
415.151	528.31
415.374	535.31
415.597	506.31
415.821	499.31
416.044	505.31
416.267	522.31
416.49	526.31
416.713	491.31
416.936	528.31
417.159	538.31
417.382	532.31
417.605	528.31
417.828	556.31
418.051	558.31
418.274	552.31
418.497	541.31
418.72	519.31
418.943	529.31
419.166	537.31
419.389	558.31
419.611	558.31
419.834	578.31
420.057	582.31
420.28	552.31
420.503	558.31
420.726	562.31
420.948	598.31
421.171	616.31
421.394	678.31
421.617	599.31
421.839	562.31
422.062	572.31
422.285	600.31
422.507	660.31
422.73	736.31
422.953	726.31
423.175	629.31
423.398	608.31
423.621	591.31
423.843	616.31
424.066	607.31
424.288	603.31
424.511	652.31
424.733	709.31
424.956	792.31
425.178	767.31
425.401	775.31
425.623	774.31
425.846	652.31
426.068	633.31
426.291	637.31
426.513	626.31
426.735	614.31
426.958	682.31
427.18	780.31
427.402	947.31
427.625	1008.31
427.847	949.31
428.069	802.31
428.292	733.31
428.514	645.31
428.736	607.31
428.958	606.31
429.181	591.31
429.403	604.31
429.625	596.31
429.847	637.31
430.069	724.31
430.292	698.31
430.514	613.31
430.736	596.31
430.958	578.31
431.18	570.31
431.402	553.31
431.624	561.31
431.846	527.31
432.068	529.31
432.29	543.31
432.512	526.31
432.734	536.31
432.956	550.31
433.178	568.31
433.4	578.31
433.622	560.31
433.844	532.31
434.066	540.31
434.287	535.31
434.509	535.31
434.731	581.31
434.953	546.31
435.175	590.31
435.397	641.31
435.618	638.31
435.84	660.31
436.062	760.31
436.284	883.31
436.505	725.31
436.727	649.31
436.949	614.31
437.17	583.31
437.392	594.31
437.614	616.31
437.835	647.31
438.057	797.31
438.278	859.31
438.5	894.31
438.721	970.31
438.943	936.31
439.165	713.31
439.386	679.31
439.608	643.31
439.829	663.31
440.05	683.31
440.272	782.31
440.493	706.31
440.715	642.31
440.936	604.31
441.158	615.31
441.379	599.31
441.6	621.31
441.822	607.31
442.043	704.31
442.264	769.31
442.486	846.31
442.707	708.31
442.928	662.31
443.149	669.31
443.371	664.31
443.592	720.31
443.813	837.31
444.034	908.31
444.255	724.31
444.476	654.31
444.698	640.31
444.919	661.31
445.14	755.31
445.361	688.31
445.582	713.31
445.803	790.31
446.024	912.31
446.245	902.31
446.466	807.31
446.687	695.31
446.908	651.31
447.129	628.31
447.35	619.31
447.571	595.31
447.792	584.31
448.013	615.31
448.234	647.31
448.455	678.31
448.675	805.31
448.896	942.31
449.117	802.31
449.338	772.31
449.559	874.31
449.779	970.31
450	808.31
450.221	660.31
450.442	612.31
450.662	601.31
450.883	602.31
451.104	654.31
451.324	612.31
451.545	588.31
451.766	553.31
451.986	545.31
452.207	558.31
452.428	524.31
452.648	534.31
452.869	542.31
453.089	558.31
453.31	558.31
453.53	560.31
453.751	548.31
453.971	527.31
454.192	548.31
454.412	542.31
454.633	555.31
454.853	518.31
455.073	557.31
455.294	548.31
455.514	659.31
455.734	616.31
455.955	542.31
456.175	516.31
456.395	490.31
456.616	490.31
456.836	477.31
457.056	483.31
457.276	476.31
457.497	491.31
457.717	500.31
457.937	490.31
458.157	506.31
458.377	512.31
458.598	543.31
458.818	617.31
459.038	710.31
459.258	735.31
459.478	642.31
459.698	548.31
459.918	542.31
460.138	543.31
460.358	538.31
460.578	523.31
460.798	525.31
461.018	529.31
461.238	540.31
461.458	531.31
461.678	539.31
461.898	544.31
462.118	524.31
462.338	522.31
462.558	528.31
462.777	567.31
462.997	557.31
463.217	523.31
463.437	557.31
463.657	562.31
463.876	550.31
464.096	565.31
464.316	585.31
464.536	573.31
464.755	564.31
464.975	581.31
465.195	642.31
465.414	768.31
465.634	652.31
465.854	600.31
466.073	582.31
466.293	576.31
466.512	554.31
466.732	519.31
466.951	555.31
467.171	520.31
467.391	547.31
467.61	542.31
467.829	574.31
468.049	545.31
468.268	562.31
468.488	551.31
468.707	535.31
468.927	525.31
469.146	521.31
469.365	511.31
469.585	529.31
469.804	537.31
470.023	542.31
470.243	542.31
470.462	578.31
470.681	572.31
470.901	563.31
471.12	548.31
471.339	520.31
471.558	544.31
471.777	547.31
471.997	532.31
472.216	545.31
472.435	598.31
472.654	581.31
472.873	527.31
473.092	535.31
473.311	555.31
473.53	557.31
473.749	559.31
473.968	615.31
474.187	737.31
474.406	786.31
474.625	635.31
474.844	575.31
475.063	547.31
475.282	536.31
475.501	555.31
475.72	549.31
475.939	556.31
476.158	563.31
476.377	567.31
476.596	556.31
476.814	553.31
477.033	588.31
477.252	603.31
477.471	586.31
477.69	591.31
477.908	601.31
478.127	590.31
478.346	583.31
478.564	567.31
478.783	603.31
479.002	617.31
479.22	620.31
479.439	625.31
479.658	659.31
479.876	660.31
480.095	657.31
480.313	694.31
480.532	648.31
480.751	645.31
480.969	667.31
481.188	763.31
481.406	841.31
481.624	721.31
481.843	674.31
482.061	652.31
482.28	674.31
482.498	652.31
482.717	656.31
482.935	661.31
483.153	656.31
483.372	678.31
483.59	624.31
483.808	636.31
484.027	639.31
484.245	661.31
484.463	649.31
484.681	650.31
484.9	655.31
485.118	662.31
485.336	663.31
485.554	679.31
485.772	673.31
485.99	688.31
486.209	663.31
486.427	690.31
486.645	694.31
486.863	724.31
487.081	715.31
487.299	720.31
487.517	701.31
487.735	704.31
487.953	710.31
488.171	698.31
488.389	702.31
488.607	716.31
488.825	719.31
489.043	686.31
489.261	717.31
489.479	709.31
489.696	727.31
489.914	711.31
490.132	754.31
490.35	746.31
490.568	733.31
490.786	740.31
491.003	776.31
491.221	751.31
491.439	776.31
491.657	826.31
491.874	824.31
492.092	828.31
492.31	826.31
492.527	846.31
492.745	848.31
492.963	842.31
493.18	810.31
493.398	860.31
493.615	871.31
493.833	850.31
494.05	852.31
494.268	849.31
494.485	843.31
494.703	846.31
494.92	860.31
495.138	860.31
495.355	840.31
495.573	868.31
495.79	838.31
496.008	844.31
496.225	883.31
496.442	872.31
496.66	851.31
496.877	878.31
497.094	858.31
497.312	863.31
497.529	852.31
497.746	908.31
497.963	871.31
498.181	891.31
498.398	900.31
498.615	920.31
498.832	906.31
499.049	906.31
499.267	926.31
499.484	960.31
499.701	962.31
499.918	983.31
500.135	1018.31
500.352	1055.31
500.569	1030.31
500.786	1033.31
501.003	1038.31
501.22	1031.31
501.437	1028.31
