Data from 1971.PennyLincolnUp.Lamp.En5.5.200Scan.071719.P1.Scan 2. Changed Angle._HRD10591_15-23-49-842.txt Node
Date: Thu Jul 18 15:23:49 EDT 2019
User: cochatt
Spectrometer: HR+D1059
Trigger mode: 1
Integration Time (sec): 1.000000E-1
Scans to average: 1
Electric dark correction enabled: true
Nonlinearity correction enabled: false
Boxcar width: 0
XAxis mode: Wavelengths
Number of Pixels in Spectrum: 2048
>>>>>Begin Spectral Data<<<<<
223.165	-14.19
223.4	-14.19
223.635	-14.19
223.869	-18.19
224.104	-16.19
224.338	-14.19
224.573	-2.19
224.808	-3.19
225.042	-6.19
225.277	-10.19
225.511	-18.19
225.746	-2.19
225.98	11.81
226.215	16.81
226.449	12.81
226.683	17.81
226.918	21.81
227.152	23.81
227.387	30.81
227.621	41.81
227.856	23.81
228.09	40.81
228.324	35.81
228.559	42.81
228.793	67.81
229.027	105.81
229.262	108.81
229.496	116.81
229.73	141.81
229.964	185.81
230.199	140.81
230.433	113.81
230.667	118.81
230.901	102.81
231.136	118.81
231.37	116.81
231.604	115.81
231.838	117.81
232.072	110.81
232.306	104.81
232.541	125.81
232.775	109.81
233.009	115.81
233.243	106.81
233.477	103.81
233.711	121.81
233.945	112.81
234.179	116.81
234.413	123.81
234.647	139.81
234.881	122.81
235.115	122.81
235.349	119.81
235.583	130.81
235.817	125.81
236.051	132.81
236.285	127.81
236.519	125.81
236.753	133.81
236.987	170.81
237.221	198.81
237.455	262.81
237.689	212.81
237.922	149.81
238.156	123.81
238.39	140.81
238.624	123.81
238.858	123.81
239.091	132.81
239.325	125.81
239.559	133.81
239.793	132.81
240.027	131.81
240.26	130.81
240.494	155.81
240.728	149.81
240.961	152.81
241.195	156.81
241.429	137.81
241.662	134.81
241.896	129.81
242.13	132.81
242.363	138.81
242.597	138.81
242.83	139.81
243.064	143.81
243.298	142.81
243.531	132.81
243.765	131.81
243.998	149.81
244.232	139.81
244.465	142.81
244.699	148.81
244.932	160.81
245.166	156.81
245.399	143.81
245.633	154.81
245.866	153.81
246.099	160.81
246.333	149.81
246.566	156.81
246.8	152.81
247.033	153.81
247.266	139.81
247.5	155.81
247.733	174.81
247.966	187.81
248.2	168.81
248.433	164.81
248.666	169.81
248.899	202.81
249.133	220.81
249.366	215.81
249.599	201.81
249.832	195.81
250.066	205.81
250.299	186.81
250.532	213.81
250.765	210.81
250.998	229.81
251.231	245.81
251.465	229.81
251.698	214.81
251.931	208.81
252.164	214.81
252.397	207.81
252.63	203.81
252.863	200.81
253.096	221.81
253.329	237.81
253.562	228.81
253.795	223.81
254.028	222.81
254.261	237.81
254.494	235.81
254.727	273.81
254.96	305.81
255.193	280.81
255.426	271.81
255.659	243.81
255.892	233.81
256.124	226.81
256.357	253.81
256.59	246.81
256.823	219.81
257.056	234.81
257.289	244.81
257.521	225.81
257.754	222.81
257.987	214.81
258.22	215.81
258.452	214.81
258.685	207.81
258.918	208.81
259.151	207.81
259.383	220.81
259.616	225.81
259.849	223.81
260.081	249.81
260.314	250.81
260.547	267.81
260.779	241.81
261.012	234.81
261.244	221.81
261.477	227.81
261.71	225.81
261.942	243.81
262.175	246.81
262.407	225.81
262.64	233.81
262.872	224.81
263.105	207.81
263.337	212.81
263.57	207.81
263.802	207.81
264.035	217.81
264.267	206.81
264.499	203.81
264.732	224.81
264.964	213.81
265.197	223.81
265.429	195.81
265.661	206.81
265.894	210.81
266.126	198.81
266.358	199.81
266.591	194.81
266.823	202.81
267.055	223.81
267.287	223.81
267.52	234.81
267.752	216.81
267.984	232.81
268.216	229.81
268.448	226.81
268.681	225.81
268.913	239.81
269.145	252.81
269.377	288.81
269.609	280.81
269.841	280.81
270.073	279.81
270.306	287.81
270.538	325.81
270.77	319.81
271.002	305.81
271.234	301.81
271.466	299.81
271.698	324.81
271.93	342.81
272.162	331.81
272.394	341.81
272.626	293.81
272.858	276.81
273.09	294.81
273.322	282.81
273.553	267.81
273.785	281.81
274.017	253.81
274.249	261.81
274.481	246.81
274.713	271.81
274.945	252.81
275.176	260.81
275.408	258.81
275.64	262.81
275.872	274.81
276.104	246.81
276.335	254.81
276.567	262.81
276.799	294.81
277.031	305.81
277.262	295.81
277.494	320.81
277.726	292.81
277.957	285.81
278.189	269.81
278.421	265.81
278.652	257.81
278.884	267.81
279.115	242.81
279.347	261.81
279.579	267.81
279.81	260.81
280.042	242.81
280.273	261.81
280.505	253.81
280.736	263.81
280.968	251.81
281.199	255.81
281.431	253.81
281.662	253.81
281.894	250.81
282.125	251.81
282.356	277.81
282.588	285.81
282.819	299.81
283.051	251.81
283.282	251.81
283.513	270.81
283.745	258.81
283.976	280.81
284.207	264.81
284.439	264.81
284.67	246.81
284.901	274.81
285.132	277.81
285.364	231.81
285.595	260.81
285.826	260.81
286.057	253.81
286.288	257.81
286.52	255.81
286.751	261.81
286.982	263.81
287.213	273.81
287.444	261.81
287.675	270.81
287.906	285.81
288.138	274.81
288.369	290.81
288.6	294.81
288.831	281.81
289.062	265.81
289.293	272.81
289.524	268.81
289.755	277.81
289.986	263.81
290.217	249.81
290.448	263.81
290.679	269.81
290.91	254.81
291.141	279.81
291.371	271.81
291.602	251.81
291.833	255.81
292.064	247.81
292.295	283.81
292.526	273.81
292.757	272.81
292.987	276.81
293.218	256.81
293.449	267.81
293.68	263.81
293.91	262.81
294.141	273.81
294.372	279.81
294.603	265.81
294.833	269.81
295.064	271.81
295.295	271.81
295.525	278.81
295.756	271.81
295.987	290.81
296.217	295.81
296.448	329.81
296.679	283.81
296.909	267.81
297.14	266.81
297.37	292.81
297.601	268.81
297.831	269.81
298.062	283.81
298.292	282.81
298.523	282.81
298.753	282.81
298.984	258.81
299.214	274.81
299.445	271.81
299.675	276.81
299.905	285.81
300.136	273.81
300.366	277.81
300.597	278.81
300.827	288.81
301.057	293.81
301.288	314.81
301.518	307.81
301.748	282.81
301.979	295.81
302.209	287.81
302.439	313.81
302.669	311.81
302.9	283.81
303.13	297.81
303.36	305.81
303.59	319.81
303.82	313.81
304.051	313.81
304.281	298.81
304.511	306.81
304.741	291.81
304.971	307.81
305.201	295.81
305.431	298.81
305.661	306.81
305.891	275.81
306.121	306.81
306.352	314.81
306.582	305.81
306.812	311.81
307.042	300.81
307.272	290.81
307.502	295.81
307.731	318.81
307.961	306.81
308.191	293.81
308.421	314.81
308.651	325.81
308.881	319.81
309.111	308.81
309.341	317.81
309.571	351.81
309.8	370.81
310.03	358.81
310.26	377.81
310.49	375.81
310.72	389.81
310.949	382.81
311.179	385.81
311.409	368.81
311.639	357.81
311.868	350.81
312.098	366.81
312.328	383.81
312.557	410.81
312.787	400.81
313.017	421.81
313.246	381.81
313.476	371.81
313.706	378.81
313.935	366.81
314.165	375.81
314.394	405.81
314.624	376.81
314.853	381.81
315.083	389.81
315.312	394.81
315.542	362.81
315.771	344.81
316.001	358.81
316.23	377.81
316.46	343.81
316.689	376.81
316.919	377.81
317.148	376.81
317.377	390.81
317.607	388.81
317.836	371.81
318.065	366.81
318.295	369.81
318.524	352.81
318.753	337.81
318.983	362.81
319.212	346.81
319.441	377.81
319.67	369.81
319.9	377.81
320.129	377.81
320.358	364.81
320.587	380.81
320.816	389.81
321.046	375.81
321.275	393.81
321.504	390.81
321.733	407.81
321.962	387.81
322.191	415.81
322.42	417.81
322.649	439.81
322.878	469.81
323.108	482.81
323.337	515.81
323.566	529.81
323.795	566.81
324.024	622.81
324.253	765.81
324.482	1167.81
324.71	1773.81
324.939	2557.81
325.168	2240.81
325.397	1177.81
325.626	737.81
325.855	593.81
326.084	529.81
326.313	539.81
326.542	542.81
326.77	610.81
326.999	715.81
327.228	1018.81
327.457	1573.81
327.686	1917.81
327.914	1276.81
328.143	840.81
328.372	699.81
328.6	667.81
328.829	630.81
329.058	627.81
329.287	665.81
329.515	595.81
329.744	538.81
329.972	531.81
330.201	578.81
330.43	600.81
330.658	647.81
330.887	692.81
331.115	647.81
331.344	521.81
331.572	513.81
331.801	483.81
332.03	481.81
332.258	477.81
332.486	455.81
332.715	447.81
332.943	440.81
333.172	435.81
333.4	449.81
333.629	448.81
333.857	460.81
334.085	469.81
334.314	478.81
334.542	515.81
334.771	539.81
334.999	501.81
335.227	464.81
335.455	449.81
335.684	424.81
335.912	408.81
336.14	424.81
336.369	405.81
336.597	439.81
336.825	438.81
337.053	425.81
337.281	413.81
337.51	408.81
337.738	422.81
337.966	435.81
338.194	429.81
338.422	445.81
338.65	426.81
338.878	436.81
339.106	394.81
339.334	427.81
339.562	392.81
339.79	407.81
340.018	421.81
340.246	402.81
340.474	405.81
340.702	437.81
340.93	422.81
341.158	399.81
341.386	419.81
341.614	415.81
341.842	403.81
342.07	411.81
342.298	394.81
342.526	403.81
342.754	387.81
342.981	388.81
343.209	397.81
343.437	389.81
343.665	381.81
343.893	399.81
344.12	403.81
344.348	416.81
344.576	413.81
344.804	437.81
345.031	438.81
345.259	430.81
345.487	423.81
345.714	434.81
345.942	435.81
346.17	413.81
346.397	410.81
346.625	411.81
346.853	418.81
347.08	399.81
347.308	424.81
347.535	421.81
347.763	447.81
347.99	421.81
348.218	432.81
348.445	446.81
348.673	438.81
348.9	411.81
349.128	407.81
349.355	393.81
349.583	403.81
349.81	425.81
350.037	374.81
350.265	394.81
350.492	379.81
350.72	400.81
350.947	392.81
351.174	417.81
351.402	401.81
351.629	424.81
351.856	405.81
352.083	431.81
352.311	441.81
352.538	438.81
352.765	430.81
352.992	437.81
353.22	422.81
353.447	413.81
353.674	423.81
353.901	403.81
354.128	417.81
354.355	374.81
354.583	387.81
354.81	395.81
355.037	378.81
355.264	384.81
355.491	377.81
355.718	384.81
355.945	388.81
356.172	394.81
356.399	373.81
356.626	390.81
356.853	385.81
357.08	363.81
357.307	374.81
357.534	377.81
357.761	374.81
357.988	376.81
358.215	375.81
358.441	398.81
358.668	403.81
358.895	397.81
359.122	408.81
359.349	403.81
359.576	417.81
359.802	448.81
360.029	486.81
360.256	515.81
360.483	468.81
360.709	429.81
360.936	435.81
361.163	426.81
361.39	455.81
361.616	433.81
361.843	417.81
362.07	416.81
362.296	411.81
362.523	427.81
362.749	439.81
362.976	415.81
363.203	401.81
363.429	393.81
363.656	395.81
363.882	409.81
364.109	393.81
364.335	414.81
364.562	389.81
364.788	418.81
365.015	390.81
365.241	395.81
365.468	416.81
365.694	414.81
365.92	429.81
366.147	408.81
366.373	385.81
366.599	394.81
366.826	383.81
367.052	402.81
367.278	386.81
367.505	388.81
367.731	405.81
367.957	382.81
368.184	400.81
368.41	401.81
368.636	416.81
368.862	409.81
369.089	395.81
369.315	392.81
369.541	391.81
369.767	402.81
369.993	400.81
370.219	372.81
370.445	396.81
370.672	391.81
370.898	381.81
371.124	385.81
371.35	377.81
371.576	378.81
371.802	396.81
372.028	396.81
372.254	394.81
372.48	371.81
372.706	384.81
372.932	373.81
373.158	365.81
373.384	386.81
373.61	388.81
373.835	374.81
374.061	408.81
374.287	411.81
374.513	385.81
374.739	394.81
374.965	389.81
375.191	399.81
375.416	402.81
375.642	393.81
375.868	389.81
376.094	374.81
376.319	394.81
376.545	379.81
376.771	374.81
376.997	386.81
377.222	385.81
377.448	399.81
377.674	362.81
377.899	374.81
378.125	388.81
378.35	374.81
378.576	397.81
378.802	391.81
379.027	395.81
379.253	398.81
379.478	376.81
379.704	404.81
379.929	385.81
380.155	406.81
380.38	395.81
380.606	394.81
380.831	372.81
381.057	381.81
381.282	381.81
381.507	391.81
381.733	389.81
381.958	398.81
382.184	373.81
382.409	402.81
382.634	394.81
382.86	401.81
383.085	406.81
383.31	399.81
383.535	403.81
383.761	406.81
383.986	402.81
384.211	397.81
384.436	431.81
384.662	415.81
384.887	388.81
385.112	408.81
385.337	416.81
385.562	422.81
385.787	393.81
386.013	441.81
386.238	427.81
386.463	431.81
386.688	421.81
386.913	417.81
387.138	427.81
387.363	408.81
387.588	425.81
387.813	427.81
388.038	427.81
388.263	416.81
388.488	418.81
388.713	429.81
388.938	399.81
389.163	423.81
389.387	435.81
389.612	424.81
389.837	419.81
390.062	414.81
390.287	413.81
390.512	411.81
390.736	408.81
390.961	422.81
391.186	435.81
391.411	433.81
391.636	423.81
391.86	411.81
392.085	423.81
392.31	428.81
392.534	426.81
392.759	425.81
392.984	420.81
393.208	445.81
393.433	441.81
393.658	443.81
393.882	415.81
394.107	416.81
394.331	424.81
394.556	415.81
394.78	426.81
395.005	433.81
395.229	442.81
395.454	424.81
395.678	432.81
395.903	458.81
396.127	486.81
396.352	482.81
396.576	452.81
396.801	427.81
397.025	443.81
397.249	427.81
397.474	442.81
397.698	438.81
397.922	466.81
398.147	461.81
398.371	480.81
398.595	465.81
398.82	471.81
399.044	469.81
399.268	480.81
399.492	505.81
399.717	536.81
399.941	537.81
400.165	571.81
400.389	598.81
400.613	538.81
400.837	509.81
401.062	519.81
401.286	488.81
401.51	486.81
401.734	474.81
401.958	507.81
402.182	494.81
402.406	508.81
402.63	506.81
402.854	498.81
403.078	514.81
403.302	495.81
403.526	507.81
403.75	483.81
403.974	502.81
404.198	509.81
404.422	489.81
404.645	508.81
404.869	523.81
405.093	577.81
405.317	604.81
405.541	634.81
405.765	575.81
405.988	549.81
406.212	549.81
406.436	572.81
406.66	609.81
406.883	568.81
407.107	579.81
407.331	639.81
407.555	702.81
407.778	694.81
408.002	617.81
408.226	582.81
408.449	555.81
408.673	574.81
408.896	605.81
409.12	640.81
409.344	587.81
409.567	528.81
409.791	529.81
410.014	507.81
410.238	529.81
410.461	493.81
410.685	531.81
410.908	551.81
411.132	575.81
411.355	597.81
411.578	571.81
411.802	527.81
412.025	489.81
412.249	531.81
412.472	531.81
412.695	593.81
412.919	577.81
413.142	530.81
413.365	525.81
413.589	511.81
413.812	506.81
414.035	502.81
414.258	485.81
414.482	469.81
414.705	475.81
414.928	470.81
415.151	479.81
415.374	494.81
415.597	473.81
415.821	474.81
416.044	475.81
416.267	505.81
416.49	504.81
416.713	496.81
416.936	478.81
417.159	473.81
417.382	497.81
417.605	507.81
417.828	507.81
418.051	525.81
418.274	510.81
418.497	481.81
418.72	484.81
418.943	482.81
419.166	498.81
419.389	531.81
419.611	514.81
419.834	523.81
420.057	522.81
420.28	515.81
420.503	529.81
420.726	543.81
420.948	572.81
421.171	577.81
421.394	605.81
421.617	562.81
421.839	538.81
422.062	529.81
422.285	528.81
422.507	616.81
422.73	691.81
422.953	662.81
423.175	571.81
423.398	542.81
423.621	558.81
423.843	559.81
424.066	555.81
424.288	586.81
424.511	595.81
424.733	663.81
424.956	727.81
425.178	691.81
425.401	705.81
425.623	755.81
425.846	634.81
426.068	610.81
426.291	598.81
426.513	568.81
426.735	602.81
426.958	643.81
427.18	723.81
427.402	896.81
427.625	958.81
427.847	894.81
428.069	763.81
428.292	667.81
428.514	601.81
428.736	566.81
428.958	573.81
429.181	560.81
429.403	553.81
429.625	569.81
429.847	600.81
430.069	669.81
430.292	659.81
430.514	583.81
430.736	563.81
430.958	539.81
431.18	512.81
431.402	542.81
431.624	485.81
431.846	511.81
432.068	497.81
432.29	504.81
432.512	497.81
432.734	545.81
432.956	506.81
433.178	543.81
433.4	549.81
433.622	516.81
433.844	517.81
434.066	522.81
434.287	511.81
434.509	530.81
434.731	517.81
434.953	535.81
435.175	532.81
435.397	567.81
435.618	578.81
435.84	614.81
436.062	720.81
436.284	791.81
436.505	671.81
436.727	597.81
436.949	565.81
437.17	565.81
437.392	542.81
437.614	572.81
437.835	621.81
438.057	751.81
438.278	856.81
438.5	845.81
438.721	879.81
438.943	847.81
439.165	697.81
439.386	637.81
439.608	626.81
439.829	639.81
440.05	664.81
440.272	708.81
440.493	667.81
440.715	598.81
440.936	551.81
441.158	548.81
441.379	569.81
441.6	562.81
441.822	606.81
442.043	634.81
442.264	744.81
442.486	764.81
442.707	694.81
442.928	625.81
443.149	647.81
443.371	665.81
443.592	693.81
443.813	785.81
444.034	848.81
444.255	694.81
444.476	602.81
444.698	595.81
444.919	581.81
445.14	661.81
445.361	636.81
445.582	655.81
445.803	715.81
446.024	843.81
446.245	857.81
446.466	773.81
446.687	665.81
446.908	628.81
447.129	573.81
447.35	561.81
447.571	553.81
447.792	553.81
448.013	547.81
448.234	564.81
448.455	639.81
448.675	756.81
448.896	845.81
449.117	730.81
449.338	712.81
449.559	791.81
449.779	880.81
450	739.81
450.221	621.81
450.442	615.81
450.662	562.81
450.883	562.81
451.104	586.81
451.324	591.81
451.545	538.81
451.766	529.81
451.986	509.81
452.207	489.81
452.428	504.81
452.648	501.81
452.869	496.81
453.089	507.81
453.31	527.81
453.53	513.81
453.751	485.81
453.971	496.81
454.192	539.81
454.412	523.81
454.633	500.81
454.853	493.81
455.073	495.81
455.294	506.81
455.514	609.81
455.734	597.81
455.955	475.81
456.175	459.81
456.395	442.81
456.616	447.81
456.836	456.81
457.056	451.81
457.276	441.81
457.497	455.81
457.717	470.81
457.937	458.81
458.157	463.81
458.377	475.81
458.598	466.81
458.818	577.81
459.038	712.81
459.258	714.81
459.478	588.81
459.698	522.81
459.918	518.81
460.138	509.81
460.358	474.81
460.578	495.81
460.798	509.81
461.018	507.81
461.238	490.81
461.458	487.81
461.678	469.81
461.898	500.81
462.118	485.81
462.338	493.81
462.558	480.81
462.777	500.81
462.997	517.81
463.217	522.81
463.437	532.81
463.657	495.81
463.876	475.81
464.096	513.81
464.316	507.81
464.536	544.81
464.755	550.81
464.975	531.81
465.195	598.81
465.414	702.81
465.634	635.81
465.854	578.81
466.073	534.81
466.293	513.81
466.512	505.81
466.732	496.81
466.951	495.81
467.171	520.81
467.391	505.81
467.61	507.81
467.829	511.81
468.049	513.81
468.268	501.81
468.488	515.81
468.707	489.81
468.927	485.81
469.146	486.81
469.365	482.81
469.585	462.81
469.804	504.81
470.023	527.81
470.243	512.81
470.462	513.81
470.681	544.81
470.901	538.81
471.12	509.81
471.339	513.81
471.558	505.81
471.777	515.81
471.997	507.81
472.216	488.81
472.435	555.81
472.654	523.81
472.873	504.81
473.092	491.81
473.311	528.81
473.53	503.81
473.749	535.81
473.968	577.81
474.187	675.81
474.406	712.81
474.625	573.81
474.844	531.81
475.063	505.81
475.282	527.81
475.501	527.81
475.72	512.81
475.939	516.81
476.158	543.81
476.377	545.81
476.596	529.81
476.814	550.81
477.033	533.81
477.252	553.81
477.471	551.81
477.69	558.81
477.908	549.81
478.127	551.81
478.346	564.81
478.564	560.81
478.783	550.81
479.002	553.81
479.22	583.81
479.439	595.81
479.658	623.81
479.876	610.81
480.095	598.81
480.313	662.81
480.532	636.81
480.751	626.81
480.969	634.81
481.188	688.81
481.406	773.81
481.624	651.81
481.843	633.81
482.061	639.81
482.28	630.81
482.498	606.81
482.717	616.81
482.935	604.81
483.153	618.81
483.372	607.81
483.59	623.81
483.808	613.81
484.027	610.81
484.245	638.81
484.463	616.81
484.681	633.81
484.9	611.81
485.118	612.81
485.336	631.81
485.554	630.81
485.772	635.81
485.99	624.81
486.209	630.81
486.427	648.81
486.645	645.81
486.863	686.81
487.081	671.81
487.299	661.81
487.517	676.81
487.735	666.81
487.953	682.81
488.171	681.81
488.389	689.81
488.607	675.81
488.825	647.81
489.043	671.81
489.261	652.81
489.479	650.81
489.696	687.81
489.914	657.81
490.132	678.81
490.35	703.81
490.568	722.81
490.786	699.81
491.003	720.81
491.221	735.81
491.439	767.81
491.657	753.81
491.874	758.81
492.092	785.81
492.31	783.81
492.527	799.81
492.745	785.81
492.963	780.81
493.18	787.81
493.398	801.81
493.615	791.81
493.833	798.81
494.05	790.81
494.268	783.81
494.485	803.81
494.703	823.81
494.92	808.81
495.138	802.81
495.355	807.81
495.573	802.81
495.79	827.81
496.008	802.81
496.225	789.81
496.442	784.81
496.66	821.81
496.877	803.81
497.094	803.81
497.312	838.81
497.529	799.81
497.746	814.81
497.963	810.81
498.181	831.81
498.398	846.81
498.615	848.81
498.832	849.81
499.049	859.81
499.267	878.81
499.484	902.81
499.701	896.81
499.918	917.81
500.135	921.81
500.352	947.81
500.569	971.81
500.786	971.81
501.003	971.81
501.22	958.81
501.437	962.81
