Data from 1972.PennyLincolnUp.Lamp.En5.5.200Scan.071719.P1._HRD10591_15-26-51-843.txt Node
Date: Thu Jul 18 15:26:51 EDT 2019
User: cochatt
Spectrometer: HR+D1059
Trigger mode: 1
Integration Time (sec): 1.000000E-1
Scans to average: 1
Electric dark correction enabled: true
Nonlinearity correction enabled: false
Boxcar width: 0
XAxis mode: Wavelengths
Number of Pixels in Spectrum: 2048
>>>>>Begin Spectral Data<<<<<
223.165	-7.12
223.4	-7.12
223.635	-7.12
223.869	-6.12
224.104	-13.12
224.338	-8.12
224.573	-20.12
224.808	-7.12
225.042	-7.12
225.277	-21.12
225.511	-1.12
225.746	-3.12
225.98	8.88
226.215	7.88
226.449	9.88
226.683	30.88
226.918	13.88
227.152	22.88
227.387	53.88
227.621	30.88
227.856	51.88
228.09	50.88
228.324	38.88
228.559	49.88
228.793	74.88
229.027	71.88
229.262	94.88
229.496	96.88
229.73	102.88
229.964	126.88
230.199	116.88
230.433	115.88
230.667	88.88
230.901	105.88
231.136	101.88
231.37	109.88
231.604	104.88
231.838	92.88
232.072	118.88
232.306	105.88
232.541	97.88
232.775	102.88
233.009	106.88
233.243	115.88
233.477	114.88
233.711	104.88
233.945	110.88
234.179	103.88
234.413	108.88
234.647	111.88
234.881	111.88
235.115	103.88
235.349	118.88
235.583	104.88
235.817	107.88
236.051	114.88
236.285	108.88
236.519	107.88
236.753	111.88
236.987	114.88
237.221	148.88
237.455	170.88
237.689	156.88
237.922	111.88
238.156	116.88
238.39	108.88
238.624	104.88
238.858	105.88
239.091	110.88
239.325	112.88
239.559	123.88
239.793	115.88
240.027	118.88
240.26	126.88
240.494	123.88
240.728	115.88
240.961	127.88
241.195	124.88
241.429	118.88
241.662	111.88
241.896	112.88
242.13	125.88
242.363	98.88
242.597	106.88
242.83	121.88
243.064	111.88
243.298	120.88
243.531	109.88
243.765	112.88
243.998	126.88
244.232	105.88
244.465	126.88
244.699	135.88
244.932	129.88
245.166	119.88
245.399	132.88
245.633	125.88
245.866	138.88
246.099	124.88
246.333	128.88
246.566	150.88
246.8	133.88
247.033	122.88
247.266	134.88
247.5	150.88
247.733	141.88
247.966	145.88
248.2	146.88
248.433	135.88
248.666	140.88
248.899	156.88
249.133	171.88
249.366	153.88
249.599	158.88
249.832	147.88
250.066	151.88
250.299	151.88
250.532	163.88
250.765	173.88
250.998	166.88
251.231	191.88
251.465	174.88
251.698	171.88
251.931	152.88
252.164	161.88
252.397	159.88
252.63	175.88
252.863	164.88
253.096	179.88
253.329	179.88
253.562	184.88
253.795	184.88
254.028	172.88
254.261	176.88
254.494	189.88
254.727	196.88
254.96	214.88
255.193	210.88
255.426	178.88
255.659	194.88
255.892	175.88
256.124	181.88
256.357	189.88
256.59	181.88
256.823	182.88
257.056	186.88
257.289	173.88
257.521	181.88
257.754	156.88
257.987	165.88
258.22	167.88
258.452	165.88
258.685	151.88
258.918	174.88
259.151	166.88
259.383	183.88
259.616	185.88
259.849	162.88
260.081	184.88
260.314	188.88
260.547	194.88
260.779	183.88
261.012	196.88
261.244	175.88
261.477	185.88
261.71	180.88
261.942	194.88
262.175	190.88
262.407	187.88
262.64	172.88
262.872	167.88
263.105	184.88
263.337	170.88
263.57	169.88
263.802	165.88
264.035	171.88
264.267	154.88
264.499	183.88
264.732	169.88
264.964	182.88
265.197	167.88
265.429	162.88
265.661	196.88
265.894	179.88
266.126	188.88
266.358	169.88
266.591	170.88
266.823	166.88
267.055	184.88
267.287	181.88
267.52	174.88
267.752	184.88
267.984	171.88
268.216	192.88
268.448	196.88
268.681	201.88
268.913	207.88
269.145	208.88
269.377	214.88
269.609	206.88
269.841	205.88
270.073	210.88
270.306	213.88
270.538	227.88
270.77	233.88
271.002	227.88
271.234	231.88
271.466	237.88
271.698	243.88
271.93	234.88
272.162	244.88
272.394	247.88
272.626	231.88
272.858	212.88
273.09	206.88
273.322	203.88
273.553	201.88
273.785	184.88
274.017	213.88
274.249	215.88
274.481	208.88
274.713	207.88
274.945	220.88
275.176	211.88
275.408	211.88
275.64	200.88
275.872	213.88
276.104	215.88
276.335	194.88
276.567	205.88
276.799	213.88
277.031	230.88
277.262	247.88
277.494	236.88
277.726	232.88
277.957	227.88
278.189	219.88
278.421	208.88
278.652	218.88
278.884	212.88
279.115	192.88
279.347	215.88
279.579	212.88
279.81	225.88
280.042	214.88
280.273	213.88
280.505	228.88
280.736	229.88
280.968	215.88
281.199	228.88
281.431	205.88
281.662	208.88
281.894	212.88
282.125	212.88
282.356	219.88
282.588	239.88
282.819	234.88
283.051	226.88
283.282	220.88
283.513	222.88
283.745	192.88
283.976	203.88
284.207	215.88
284.439	199.88
284.67	217.88
284.901	203.88
285.132	233.88
285.364	228.88
285.595	206.88
285.826	217.88
286.057	209.88
286.288	213.88
286.52	207.88
286.751	203.88
286.982	211.88
287.213	218.88
287.444	214.88
287.675	213.88
287.906	218.88
288.138	230.88
288.369	238.88
288.6	218.88
288.831	232.88
289.062	215.88
289.293	208.88
289.524	218.88
289.755	233.88
289.986	227.88
290.217	217.88
290.448	216.88
290.679	231.88
290.91	211.88
291.141	233.88
291.371	248.88
291.602	221.88
291.833	223.88
292.064	223.88
292.295	226.88
292.526	225.88
292.757	227.88
292.987	231.88
293.218	216.88
293.449	208.88
293.68	236.88
293.91	225.88
294.141	220.88
294.372	214.88
294.603	224.88
294.833	219.88
295.064	210.88
295.295	222.88
295.525	226.88
295.756	204.88
295.987	237.88
296.217	242.88
296.448	259.88
296.679	237.88
296.909	223.88
297.14	233.88
297.37	224.88
297.601	222.88
297.831	227.88
298.062	229.88
298.292	245.88
298.523	248.88
298.753	236.88
298.984	216.88
299.214	244.88
299.445	229.88
299.675	238.88
299.905	224.88
300.136	242.88
300.366	222.88
300.597	231.88
300.827	239.88
301.057	228.88
301.288	239.88
301.518	238.88
301.748	246.88
301.979	240.88
302.209	238.88
302.439	230.88
302.669	245.88
302.9	242.88
303.13	241.88
303.36	252.88
303.59	257.88
303.82	248.88
304.051	258.88
304.281	260.88
304.511	250.88
304.741	263.88
304.971	256.88
305.201	246.88
305.431	243.88
305.661	236.88
305.891	269.88
306.121	244.88
306.352	242.88
306.582	251.88
306.812	242.88
307.042	260.88
307.272	248.88
307.502	238.88
307.731	251.88
307.961	244.88
308.191	245.88
308.421	238.88
308.651	262.88
308.881	266.88
309.111	260.88
309.341	239.88
309.571	265.88
309.8	259.88
310.03	268.88
310.26	275.88
310.49	282.88
310.72	296.88
310.949	302.88
311.179	298.88
311.409	292.88
311.639	289.88
311.868	275.88
312.098	280.88
312.328	284.88
312.557	294.88
312.787	308.88
313.017	277.88
313.246	292.88
313.476	275.88
313.706	292.88
313.935	280.88
314.165	274.88
314.394	286.88
314.624	288.88
314.853	280.88
315.083	283.88
315.312	273.88
315.542	268.88
315.771	273.88
316.001	270.88
316.23	272.88
316.46	283.88
316.689	288.88
316.919	259.88
317.148	290.88
317.377	305.88
317.607	298.88
317.836	308.88
318.065	281.88
318.295	279.88
318.524	288.88
318.753	291.88
318.983	292.88
319.212	296.88
319.441	277.88
319.67	286.88
319.9	279.88
320.129	283.88
320.358	296.88
320.587	291.88
320.816	276.88
321.046	271.88
321.275	302.88
321.504	303.88
321.733	306.88
321.962	296.88
322.191	304.88
322.42	326.88
322.649	329.88
322.878	319.88
323.108	332.88
323.337	341.88
323.566	349.88
323.795	365.88
324.024	397.88
324.253	454.88
324.482	659.88
324.71	980.88
324.939	1419.88
325.168	1272.88
325.397	663.88
325.626	447.88
325.855	388.88
326.084	362.88
326.313	363.88
326.542	379.88
326.77	386.88
326.999	457.88
327.228	591.88
327.457	855.88
327.686	1099.88
327.914	761.88
328.143	478.88
328.372	430.88
328.6	415.88
328.829	392.88
329.058	405.88
329.287	396.88
329.515	395.88
329.744	388.88
329.972	356.88
330.201	368.88
330.43	384.88
330.658	407.88
330.887	418.88
331.115	436.88
331.344	372.88
331.572	338.88
331.801	342.88
332.03	346.88
332.258	336.88
332.486	338.88
332.715	315.88
332.943	332.88
333.172	330.88
333.4	332.88
333.629	355.88
333.857	346.88
334.085	329.88
334.314	355.88
334.542	365.88
334.771	376.88
334.999	357.88
335.227	356.88
335.455	351.88
335.684	323.88
335.912	345.88
336.14	310.88
336.369	303.88
336.597	336.88
336.825	325.88
337.053	318.88
337.281	323.88
337.51	308.88
337.738	341.88
337.966	314.88
338.194	328.88
338.422	307.88
338.65	315.88
338.878	300.88
339.106	320.88
339.334	325.88
339.562	326.88
339.79	311.88
340.018	314.88
340.246	302.88
340.474	324.88
340.702	319.88
340.93	308.88
341.158	298.88
341.386	319.88
341.614	320.88
341.842	317.88
342.07	299.88
342.298	314.88
342.526	322.88
342.754	287.88
342.981	308.88
343.209	294.88
343.437	298.88
343.665	301.88
343.893	318.88
344.12	325.88
344.348	314.88
344.576	320.88
344.804	341.88
345.031	327.88
345.259	336.88
345.487	330.88
345.714	306.88
345.942	310.88
346.17	310.88
346.397	306.88
346.625	299.88
346.853	295.88
347.08	310.88
347.308	299.88
347.535	296.88
347.763	316.88
347.99	311.88
348.218	305.88
348.445	320.88
348.673	314.88
348.9	327.88
349.128	297.88
349.355	302.88
349.583	293.88
349.81	277.88
350.037	299.88
350.265	296.88
350.492	297.88
350.72	293.88
350.947	302.88
351.174	312.88
351.402	310.88
351.629	305.88
351.856	325.88
352.083	298.88
352.311	312.88
352.538	314.88
352.765	320.88
352.992	308.88
353.22	307.88
353.447	310.88
353.674	302.88
353.901	295.88
354.128	294.88
354.355	283.88
354.583	290.88
354.81	280.88
355.037	299.88
355.264	285.88
355.491	293.88
355.718	270.88
355.945	284.88
356.172	295.88
356.399	304.88
356.626	292.88
356.853	266.88
357.08	288.88
357.307	294.88
357.534	296.88
357.761	284.88
357.988	296.88
358.215	294.88
358.441	292.88
358.668	315.88
358.895	293.88
359.122	294.88
359.349	294.88
359.576	291.88
359.802	328.88
360.029	322.88
360.256	347.88
360.483	342.88
360.709	302.88
360.936	312.88
361.163	295.88
361.39	306.88
361.616	318.88
361.843	304.88
362.07	299.88
362.296	311.88
362.523	290.88
362.749	295.88
362.976	302.88
363.203	312.88
363.429	306.88
363.656	312.88
363.882	318.88
364.109	300.88
364.335	302.88
364.562	301.88
364.788	292.88
365.015	326.88
365.241	283.88
365.468	291.88
365.694	309.88
365.92	294.88
366.147	284.88
366.373	301.88
366.599	291.88
366.826	306.88
367.052	303.88
367.278	290.88
367.505	289.88
367.731	306.88
367.957	310.88
368.184	307.88
368.41	308.88
368.636	306.88
368.862	312.88
369.089	317.88
369.315	284.88
369.541	296.88
369.767	308.88
369.993	305.88
370.219	280.88
370.445	295.88
370.672	295.88
370.898	296.88
371.124	301.88
371.35	296.88
371.576	303.88
371.802	285.88
372.028	287.88
372.254	304.88
372.48	293.88
372.706	312.88
372.932	296.88
373.158	283.88
373.384	295.88
373.61	291.88
373.835	298.88
374.061	297.88
374.287	280.88
374.513	313.88
374.739	295.88
374.965	306.88
375.191	319.88
375.416	300.88
375.642	317.88
375.868	298.88
376.094	298.88
376.319	293.88
376.545	303.88
376.771	296.88
376.997	294.88
377.222	294.88
377.448	309.88
377.674	286.88
377.899	294.88
378.125	290.88
378.35	286.88
378.576	297.88
378.802	293.88
379.027	296.88
379.253	305.88
379.478	296.88
379.704	270.88
379.929	307.88
380.155	286.88
380.38	286.88
380.606	305.88
380.831	306.88
381.057	303.88
381.282	293.88
381.507	308.88
381.733	296.88
381.958	301.88
382.184	298.88
382.409	313.88
382.634	310.88
382.86	308.88
383.085	314.88
383.31	290.88
383.535	304.88
383.761	313.88
383.986	308.88
384.211	328.88
384.436	323.88
384.662	292.88
384.887	331.88
385.112	312.88
385.337	325.88
385.562	329.88
385.787	306.88
386.013	345.88
386.238	330.88
386.463	302.88
386.688	310.88
386.913	326.88
387.138	310.88
387.363	300.88
387.588	310.88
387.813	316.88
388.038	315.88
388.263	325.88
388.488	322.88
388.713	302.88
388.938	307.88
389.163	325.88
389.387	332.88
389.612	323.88
389.837	339.88
390.062	320.88
390.287	303.88
390.512	326.88
390.736	323.88
390.961	302.88
391.186	335.88
391.411	345.88
391.636	329.88
391.86	320.88
392.085	314.88
392.31	322.88
392.534	342.88
392.759	320.88
392.984	321.88
393.208	326.88
393.433	351.88
393.658	360.88
393.882	332.88
394.107	320.88
394.331	334.88
394.556	312.88
394.78	327.88
395.005	328.88
395.229	320.88
395.454	323.88
395.678	324.88
395.903	345.88
396.127	360.88
396.352	346.88
396.576	358.88
396.801	339.88
397.025	343.88
397.249	362.88
397.474	323.88
397.698	335.88
397.922	351.88
398.147	362.88
398.371	372.88
398.595	366.88
398.82	336.88
399.044	347.88
399.268	364.88
399.492	389.88
399.717	396.88
399.941	410.88
400.165	419.88
400.389	451.88
400.613	388.88
400.837	387.88
401.062	344.88
401.286	362.88
401.51	350.88
401.734	361.88
401.958	363.88
402.182	362.88
402.406	368.88
402.63	367.88
402.854	379.88
403.078	357.88
403.302	382.88
403.526	352.88
403.75	359.88
403.974	339.88
404.198	351.88
404.422	364.88
404.645	380.88
404.869	372.88
405.093	400.88
405.317	421.88
405.541	440.88
405.765	418.88
405.988	392.88
406.212	395.88
406.436	381.88
406.66	388.88
406.883	389.88
407.107	424.88
407.331	439.88
407.555	505.88
407.778	474.88
408.002	438.88
408.226	427.88
408.449	398.88
408.673	411.88
408.896	421.88
409.12	462.88
409.344	443.88
409.567	391.88
409.791	379.88
410.014	381.88
410.238	366.88
410.461	362.88
410.685	382.88
410.908	384.88
411.132	405.88
411.355	455.88
411.578	411.88
411.802	391.88
412.025	377.88
412.249	372.88
412.472	408.88
412.695	416.88
412.919	403.88
413.142	382.88
413.365	364.88
413.589	374.88
413.812	370.88
414.035	345.88
414.258	358.88
414.482	334.88
414.705	354.88
414.928	350.88
415.151	356.88
415.374	370.88
415.597	365.88
415.821	366.88
416.044	359.88
416.267	333.88
416.49	344.88
416.713	356.88
416.936	343.88
417.159	348.88
417.382	352.88
417.605	362.88
417.828	340.88
418.051	351.88
418.274	355.88
418.497	363.88
418.72	342.88
418.943	338.88
419.166	374.88
419.389	357.88
419.611	378.88
419.834	370.88
420.057	360.88
420.28	374.88
420.503	354.88
420.726	379.88
420.948	364.88
421.171	401.88
421.394	419.88
421.617	366.88
421.839	369.88
422.062	374.88
422.285	367.88
422.507	406.88
422.73	480.88
422.953	473.88
423.175	430.88
423.398	367.88
423.621	382.88
423.843	381.88
424.066	399.88
424.288	391.88
424.511	387.88
424.733	460.88
424.956	511.88
425.178	514.88
425.401	472.88
425.623	509.88
425.846	434.88
426.068	403.88
426.291	399.88
426.513	409.88
426.735	395.88
426.958	439.88
427.18	479.88
427.402	599.88
427.625	657.88
427.847	541.88
428.069	464.88
428.292	416.88
428.514	381.88
428.736	367.88
428.958	378.88
429.181	382.88
429.403	375.88
429.625	375.88
429.847	396.88
430.069	456.88
430.292	448.88
430.514	361.88
430.736	351.88
430.958	365.88
431.18	346.88
431.402	342.88
431.624	356.88
431.846	367.88
432.068	342.88
432.29	348.88
432.512	346.88
432.734	349.88
432.956	354.88
433.178	359.88
433.4	366.88
433.622	348.88
433.844	367.88
434.066	365.88
434.287	350.88
434.509	363.88
434.731	342.88
434.953	351.88
435.175	361.88
435.397	395.88
435.618	389.88
435.84	442.88
436.062	488.88
436.284	557.88
436.505	478.88
436.727	421.88
436.949	362.88
437.17	367.88
437.392	371.88
437.614	370.88
437.835	407.88
438.057	458.88
438.278	542.88
438.5	562.88
438.721	627.88
438.943	594.88
439.165	463.88
439.386	418.88
439.608	411.88
439.829	416.88
440.05	430.88
440.272	473.88
440.493	439.88
440.715	391.88
440.936	377.88
441.158	380.88
441.379	384.88
441.6	365.88
441.822	408.88
442.043	429.88
442.264	490.88
442.486	515.88
442.707	424.88
442.928	411.88
443.149	415.88
443.371	419.88
443.592	450.88
443.813	511.88
444.034	579.88
444.255	474.88
444.476	422.88
444.698	412.88
444.919	383.88
445.14	495.88
445.361	449.88
445.582	423.88
445.803	458.88
446.024	570.88
446.245	545.88
446.466	524.88
446.687	427.88
446.908	398.88
447.129	382.88
447.35	358.88
447.571	370.88
447.792	367.88
448.013	358.88
448.234	391.88
448.455	402.88
448.675	522.88
448.896	601.88
449.117	519.88
449.338	477.88
449.559	567.88
449.779	644.88
450	503.88
450.221	424.88
450.442	381.88
450.662	367.88
450.883	349.88
451.104	351.88
451.324	351.88
451.545	345.88
451.766	333.88
451.986	331.88
452.207	322.88
452.428	303.88
452.648	333.88
452.869	341.88
453.089	334.88
453.31	365.88
453.53	326.88
453.751	327.88
453.971	339.88
454.192	347.88
454.412	347.88
454.633	333.88
454.853	325.88
455.073	326.88
455.294	359.88
455.514	385.88
455.734	384.88
455.955	328.88
456.175	319.88
456.395	330.88
456.616	339.88
456.836	331.88
457.056	304.88
457.276	318.88
457.497	319.88
457.717	321.88
457.937	321.88
458.157	313.88
458.377	322.88
458.598	344.88
458.818	347.88
459.038	400.88
459.258	435.88
459.478	383.88
459.698	367.88
459.918	346.88
460.138	355.88
460.358	346.88
460.578	340.88
460.798	349.88
461.018	350.88
461.238	346.88
461.458	350.88
461.678	352.88
461.898	362.88
462.118	362.88
462.338	360.88
462.558	367.88
462.777	366.88
462.997	381.88
463.217	378.88
463.437	375.88
463.657	367.88
463.876	364.88
464.096	377.88
464.316	372.88
464.536	375.88
464.755	397.88
464.975	350.88
465.195	396.88
465.414	430.88
465.634	389.88
465.854	385.88
466.073	352.88
466.293	336.88
466.512	379.88
466.732	339.88
466.951	338.88
467.171	331.88
467.391	331.88
467.61	345.88
467.829	362.88
468.049	333.88
468.268	362.88
468.488	348.88
468.707	326.88
468.927	331.88
469.146	356.88
469.365	335.88
469.585	325.88
469.804	340.88
470.023	348.88
470.243	358.88
470.462	336.88
470.681	351.88
470.901	374.88
471.12	351.88
471.339	347.88
471.558	340.88
471.777	345.88
471.997	347.88
472.216	350.88
472.435	359.88
472.654	340.88
472.873	344.88
473.092	350.88
473.311	359.88
473.53	355.88
473.749	352.88
473.968	368.88
474.187	442.88
474.406	470.88
474.625	400.88
474.844	367.88
475.063	364.88
475.282	334.88
475.501	351.88
475.72	361.88
475.939	335.88
476.158	347.88
476.377	360.88
476.596	355.88
476.814	342.88
477.033	381.88
477.252	355.88
477.471	373.88
477.69	382.88
477.908	379.88
478.127	376.88
478.346	371.88
478.564	366.88
478.783	382.88
479.002	376.88
479.22	381.88
479.439	408.88
479.658	411.88
479.876	406.88
480.095	410.88
480.313	400.88
480.532	439.88
480.751	408.88
480.969	419.88
481.188	448.88
481.406	480.88
481.624	443.88
481.843	441.88
482.061	406.88
482.28	387.88
482.498	392.88
482.717	420.88
482.935	423.88
483.153	408.88
483.372	418.88
483.59	416.88
483.808	378.88
484.027	390.88
484.245	401.88
484.463	404.88
484.681	414.88
484.9	406.88
485.118	420.88
485.336	404.88
485.554	406.88
485.772	415.88
485.99	432.88
486.209	435.88
486.427	420.88
486.645	427.88
486.863	453.88
487.081	434.88
487.299	442.88
487.517	432.88
487.735	435.88
487.953	445.88
488.171	438.88
488.389	424.88
488.607	451.88
488.825	445.88
489.043	421.88
489.261	446.88
489.479	437.88
489.696	453.88
489.914	472.88
490.132	458.88
490.35	443.88
490.568	443.88
490.786	464.88
491.003	445.88
491.221	476.88
491.439	481.88
491.657	478.88
491.874	487.88
492.092	484.88
492.31	493.88
492.527	486.88
492.745	489.88
492.963	487.88
493.18	477.88
493.398	502.88
493.615	496.88
493.833	467.88
494.05	521.88
494.268	485.88
494.485	503.88
494.703	500.88
494.92	502.88
495.138	503.88
495.355	520.88
495.573	519.88
495.79	514.88
496.008	493.88
496.225	518.88
496.442	493.88
496.66	492.88
496.877	511.88
497.094	504.88
497.312	522.88
497.529	525.88
497.746	527.88
497.963	533.88
498.181	536.88
498.398	553.88
498.615	579.88
498.832	578.88
499.049	579.88
499.267	591.88
499.484	581.88
499.701	606.88
499.918	622.88
500.135	634.88
500.352	654.88
500.569	658.88
500.786	675.88
501.003	660.88
501.22	636.88
501.437	623.88
501.654	621.88
501.871	630.88
502.088	598.88
