Data from 1972.PennyLincolnUp.Lamp.En5.5.200Scan.071719.P1._HRD10591_15-29-45-845.txt Node
Date: Thu Jul 18 15:29:45 EDT 2019
User: cochatt
Spectrometer: HR+D1059
Trigger mode: 1
Integration Time (sec): 1.000000E-1
Scans to average: 1
Electric dark correction enabled: true
Nonlinearity correction enabled: false
Boxcar width: 0
XAxis mode: Wavelengths
Number of Pixels in Spectrum: 2048
>>>>>Begin Spectral Data<<<<<
223.165	-24.56
223.4	-24.56
223.635	-24.56
223.869	-9.56
224.104	-21.56
224.338	-29.56
224.573	4.44
224.808	-9.56
225.042	1.44
225.277	-8.56
225.511	0.44
225.746	0.44
225.98	12.44
226.215	-3.56
226.449	14.44
226.683	6.44
226.918	32.44
227.152	34.44
227.387	35.44
227.621	48.44
227.856	60.44
228.09	30.44
228.324	46.44
228.559	71.44
228.793	72.44
229.027	109.44
229.262	117.44
229.496	126.44
229.73	141.44
229.964	185.44
230.199	147.44
230.433	138.44
230.667	117.44
230.901	110.44
231.136	112.44
231.37	123.44
231.604	119.44
231.838	126.44
232.072	123.44
232.306	128.44
232.541	115.44
232.775	106.44
233.009	134.44
233.243	116.44
233.477	101.44
233.711	111.44
233.945	127.44
234.179	117.44
234.413	122.44
234.647	134.44
234.881	122.44
235.115	122.44
235.349	123.44
235.583	129.44
235.817	119.44
236.051	133.44
236.285	130.44
236.519	128.44
236.753	131.44
236.987	149.44
237.221	203.44
237.455	272.44
237.689	217.44
237.922	152.44
238.156	148.44
238.39	156.44
238.624	129.44
238.858	143.44
239.091	153.44
239.325	134.44
239.559	126.44
239.793	123.44
240.027	135.44
240.26	165.44
240.494	178.44
240.728	149.44
240.961	172.44
241.195	159.44
241.429	144.44
241.662	152.44
241.896	142.44
242.13	127.44
242.363	151.44
242.597	141.44
242.83	125.44
243.064	129.44
243.298	146.44
243.531	151.44
243.765	144.44
243.998	138.44
244.232	142.44
244.465	149.44
244.699	146.44
244.932	154.44
245.166	139.44
245.399	142.44
245.633	135.44
245.866	145.44
246.099	148.44
246.333	150.44
246.566	164.44
246.8	158.44
247.033	146.44
247.266	145.44
247.5	159.44
247.733	186.44
247.966	187.44
248.2	179.44
248.433	177.44
248.666	179.44
248.899	211.44
249.133	200.44
249.366	225.44
249.599	216.44
249.832	207.44
250.066	193.44
250.299	191.44
250.532	202.44
250.765	233.44
250.998	263.44
251.231	259.44
251.465	234.44
251.698	218.44
251.931	217.44
252.164	211.44
252.397	216.44
252.63	214.44
252.863	225.44
253.096	233.44
253.329	249.44
253.562	231.44
253.795	232.44
254.028	241.44
254.261	235.44
254.494	245.44
254.727	294.44
254.96	311.44
255.193	304.44
255.426	283.44
255.659	270.44
255.892	273.44
256.124	266.44
256.357	268.44
256.59	269.44
256.823	231.44
257.056	231.44
257.289	241.44
257.521	222.44
257.754	240.44
257.987	226.44
258.22	220.44
258.452	220.44
258.685	214.44
258.918	208.44
259.151	206.44
259.383	214.44
259.616	245.44
259.849	222.44
260.081	253.44
260.314	274.44
260.547	297.44
260.779	271.44
261.012	246.44
261.244	254.44
261.477	241.44
261.71	244.44
261.942	238.44
262.175	269.44
262.407	236.44
262.64	241.44
262.872	237.44
263.105	233.44
263.337	218.44
263.57	237.44
263.802	227.44
264.035	237.44
264.267	215.44
264.499	232.44
264.732	226.44
264.964	224.44
265.197	232.44
265.429	224.44
265.661	210.44
265.894	214.44
266.126	225.44
266.358	228.44
266.591	238.44
266.823	238.44
267.055	246.44
267.287	237.44
267.52	240.44
267.752	235.44
267.984	238.44
268.216	209.44
268.448	248.44
268.681	260.44
268.913	267.44
269.145	280.44
269.377	305.44
269.609	306.44
269.841	298.44
270.073	300.44
270.306	301.44
270.538	350.44
270.77	339.44
271.002	344.44
271.234	315.44
271.466	321.44
271.698	344.44
271.93	349.44
272.162	338.44
272.394	365.44
272.626	312.44
272.858	298.44
273.09	293.44
273.322	290.44
273.553	289.44
273.785	286.44
274.017	292.44
274.249	288.44
274.481	284.44
274.713	285.44
274.945	270.44
275.176	289.44
275.408	280.44
275.64	289.44
275.872	283.44
276.104	308.44
276.335	284.44
276.567	300.44
276.799	291.44
277.031	336.44
277.262	357.44
277.494	354.44
277.726	358.44
277.957	314.44
278.189	302.44
278.421	292.44
278.652	278.44
278.884	290.44
279.115	280.44
279.347	294.44
279.579	273.44
279.81	279.44
280.042	275.44
280.273	264.44
280.505	270.44
280.736	273.44
280.968	282.44
281.199	272.44
281.431	295.44
281.662	254.44
281.894	280.44
282.125	281.44
282.356	305.44
282.588	331.44
282.819	357.44
283.051	289.44
283.282	281.44
283.513	286.44
283.745	285.44
283.976	277.44
284.207	299.44
284.439	282.44
284.67	284.44
284.901	283.44
285.132	281.44
285.364	275.44
285.595	264.44
285.826	298.44
286.057	276.44
286.288	270.44
286.52	288.44
286.751	282.44
286.982	280.44
287.213	271.44
287.444	298.44
287.675	297.44
287.906	281.44
288.138	303.44
288.369	313.44
288.6	338.44
288.831	315.44
289.062	296.44
289.293	283.44
289.524	305.44
289.755	303.44
289.986	301.44
290.217	300.44
290.448	299.44
290.679	301.44
290.91	285.44
291.141	286.44
291.371	280.44
291.602	280.44
291.833	284.44
292.064	301.44
292.295	294.44
292.526	298.44
292.757	301.44
292.987	292.44
293.218	285.44
293.449	293.44
293.68	287.44
293.91	288.44
294.141	311.44
294.372	289.44
294.603	288.44
294.833	274.44
295.064	297.44
295.295	291.44
295.525	292.44
295.756	308.44
295.987	307.44
296.217	341.44
296.448	340.44
296.679	297.44
296.909	305.44
297.14	284.44
297.37	320.44
297.601	298.44
297.831	293.44
298.062	310.44
298.292	301.44
298.523	316.44
298.753	320.44
298.984	318.44
299.214	298.44
299.445	322.44
299.675	323.44
299.905	314.44
300.136	322.44
300.366	307.44
300.597	314.44
300.827	316.44
301.057	333.44
301.288	331.44
301.518	330.44
301.748	325.44
301.979	337.44
302.209	324.44
302.439	342.44
302.669	327.44
302.9	315.44
303.13	333.44
303.36	315.44
303.59	350.44
303.82	334.44
304.051	344.44
304.281	339.44
304.511	325.44
304.741	323.44
304.971	327.44
305.201	343.44
305.431	326.44
305.661	333.44
305.891	313.44
306.121	330.44
306.352	331.44
306.582	333.44
306.812	317.44
307.042	324.44
307.272	331.44
307.502	328.44
307.731	334.44
307.961	332.44
308.191	329.44
308.421	369.44
308.651	342.44
308.881	360.44
309.111	363.44
309.341	355.44
309.571	368.44
309.8	392.44
310.03	418.44
310.26	386.44
310.49	386.44
310.72	395.44
310.949	439.44
311.179	427.44
311.409	396.44
311.639	402.44
311.868	392.44
312.098	377.44
312.328	425.44
312.557	420.44
312.787	443.44
313.017	433.44
313.246	417.44
313.476	391.44
313.706	397.44
313.935	422.44
314.165	405.44
314.394	424.44
314.624	427.44
314.853	443.44
315.083	406.44
315.312	379.44
315.542	383.44
315.771	376.44
316.001	377.44
316.23	374.44
316.46	387.44
316.689	394.44
316.919	398.44
317.148	405.44
317.377	396.44
317.607	412.44
317.836	419.44
318.065	402.44
318.295	404.44
318.524	369.44
318.753	368.44
318.983	390.44
319.212	378.44
319.441	412.44
319.67	407.44
319.9	391.44
320.129	391.44
320.358	402.44
320.587	409.44
320.816	418.44
321.046	439.44
321.275	421.44
321.504	414.44
321.733	396.44
321.962	425.44
322.191	446.44
322.42	476.44
322.649	489.44
322.878	496.44
323.108	512.44
323.337	560.44
323.566	590.44
323.795	613.44
324.024	690.44
324.253	846.44
324.482	1252.44
324.71	2012.44
324.939	3010.44
325.168	2606.44
325.397	1299.44
325.626	828.44
325.855	634.44
326.084	601.44
326.313	573.44
326.542	584.44
326.77	670.44
326.999	783.44
327.228	1116.44
327.457	1771.44
327.686	2254.44
327.914	1458.44
328.143	928.44
328.372	784.44
328.6	707.44
328.829	691.44
329.058	701.44
329.287	706.44
329.515	653.44
329.744	587.44
329.972	601.44
330.201	627.44
330.43	665.44
330.658	690.44
330.887	749.44
331.115	705.44
331.344	586.44
331.572	534.44
331.801	525.44
332.03	565.44
332.258	508.44
332.486	482.44
332.715	474.44
332.943	449.44
333.172	483.44
333.4	477.44
333.629	475.44
333.857	518.44
334.085	534.44
334.314	554.44
334.542	584.44
334.771	612.44
334.999	554.44
335.227	500.44
335.455	462.44
335.684	446.44
335.912	448.44
336.14	475.44
336.369	447.44
336.597	467.44
336.825	456.44
337.053	460.44
337.281	455.44
337.51	445.44
337.738	459.44
337.966	445.44
338.194	470.44
338.422	448.44
338.65	439.44
338.878	439.44
339.106	436.44
339.334	421.44
339.562	452.44
339.79	435.44
340.018	435.44
340.246	433.44
340.474	458.44
340.702	427.44
340.93	429.44
341.158	429.44
341.386	435.44
341.614	422.44
341.842	450.44
342.07	434.44
342.298	391.44
342.526	451.44
342.754	411.44
342.981	416.44
343.209	419.44
343.437	415.44
343.665	402.44
343.893	408.44
344.12	440.44
344.348	430.44
344.576	456.44
344.804	445.44
345.031	442.44
345.259	477.44
345.487	461.44
345.714	447.44
345.942	449.44
346.17	432.44
346.397	422.44
346.625	421.44
346.853	422.44
347.08	403.44
347.308	435.44
347.535	410.44
347.763	459.44
347.99	423.44
348.218	442.44
348.445	449.44
348.673	464.44
348.9	433.44
349.128	415.44
349.355	402.44
349.583	416.44
349.81	405.44
350.037	401.44
350.265	388.44
350.492	397.44
350.72	424.44
350.947	422.44
351.174	440.44
351.402	449.44
351.629	448.44
351.856	424.44
352.083	436.44
352.311	463.44
352.538	423.44
352.765	457.44
352.992	443.44
353.22	439.44
353.447	435.44
353.674	407.44
353.901	408.44
354.128	408.44
354.355	411.44
354.583	391.44
354.81	384.44
355.037	399.44
355.264	388.44
355.491	370.44
355.718	376.44
355.945	358.44
356.172	381.44
356.399	390.44
356.626	366.44
356.853	380.44
357.08	376.44
357.307	377.44
357.534	377.44
357.761	362.44
357.988	376.44
358.215	394.44
358.441	392.44
358.668	373.44
358.895	397.44
359.122	399.44
359.349	396.44
359.576	427.44
359.802	469.44
360.029	497.44
360.256	500.44
360.483	459.44
360.709	425.44
360.936	434.44
361.163	434.44
361.39	414.44
361.616	411.44
361.843	427.44
362.07	422.44
362.296	423.44
362.523	413.44
362.749	427.44
362.976	413.44
363.203	418.44
363.429	387.44
363.656	414.44
363.882	386.44
364.109	398.44
364.335	384.44
364.562	402.44
364.788	396.44
365.015	402.44
365.241	386.44
365.468	400.44
365.694	400.44
365.92	410.44
366.147	408.44
366.373	385.44
366.599	389.44
366.826	382.44
367.052	394.44
367.278	400.44
367.505	373.44
367.731	398.44
367.957	433.44
368.184	395.44
368.41	398.44
368.636	407.44
368.862	418.44
369.089	408.44
369.315	389.44
369.541	392.44
369.767	357.44
369.993	384.44
370.219	390.44
370.445	411.44
370.672	382.44
370.898	363.44
371.124	378.44
371.35	386.44
371.576	385.44
371.802	380.44
372.028	386.44
372.254	367.44
372.48	378.44
372.706	364.44
372.932	385.44
373.158	381.44
373.384	382.44
373.61	381.44
373.835	393.44
374.061	376.44
374.287	405.44
374.513	394.44
374.739	376.44
374.965	364.44
375.191	380.44
375.416	376.44
375.642	371.44
375.868	387.44
376.094	388.44
376.319	374.44
376.545	373.44
376.771	365.44
376.997	378.44
377.222	365.44
377.448	375.44
377.674	363.44
377.899	384.44
378.125	349.44
378.35	368.44
378.576	360.44
378.802	364.44
379.027	377.44
379.253	374.44
379.478	379.44
379.704	382.44
379.929	385.44
380.155	367.44
380.38	377.44
380.606	361.44
380.831	361.44
381.057	347.44
381.282	371.44
381.507	372.44
381.733	363.44
381.958	373.44
382.184	368.44
382.409	386.44
382.634	368.44
382.86	392.44
383.085	390.44
383.31	383.44
383.535	390.44
383.761	379.44
383.986	396.44
384.211	388.44
384.436	412.44
384.662	378.44
384.887	388.44
385.112	385.44
385.337	397.44
385.562	395.44
385.787	392.44
386.013	397.44
386.238	398.44
386.463	408.44
386.688	394.44
386.913	407.44
387.138	388.44
387.363	393.44
387.588	378.44
387.813	393.44
388.038	386.44
388.263	401.44
388.488	408.44
388.713	407.44
388.938	401.44
389.163	412.44
389.387	408.44
389.612	391.44
389.837	390.44
390.062	379.44
390.287	386.44
390.512	406.44
390.736	411.44
390.961	398.44
391.186	388.44
391.411	401.44
391.636	386.44
391.86	391.44
392.085	425.44
392.31	406.44
392.534	414.44
392.759	399.44
392.984	407.44
393.208	392.44
393.433	409.44
393.658	392.44
393.882	399.44
394.107	392.44
394.331	412.44
394.556	380.44
394.78	405.44
395.005	395.44
395.229	392.44
395.454	390.44
395.678	404.44
395.903	437.44
396.127	449.44
396.352	436.44
396.576	420.44
396.801	405.44
397.025	407.44
397.249	404.44
397.474	424.44
397.698	438.44
397.922	422.44
398.147	448.44
398.371	454.44
398.595	429.44
398.82	432.44
399.044	458.44
399.268	450.44
399.492	454.44
399.717	481.44
399.941	502.44
400.165	534.44
400.389	589.44
400.613	503.44
400.837	459.44
401.062	468.44
401.286	452.44
401.51	470.44
401.734	442.44
401.958	459.44
402.182	458.44
402.406	465.44
402.63	471.44
402.854	454.44
403.078	472.44
403.302	468.44
403.526	486.44
403.75	463.44
403.974	461.44
404.198	462.44
404.422	472.44
404.645	459.44
404.869	515.44
405.093	541.44
405.317	552.44
405.541	621.44
405.765	549.44
405.988	518.44
406.212	514.44
406.436	546.44
406.66	551.44
406.883	533.44
407.107	530.44
407.331	604.44
407.555	672.44
407.778	652.44
408.002	612.44
408.226	544.44
408.449	522.44
408.673	504.44
408.896	563.44
409.12	614.44
409.344	591.44
409.567	517.44
409.791	492.44
410.014	478.44
410.238	458.44
410.461	488.44
410.685	486.44
410.908	489.44
411.132	534.44
411.355	594.44
411.578	544.44
411.802	502.44
412.025	478.44
412.249	499.44
412.472	510.44
412.695	569.44
412.919	532.44
413.142	485.44
413.365	479.44
413.589	482.44
413.812	475.44
414.035	450.44
414.258	439.44
414.482	428.44
414.705	447.44
414.928	440.44
415.151	425.44
415.374	429.44
415.597	452.44
415.821	442.44
416.044	440.44
416.267	441.44
416.49	444.44
416.713	449.44
416.936	457.44
417.159	428.44
417.382	468.44
417.605	448.44
417.828	472.44
418.051	470.44
418.274	460.44
418.497	471.44
418.72	469.44
418.943	444.44
419.166	454.44
419.389	475.44
419.611	472.44
419.834	474.44
420.057	485.44
420.28	487.44
420.503	483.44
420.726	459.44
420.948	508.44
421.171	545.44
421.394	614.44
421.617	504.44
421.839	489.44
422.062	470.44
422.285	494.44
422.507	552.44
422.73	636.44
422.953	646.44
423.175	532.44
423.398	494.44
423.621	486.44
423.843	516.44
424.066	528.44
424.288	523.44
424.511	548.44
424.733	584.44
424.956	694.44
425.178	685.44
425.401	692.44
425.623	713.44
425.846	601.44
426.068	525.44
426.291	532.44
426.513	541.44
426.735	559.44
426.958	586.44
427.18	684.44
427.402	820.44
427.625	889.44
427.847	846.44
428.069	725.44
428.292	613.44
428.514	554.44
428.736	524.44
428.958	504.44
429.181	498.44
429.403	510.44
429.625	515.44
429.847	528.44
430.069	625.44
430.292	605.44
430.514	506.44
430.736	512.44
430.958	466.44
431.18	468.44
431.402	444.44
431.624	439.44
431.846	477.44
432.068	450.44
432.29	450.44
432.512	485.44
432.734	478.44
432.956	459.44
433.178	483.44
433.4	486.44
433.622	467.44
433.844	460.44
434.066	463.44
434.287	450.44
434.509	463.44
434.731	468.44
434.953	473.44
435.175	474.44
435.397	513.44
435.618	543.44
435.84	576.44
436.062	711.44
436.284	749.44
436.505	649.44
436.727	588.44
436.949	519.44
437.17	488.44
437.392	506.44
437.614	522.44
437.835	571.44
438.057	677.44
438.278	808.44
438.5	800.44
438.721	845.44
438.943	829.44
439.165	643.44
439.386	570.44
439.608	566.44
439.829	578.44
440.05	582.44
440.272	665.44
440.493	633.44
440.715	571.44
440.936	528.44
441.158	514.44
441.379	498.44
441.6	491.44
441.822	544.44
442.043	600.44
442.264	669.44
442.486	724.44
442.707	627.44
442.928	568.44
443.149	590.44
443.371	608.44
443.592	630.44
443.813	758.44
444.034	830.44
444.255	661.44
444.476	566.44
444.698	553.44
444.919	527.44
445.14	626.44
445.361	592.44
445.582	591.44
445.803	680.44
446.024	830.44
446.245	825.44
446.466	734.44
446.687	628.44
446.908	566.44
447.129	525.44
447.35	507.44
447.571	509.44
447.792	495.44
448.013	510.44
448.234	534.44
448.455	606.44
448.675	704.44
448.896	840.44
449.117	697.44
449.338	676.44
449.559	800.44
449.779	892.44
450	701.44
450.221	556.44
450.442	539.44
450.662	507.44
450.883	517.44
451.104	531.44
451.324	496.44
451.545	493.44
451.766	471.44
451.986	446.44
452.207	455.44
452.428	438.44
452.648	435.44
452.869	440.44
453.089	467.44
453.31	452.44
453.53	456.44
453.751	462.44
453.971	457.44
454.192	472.44
454.412	452.44
454.633	457.44
454.853	450.44
455.073	434.44
455.294	485.44
455.514	570.44
455.734	536.44
455.955	471.44
456.175	442.44
456.395	415.44
456.616	404.44
456.836	427.44
457.056	421.44
457.276	410.44
457.497	429.44
457.717	413.44
457.937	416.44
458.157	437.44
458.377	442.44
458.598	474.44
458.818	526.44
459.038	651.44
459.258	652.44
459.478	533.44
459.698	470.44
459.918	465.44
460.138	441.44
460.358	452.44
460.578	462.44
460.798	454.44
461.018	449.44
461.238	461.44
461.458	427.44
461.678	435.44
461.898	433.44
462.118	455.44
462.338	451.44
462.558	450.44
462.777	458.44
462.997	449.44
463.217	429.44
463.437	466.44
463.657	468.44
463.876	470.44
464.096	474.44
464.316	453.44
464.536	473.44
464.755	487.44
464.975	477.44
465.195	556.44
465.414	666.44
465.634	579.44
465.854	523.44
466.073	488.44
466.293	474.44
466.512	454.44
466.732	441.44
466.951	450.44
467.171	441.44
467.391	436.44
467.61	459.44
467.829	474.44
468.049	482.44
468.268	458.44
468.488	446.44
468.707	441.44
468.927	432.44
469.146	447.44
469.365	444.44
469.585	439.44
469.804	417.44
470.023	458.44
470.243	445.44
470.462	470.44
470.681	475.44
470.901	453.44
471.12	455.44
471.339	468.44
471.558	465.44
471.777	442.44
471.997	462.44
472.216	478.44
472.435	492.44
472.654	513.44
472.873	466.44
473.092	458.44
473.311	472.44
473.53	469.44
473.749	477.44
473.968	507.44
474.187	610.44
474.406	678.44
474.625	540.44
474.844	485.44
475.063	475.44
475.282	449.44
475.501	459.44
475.72	470.44
475.939	462.44
476.158	470.44
476.377	481.44
476.596	473.44
476.814	462.44
477.033	493.44
477.252	481.44
477.471	482.44
477.69	474.44
477.908	485.44
478.127	506.44
478.346	482.44
478.564	489.44
478.783	474.44
479.002	507.44
479.22	526.44
479.439	549.44
479.658	535.44
479.876	544.44
480.095	573.44
480.313	585.44
480.532	580.44
480.751	564.44
480.969	548.44
481.188	652.44
481.406	730.44
481.624	613.44
481.843	591.44
482.061	550.44
482.28	541.44
482.498	527.44
482.717	544.44
482.935	522.44
483.153	553.44
483.372	528.44
483.59	547.44
483.808	541.44
484.027	546.44
484.245	516.44
484.463	554.44
484.681	564.44
484.9	550.44
485.118	549.44
485.336	541.44
485.554	547.44
485.772	547.44
485.99	566.44
486.209	578.44
486.427	561.44
486.645	574.44
486.863	613.44
487.081	620.44
487.299	582.44
487.517	563.44
487.735	546.44
487.953	566.44
488.171	591.44
488.389	601.44
488.607	583.44
488.825	587.44
489.043	592.44
489.261	589.44
489.479	587.44
489.696	589.44
489.914	591.44
490.132	605.44
490.35	597.44
490.568	617.44
490.786	628.44
491.003	619.44
491.221	622.44
491.439	644.44
491.657	662.44
491.874	653.44
492.092	636.44
492.31	667.44
492.527	655.44
492.745	675.44
492.963	693.44
493.18	677.44
493.398	680.44
493.615	680.44
493.833	681.44
494.05	688.44
494.268	667.44
494.485	671.44
494.703	673.44
494.92	685.44
495.138	694.44
495.355	714.44
495.573	689.44
495.79	677.44
496.008	707.44
496.225	687.44
496.442	673.44
496.66	665.44
496.877	661.44
497.094	702.44
497.312	701.44
497.529	714.44
497.746	708.44
497.963	704.44
498.181	723.44
498.398	756.44
498.615	746.44
498.832	756.44
499.049	741.44
499.267	758.44
499.484	785.44
499.701	760.44
499.918	796.44
500.135	821.44
500.352	854.44
500.569	835.44
500.786	864.44
501.003	848.44
501.22	828.44
501.437	811.44
501.654	817.44
501.871	853.44
