Data from 1972.PennyLincolnUp.Lamp.En5.5.200Scan.071719.P1._HRD10591_15-29-14-845.txt Node
Date: Thu Jul 18 15:29:14 EDT 2019
User: cochatt
Spectrometer: HR+D1059
Trigger mode: 1
Integration Time (sec): 1.000000E-1
Scans to average: 1
Electric dark correction enabled: true
Nonlinearity correction enabled: false
Boxcar width: 0
XAxis mode: Wavelengths
Number of Pixels in Spectrum: 2048
>>>>>Begin Spectral Data<<<<<
223.165	-11.5
223.4	-11.5
223.635	-11.5
223.869	-7.5
224.104	-10.5
224.338	-1.5
224.573	-9.5
224.808	-24.5
225.042	-4.5
225.277	-13.5
225.511	11.5
225.746	-11.5
225.98	-17.5
226.215	10.5
226.449	19.5
226.683	25.5
226.918	11.5
227.152	33.5
227.387	37.5
227.621	31.5
227.856	50.5
228.09	45.5
228.324	40.5
228.559	57.5
228.793	66.5
229.027	87.5
229.262	117.5
229.496	128.5
229.73	148.5
229.964	181.5
230.199	139.5
230.433	130.5
230.667	116.5
230.901	108.5
231.136	114.5
231.37	110.5
231.604	105.5
231.838	114.5
232.072	128.5
232.306	110.5
232.541	120.5
232.775	115.5
233.009	104.5
233.243	110.5
233.477	103.5
233.711	128.5
233.945	116.5
234.179	132.5
234.413	129.5
234.647	114.5
234.881	126.5
235.115	119.5
235.349	109.5
235.583	128.5
235.817	126.5
236.051	110.5
236.285	132.5
236.519	131.5
236.753	134.5
236.987	155.5
237.221	204.5
237.455	280.5
237.689	202.5
237.922	148.5
238.156	152.5
238.39	137.5
238.624	128.5
238.858	125.5
239.091	130.5
239.325	116.5
239.559	138.5
239.793	125.5
240.027	141.5
240.26	143.5
240.494	159.5
240.728	172.5
240.961	150.5
241.195	150.5
241.429	138.5
241.662	142.5
241.896	139.5
242.13	147.5
242.363	132.5
242.597	143.5
242.83	150.5
243.064	141.5
243.298	144.5
243.531	138.5
243.765	143.5
243.998	147.5
244.232	131.5
244.465	138.5
244.699	138.5
244.932	150.5
245.166	144.5
245.399	154.5
245.633	143.5
245.866	167.5
246.099	137.5
246.333	157.5
246.566	152.5
246.8	148.5
247.033	160.5
247.266	162.5
247.5	169.5
247.733	188.5
247.966	172.5
248.2	173.5
248.433	178.5
248.666	178.5
248.899	201.5
249.133	212.5
249.366	247.5
249.599	221.5
249.832	199.5
250.066	178.5
250.299	194.5
250.532	206.5
250.765	205.5
250.998	239.5
251.231	246.5
251.465	228.5
251.698	214.5
251.931	224.5
252.164	205.5
252.397	208.5
252.63	211.5
252.863	235.5
253.096	200.5
253.329	244.5
253.562	218.5
253.795	217.5
254.028	222.5
254.261	231.5
254.494	259.5
254.727	288.5
254.96	304.5
255.193	301.5
255.426	281.5
255.659	279.5
255.892	266.5
256.124	256.5
256.357	247.5
256.59	243.5
256.823	223.5
257.056	228.5
257.289	215.5
257.521	222.5
257.754	233.5
257.987	216.5
258.22	220.5
258.452	233.5
258.685	223.5
258.918	226.5
259.151	227.5
259.383	211.5
259.616	259.5
259.849	271.5
260.081	264.5
260.314	289.5
260.547	276.5
260.779	266.5
261.012	256.5
261.244	234.5
261.477	240.5
261.71	261.5
261.942	237.5
262.175	252.5
262.407	243.5
262.64	240.5
262.872	222.5
263.105	202.5
263.337	227.5
263.57	236.5
263.802	217.5
264.035	213.5
264.267	220.5
264.499	214.5
264.732	221.5
264.964	217.5
265.197	222.5
265.429	238.5
265.661	207.5
265.894	220.5
266.126	215.5
266.358	212.5
266.591	216.5
266.823	234.5
267.055	226.5
267.287	246.5
267.52	224.5
267.752	242.5
267.984	241.5
268.216	244.5
268.448	241.5
268.681	231.5
268.913	246.5
269.145	290.5
269.377	299.5
269.609	297.5
269.841	284.5
270.073	293.5
270.306	317.5
270.538	337.5
270.77	341.5
271.002	346.5
271.234	310.5
271.466	327.5
271.698	339.5
271.93	343.5
272.162	346.5
272.394	330.5
272.626	327.5
272.858	312.5
273.09	304.5
273.322	304.5
273.553	293.5
273.785	284.5
274.017	303.5
274.249	283.5
274.481	284.5
274.713	283.5
274.945	285.5
275.176	290.5
275.408	274.5
275.64	291.5
275.872	306.5
276.104	272.5
276.335	266.5
276.567	278.5
276.799	317.5
277.031	324.5
277.262	327.5
277.494	350.5
277.726	325.5
277.957	306.5
278.189	291.5
278.421	299.5
278.652	293.5
278.884	304.5
279.115	283.5
279.347	293.5
279.579	289.5
279.81	287.5
280.042	292.5
280.273	275.5
280.505	273.5
280.736	280.5
280.968	297.5
281.199	274.5
281.431	275.5
281.662	271.5
281.894	264.5
282.125	287.5
282.356	294.5
282.588	316.5
282.819	331.5
283.051	303.5
283.282	271.5
283.513	280.5
283.745	274.5
283.976	278.5
284.207	290.5
284.439	276.5
284.67	295.5
284.901	299.5
285.132	307.5
285.364	281.5
285.595	284.5
285.826	270.5
286.057	283.5
286.288	284.5
286.52	293.5
286.751	284.5
286.982	294.5
287.213	285.5
287.444	290.5
287.675	302.5
287.906	308.5
288.138	303.5
288.369	297.5
288.6	312.5
288.831	324.5
289.062	291.5
289.293	288.5
289.524	295.5
289.755	283.5
289.986	291.5
290.217	266.5
290.448	287.5
290.679	303.5
290.91	285.5
291.141	288.5
291.371	286.5
291.602	280.5
291.833	290.5
292.064	287.5
292.295	283.5
292.526	304.5
292.757	296.5
292.987	296.5
293.218	269.5
293.449	282.5
293.68	306.5
293.91	292.5
294.141	275.5
294.372	263.5
294.603	291.5
294.833	280.5
295.064	295.5
295.295	292.5
295.525	286.5
295.756	286.5
295.987	308.5
296.217	342.5
296.448	340.5
296.679	316.5
296.909	300.5
297.14	311.5
297.37	292.5
297.601	301.5
297.831	314.5
298.062	306.5
298.292	300.5
298.523	286.5
298.753	312.5
298.984	301.5
299.214	310.5
299.445	311.5
299.675	299.5
299.905	322.5
300.136	327.5
300.366	302.5
300.597	314.5
300.827	317.5
301.057	341.5
301.288	325.5
301.518	315.5
301.748	312.5
301.979	323.5
302.209	321.5
302.439	333.5
302.669	327.5
302.9	321.5
303.13	316.5
303.36	331.5
303.59	331.5
303.82	365.5
304.051	343.5
304.281	332.5
304.511	319.5
304.741	335.5
304.971	318.5
305.201	318.5
305.431	315.5
305.661	317.5
305.891	325.5
306.121	335.5
306.352	337.5
306.582	341.5
306.812	330.5
307.042	336.5
307.272	333.5
307.502	335.5
307.731	337.5
307.961	336.5
308.191	331.5
308.421	319.5
308.651	335.5
308.881	340.5
309.111	352.5
309.341	344.5
309.571	359.5
309.8	386.5
310.03	392.5
310.26	396.5
310.49	395.5
310.72	409.5
310.949	428.5
311.179	428.5
311.409	412.5
311.639	399.5
311.868	380.5
312.098	408.5
312.328	415.5
312.557	445.5
312.787	443.5
313.017	422.5
313.246	414.5
313.476	380.5
313.706	399.5
313.935	431.5
314.165	407.5
314.394	419.5
314.624	457.5
314.853	421.5
315.083	393.5
315.312	394.5
315.542	391.5
315.771	392.5
316.001	389.5
316.23	374.5
316.46	388.5
316.689	406.5
316.919	382.5
317.148	407.5
317.377	392.5
317.607	393.5
317.836	414.5
318.065	388.5
318.295	380.5
318.524	370.5
318.753	374.5
318.983	378.5
319.212	405.5
319.441	404.5
319.67	424.5
319.9	382.5
320.129	376.5
320.358	391.5
320.587	393.5
320.816	411.5
321.046	414.5
321.275	429.5
321.504	420.5
321.733	402.5
321.962	420.5
322.191	451.5
322.42	479.5
322.649	487.5
322.878	490.5
323.108	515.5
323.337	545.5
323.566	588.5
323.795	635.5
324.024	695.5
324.253	885.5
324.482	1279.5
324.71	1983.5
324.939	2964.5
325.168	2570.5
325.397	1274.5
325.626	806.5
325.855	658.5
326.084	603.5
326.313	594.5
326.542	591.5
326.77	636.5
326.999	794.5
327.228	1111.5
327.457	1758.5
327.686	2215.5
327.914	1400.5
328.143	909.5
328.372	762.5
328.6	698.5
328.829	668.5
329.058	678.5
329.287	694.5
329.515	629.5
329.744	590.5
329.972	602.5
330.201	626.5
330.43	668.5
330.658	687.5
330.887	721.5
331.115	700.5
331.344	592.5
331.572	562.5
331.801	542.5
332.03	536.5
332.258	529.5
332.486	480.5
332.715	456.5
332.943	474.5
333.172	485.5
333.4	480.5
333.629	478.5
333.857	493.5
334.085	538.5
334.314	540.5
334.542	581.5
334.771	623.5
334.999	552.5
335.227	500.5
335.455	465.5
335.684	462.5
335.912	452.5
336.14	464.5
336.369	448.5
336.597	455.5
336.825	463.5
337.053	457.5
337.281	441.5
337.51	447.5
337.738	446.5
337.966	446.5
338.194	462.5
338.422	467.5
338.65	446.5
338.878	434.5
339.106	422.5
339.334	437.5
339.562	431.5
339.79	406.5
340.018	424.5
340.246	411.5
340.474	438.5
340.702	430.5
340.93	428.5
341.158	433.5
341.386	434.5
341.614	443.5
341.842	442.5
342.07	449.5
342.298	420.5
342.526	427.5
342.754	447.5
342.981	413.5
343.209	405.5
343.437	410.5
343.665	418.5
343.893	400.5
344.12	424.5
344.348	419.5
344.576	426.5
344.804	444.5
345.031	464.5
345.259	463.5
345.487	456.5
345.714	444.5
345.942	415.5
346.17	420.5
346.397	421.5
346.625	429.5
346.853	428.5
347.08	426.5
347.308	400.5
347.535	440.5
347.763	459.5
347.99	456.5
348.218	426.5
348.445	430.5
348.673	443.5
348.9	424.5
349.128	430.5
349.355	412.5
349.583	406.5
349.81	392.5
350.037	398.5
350.265	403.5
350.492	410.5
350.72	413.5
350.947	426.5
351.174	422.5
351.402	430.5
351.629	411.5
351.856	437.5
352.083	416.5
352.311	459.5
352.538	466.5
352.765	448.5
352.992	421.5
353.22	417.5
353.447	398.5
353.674	428.5
353.901	389.5
354.128	387.5
354.355	401.5
354.583	409.5
354.81	405.5
355.037	386.5
355.264	367.5
355.491	372.5
355.718	347.5
355.945	374.5
356.172	366.5
356.399	368.5
356.626	380.5
356.853	391.5
357.08	384.5
357.307	382.5
357.534	375.5
357.761	394.5
357.988	379.5
358.215	363.5
358.441	386.5
358.668	363.5
358.895	390.5
359.122	386.5
359.349	394.5
359.576	419.5
359.802	436.5
360.029	470.5
360.256	507.5
360.483	462.5
360.709	436.5
360.936	429.5
361.163	398.5
361.39	412.5
361.616	439.5
361.843	428.5
362.07	407.5
362.296	424.5
362.523	428.5
362.749	422.5
362.976	407.5
363.203	415.5
363.429	422.5
363.656	407.5
363.882	400.5
364.109	372.5
364.335	395.5
364.562	383.5
364.788	390.5
365.015	378.5
365.241	381.5
365.468	403.5
365.694	391.5
365.92	416.5
366.147	393.5
366.373	373.5
366.599	398.5
366.826	382.5
367.052	394.5
367.278	365.5
367.505	383.5
367.731	404.5
367.957	380.5
368.184	394.5
368.41	391.5
368.636	417.5
368.862	418.5
369.089	422.5
369.315	368.5
369.541	389.5
369.767	384.5
369.993	377.5
370.219	386.5
370.445	388.5
370.672	387.5
370.898	378.5
371.124	372.5
371.35	383.5
371.576	382.5
371.802	386.5
372.028	362.5
372.254	361.5
372.48	386.5
372.706	384.5
372.932	392.5
373.158	388.5
373.384	380.5
373.61	366.5
373.835	382.5
374.061	367.5
374.287	379.5
374.513	382.5
374.739	398.5
374.965	378.5
375.191	385.5
375.416	380.5
375.642	357.5
375.868	384.5
376.094	372.5
376.319	380.5
376.545	365.5
376.771	382.5
376.997	374.5
377.222	378.5
377.448	377.5
377.674	362.5
377.899	370.5
378.125	370.5
378.35	372.5
378.576	339.5
378.802	363.5
379.027	387.5
379.253	380.5
379.478	364.5
379.704	380.5
379.929	363.5
380.155	375.5
380.38	367.5
380.606	363.5
380.831	384.5
381.057	382.5
381.282	368.5
381.507	359.5
381.733	365.5
381.958	380.5
382.184	367.5
382.409	379.5
382.634	395.5
382.86	371.5
383.085	384.5
383.31	396.5
383.535	377.5
383.761	375.5
383.986	371.5
384.211	384.5
384.436	383.5
384.662	370.5
384.887	382.5
385.112	367.5
385.337	388.5
385.562	388.5
385.787	375.5
386.013	406.5
386.238	397.5
386.463	396.5
386.688	391.5
386.913	381.5
387.138	408.5
387.363	399.5
387.588	396.5
387.813	376.5
388.038	386.5
388.263	397.5
388.488	380.5
388.713	383.5
388.938	391.5
389.163	396.5
389.387	383.5
389.612	397.5
389.837	395.5
390.062	393.5
390.287	407.5
390.512	400.5
390.736	378.5
390.961	388.5
391.186	377.5
391.411	406.5
391.636	418.5
391.86	399.5
392.085	396.5
392.31	407.5
392.534	398.5
392.759	415.5
392.984	400.5
393.208	390.5
393.433	404.5
393.658	405.5
393.882	391.5
394.107	366.5
394.331	402.5
394.556	386.5
394.78	382.5
395.005	401.5
395.229	387.5
395.454	416.5
395.678	434.5
395.903	430.5
396.127	440.5
396.352	434.5
396.576	420.5
396.801	402.5
397.025	405.5
397.249	401.5
397.474	427.5
397.698	411.5
397.922	421.5
398.147	452.5
398.371	468.5
398.595	446.5
398.82	429.5
399.044	424.5
399.268	452.5
399.492	457.5
399.717	474.5
399.941	510.5
400.165	542.5
400.389	562.5
400.613	496.5
400.837	458.5
401.062	450.5
401.286	447.5
401.51	457.5
401.734	434.5
401.958	444.5
402.182	464.5
402.406	466.5
402.63	449.5
402.854	452.5
403.078	458.5
403.302	463.5
403.526	460.5
403.75	475.5
403.974	462.5
404.198	463.5
404.422	455.5
404.645	479.5
404.869	479.5
405.093	514.5
405.317	582.5
405.541	597.5
405.765	523.5
405.988	519.5
406.212	533.5
406.436	536.5
406.66	536.5
406.883	511.5
407.107	562.5
407.331	576.5
407.555	638.5
407.778	651.5
408.002	578.5
408.226	524.5
408.449	505.5
408.673	518.5
408.896	556.5
409.12	598.5
409.344	557.5
409.567	510.5
409.791	478.5
410.014	468.5
410.238	472.5
410.461	463.5
410.685	483.5
410.908	493.5
411.132	530.5
411.355	564.5
411.578	576.5
411.802	507.5
412.025	482.5
412.249	477.5
412.472	510.5
412.695	570.5
412.919	524.5
413.142	480.5
413.365	477.5
413.589	461.5
413.812	442.5
414.035	466.5
414.258	453.5
414.482	446.5
414.705	432.5
414.928	424.5
415.151	436.5
415.374	439.5
415.597	429.5
415.821	454.5
416.044	455.5
416.267	456.5
416.49	445.5
416.713	434.5
416.936	427.5
417.159	451.5
417.382	459.5
417.605	460.5
417.828	466.5
418.051	497.5
418.274	429.5
418.497	449.5
418.72	413.5
418.943	428.5
419.166	453.5
419.389	493.5
419.611	464.5
419.834	464.5
420.057	494.5
420.28	478.5
420.503	463.5
420.726	464.5
420.948	499.5
421.171	535.5
421.394	584.5
421.617	498.5
421.839	459.5
422.062	464.5
422.285	488.5
422.507	558.5
422.73	644.5
422.953	616.5
423.175	522.5
423.398	496.5
423.621	488.5
423.843	528.5
424.066	534.5
424.288	522.5
424.511	558.5
424.733	601.5
424.956	698.5
425.178	657.5
425.401	656.5
425.623	693.5
425.846	577.5
426.068	542.5
426.291	524.5
426.513	514.5
426.735	532.5
426.958	607.5
427.18	679.5
427.402	804.5
427.625	919.5
427.847	822.5
428.069	715.5
428.292	610.5
428.514	547.5
428.736	530.5
428.958	505.5
429.181	507.5
429.403	488.5
429.625	485.5
429.847	533.5
430.069	615.5
430.292	631.5
430.514	512.5
430.736	490.5
430.958	486.5
431.18	456.5
431.402	437.5
431.624	442.5
431.846	431.5
432.068	427.5
432.29	443.5
432.512	450.5
432.734	463.5
432.956	465.5
433.178	499.5
433.4	490.5
433.622	471.5
433.844	471.5
434.066	451.5
434.287	435.5
434.509	460.5
434.731	461.5
434.953	468.5
435.175	476.5
435.397	509.5
435.618	524.5
435.84	562.5
436.062	703.5
436.284	768.5
436.505	607.5
436.727	558.5
436.949	532.5
437.17	503.5
437.392	504.5
437.614	508.5
437.835	535.5
438.057	661.5
438.278	787.5
438.5	768.5
438.721	862.5
438.943	821.5
439.165	652.5
439.386	568.5
439.608	549.5
439.829	557.5
440.05	584.5
440.272	661.5
440.493	606.5
440.715	556.5
440.936	512.5
441.158	504.5
441.379	475.5
441.6	516.5
441.822	522.5
442.043	558.5
442.264	659.5
442.486	718.5
442.707	605.5
442.928	566.5
443.149	574.5
443.371	599.5
443.592	664.5
443.813	726.5
444.034	796.5
444.255	628.5
444.476	552.5
444.698	524.5
444.919	515.5
445.14	607.5
445.361	567.5
445.582	586.5
445.803	666.5
446.024	790.5
446.245	804.5
446.466	735.5
446.687	589.5
446.908	557.5
447.129	527.5
447.35	509.5
447.571	510.5
447.792	503.5
448.013	486.5
448.234	530.5
448.455	591.5
448.675	718.5
448.896	836.5
449.117	696.5
449.338	664.5
449.559	766.5
449.779	890.5
450	703.5
450.221	570.5
450.442	530.5
450.662	500.5
450.883	503.5
451.104	545.5
451.324	510.5
451.545	480.5
451.766	458.5
451.986	440.5
452.207	424.5
452.428	413.5
452.648	437.5
452.869	438.5
453.089	450.5
453.31	471.5
453.53	469.5
453.751	445.5
453.971	455.5
454.192	456.5
454.412	459.5
454.633	434.5
454.853	436.5
455.073	431.5
455.294	474.5
455.514	550.5
455.734	534.5
455.955	454.5
456.175	422.5
456.395	431.5
456.616	418.5
456.836	377.5
457.056	395.5
457.276	398.5
457.497	399.5
457.717	420.5
457.937	408.5
458.157	391.5
458.377	420.5
458.598	459.5
458.818	535.5
459.038	636.5
459.258	669.5
459.478	535.5
459.698	468.5
459.918	476.5
460.138	431.5
460.358	450.5
460.578	442.5
460.798	447.5
461.018	444.5
461.238	459.5
461.458	428.5
461.678	443.5
461.898	446.5
462.118	434.5
462.338	436.5
462.558	453.5
462.777	456.5
462.997	452.5
463.217	461.5
463.437	467.5
463.657	464.5
463.876	468.5
464.096	461.5
464.316	460.5
464.536	484.5
464.755	504.5
464.975	481.5
465.195	554.5
465.414	639.5
465.634	536.5
465.854	515.5
466.073	465.5
466.293	448.5
466.512	451.5
466.732	438.5
466.951	440.5
467.171	425.5
467.391	449.5
467.61	446.5
467.829	475.5
468.049	471.5
468.268	454.5
468.488	448.5
468.707	427.5
468.927	435.5
469.146	428.5
469.365	436.5
469.585	418.5
469.804	448.5
470.023	448.5
470.243	443.5
470.462	452.5
470.681	473.5
470.901	463.5
471.12	454.5
471.339	453.5
471.558	432.5
471.777	446.5
471.997	446.5
472.216	461.5
472.435	521.5
472.654	489.5
472.873	454.5
473.092	466.5
473.311	473.5
473.53	461.5
473.749	455.5
473.968	490.5
474.187	635.5
474.406	654.5
474.625	531.5
474.844	452.5
475.063	464.5
475.282	456.5
475.501	445.5
475.72	454.5
475.939	466.5
476.158	444.5
476.377	453.5
476.596	452.5
476.814	445.5
477.033	482.5
477.252	445.5
477.471	482.5
477.69	477.5
477.908	482.5
478.127	489.5
478.346	470.5
478.564	470.5
478.783	485.5
479.002	487.5
479.22	498.5
479.439	516.5
479.658	527.5
479.876	530.5
480.095	540.5
480.313	596.5
480.532	578.5
480.751	560.5
480.969	567.5
481.188	652.5
481.406	748.5
481.624	619.5
481.843	559.5
482.061	552.5
482.28	541.5
482.498	530.5
482.717	539.5
482.935	552.5
483.153	546.5
483.372	524.5
483.59	514.5
483.808	532.5
484.027	518.5
484.245	524.5
484.463	522.5
484.681	531.5
484.9	533.5
485.118	534.5
485.336	541.5
485.554	551.5
485.772	540.5
485.99	546.5
486.209	542.5
486.427	553.5
486.645	574.5
486.863	592.5
487.081	568.5
487.299	572.5
487.517	554.5
487.735	566.5
487.953	573.5
488.171	554.5
488.389	566.5
488.607	544.5
488.825	569.5
489.043	581.5
489.261	575.5
489.479	577.5
489.696	581.5
489.914	566.5
490.132	572.5
490.35	582.5
490.568	603.5
490.786	607.5
491.003	619.5
491.221	635.5
491.439	633.5
491.657	631.5
491.874	679.5
492.092	637.5
492.31	664.5
492.527	640.5
492.745	660.5
492.963	668.5
493.18	675.5
493.398	684.5
493.615	650.5
493.833	666.5
494.05	686.5
494.268	680.5
494.485	648.5
494.703	666.5
494.92	665.5
495.138	682.5
495.355	710.5
495.573	690.5
495.79	661.5
496.008	696.5
496.225	666.5
496.442	652.5
496.66	676.5
496.877	686.5
497.094	673.5
497.312	678.5
497.529	678.5
497.746	695.5
497.963	699.5
498.181	722.5
498.398	719.5
498.615	734.5
498.832	742.5
499.049	745.5
499.267	755.5
499.484	768.5
499.701	790.5
499.918	774.5
500.135	800.5
500.352	830.5
500.569	820.5
500.786	835.5
501.003	827.5
501.22	828.5
501.437	818.5
501.654	818.5
501.871	821.5
502.088	803.5
502.305	754.5
502.522	747.5
502.739	744.5
502.956	716.5
503.172	712.5
503.389	687.5
503.606	723.5
503.823	711.5
504.04	673.5
504.256	664.5
504.473	671.5
504.69	680.5
504.907	685.5
505.123	660.5
505.34	655.5
505.557	676.5
505.773	644.5
505.99	683.5
506.207	685.5
506.423	662.5
506.64	667.5
506.856	647.5
507.073	662.5
507.289	628.5
507.506	644.5
507.722	649.5
507.939	696.5
508.155	656.5
508.372	667.5
508.588	633.5
508.805	637.5
509.021	630.5
509.238	654.5
509.454	653.5
509.67	647.5
509.887	661.5
510.103	638.5
510.319	666.5
510.536	810.5
510.752	1396.5
510.968	1080.5
511.184	684.5
511.401	646.5
511.617	628.5
511.833	622.5
512.049	609.5
512.265	593.5
512.481	596.5
512.698	616.5
512.914	605.5
513.13	608.5
513.346	623.5
513.562	591.5
513.778	619.5
513.994	612.5
514.21	642.5
514.426	676.5
514.642	725.5
514.858	776.5
515.074	848.5
515.29	1024.5
515.506	1578.5
515.721	1258.5
515.937	805.5
516.153	694.5
516.369	694.5
516.585	620.5
516.801	634.5
517.016	628.5
517.232	600.5
517.448	618.5
517.664	598.5
517.879	592.5
518.095	604.5
518.311	601.5
518.527	609.5
518.742	595.5
518.958	633.5
519.173	619.5
519.389	607.5
519.605	610.5
