Data from 1972.PennyLincolnUp.Lamp.En5.5.200Scan.071719.P1._HRD10591_15-27-09-844.txt Node
Date: Thu Jul 18 15:27:09 EDT 2019
User: cochatt
Spectrometer: HR+D1059
Trigger mode: 1
Integration Time (sec): 1.000000E-1
Scans to average: 1
Electric dark correction enabled: true
Nonlinearity correction enabled: false
Boxcar width: 0
XAxis mode: Wavelengths
Number of Pixels in Spectrum: 2048
>>>>>Begin Spectral Data<<<<<
223.165	5.75
223.4	5.75
223.635	5.75
223.869	-25.25
224.104	-20.25
224.338	-11.25
224.573	-22.25
224.808	-11.25
225.042	-8.25
225.277	-10.25
225.511	4.75
225.746	4.75
225.98	6.75
226.215	14.75
226.449	19.75
226.683	7.75
226.918	15.75
227.152	28.75
227.387	49.75
227.621	46.75
227.856	51.75
228.09	58.75
228.324	61.75
228.559	57.75
228.793	78.75
229.027	95.75
229.262	90.75
229.496	107.75
229.73	126.75
229.964	136.75
230.199	121.75
230.433	107.75
230.667	109.75
230.901	102.75
231.136	95.75
231.37	111.75
231.604	99.75
231.838	109.75
232.072	114.75
232.306	90.75
232.541	119.75
232.775	92.75
233.009	104.75
233.243	97.75
233.477	100.75
233.711	102.75
233.945	103.75
234.179	102.75
234.413	118.75
234.647	116.75
234.881	102.75
235.115	104.75
235.349	107.75
235.583	119.75
235.817	131.75
236.051	113.75
236.285	125.75
236.519	114.75
236.753	124.75
236.987	141.75
237.221	166.75
237.455	219.75
237.689	185.75
237.922	134.75
238.156	107.75
238.39	104.75
238.624	124.75
238.858	119.75
239.091	124.75
239.325	118.75
239.559	117.75
239.793	106.75
240.027	120.75
240.26	130.75
240.494	143.75
240.728	138.75
240.961	144.75
241.195	132.75
241.429	140.75
241.662	124.75
241.896	134.75
242.13	125.75
242.363	128.75
242.597	126.75
242.83	134.75
243.064	131.75
243.298	139.75
243.531	122.75
243.765	121.75
243.998	141.75
244.232	145.75
244.465	138.75
244.699	143.75
244.932	159.75
245.166	138.75
245.399	126.75
245.633	131.75
245.866	144.75
246.099	137.75
246.333	144.75
246.566	156.75
246.8	149.75
247.033	135.75
247.266	158.75
247.5	154.75
247.733	150.75
247.966	156.75
248.2	154.75
248.433	162.75
248.666	161.75
248.899	173.75
249.133	188.75
249.366	205.75
249.599	172.75
249.832	171.75
250.066	189.75
250.299	162.75
250.532	168.75
250.765	181.75
250.998	207.75
251.231	205.75
251.465	198.75
251.698	196.75
251.931	181.75
252.164	184.75
252.397	192.75
252.63	184.75
252.863	194.75
253.096	188.75
253.329	207.75
253.562	214.75
253.795	187.75
254.028	207.75
254.261	205.75
254.494	219.75
254.727	242.75
254.96	283.75
255.193	243.75
255.426	218.75
255.659	224.75
255.892	219.75
256.124	218.75
256.357	199.75
256.59	210.75
256.823	202.75
257.056	212.75
257.289	212.75
257.521	197.75
257.754	205.75
257.987	201.75
258.22	192.75
258.452	188.75
258.685	191.75
258.918	191.75
259.151	199.75
259.383	211.75
259.616	198.75
259.849	200.75
260.081	221.75
260.314	224.75
260.547	252.75
260.779	242.75
261.012	234.75
261.244	227.75
261.477	206.75
261.71	194.75
261.942	203.75
262.175	221.75
262.407	205.75
262.64	192.75
262.872	191.75
263.105	206.75
263.337	197.75
263.57	202.75
263.802	198.75
264.035	205.75
264.267	189.75
264.499	208.75
264.732	199.75
264.964	208.75
265.197	192.75
265.429	200.75
265.661	197.75
265.894	192.75
266.126	187.75
266.358	198.75
266.591	198.75
266.823	216.75
267.055	186.75
267.287	214.75
267.52	202.75
267.752	210.75
267.984	212.75
268.216	208.75
268.448	216.75
268.681	208.75
268.913	214.75
269.145	223.75
269.377	229.75
269.609	242.75
269.841	234.75
270.073	236.75
270.306	263.75
270.538	284.75
270.77	282.75
271.002	256.75
271.234	266.75
271.466	282.75
271.698	270.75
271.93	284.75
272.162	295.75
272.394	282.75
272.626	266.75
272.858	281.75
273.09	266.75
273.322	263.75
273.553	232.75
273.785	250.75
274.017	250.75
274.249	242.75
274.481	231.75
274.713	238.75
274.945	258.75
275.176	245.75
275.408	249.75
275.64	251.75
275.872	238.75
276.104	235.75
276.335	232.75
276.567	233.75
276.799	256.75
277.031	264.75
277.262	270.75
277.494	285.75
277.726	268.75
277.957	248.75
278.189	259.75
278.421	233.75
278.652	219.75
278.884	247.75
279.115	235.75
279.347	245.75
279.579	237.75
279.81	245.75
280.042	238.75
280.273	240.75
280.505	230.75
280.736	234.75
280.968	236.75
281.199	243.75
281.431	251.75
281.662	244.75
281.894	261.75
282.125	231.75
282.356	270.75
282.588	270.75
282.819	273.75
283.051	258.75
283.282	250.75
283.513	229.75
283.745	242.75
283.976	251.75
284.207	252.75
284.439	253.75
284.67	257.75
284.901	240.75
285.132	237.75
285.364	252.75
285.595	246.75
285.826	249.75
286.057	254.75
286.288	232.75
286.52	229.75
286.751	239.75
286.982	228.75
287.213	256.75
287.444	265.75
287.675	249.75
287.906	266.75
288.138	261.75
288.369	264.75
288.6	266.75
288.831	268.75
289.062	250.75
289.293	263.75
289.524	266.75
289.755	237.75
289.986	254.75
290.217	264.75
290.448	237.75
290.679	263.75
290.91	254.75
291.141	258.75
291.371	247.75
291.602	262.75
291.833	244.75
292.064	244.75
292.295	243.75
292.526	259.75
292.757	266.75
292.987	249.75
293.218	252.75
293.449	256.75
293.68	261.75
293.91	254.75
294.141	247.75
294.372	247.75
294.603	263.75
294.833	262.75
295.064	252.75
295.295	266.75
295.525	247.75
295.756	269.75
295.987	262.75
296.217	269.75
296.448	289.75
296.679	259.75
296.909	256.75
297.14	259.75
297.37	268.75
297.601	271.75
297.831	284.75
298.062	259.75
298.292	286.75
298.523	244.75
298.753	261.75
298.984	277.75
299.214	270.75
299.445	261.75
299.675	273.75
299.905	268.75
300.136	261.75
300.366	285.75
300.597	273.75
300.827	256.75
301.057	287.75
301.288	286.75
301.518	288.75
301.748	271.75
301.979	285.75
302.209	280.75
302.439	279.75
302.669	276.75
302.9	301.75
303.13	280.75
303.36	300.75
303.59	290.75
303.82	287.75
304.051	284.75
304.281	280.75
304.511	290.75
304.741	303.75
304.971	279.75
305.201	277.75
305.431	279.75
305.661	282.75
305.891	280.75
306.121	285.75
306.352	293.75
306.582	294.75
306.812	283.75
307.042	286.75
307.272	276.75
307.502	290.75
307.731	273.75
307.961	287.75
308.191	283.75
308.421	292.75
308.651	306.75
308.881	290.75
309.111	304.75
309.341	300.75
309.571	301.75
309.8	335.75
310.03	322.75
310.26	303.75
310.49	333.75
310.72	337.75
310.949	339.75
311.179	357.75
311.409	319.75
311.639	343.75
311.868	332.75
312.098	328.75
312.328	325.75
312.557	354.75
312.787	369.75
313.017	367.75
313.246	340.75
313.476	330.75
313.706	328.75
313.935	339.75
314.165	344.75
314.394	353.75
314.624	354.75
314.853	335.75
315.083	332.75
315.312	320.75
315.542	329.75
315.771	333.75
316.001	330.75
316.23	317.75
316.46	309.75
316.689	343.75
316.919	334.75
317.148	355.75
317.377	354.75
317.607	340.75
317.836	324.75
318.065	337.75
318.295	347.75
318.524	340.75
318.753	314.75
318.983	319.75
319.212	338.75
319.441	323.75
319.67	334.75
319.9	344.75
320.129	318.75
320.358	340.75
320.587	343.75
320.816	336.75
321.046	350.75
321.275	344.75
321.504	347.75
321.733	364.75
321.962	357.75
322.191	356.75
322.42	377.75
322.649	396.75
322.878	391.75
323.108	399.75
323.337	417.75
323.566	450.75
323.795	482.75
324.024	531.75
324.253	642.75
324.482	901.75
324.71	1415.75
324.939	2045.75
325.168	1739.75
325.397	902.75
325.626	593.75
325.855	516.75
326.084	463.75
326.313	446.75
326.542	466.75
326.77	491.75
326.999	590.75
327.228	800.75
327.457	1235.75
327.686	1512.75
327.914	1002.75
328.143	654.75
328.372	570.75
328.6	536.75
328.829	503.75
329.058	520.75
329.287	540.75
329.515	504.75
329.744	442.75
329.972	431.75
330.201	483.75
330.43	519.75
330.658	529.75
330.887	556.75
331.115	491.75
331.344	464.75
331.572	429.75
331.801	437.75
332.03	422.75
332.258	428.75
332.486	393.75
332.715	376.75
332.943	390.75
333.172	383.75
333.4	374.75
333.629	410.75
333.857	382.75
334.085	414.75
334.314	421.75
334.542	442.75
334.771	468.75
334.999	431.75
335.227	416.75
335.455	404.75
335.684	390.75
335.912	400.75
336.14	370.75
336.369	379.75
336.597	366.75
336.825	398.75
337.053	408.75
337.281	360.75
337.51	379.75
337.738	380.75
337.966	383.75
338.194	367.75
338.422	381.75
338.65	370.75
338.878	356.75
339.106	374.75
339.334	367.75
339.562	362.75
339.79	370.75
340.018	360.75
340.246	359.75
340.474	358.75
340.702	371.75
340.93	345.75
341.158	346.75
341.386	371.75
341.614	378.75
341.842	358.75
342.07	357.75
342.298	353.75
342.526	364.75
342.754	355.75
342.981	372.75
343.209	377.75
343.437	333.75
343.665	362.75
343.893	354.75
344.12	363.75
344.348	359.75
344.576	374.75
344.804	386.75
345.031	391.75
345.259	383.75
345.487	379.75
345.714	363.75
345.942	360.75
346.17	364.75
346.397	362.75
346.625	366.75
346.853	361.75
347.08	366.75
347.308	357.75
347.535	364.75
347.763	372.75
347.99	375.75
348.218	359.75
348.445	364.75
348.673	386.75
348.9	388.75
349.128	365.75
349.355	362.75
349.583	349.75
349.81	353.75
350.037	319.75
350.265	346.75
350.492	351.75
350.72	355.75
350.947	349.75
351.174	371.75
351.402	366.75
351.629	358.75
351.856	381.75
352.083	357.75
352.311	370.75
352.538	374.75
352.765	376.75
352.992	378.75
353.22	333.75
353.447	374.75
353.674	356.75
353.901	340.75
354.128	343.75
354.355	336.75
354.583	344.75
354.81	319.75
355.037	341.75
355.264	333.75
355.491	334.75
355.718	330.75
355.945	335.75
356.172	334.75
356.399	343.75
356.626	334.75
356.853	329.75
357.08	301.75
357.307	331.75
357.534	339.75
357.761	338.75
357.988	316.75
358.215	331.75
358.441	332.75
358.668	327.75
358.895	323.75
359.122	333.75
359.349	335.75
359.576	356.75
359.802	378.75
360.029	388.75
360.256	399.75
360.483	384.75
360.709	364.75
360.936	371.75
361.163	367.75
361.39	357.75
361.616	335.75
361.843	344.75
362.07	367.75
362.296	348.75
362.523	364.75
362.749	349.75
362.976	360.75
363.203	372.75
363.429	350.75
363.656	348.75
363.882	359.75
364.109	327.75
364.335	333.75
364.562	328.75
364.788	335.75
365.015	332.75
365.241	320.75
365.468	337.75
365.694	349.75
365.92	353.75
366.147	334.75
366.373	346.75
366.599	342.75
366.826	333.75
367.052	327.75
367.278	337.75
367.505	342.75
367.731	360.75
367.957	346.75
368.184	330.75
368.41	351.75
368.636	328.75
368.862	333.75
369.089	346.75
369.315	332.75
369.541	330.75
369.767	323.75
369.993	329.75
370.219	327.75
370.445	339.75
370.672	333.75
370.898	320.75
371.124	335.75
371.35	321.75
371.576	343.75
371.802	320.75
372.028	321.75
372.254	330.75
372.48	331.75
372.706	327.75
372.932	322.75
373.158	334.75
373.384	344.75
373.61	333.75
373.835	341.75
374.061	335.75
374.287	330.75
374.513	325.75
374.739	335.75
374.965	349.75
375.191	318.75
375.416	346.75
375.642	330.75
375.868	350.75
376.094	327.75
376.319	338.75
376.545	310.75
376.771	333.75
376.997	346.75
377.222	340.75
377.448	354.75
377.674	351.75
377.899	325.75
378.125	323.75
378.35	307.75
378.576	327.75
378.802	336.75
379.027	311.75
379.253	337.75
379.478	323.75
379.704	333.75
379.929	333.75
380.155	355.75
380.38	330.75
380.606	328.75
380.831	344.75
381.057	338.75
381.282	331.75
381.507	324.75
381.733	337.75
381.958	324.75
382.184	338.75
382.409	326.75
382.634	334.75
382.86	341.75
383.085	328.75
383.31	341.75
383.535	344.75
383.761	344.75
383.986	326.75
384.211	345.75
384.436	344.75
384.662	349.75
384.887	358.75
385.112	350.75
385.337	339.75
385.562	353.75
385.787	349.75
386.013	375.75
386.238	350.75
386.463	355.75
386.688	372.75
386.913	355.75
387.138	352.75
387.363	343.75
387.588	336.75
387.813	362.75
388.038	368.75
388.263	352.75
388.488	346.75
388.713	354.75
388.938	345.75
389.163	368.75
389.387	355.75
389.612	355.75
389.837	374.75
390.062	337.75
390.287	326.75
390.512	349.75
390.736	348.75
390.961	357.75
391.186	343.75
391.411	357.75
391.636	374.75
391.86	341.75
392.085	340.75
392.31	356.75
392.534	374.75
392.759	345.75
392.984	358.75
393.208	363.75
393.433	386.75
393.658	382.75
393.882	359.75
394.107	331.75
394.331	355.75
394.556	364.75
394.78	360.75
395.005	348.75
395.229	346.75
395.454	362.75
395.678	344.75
395.903	372.75
396.127	390.75
396.352	398.75
396.576	382.75
396.801	365.75
397.025	381.75
397.249	380.75
397.474	361.75
397.698	377.75
397.922	370.75
398.147	384.75
398.371	410.75
398.595	388.75
398.82	375.75
399.044	416.75
399.268	395.75
399.492	419.75
399.717	425.75
399.941	450.75
400.165	476.75
400.389	490.75
400.613	458.75
400.837	436.75
401.062	408.75
401.286	410.75
401.51	404.75
401.734	366.75
401.958	384.75
402.182	428.75
402.406	414.75
402.63	408.75
402.854	420.75
403.078	398.75
403.302	419.75
403.526	421.75
403.75	398.75
403.974	412.75
404.198	436.75
404.422	406.75
404.645	431.75
404.869	411.75
405.093	427.75
405.317	486.75
405.541	529.75
405.765	463.75
405.988	428.75
406.212	425.75
406.436	461.75
406.66	497.75
406.883	446.75
407.107	474.75
407.331	479.75
407.555	544.75
407.778	555.75
408.002	493.75
408.226	458.75
408.449	464.75
408.673	467.75
408.896	474.75
409.12	525.75
409.344	496.75
409.567	431.75
409.791	452.75
410.014	412.75
410.238	408.75
410.461	426.75
410.685	424.75
410.908	414.75
411.132	455.75
411.355	496.75
411.578	480.75
411.802	414.75
412.025	414.75
412.249	429.75
412.472	452.75
412.695	460.75
412.919	478.75
413.142	420.75
413.365	426.75
413.589	416.75
413.812	402.75
414.035	401.75
414.258	380.75
414.482	386.75
414.705	396.75
414.928	386.75
415.151	381.75
415.374	399.75
415.597	403.75
415.821	388.75
416.044	364.75
416.267	400.75
416.49	397.75
416.713	383.75
416.936	390.75
417.159	387.75
417.382	392.75
417.605	400.75
417.828	393.75
418.051	405.75
418.274	420.75
418.497	412.75
418.72	416.75
418.943	379.75
419.166	405.75
419.389	415.75
419.611	420.75
419.834	414.75
420.057	426.75
420.28	422.75
420.503	407.75
420.726	417.75
420.948	423.75
421.171	459.75
421.394	485.75
421.617	429.75
421.839	420.75
422.062	422.75
422.285	436.75
422.507	473.75
422.73	548.75
422.953	532.75
423.175	456.75
423.398	444.75
423.621	422.75
423.843	438.75
424.066	448.75
424.288	448.75
424.511	485.75
424.733	502.75
424.956	572.75
425.178	568.75
425.401	532.75
425.623	579.75
425.846	509.75
426.068	447.75
426.291	434.75
426.513	460.75
426.735	455.75
426.958	503.75
427.18	564.75
427.402	661.75
427.625	751.75
427.847	685.75
428.069	573.75
428.292	507.75
428.514	458.75
428.736	438.75
428.958	420.75
429.181	440.75
429.403	430.75
429.625	427.75
429.847	466.75
430.069	534.75
430.292	530.75
430.514	454.75
430.736	412.75
430.958	391.75
431.18	412.75
431.402	416.75
431.624	392.75
431.846	378.75
432.068	390.75
432.29	384.75
432.512	388.75
432.734	411.75
432.956	379.75
433.178	403.75
433.4	400.75
433.622	421.75
433.844	390.75
434.066	390.75
434.287	380.75
434.509	378.75
434.731	394.75
434.953	416.75
435.175	416.75
435.397	434.75
435.618	446.75
435.84	485.75
436.062	580.75
436.284	638.75
436.505	527.75
436.727	469.75
436.949	453.75
437.17	409.75
437.392	432.75
437.614	430.75
437.835	473.75
438.057	556.75
438.278	634.75
438.5	654.75
438.721	709.75
438.943	675.75
439.165	546.75
439.386	487.75
439.608	478.75
439.829	471.75
440.05	487.75
440.272	554.75
440.493	509.75
440.715	463.75
440.936	431.75
441.158	442.75
441.379	430.75
441.6	425.75
441.822	418.75
442.043	485.75
442.264	557.75
442.486	612.75
442.707	504.75
442.928	484.75
443.149	497.75
443.371	493.75
443.592	528.75
443.813	615.75
444.034	659.75
444.255	562.75
444.476	466.75
444.698	444.75
444.919	482.75
445.14	564.75
445.361	510.75
445.582	499.75
445.803	560.75
446.024	644.75
446.245	637.75
446.466	590.75
446.687	507.75
446.908	471.75
447.129	429.75
447.35	434.75
447.571	438.75
447.792	421.75
448.013	443.75
448.234	463.75
448.455	491.75
448.675	610.75
448.896	704.75
449.117	600.75
449.338	542.75
449.559	629.75
449.779	726.75
450	596.75
450.221	490.75
450.442	434.75
450.662	424.75
450.883	421.75
451.104	419.75
451.324	461.75
451.545	406.75
451.766	404.75
451.986	379.75
452.207	363.75
452.428	374.75
452.648	386.75
452.869	392.75
453.089	367.75
453.31	378.75
453.53	383.75
453.751	382.75
453.971	399.75
454.192	388.75
454.412	402.75
454.633	378.75
454.853	375.75
455.073	368.75
455.294	415.75
455.514	458.75
455.734	441.75
455.955	374.75
456.175	375.75
456.395	360.75
456.616	346.75
456.836	344.75
457.056	355.75
457.276	338.75
457.497	347.75
457.717	357.75
457.937	355.75
458.157	363.75
458.377	372.75
458.598	394.75
458.818	452.75
459.038	513.75
459.258	520.75
459.478	430.75
459.698	401.75
459.918	409.75
460.138	398.75
460.358	391.75
460.578	386.75
460.798	391.75
461.018	392.75
461.238	378.75
461.458	401.75
461.678	398.75
461.898	388.75
462.118	379.75
462.338	408.75
462.558	399.75
462.777	421.75
462.997	411.75
463.217	408.75
463.437	425.75
463.657	422.75
463.876	411.75
464.096	411.75
464.316	416.75
464.536	427.75
464.755	427.75
464.975	413.75
465.195	464.75
465.414	542.75
465.634	477.75
465.854	409.75
466.073	414.75
466.293	398.75
466.512	407.75
466.732	379.75
466.951	384.75
467.171	400.75
467.391	399.75
467.61	409.75
467.829	405.75
468.049	416.75
468.268	390.75
468.488	384.75
468.707	395.75
468.927	392.75
469.146	353.75
469.365	363.75
469.585	381.75
469.804	390.75
470.023	393.75
470.243	390.75
470.462	394.75
470.681	419.75
470.901	395.75
471.12	387.75
471.339	383.75
471.558	399.75
471.777	397.75
471.997	394.75
472.216	394.75
472.435	416.75
472.654	390.75
472.873	404.75
473.092	398.75
473.311	386.75
473.53	402.75
473.749	381.75
473.968	434.75
474.187	518.75
474.406	564.75
474.625	432.75
474.844	397.75
475.063	404.75
475.282	394.75
475.501	399.75
475.72	416.75
475.939	385.75
476.158	390.75
476.377	403.75
476.596	387.75
476.814	410.75
477.033	400.75
477.252	434.75
477.471	411.75
477.69	419.75
477.908	421.75
478.127	440.75
478.346	428.75
478.564	427.75
478.783	418.75
479.002	444.75
479.22	464.75
479.439	454.75
479.658	455.75
479.876	479.75
480.095	483.75
480.313	488.75
480.532	475.75
480.751	473.75
480.969	489.75
481.188	521.75
481.406	583.75
481.624	508.75
481.843	491.75
482.061	463.75
482.28	459.75
482.498	454.75
482.717	458.75
482.935	458.75
483.153	453.75
483.372	459.75
483.59	472.75
483.808	471.75
484.027	460.75
484.245	470.75
484.463	463.75
484.681	469.75
484.9	458.75
485.118	470.75
485.336	456.75
485.554	466.75
485.772	478.75
485.99	472.75
486.209	480.75
486.427	475.75
486.645	492.75
486.863	521.75
487.081	478.75
487.299	496.75
487.517	495.75
487.735	502.75
487.953	486.75
488.171	504.75
488.389	483.75
488.607	480.75
488.825	489.75
489.043	484.75
489.261	488.75
489.479	487.75
489.696	514.75
489.914	508.75
490.132	493.75
490.35	518.75
490.568	524.75
490.786	505.75
491.003	529.75
491.221	532.75
491.439	557.75
491.657	540.75
491.874	536.75
492.092	571.75
492.31	582.75
492.527	543.75
492.745	580.75
492.963	571.75
493.18	578.75
493.398	570.75
493.615	583.75
493.833	574.75
494.05	579.75
494.268	579.75
494.485	572.75
494.703	573.75
494.92	576.75
495.138	588.75
495.355	592.75
495.573	598.75
495.79	579.75
496.008	580.75
496.225	595.75
496.442	578.75
496.66	567.75
496.877	564.75
497.094	574.75
497.312	619.75
497.529	592.75
497.746	601.75
497.963	602.75
498.181	632.75
498.398	650.75
498.615	614.75
498.832	648.75
499.049	638.75
499.267	641.75
499.484	665.75
499.701	675.75
499.918	707.75
500.135	703.75
500.352	737.75
500.569	751.75
500.786	748.75
501.003	740.75
501.22	728.75
501.437	724.75
501.654	690.75
501.871	689.75
502.088	723.75
