Data from 1972.PennyLincolnUp.Lamp.En5.5.200Scan.071719.P1._HRD10591_15-28-40-844.txt Node
Date: Thu Jul 18 15:28:40 EDT 2019
User: cochatt
Spectrometer: HR+D1059
Trigger mode: 1
Integration Time (sec): 1.000000E-1
Scans to average: 1
Electric dark correction enabled: true
Nonlinearity correction enabled: false
Boxcar width: 0
XAxis mode: Wavelengths
Number of Pixels in Spectrum: 2048
>>>>>Begin Spectral Data<<<<<
223.165	-18.25
223.4	-18.25
223.635	-18.25
223.869	-27.25
224.104	-7.25
224.338	-21.25
224.573	-25.25
224.808	-25.25
225.042	-7.25
225.277	-6.25
225.511	6.75
225.746	3.75
225.98	10.75
226.215	20.75
226.449	10.75
226.683	25.75
226.918	23.75
227.152	35.75
227.387	32.75
227.621	43.75
227.856	55.75
228.09	49.75
228.324	47.75
228.559	56.75
228.793	61.75
229.027	97.75
229.262	108.75
229.496	122.75
229.73	137.75
229.964	158.75
230.199	131.75
230.433	131.75
230.667	135.75
230.901	126.75
231.136	119.75
231.37	130.75
231.604	114.75
231.838	114.75
232.072	108.75
232.306	109.75
232.541	122.75
232.775	109.75
233.009	129.75
233.243	127.75
233.477	109.75
233.711	125.75
233.945	123.75
234.179	122.75
234.413	123.75
234.647	119.75
234.881	115.75
235.115	110.75
235.349	125.75
235.583	133.75
235.817	121.75
236.051	138.75
236.285	143.75
236.519	119.75
236.753	141.75
236.987	142.75
237.221	196.75
237.455	266.75
237.689	220.75
237.922	155.75
238.156	136.75
238.39	139.75
238.624	138.75
238.858	114.75
239.091	129.75
239.325	131.75
239.559	126.75
239.793	125.75
240.027	154.75
240.26	159.75
240.494	160.75
240.728	159.75
240.961	175.75
241.195	169.75
241.429	149.75
241.662	134.75
241.896	134.75
242.13	144.75
242.363	142.75
242.597	129.75
242.83	140.75
243.064	137.75
243.298	146.75
243.531	150.75
243.765	139.75
243.998	150.75
244.232	141.75
244.465	148.75
244.699	145.75
244.932	137.75
245.166	141.75
245.399	153.75
245.633	153.75
245.866	134.75
246.099	151.75
246.333	165.75
246.566	162.75
246.8	166.75
247.033	157.75
247.266	171.75
247.5	166.75
247.733	175.75
247.966	168.75
248.2	207.75
248.433	170.75
248.666	183.75
248.899	194.75
249.133	212.75
249.366	217.75
249.599	208.75
249.832	195.75
250.066	185.75
250.299	208.75
250.532	202.75
250.765	207.75
250.998	242.75
251.231	226.75
251.465	217.75
251.698	217.75
251.931	203.75
252.164	205.75
252.397	224.75
252.63	214.75
252.863	226.75
253.096	248.75
253.329	245.75
253.562	249.75
253.795	237.75
254.028	251.75
254.261	236.75
254.494	267.75
254.727	269.75
254.96	309.75
255.193	276.75
255.426	286.75
255.659	246.75
255.892	258.75
256.124	250.75
256.357	264.75
256.59	262.75
256.823	234.75
257.056	234.75
257.289	238.75
257.521	223.75
257.754	219.75
257.987	226.75
258.22	226.75
258.452	211.75
258.685	220.75
258.918	221.75
259.151	229.75
259.383	228.75
259.616	232.75
259.849	233.75
260.081	263.75
260.314	253.75
260.547	282.75
260.779	270.75
261.012	259.75
261.244	239.75
261.477	233.75
261.71	238.75
261.942	234.75
262.175	264.75
262.407	266.75
262.64	238.75
262.872	231.75
263.105	214.75
263.337	215.75
263.57	231.75
263.802	238.75
264.035	227.75
264.267	212.75
264.499	215.75
264.732	224.75
264.964	238.75
265.197	226.75
265.429	218.75
265.661	220.75
265.894	210.75
266.126	229.75
266.358	217.75
266.591	211.75
266.823	226.75
267.055	230.75
267.287	236.75
267.52	236.75
267.752	233.75
267.984	227.75
268.216	238.75
268.448	257.75
268.681	248.75
268.913	273.75
269.145	289.75
269.377	290.75
269.609	299.75
269.841	289.75
270.073	280.75
270.306	315.75
270.538	341.75
270.77	354.75
271.002	320.75
271.234	313.75
271.466	321.75
271.698	330.75
271.93	347.75
272.162	332.75
272.394	339.75
272.626	327.75
272.858	316.75
273.09	297.75
273.322	310.75
273.553	298.75
273.785	300.75
274.017	285.75
274.249	266.75
274.481	285.75
274.713	291.75
274.945	280.75
275.176	272.75
275.408	274.75
275.64	271.75
275.872	281.75
276.104	289.75
276.335	278.75
276.567	299.75
276.799	315.75
277.031	312.75
277.262	333.75
277.494	343.75
277.726	318.75
277.957	301.75
278.189	311.75
278.421	275.75
278.652	291.75
278.884	289.75
279.115	291.75
279.347	279.75
279.579	274.75
279.81	283.75
280.042	276.75
280.273	272.75
280.505	282.75
280.736	277.75
280.968	275.75
281.199	274.75
281.431	280.75
281.662	289.75
281.894	265.75
282.125	282.75
282.356	305.75
282.588	334.75
282.819	337.75
283.051	296.75
283.282	267.75
283.513	298.75
283.745	288.75
283.976	280.75
284.207	282.75
284.439	278.75
284.67	281.75
284.901	288.75
285.132	294.75
285.364	294.75
285.595	297.75
285.826	278.75
286.057	289.75
286.288	281.75
286.52	286.75
286.751	272.75
286.982	298.75
287.213	291.75
287.444	292.75
287.675	311.75
287.906	317.75
288.138	311.75
288.369	305.75
288.6	304.75
288.831	295.75
289.062	293.75
289.293	295.75
289.524	286.75
289.755	271.75
289.986	298.75
290.217	297.75
290.448	291.75
290.679	282.75
290.91	309.75
291.141	277.75
291.371	304.75
291.602	298.75
291.833	293.75
292.064	298.75
292.295	277.75
292.526	297.75
292.757	303.75
292.987	290.75
293.218	303.75
293.449	286.75
293.68	299.75
293.91	291.75
294.141	294.75
294.372	286.75
294.603	285.75
294.833	292.75
295.064	286.75
295.295	280.75
295.525	303.75
295.756	292.75
295.987	318.75
296.217	339.75
296.448	356.75
296.679	321.75
296.909	295.75
297.14	300.75
297.37	302.75
297.601	299.75
297.831	292.75
298.062	312.75
298.292	299.75
298.523	311.75
298.753	302.75
298.984	315.75
299.214	315.75
299.445	293.75
299.675	330.75
299.905	312.75
300.136	304.75
300.366	311.75
300.597	305.75
300.827	294.75
301.057	319.75
301.288	343.75
301.518	338.75
301.748	319.75
301.979	341.75
302.209	321.75
302.439	337.75
302.669	342.75
302.9	331.75
303.13	319.75
303.36	321.75
303.59	327.75
303.82	356.75
304.051	320.75
304.281	320.75
304.511	329.75
304.741	326.75
304.971	335.75
305.201	313.75
305.431	330.75
305.661	319.75
305.891	321.75
306.121	343.75
306.352	341.75
306.582	349.75
306.812	328.75
307.042	329.75
307.272	339.75
307.502	336.75
307.731	325.75
307.961	325.75
308.191	332.75
308.421	339.75
308.651	333.75
308.881	353.75
309.111	337.75
309.341	349.75
309.571	376.75
309.8	358.75
310.03	393.75
310.26	397.75
310.49	398.75
310.72	415.75
310.949	416.75
311.179	413.75
311.409	403.75
311.639	387.75
311.868	395.75
312.098	371.75
312.328	402.75
312.557	426.75
312.787	440.75
313.017	446.75
313.246	418.75
313.476	387.75
313.706	387.75
313.935	402.75
314.165	411.75
314.394	414.75
314.624	422.75
314.853	401.75
315.083	362.75
315.312	382.75
315.542	397.75
315.771	369.75
316.001	373.75
316.23	370.75
316.46	382.75
316.689	381.75
316.919	373.75
317.148	391.75
317.377	408.75
317.607	385.75
317.836	400.75
318.065	385.75
318.295	403.75
318.524	387.75
318.753	366.75
318.983	367.75
319.212	377.75
319.441	401.75
319.67	415.75
319.9	385.75
320.129	391.75
320.358	394.75
320.587	407.75
320.816	404.75
321.046	426.75
321.275	412.75
321.504	401.75
321.733	432.75
321.962	432.75
322.191	435.75
322.42	478.75
322.649	481.75
322.878	484.75
323.108	521.75
323.337	539.75
323.566	581.75
323.795	619.75
324.024	659.75
324.253	808.75
324.482	1205.75
324.71	1939.75
324.939	2796.75
325.168	2380.75
325.397	1219.75
325.626	795.75
325.855	653.75
326.084	586.75
326.313	575.75
326.542	573.75
326.77	656.75
326.999	766.75
327.228	1077.75
327.457	1661.75
327.686	2082.75
327.914	1381.75
328.143	861.75
328.372	742.75
328.6	704.75
328.829	654.75
329.058	650.75
329.287	679.75
329.515	638.75
329.744	579.75
329.972	581.75
330.201	608.75
330.43	653.75
330.658	679.75
330.887	721.75
331.115	695.75
331.344	584.75
331.572	552.75
331.801	525.75
332.03	536.75
332.258	505.75
332.486	476.75
332.715	453.75
332.943	465.75
333.172	469.75
333.4	463.75
333.629	468.75
333.857	500.75
334.085	517.75
334.314	536.75
334.542	557.75
334.771	601.75
334.999	543.75
335.227	497.75
335.455	463.75
335.684	463.75
335.912	432.75
336.14	443.75
336.369	454.75
336.597	468.75
336.825	462.75
337.053	460.75
337.281	449.75
337.51	445.75
337.738	443.75
337.966	451.75
338.194	450.75
338.422	436.75
338.65	438.75
338.878	423.75
339.106	437.75
339.334	432.75
339.562	442.75
339.79	441.75
340.018	412.75
340.246	442.75
340.474	431.75
340.702	425.75
340.93	421.75
341.158	424.75
341.386	416.75
341.614	432.75
341.842	445.75
342.07	432.75
342.298	427.75
342.526	399.75
342.754	391.75
342.981	409.75
343.209	405.75
343.437	408.75
343.665	416.75
343.893	404.75
344.12	415.75
344.348	421.75
344.576	432.75
344.804	441.75
345.031	439.75
345.259	442.75
345.487	466.75
345.714	437.75
345.942	428.75
346.17	416.75
346.397	422.75
346.625	439.75
346.853	439.75
347.08	409.75
347.308	427.75
347.535	436.75
347.763	422.75
347.99	424.75
348.218	447.75
348.445	459.75
348.673	440.75
348.9	437.75
349.128	418.75
349.355	401.75
349.583	410.75
349.81	401.75
350.037	404.75
350.265	401.75
350.492	403.75
350.72	404.75
350.947	393.75
351.174	429.75
351.402	449.75
351.629	426.75
351.856	433.75
352.083	445.75
352.311	444.75
352.538	437.75
352.765	431.75
352.992	429.75
353.22	434.75
353.447	420.75
353.674	413.75
353.901	406.75
354.128	409.75
354.355	398.75
354.583	385.75
354.81	385.75
355.037	387.75
355.264	364.75
355.491	370.75
355.718	380.75
355.945	386.75
356.172	392.75
356.399	394.75
356.626	384.75
356.853	373.75
357.08	368.75
357.307	379.75
357.534	375.75
357.761	387.75
357.988	387.75
358.215	386.75
358.441	382.75
358.668	379.75
358.895	382.75
359.122	364.75
359.349	411.75
359.576	413.75
359.802	455.75
360.029	485.75
360.256	518.75
360.483	470.75
360.709	438.75
360.936	411.75
361.163	415.75
361.39	411.75
361.616	418.75
361.843	413.75
362.07	400.75
362.296	415.75
362.523	413.75
362.749	406.75
362.976	400.75
363.203	421.75
363.429	390.75
363.656	396.75
363.882	401.75
364.109	386.75
364.335	397.75
364.562	379.75
364.788	383.75
365.015	391.75
365.241	391.75
365.468	394.75
365.694	408.75
365.92	407.75
366.147	378.75
366.373	403.75
366.599	399.75
366.826	375.75
367.052	384.75
367.278	382.75
367.505	378.75
367.731	393.75
367.957	395.75
368.184	381.75
368.41	369.75
368.636	389.75
368.862	409.75
369.089	400.75
369.315	379.75
369.541	382.75
369.767	394.75
369.993	367.75
370.219	385.75
370.445	391.75
370.672	397.75
370.898	365.75
371.124	358.75
371.35	384.75
371.576	362.75
371.802	367.75
372.028	362.75
372.254	381.75
372.48	363.75
372.706	362.75
372.932	378.75
373.158	379.75
373.384	374.75
373.61	389.75
373.835	383.75
374.061	365.75
374.287	373.75
374.513	389.75
374.739	387.75
374.965	368.75
375.191	379.75
375.416	372.75
375.642	358.75
375.868	383.75
376.094	379.75
376.319	374.75
376.545	378.75
376.771	374.75
376.997	370.75
377.222	387.75
377.448	380.75
377.674	359.75
377.899	362.75
378.125	369.75
378.35	381.75
378.576	366.75
378.802	357.75
379.027	366.75
379.253	363.75
379.478	363.75
379.704	368.75
379.929	369.75
380.155	364.75
380.38	365.75
380.606	359.75
380.831	376.75
381.057	357.75
381.282	373.75
381.507	377.75
381.733	392.75
381.958	388.75
382.184	398.75
382.409	371.75
382.634	381.75
382.86	382.75
383.085	392.75
383.31	396.75
383.535	387.75
383.761	367.75
383.986	371.75
384.211	383.75
384.436	387.75
384.662	389.75
384.887	383.75
385.112	378.75
385.337	379.75
385.562	385.75
385.787	393.75
386.013	406.75
386.238	415.75
386.463	409.75
386.688	414.75
386.913	371.75
387.138	386.75
387.363	413.75
387.588	402.75
387.813	399.75
388.038	393.75
388.263	390.75
388.488	410.75
388.713	401.75
388.938	407.75
389.163	395.75
389.387	401.75
389.612	397.75
389.837	403.75
390.062	390.75
390.287	393.75
390.512	377.75
390.736	397.75
390.961	377.75
391.186	373.75
391.411	379.75
391.636	385.75
391.86	385.75
392.085	386.75
392.31	394.75
392.534	401.75
392.759	397.75
392.984	379.75
393.208	413.75
393.433	421.75
393.658	418.75
393.882	388.75
394.107	407.75
394.331	415.75
394.556	397.75
394.78	395.75
395.005	405.75
395.229	389.75
395.454	417.75
395.678	407.75
395.903	428.75
396.127	449.75
396.352	461.75
396.576	417.75
396.801	416.75
397.025	432.75
397.249	428.75
397.474	412.75
397.698	420.75
397.922	453.75
398.147	456.75
398.371	449.75
398.595	445.75
398.82	432.75
399.044	463.75
399.268	461.75
399.492	445.75
399.717	489.75
399.941	522.75
400.165	553.75
400.389	572.75
400.613	535.75
400.837	472.75
401.062	463.75
401.286	452.75
401.51	465.75
401.734	442.75
401.958	462.75
402.182	457.75
402.406	459.75
402.63	472.75
402.854	479.75
403.078	473.75
403.302	472.75
403.526	483.75
403.75	468.75
403.974	455.75
404.198	450.75
404.422	485.75
404.645	465.75
404.869	476.75
405.093	521.75
405.317	556.75
405.541	569.75
405.765	565.75
405.988	511.75
406.212	519.75
406.436	507.75
406.66	541.75
406.883	505.75
407.107	530.75
407.331	606.75
407.555	678.75
407.778	672.75
408.002	561.75
408.226	539.75
408.449	518.75
408.673	525.75
408.896	550.75
409.12	583.75
409.344	573.75
409.567	513.75
409.791	481.75
410.014	478.75
410.238	480.75
410.461	479.75
410.685	469.75
410.908	502.75
411.132	524.75
411.355	565.75
411.578	539.75
411.802	484.75
412.025	478.75
412.249	486.75
412.472	483.75
412.695	547.75
412.919	554.75
413.142	513.75
413.365	493.75
413.589	461.75
413.812	436.75
414.035	461.75
414.258	450.75
414.482	449.75
414.705	448.75
414.928	439.75
415.151	452.75
415.374	449.75
415.597	448.75
415.821	443.75
416.044	442.75
416.267	434.75
416.49	447.75
416.713	439.75
416.936	463.75
417.159	442.75
417.382	439.75
417.605	460.75
417.828	468.75
418.051	476.75
418.274	475.75
418.497	458.75
418.72	439.75
418.943	435.75
419.166	450.75
419.389	490.75
419.611	461.75
419.834	488.75
420.057	495.75
420.28	477.75
420.503	487.75
420.726	485.75
420.948	479.75
421.171	535.75
421.394	578.75
421.617	506.75
421.839	468.75
422.062	473.75
422.285	488.75
422.507	565.75
422.73	635.75
422.953	601.75
423.175	541.75
423.398	527.75
423.621	506.75
423.843	501.75
424.066	526.75
424.288	519.75
424.511	518.75
424.733	599.75
424.956	673.75
425.178	670.75
425.401	645.75
425.623	673.75
425.846	577.75
426.068	535.75
426.291	521.75
426.513	537.75
426.735	537.75
426.958	568.75
427.18	688.75
427.402	807.75
427.625	902.75
427.847	812.75
428.069	700.75
428.292	621.75
428.514	546.75
428.736	514.75
428.958	495.75
429.181	489.75
429.403	485.75
429.625	498.75
429.847	525.75
430.069	593.75
430.292	589.75
430.514	509.75
430.736	480.75
430.958	482.75
431.18	463.75
431.402	471.75
431.624	442.75
431.846	449.75
432.068	439.75
432.29	466.75
432.512	471.75
432.734	469.75
432.956	459.75
433.178	471.75
433.4	482.75
433.622	458.75
433.844	469.75
434.066	442.75
434.287	439.75
434.509	451.75
434.731	446.75
434.953	470.75
435.175	507.75
435.397	511.75
435.618	527.75
435.84	575.75
436.062	681.75
436.284	763.75
436.505	639.75
436.727	549.75
436.949	515.75
437.17	514.75
437.392	507.75
437.614	516.75
437.835	589.75
438.057	671.75
438.278	764.75
438.5	769.75
438.721	830.75
438.943	789.75
439.165	634.75
439.386	559.75
439.608	566.75
439.829	561.75
440.05	574.75
440.272	653.75
440.493	624.75
440.715	552.75
440.936	519.75
441.158	513.75
441.379	495.75
441.6	516.75
441.822	518.75
442.043	570.75
442.264	653.75
442.486	722.75
442.707	595.75
442.928	551.75
443.149	549.75
443.371	574.75
443.592	638.75
443.813	706.75
444.034	783.75
444.255	651.75
444.476	576.75
444.698	541.75
444.919	533.75
445.14	614.75
445.361	578.75
445.582	582.75
445.803	648.75
446.024	776.75
446.245	781.75
446.466	709.75
446.687	599.75
446.908	563.75
447.129	542.75
447.35	496.75
447.571	513.75
447.792	494.75
448.013	509.75
448.234	535.75
448.455	570.75
448.675	715.75
448.896	806.75
449.117	717.75
449.338	689.75
449.559	792.75
449.779	851.75
450	703.75
450.221	580.75
450.442	511.75
450.662	508.75
450.883	511.75
451.104	539.75
451.324	492.75
451.545	477.75
451.766	457.75
451.986	465.75
452.207	436.75
452.428	433.75
452.648	441.75
452.869	444.75
453.089	435.75
453.31	473.75
453.53	463.75
453.751	430.75
453.971	438.75
454.192	465.75
454.412	480.75
454.633	446.75
454.853	435.75
455.073	450.75
455.294	487.75
455.514	545.75
455.734	520.75
455.955	449.75
456.175	434.75
456.395	425.75
456.616	403.75
456.836	423.75
457.056	409.75
457.276	400.75
457.497	410.75
457.717	404.75
457.937	430.75
458.157	436.75
458.377	421.75
458.598	445.75
458.818	529.75
459.038	631.75
459.258	640.75
459.478	533.75
459.698	457.75
459.918	455.75
460.138	434.75
460.358	440.75
460.578	428.75
460.798	423.75
461.018	442.75
461.238	437.75
461.458	448.75
461.678	442.75
461.898	450.75
462.118	450.75
462.338	456.75
462.558	445.75
462.777	438.75
462.997	461.75
463.217	440.75
463.437	485.75
463.657	494.75
463.876	472.75
464.096	445.75
464.316	457.75
464.536	482.75
464.755	480.75
464.975	478.75
465.195	549.75
465.414	641.75
465.634	584.75
465.854	505.75
466.073	489.75
466.293	443.75
466.512	443.75
466.732	428.75
466.951	423.75
467.171	446.75
467.391	431.75
467.61	446.75
467.829	459.75
468.049	478.75
468.268	473.75
468.488	445.75
468.707	442.75
468.927	430.75
469.146	416.75
469.365	427.75
469.585	425.75
469.804	431.75
470.023	449.75
470.243	457.75
470.462	458.75
470.681	469.75
470.901	472.75
471.12	456.75
471.339	442.75
471.558	449.75
471.777	472.75
471.997	439.75
472.216	448.75
472.435	518.75
472.654	489.75
472.873	452.75
473.092	442.75
473.311	450.75
473.53	451.75
473.749	463.75
473.968	508.75
474.187	629.75
474.406	652.75
474.625	525.75
474.844	477.75
475.063	462.75
475.282	458.75
475.501	453.75
475.72	459.75
475.939	450.75
476.158	453.75
476.377	432.75
476.596	473.75
476.814	481.75
477.033	499.75
477.252	482.75
477.471	480.75
477.69	483.75
477.908	497.75
478.127	476.75
478.346	468.75
478.564	487.75
478.783	473.75
479.002	472.75
479.22	511.75
479.439	529.75
479.658	537.75
479.876	523.75
480.095	555.75
480.313	575.75
480.532	536.75
480.751	527.75
480.969	578.75
481.188	651.75
481.406	734.75
481.624	600.75
481.843	565.75
482.061	561.75
482.28	537.75
482.498	518.75
482.717	520.75
482.935	519.75
483.153	530.75
483.372	527.75
483.59	516.75
483.808	522.75
484.027	512.75
484.245	513.75
484.463	519.75
484.681	524.75
484.9	529.75
485.118	543.75
485.336	538.75
485.554	553.75
485.772	525.75
485.99	535.75
486.209	572.75
486.427	567.75
486.645	550.75
486.863	585.75
487.081	563.75
487.299	583.75
487.517	572.75
487.735	581.75
487.953	557.75
488.171	558.75
488.389	563.75
488.607	579.75
488.825	563.75
489.043	593.75
489.261	582.75
489.479	573.75
489.696	561.75
489.914	568.75
490.132	582.75
490.35	613.75
490.568	588.75
490.786	578.75
491.003	604.75
491.221	630.75
491.439	630.75
491.657	650.75
491.874	661.75
492.092	662.75
492.31	669.75
492.527	661.75
492.745	651.75
492.963	659.75
493.18	674.75
493.398	676.75
493.615	663.75
493.833	677.75
494.05	670.75
494.268	657.75
494.485	670.75
494.703	672.75
494.92	658.75
495.138	665.75
495.355	683.75
495.573	675.75
495.79	667.75
496.008	676.75
496.225	677.75
496.442	671.75
496.66	660.75
496.877	665.75
497.094	674.75
497.312	679.75
497.529	679.75
497.746	690.75
497.963	716.75
498.181	710.75
498.398	746.75
498.615	741.75
498.832	713.75
499.049	745.75
499.267	744.75
499.484	750.75
499.701	771.75
499.918	786.75
500.135	774.75
500.352	816.75
500.569	837.75
500.786	809.75
501.003	833.75
501.22	814.75
501.437	801.75
501.654	815.75
501.871	836.75
