Data from 1972.PennyLincolnUp.Lamp.En5.5.200Scan.071719.P1._HRD10591_15-27-20-845.txt Node
Date: Thu Jul 18 15:27:20 EDT 2019
User: cochatt
Spectrometer: HR+D1059
Trigger mode: 1
Integration Time (sec): 1.000000E-1
Scans to average: 1
Electric dark correction enabled: true
Nonlinearity correction enabled: false
Boxcar width: 0
XAxis mode: Wavelengths
Number of Pixels in Spectrum: 2048
>>>>>Begin Spectral Data<<<<<
223.165	-29.88
223.4	-29.88
223.635	-29.88
223.869	-23.88
224.104	-31.88
224.338	-21.88
224.573	-10.88
224.808	-12.88
225.042	-1.88
225.277	-11.88
225.511	-3.88
225.746	6.12
225.98	15.12
226.215	15.12
226.449	19.12
226.683	22.12
226.918	34.12
227.152	37.12
227.387	41.12
227.621	36.12
227.856	52.12
228.09	37.12
228.324	49.12
228.559	60.12
228.793	61.12
229.027	101.12
229.262	94.12
229.496	116.12
229.73	126.12
229.964	150.12
230.199	125.12
230.433	104.12
230.667	110.12
230.901	113.12
231.136	90.12
231.37	105.12
231.604	110.12
231.838	107.12
232.072	115.12
232.306	122.12
232.541	94.12
232.775	96.12
233.009	120.12
233.243	106.12
233.477	117.12
233.711	118.12
233.945	116.12
234.179	117.12
234.413	105.12
234.647	116.12
234.881	114.12
235.115	101.12
235.349	110.12
235.583	116.12
235.817	121.12
236.051	124.12
236.285	120.12
236.519	128.12
236.753	111.12
236.987	125.12
237.221	184.12
237.455	206.12
237.689	176.12
237.922	135.12
238.156	124.12
238.39	124.12
238.624	125.12
238.858	116.12
239.091	116.12
239.325	115.12
239.559	131.12
239.793	134.12
240.027	123.12
240.26	134.12
240.494	134.12
240.728	144.12
240.961	154.12
241.195	138.12
241.429	139.12
241.662	114.12
241.896	138.12
242.13	133.12
242.363	128.12
242.597	133.12
242.83	117.12
243.064	138.12
243.298	136.12
243.531	131.12
243.765	121.12
243.998	131.12
244.232	144.12
244.465	138.12
244.699	132.12
244.932	131.12
245.166	121.12
245.399	130.12
245.633	126.12
245.866	148.12
246.099	130.12
246.333	152.12
246.566	136.12
246.8	132.12
247.033	148.12
247.266	152.12
247.5	143.12
247.733	173.12
247.966	154.12
248.2	169.12
248.433	175.12
248.666	162.12
248.899	179.12
249.133	184.12
249.366	199.12
249.599	182.12
249.832	188.12
250.066	180.12
250.299	169.12
250.532	180.12
250.765	170.12
250.998	201.12
251.231	212.12
251.465	213.12
251.698	195.12
251.931	193.12
252.164	203.12
252.397	187.12
252.63	188.12
252.863	189.12
253.096	206.12
253.329	222.12
253.562	206.12
253.795	218.12
254.028	208.12
254.261	203.12
254.494	226.12
254.727	237.12
254.96	236.12
255.193	273.12
255.426	248.12
255.659	225.12
255.892	214.12
256.124	237.12
256.357	224.12
256.59	223.12
256.823	187.12
257.056	217.12
257.289	193.12
257.521	211.12
257.754	200.12
257.987	185.12
258.22	195.12
258.452	198.12
258.685	199.12
258.918	218.12
259.151	211.12
259.383	204.12
259.616	194.12
259.849	217.12
260.081	226.12
260.314	231.12
260.547	235.12
260.779	220.12
261.012	226.12
261.244	208.12
261.477	206.12
261.71	227.12
261.942	202.12
262.175	223.12
262.407	212.12
262.64	187.12
262.872	211.12
263.105	203.12
263.337	199.12
263.57	206.12
263.802	191.12
264.035	208.12
264.267	196.12
264.499	203.12
264.732	188.12
264.964	186.12
265.197	194.12
265.429	208.12
265.661	206.12
265.894	206.12
266.126	205.12
266.358	206.12
266.591	206.12
266.823	201.12
267.055	212.12
267.287	208.12
267.52	207.12
267.752	208.12
267.984	208.12
268.216	229.12
268.448	217.12
268.681	214.12
268.913	225.12
269.145	237.12
269.377	258.12
269.609	258.12
269.841	245.12
270.073	246.12
270.306	280.12
270.538	287.12
270.77	297.12
271.002	277.12
271.234	272.12
271.466	276.12
271.698	298.12
271.93	295.12
272.162	299.12
272.394	309.12
272.626	260.12
272.858	268.12
273.09	266.12
273.322	264.12
273.553	260.12
273.785	226.12
274.017	245.12
274.249	245.12
274.481	243.12
274.713	244.12
274.945	263.12
275.176	237.12
275.408	254.12
275.64	254.12
275.872	237.12
276.104	230.12
276.335	253.12
276.567	260.12
276.799	264.12
277.031	293.12
277.262	286.12
277.494	276.12
277.726	270.12
277.957	264.12
278.189	255.12
278.421	241.12
278.652	250.12
278.884	264.12
279.115	232.12
279.347	226.12
279.579	240.12
279.81	247.12
280.042	234.12
280.273	238.12
280.505	240.12
280.736	260.12
280.968	250.12
281.199	238.12
281.431	222.12
281.662	222.12
281.894	234.12
282.125	239.12
282.356	278.12
282.588	290.12
282.819	287.12
283.051	266.12
283.282	239.12
283.513	238.12
283.745	231.12
283.976	248.12
284.207	264.12
284.439	258.12
284.67	234.12
284.901	263.12
285.132	248.12
285.364	237.12
285.595	256.12
285.826	246.12
286.057	245.12
286.288	251.12
286.52	245.12
286.751	271.12
286.982	237.12
287.213	242.12
287.444	240.12
287.675	267.12
287.906	265.12
288.138	259.12
288.369	271.12
288.6	275.12
288.831	267.12
289.062	276.12
289.293	273.12
289.524	250.12
289.755	250.12
289.986	239.12
290.217	238.12
290.448	280.12
290.679	269.12
290.91	247.12
291.141	244.12
291.371	234.12
291.602	250.12
291.833	249.12
292.064	247.12
292.295	250.12
292.526	254.12
292.757	245.12
292.987	267.12
293.218	250.12
293.449	265.12
293.68	269.12
293.91	260.12
294.141	252.12
294.372	262.12
294.603	239.12
294.833	260.12
295.064	269.12
295.295	270.12
295.525	267.12
295.756	274.12
295.987	282.12
296.217	296.12
296.448	302.12
296.679	276.12
296.909	262.12
297.14	254.12
297.37	250.12
297.601	260.12
297.831	265.12
298.062	255.12
298.292	262.12
298.523	270.12
298.753	283.12
298.984	280.12
299.214	276.12
299.445	269.12
299.675	280.12
299.905	274.12
300.136	281.12
300.366	290.12
300.597	269.12
300.827	278.12
301.057	291.12
301.288	287.12
301.518	282.12
301.748	293.12
301.979	283.12
302.209	297.12
302.439	282.12
302.669	282.12
302.9	286.12
303.13	291.12
303.36	282.12
303.59	307.12
303.82	299.12
304.051	285.12
304.281	302.12
304.511	288.12
304.741	284.12
304.971	271.12
305.201	283.12
305.431	282.12
305.661	304.12
305.891	275.12
306.121	297.12
306.352	291.12
306.582	298.12
306.812	313.12
307.042	287.12
307.272	288.12
307.502	287.12
307.731	295.12
307.961	304.12
308.191	301.12
308.421	297.12
308.651	285.12
308.881	284.12
309.111	323.12
309.341	330.12
309.571	316.12
309.8	317.12
310.03	336.12
310.26	355.12
310.49	345.12
310.72	339.12
310.949	368.12
311.179	356.12
311.409	359.12
311.639	341.12
311.868	317.12
312.098	342.12
312.328	359.12
312.557	352.12
312.787	377.12
313.017	391.12
313.246	357.12
313.476	314.12
313.706	334.12
313.935	342.12
314.165	348.12
314.394	357.12
314.624	358.12
314.853	340.12
315.083	331.12
315.312	329.12
315.542	319.12
315.771	329.12
316.001	344.12
316.23	317.12
316.46	327.12
316.689	332.12
316.919	358.12
317.148	330.12
317.377	340.12
317.607	336.12
317.836	334.12
318.065	324.12
318.295	325.12
318.524	332.12
318.753	322.12
318.983	323.12
319.212	330.12
319.441	353.12
319.67	339.12
319.9	331.12
320.129	328.12
320.358	343.12
320.587	339.12
320.816	342.12
321.046	345.12
321.275	366.12
321.504	357.12
321.733	370.12
321.962	367.12
322.191	355.12
322.42	386.12
322.649	416.12
322.878	413.12
323.108	420.12
323.337	426.12
323.566	447.12
323.795	507.12
324.024	553.12
324.253	671.12
324.482	949.12
324.71	1487.12
324.939	2134.12
325.168	1887.12
325.397	992.12
325.626	636.12
325.855	540.12
326.084	484.12
326.313	467.12
326.542	449.12
326.77	509.12
326.999	598.12
327.228	846.12
327.457	1291.12
327.686	1598.12
327.914	1090.12
328.143	698.12
328.372	578.12
328.6	568.12
328.829	533.12
329.058	542.12
329.287	549.12
329.515	517.12
329.744	450.12
329.972	470.12
330.201	504.12
330.43	540.12
330.658	535.12
330.887	555.12
331.115	550.12
331.344	471.12
331.572	444.12
331.801	441.12
332.03	434.12
332.258	440.12
332.486	407.12
332.715	394.12
332.943	406.12
333.172	406.12
333.4	400.12
333.629	393.12
333.857	420.12
334.085	411.12
334.314	440.12
334.542	473.12
334.771	472.12
334.999	440.12
335.227	424.12
335.455	397.12
335.684	402.12
335.912	411.12
336.14	394.12
336.369	393.12
336.597	391.12
336.825	394.12
337.053	383.12
337.281	382.12
337.51	386.12
337.738	386.12
337.966	384.12
338.194	395.12
338.422	387.12
338.65	384.12
338.878	364.12
339.106	382.12
339.334	355.12
339.562	365.12
339.79	384.12
340.018	375.12
340.246	384.12
340.474	388.12
340.702	355.12
340.93	392.12
341.158	385.12
341.386	365.12
341.614	374.12
341.842	386.12
342.07	374.12
342.298	349.12
342.526	352.12
342.754	381.12
342.981	347.12
343.209	359.12
343.437	372.12
343.665	377.12
343.893	367.12
344.12	350.12
344.348	389.12
344.576	380.12
344.804	393.12
345.031	393.12
345.259	400.12
345.487	392.12
345.714	376.12
345.942	372.12
346.17	364.12
346.397	366.12
346.625	360.12
346.853	358.12
347.08	376.12
347.308	385.12
347.535	379.12
347.763	400.12
347.99	374.12
348.218	400.12
348.445	366.12
348.673	382.12
348.9	366.12
349.128	351.12
349.355	355.12
349.583	344.12
349.81	348.12
350.037	349.12
350.265	360.12
350.492	346.12
350.72	339.12
350.947	349.12
351.174	362.12
351.402	365.12
351.629	370.12
351.856	354.12
352.083	377.12
352.311	367.12
352.538	398.12
352.765	386.12
352.992	371.12
353.22	378.12
353.447	377.12
353.674	355.12
353.901	345.12
354.128	351.12
354.355	320.12
354.583	339.12
354.81	349.12
355.037	339.12
355.264	332.12
355.491	340.12
355.718	319.12
355.945	316.12
356.172	335.12
356.399	324.12
356.626	322.12
356.853	328.12
357.08	337.12
357.307	327.12
357.534	330.12
357.761	324.12
357.988	336.12
358.215	332.12
358.441	332.12
358.668	347.12
358.895	322.12
359.122	340.12
359.349	356.12
359.576	359.12
359.802	380.12
360.029	420.12
360.256	427.12
360.483	397.12
360.709	383.12
360.936	349.12
361.163	377.12
361.39	372.12
361.616	371.12
361.843	346.12
362.07	365.12
362.296	344.12
362.523	358.12
362.749	354.12
362.976	356.12
363.203	351.12
363.429	354.12
363.656	348.12
363.882	366.12
364.109	355.12
364.335	348.12
364.562	341.12
364.788	352.12
365.015	335.12
365.241	345.12
365.468	351.12
365.694	367.12
365.92	358.12
366.147	339.12
366.373	341.12
366.599	356.12
366.826	338.12
367.052	347.12
367.278	332.12
367.505	336.12
367.731	335.12
367.957	338.12
368.184	332.12
368.41	352.12
368.636	355.12
368.862	341.12
369.089	338.12
369.315	356.12
369.541	348.12
369.767	314.12
369.993	342.12
370.219	341.12
370.445	322.12
370.672	333.12
370.898	340.12
371.124	334.12
371.35	339.12
371.576	336.12
371.802	336.12
372.028	340.12
372.254	339.12
372.48	314.12
372.706	326.12
372.932	355.12
373.158	345.12
373.384	338.12
373.61	337.12
373.835	334.12
374.061	332.12
374.287	322.12
374.513	330.12
374.739	331.12
374.965	336.12
375.191	327.12
375.416	363.12
375.642	335.12
375.868	344.12
376.094	335.12
376.319	332.12
376.545	318.12
376.771	348.12
376.997	337.12
377.222	331.12
377.448	320.12
377.674	343.12
377.899	326.12
378.125	335.12
378.35	335.12
378.576	323.12
378.802	343.12
379.027	323.12
379.253	345.12
379.478	322.12
379.704	340.12
379.929	340.12
380.155	351.12
380.38	326.12
380.606	330.12
380.831	340.12
381.057	354.12
381.282	344.12
381.507	338.12
381.733	354.12
381.958	349.12
382.184	354.12
382.409	330.12
382.634	347.12
382.86	351.12
383.085	334.12
383.31	348.12
383.535	336.12
383.761	361.12
383.986	362.12
384.211	329.12
384.436	331.12
384.662	341.12
384.887	366.12
385.112	366.12
385.337	357.12
385.562	357.12
385.787	350.12
386.013	373.12
386.238	373.12
386.463	371.12
386.688	366.12
386.913	348.12
387.138	363.12
387.363	346.12
387.588	352.12
387.813	361.12
388.038	363.12
388.263	345.12
388.488	343.12
388.713	365.12
388.938	370.12
389.163	355.12
389.387	356.12
389.612	347.12
389.837	358.12
390.062	362.12
390.287	373.12
390.512	350.12
390.736	346.12
390.961	348.12
391.186	322.12
391.411	337.12
391.636	374.12
391.86	390.12
392.085	367.12
392.31	358.12
392.534	360.12
392.759	375.12
392.984	355.12
393.208	359.12
393.433	380.12
393.658	378.12
393.882	338.12
394.107	369.12
394.331	349.12
394.556	359.12
394.78	343.12
395.005	340.12
395.229	350.12
395.454	370.12
395.678	367.12
395.903	370.12
396.127	378.12
396.352	401.12
396.576	391.12
396.801	396.12
397.025	369.12
397.249	384.12
397.474	382.12
397.698	376.12
397.922	384.12
398.147	383.12
398.371	394.12
398.595	395.12
398.82	376.12
399.044	405.12
399.268	391.12
399.492	432.12
399.717	427.12
399.941	438.12
400.165	481.12
400.389	479.12
400.613	474.12
400.837	460.12
401.062	420.12
401.286	405.12
401.51	390.12
401.734	394.12
401.958	402.12
402.182	391.12
402.406	410.12
402.63	411.12
402.854	412.12
403.078	411.12
403.302	443.12
403.526	400.12
403.75	428.12
403.974	413.12
404.198	424.12
404.422	421.12
404.645	434.12
404.869	417.12
405.093	440.12
405.317	491.12
405.541	531.12
405.765	477.12
405.988	448.12
406.212	457.12
406.436	470.12
406.66	478.12
406.883	481.12
407.107	476.12
407.331	500.12
407.555	574.12
407.778	581.12
408.002	515.12
408.226	486.12
408.449	460.12
408.673	477.12
408.896	488.12
409.12	503.12
409.344	491.12
409.567	469.12
409.791	440.12
410.014	402.12
410.238	428.12
410.461	426.12
410.685	430.12
410.908	455.12
411.132	455.12
411.355	492.12
411.578	479.12
411.802	412.12
412.025	438.12
412.249	435.12
412.472	439.12
412.695	483.12
412.919	491.12
413.142	431.12
413.365	411.12
413.589	423.12
413.812	392.12
414.035	388.12
414.258	393.12
414.482	381.12
414.705	396.12
414.928	403.12
415.151	392.12
415.374	402.12
415.597	386.12
415.821	377.12
416.044	422.12
416.267	416.12
416.49	383.12
416.713	399.12
416.936	415.12
417.159	414.12
417.382	394.12
417.605	414.12
417.828	410.12
418.051	408.12
418.274	422.12
418.497	397.12
418.72	379.12
418.943	405.12
419.166	410.12
419.389	434.12
419.611	419.12
419.834	418.12
420.057	419.12
420.28	405.12
420.503	423.12
420.726	423.12
420.948	440.12
421.171	463.12
421.394	507.12
421.617	454.12
421.839	410.12
422.062	404.12
422.285	427.12
422.507	478.12
422.73	573.12
422.953	532.12
423.175	451.12
423.398	436.12
423.621	446.12
423.843	451.12
424.066	455.12
424.288	447.12
424.511	479.12
424.733	524.12
424.956	592.12
425.178	558.12
425.401	543.12
425.623	578.12
425.846	520.12
426.068	464.12
426.291	474.12
426.513	474.12
426.735	461.12
426.958	524.12
427.18	590.12
427.402	678.12
427.625	759.12
427.847	688.12
428.069	599.12
428.292	526.12
428.514	487.12
428.736	458.12
428.958	432.12
429.181	434.12
429.403	427.12
429.625	437.12
429.847	476.12
430.069	535.12
430.292	522.12
430.514	437.12
430.736	413.12
430.958	419.12
431.18	424.12
431.402	387.12
431.624	394.12
431.846	394.12
432.068	398.12
432.29	406.12
432.512	398.12
432.734	405.12
432.956	409.12
433.178	424.12
433.4	424.12
433.622	413.12
433.844	391.12
434.066	401.12
434.287	380.12
434.509	402.12
434.731	419.12
434.953	399.12
435.175	411.12
435.397	448.12
435.618	453.12
435.84	499.12
436.062	576.12
436.284	645.12
436.505	538.12
436.727	495.12
436.949	443.12
437.17	431.12
437.392	424.12
437.614	440.12
437.835	478.12
438.057	560.12
438.278	657.12
438.5	640.12
438.721	720.12
438.943	682.12
439.165	552.12
439.386	509.12
439.608	489.12
439.829	475.12
440.05	516.12
440.272	557.12
440.493	502.12
440.715	466.12
440.936	439.12
441.158	441.12
441.379	449.12
441.6	438.12
441.822	462.12
442.043	495.12
442.264	571.12
442.486	628.12
442.707	527.12
442.928	477.12
443.149	496.12
443.371	536.12
443.592	557.12
443.813	620.12
444.034	670.12
444.255	570.12
444.476	494.12
444.698	468.12
444.919	466.12
445.14	559.12
445.361	529.12
445.582	502.12
445.803	590.12
446.024	660.12
446.245	665.12
446.466	627.12
446.687	521.12
446.908	476.12
447.129	439.12
447.35	420.12
447.571	443.12
447.792	424.12
448.013	423.12
448.234	453.12
448.455	527.12
448.675	602.12
448.896	715.12
449.117	615.12
449.338	556.12
449.559	669.12
449.779	738.12
450	583.12
450.221	482.12
450.442	451.12
450.662	415.12
450.883	431.12
451.104	458.12
451.324	454.12
451.545	404.12
451.766	405.12
451.986	386.12
452.207	391.12
452.428	399.12
452.648	375.12
452.869	381.12
453.089	401.12
453.31	391.12
453.53	392.12
453.751	379.12
453.971	394.12
454.192	401.12
454.412	387.12
454.633	387.12
454.853	373.12
455.073	393.12
455.294	392.12
455.514	482.12
455.734	468.12
455.955	420.12
456.175	367.12
456.395	368.12
456.616	354.12
456.836	376.12
457.056	333.12
457.276	355.12
457.497	378.12
457.717	357.12
457.937	369.12
458.157	346.12
458.377	375.12
458.598	418.12
458.818	450.12
459.038	527.12
459.258	528.12
459.478	424.12
459.698	414.12
459.918	400.12
460.138	405.12
460.358	383.12
460.578	392.12
460.798	400.12
461.018	399.12
461.238	411.12
461.458	400.12
461.678	386.12
461.898	407.12
462.118	396.12
462.338	391.12
462.558	413.12
462.777	406.12
462.997	406.12
463.217	439.12
463.437	414.12
463.657	400.12
463.876	421.12
464.096	422.12
464.316	427.12
464.536	409.12
464.755	432.12
464.975	441.12
465.195	478.12
465.414	535.12
465.634	476.12
465.854	448.12
466.073	445.12
466.293	406.12
466.512	400.12
466.732	377.12
466.951	398.12
467.171	392.12
467.391	393.12
467.61	388.12
467.829	400.12
468.049	403.12
468.268	396.12
468.488	385.12
468.707	364.12
468.927	378.12
469.146	383.12
469.365	378.12
469.585	370.12
469.804	374.12
470.023	399.12
470.243	393.12
470.462	401.12
470.681	409.12
470.901	413.12
471.12	400.12
471.339	395.12
471.558	405.12
471.777	419.12
471.997	394.12
472.216	413.12
472.435	423.12
472.654	429.12
472.873	417.12
473.092	396.12
473.311	394.12
473.53	422.12
473.749	396.12
473.968	445.12
474.187	558.12
474.406	566.12
474.625	481.12
474.844	412.12
475.063	403.12
475.282	416.12
475.501	393.12
475.72	409.12
475.939	412.12
476.158	415.12
476.377	406.12
476.596	410.12
476.814	415.12
477.033	432.12
477.252	420.12
477.471	424.12
477.69	439.12
477.908	431.12
478.127	439.12
478.346	444.12
478.564	423.12
478.783	442.12
479.002	440.12
479.22	445.12
479.439	449.12
479.658	472.12
479.876	480.12
480.095	465.12
480.313	487.12
480.532	455.12
480.751	513.12
480.969	495.12
481.188	547.12
481.406	568.12
481.624	515.12
481.843	504.12
482.061	486.12
482.28	463.12
482.498	464.12
482.717	450.12
482.935	450.12
483.153	471.12
483.372	461.12
483.59	484.12
483.808	470.12
484.027	456.12
484.245	468.12
484.463	463.12
484.681	493.12
484.9	462.12
485.118	462.12
485.336	491.12
485.554	488.12
485.772	459.12
485.99	471.12
486.209	495.12
486.427	496.12
486.645	485.12
486.863	500.12
487.081	502.12
487.299	517.12
487.517	494.12
487.735	494.12
487.953	503.12
488.171	502.12
488.389	468.12
488.607	498.12
488.825	485.12
489.043	481.12
489.261	510.12
489.479	500.12
489.696	523.12
489.914	515.12
490.132	500.12
490.35	524.12
490.568	502.12
490.786	540.12
491.003	528.12
491.221	544.12
491.439	566.12
491.657	550.12
491.874	572.12
492.092	571.12
492.31	599.12
492.527	591.12
492.745	600.12
492.963	581.12
493.18	575.12
493.398	577.12
493.615	596.12
493.833	603.12
494.05	601.12
494.268	586.12
494.485	584.12
494.703	590.12
494.92	592.12
495.138	593.12
495.355	572.12
495.573	606.12
495.79	589.12
496.008	598.12
496.225	589.12
496.442	572.12
496.66	620.12
496.877	608.12
497.094	572.12
497.312	602.12
497.529	611.12
497.746	610.12
497.963	640.12
498.181	629.12
498.398	641.12
498.615	655.12
498.832	624.12
499.049	662.12
499.267	638.12
499.484	688.12
499.701	668.12
499.918	720.12
500.135	715.12
500.352	727.12
500.569	749.12
500.786	738.12
501.003	746.12
501.22	744.12
501.437	721.12
501.654	728.12
501.871	731.12
