Data from 1972.PennyLincolnUp.Lamp.En5.5.200Scan.071719.P1._HRD10591_15-27-12-843.txt Node
Date: Thu Jul 18 15:27:12 EDT 2019
User: cochatt
Spectrometer: HR+D1059
Trigger mode: 1
Integration Time (sec): 1.000000E-1
Scans to average: 1
Electric dark correction enabled: true
Nonlinearity correction enabled: false
Boxcar width: 0
XAxis mode: Wavelengths
Number of Pixels in Spectrum: 2048
>>>>>Begin Spectral Data<<<<<
223.165	-20.38
223.4	-20.38
223.635	-20.38
223.869	-13.38
224.104	-13.38
224.338	-16.38
224.573	-14.38
224.808	-9.38
225.042	-11.38
225.277	-18.38
225.511	-1.38
225.746	-5.38
225.98	7.62
226.215	7.62
226.449	17.62
226.683	16.62
226.918	31.62
227.152	42.62
227.387	31.62
227.621	30.62
227.856	46.62
228.09	36.62
228.324	45.62
228.559	42.62
228.793	59.62
229.027	68.62
229.262	85.62
229.496	95.62
229.73	121.62
229.964	150.62
230.199	105.62
230.433	112.62
230.667	108.62
230.901	98.62
231.136	92.62
231.37	106.62
231.604	100.62
231.838	97.62
232.072	94.62
232.306	97.62
232.541	107.62
232.775	102.62
233.009	102.62
233.243	100.62
233.477	106.62
233.711	120.62
233.945	113.62
234.179	104.62
234.413	103.62
234.647	109.62
234.881	116.62
235.115	101.62
235.349	107.62
235.583	114.62
235.817	103.62
236.051	118.62
236.285	113.62
236.519	109.62
236.753	121.62
236.987	124.62
237.221	170.62
237.455	197.62
237.689	169.62
237.922	129.62
238.156	121.62
238.39	120.62
238.624	120.62
238.858	109.62
239.091	128.62
239.325	114.62
239.559	103.62
239.793	105.62
240.027	98.62
240.26	143.62
240.494	141.62
240.728	129.62
240.961	125.62
241.195	120.62
241.429	129.62
241.662	133.62
241.896	113.62
242.13	127.62
242.363	118.62
242.597	134.62
242.83	125.62
243.064	125.62
243.298	135.62
243.531	115.62
243.765	129.62
243.998	117.62
244.232	131.62
244.465	139.62
244.699	142.62
244.932	119.62
245.166	133.62
245.399	133.62
245.633	134.62
245.866	127.62
246.099	146.62
246.333	127.62
246.566	145.62
246.8	124.62
247.033	132.62
247.266	143.62
247.5	145.62
247.733	139.62
247.966	149.62
248.2	166.62
248.433	154.62
248.666	145.62
248.899	169.62
249.133	171.62
249.366	189.62
249.599	169.62
249.832	166.62
250.066	162.62
250.299	166.62
250.532	170.62
250.765	175.62
250.998	186.62
251.231	200.62
251.465	194.62
251.698	185.62
251.931	192.62
252.164	169.62
252.397	177.62
252.63	179.62
252.863	201.62
253.096	204.62
253.329	224.62
253.562	206.62
253.795	194.62
254.028	191.62
254.261	192.62
254.494	200.62
254.727	213.62
254.96	238.62
255.193	230.62
255.426	219.62
255.659	200.62
255.892	219.62
256.124	210.62
256.357	205.62
256.59	221.62
256.823	195.62
257.056	186.62
257.289	192.62
257.521	188.62
257.754	174.62
257.987	197.62
258.22	189.62
258.452	190.62
258.685	208.62
258.918	181.62
259.151	184.62
259.383	195.62
259.616	202.62
259.849	212.62
260.081	223.62
260.314	231.62
260.547	217.62
260.779	216.62
261.012	205.62
261.244	210.62
261.477	209.62
261.71	201.62
261.942	195.62
262.175	193.62
262.407	209.62
262.64	208.62
262.872	185.62
263.105	178.62
263.337	169.62
263.57	189.62
263.802	207.62
264.035	199.62
264.267	184.62
264.499	183.62
264.732	193.62
264.964	186.62
265.197	197.62
265.429	204.62
265.661	189.62
265.894	189.62
266.126	194.62
266.358	207.62
266.591	207.62
266.823	206.62
267.055	195.62
267.287	180.62
267.52	186.62
267.752	191.62
267.984	196.62
268.216	203.62
268.448	213.62
268.681	207.62
268.913	177.62
269.145	226.62
269.377	239.62
269.609	242.62
269.841	227.62
270.073	246.62
270.306	246.62
270.538	277.62
270.77	280.62
271.002	273.62
271.234	255.62
271.466	260.62
271.698	276.62
271.93	258.62
272.162	283.62
272.394	295.62
272.626	263.62
272.858	265.62
273.09	242.62
273.322	243.62
273.553	246.62
273.785	237.62
274.017	233.62
274.249	219.62
274.481	242.62
274.713	221.62
274.945	225.62
275.176	248.62
275.408	227.62
275.64	206.62
275.872	229.62
276.104	232.62
276.335	217.62
276.567	241.62
276.799	244.62
277.031	272.62
277.262	268.62
277.494	263.62
277.726	262.62
277.957	258.62
278.189	267.62
278.421	227.62
278.652	234.62
278.884	241.62
279.115	220.62
279.347	231.62
279.579	221.62
279.81	242.62
280.042	230.62
280.273	226.62
280.505	219.62
280.736	229.62
280.968	230.62
281.199	230.62
281.431	226.62
281.662	226.62
281.894	245.62
282.125	231.62
282.356	237.62
282.588	273.62
282.819	270.62
283.051	221.62
283.282	223.62
283.513	223.62
283.745	244.62
283.976	245.62
284.207	232.62
284.439	228.62
284.67	245.62
284.901	245.62
285.132	242.62
285.364	232.62
285.595	242.62
285.826	227.62
286.057	245.62
286.288	234.62
286.52	241.62
286.751	233.62
286.982	246.62
287.213	250.62
287.444	253.62
287.675	233.62
287.906	241.62
288.138	263.62
288.369	249.62
288.6	263.62
288.831	255.62
289.062	256.62
289.293	262.62
289.524	234.62
289.755	248.62
289.986	243.62
290.217	263.62
290.448	241.62
290.679	225.62
290.91	237.62
291.141	247.62
291.371	263.62
291.602	240.62
291.833	238.62
292.064	254.62
292.295	247.62
292.526	239.62
292.757	237.62
292.987	235.62
293.218	251.62
293.449	250.62
293.68	246.62
293.91	237.62
294.141	262.62
294.372	244.62
294.603	231.62
294.833	249.62
295.064	249.62
295.295	245.62
295.525	243.62
295.756	239.62
295.987	262.62
296.217	292.62
296.448	289.62
296.679	272.62
296.909	238.62
297.14	249.62
297.37	255.62
297.601	263.62
297.831	234.62
298.062	247.62
298.292	245.62
298.523	261.62
298.753	254.62
298.984	246.62
299.214	263.62
299.445	239.62
299.675	265.62
299.905	257.62
300.136	270.62
300.366	261.62
300.597	248.62
300.827	270.62
301.057	270.62
301.288	278.62
301.518	264.62
301.748	269.62
301.979	273.62
302.209	280.62
302.439	270.62
302.669	271.62
302.9	278.62
303.13	272.62
303.36	282.62
303.59	262.62
303.82	263.62
304.051	274.62
304.281	271.62
304.511	270.62
304.741	270.62
304.971	262.62
305.201	269.62
305.431	281.62
305.661	286.62
305.891	272.62
306.121	268.62
306.352	276.62
306.582	277.62
306.812	275.62
307.042	294.62
307.272	274.62
307.502	294.62
307.731	281.62
307.961	275.62
308.191	281.62
308.421	292.62
308.651	275.62
308.881	287.62
309.111	298.62
309.341	298.62
309.571	303.62
309.8	313.62
310.03	305.62
310.26	327.62
310.49	304.62
310.72	312.62
310.949	314.62
311.179	333.62
311.409	318.62
311.639	320.62
311.868	327.62
312.098	313.62
312.328	324.62
312.557	342.62
312.787	360.62
313.017	349.62
313.246	328.62
313.476	311.62
313.706	312.62
313.935	330.62
314.165	335.62
314.394	341.62
314.624	341.62
314.853	312.62
315.083	331.62
315.312	304.62
315.542	313.62
315.771	308.62
316.001	321.62
316.23	300.62
316.46	314.62
316.689	325.62
316.919	325.62
317.148	319.62
317.377	315.62
317.607	331.62
317.836	325.62
318.065	326.62
318.295	329.62
318.524	324.62
318.753	334.62
318.983	315.62
319.212	337.62
319.441	338.62
319.67	335.62
319.9	312.62
320.129	323.62
320.358	323.62
320.587	329.62
320.816	326.62
321.046	331.62
321.275	331.62
321.504	344.62
321.733	341.62
321.962	354.62
322.191	352.62
322.42	360.62
322.649	398.62
322.878	402.62
323.108	407.62
323.337	425.62
323.566	412.62
323.795	447.62
324.024	493.62
324.253	634.62
324.482	873.62
324.71	1353.62
324.939	1966.62
325.168	1745.62
325.397	897.62
325.626	598.62
325.855	495.62
326.084	454.62
326.313	445.62
326.542	437.62
326.77	478.62
326.999	574.62
327.228	785.62
327.457	1205.62
327.686	1533.62
327.914	1013.62
328.143	644.62
328.372	557.62
328.6	534.62
328.829	504.62
329.058	509.62
329.287	513.62
329.515	479.62
329.744	442.62
329.972	439.62
330.201	453.62
330.43	481.62
330.658	522.62
330.887	541.62
331.115	502.62
331.344	465.62
331.572	417.62
331.801	413.62
332.03	418.62
332.258	371.62
332.486	384.62
332.715	367.62
332.943	377.62
333.172	388.62
333.4	371.62
333.629	390.62
333.857	401.62
334.085	415.62
334.314	418.62
334.542	458.62
334.771	459.62
334.999	423.62
335.227	379.62
335.455	385.62
335.684	381.62
335.912	383.62
336.14	361.62
336.369	366.62
336.597	370.62
336.825	374.62
337.053	355.62
337.281	341.62
337.51	367.62
337.738	360.62
337.966	352.62
338.194	351.62
338.422	367.62
338.65	349.62
338.878	369.62
339.106	363.62
339.334	354.62
339.562	371.62
339.79	353.62
340.018	335.62
340.246	346.62
340.474	354.62
340.702	365.62
340.93	336.62
341.158	355.62
341.386	368.62
341.614	375.62
341.842	349.62
342.07	359.62
342.298	345.62
342.526	356.62
342.754	353.62
342.981	326.62
343.209	331.62
343.437	339.62
343.665	329.62
343.893	344.62
344.12	352.62
344.348	365.62
344.576	341.62
344.804	371.62
345.031	367.62
345.259	381.62
345.487	366.62
345.714	383.62
345.942	361.62
346.17	343.62
346.397	355.62
346.625	343.62
346.853	340.62
347.08	353.62
347.308	360.62
347.535	368.62
347.763	366.62
347.99	349.62
348.218	335.62
348.445	358.62
348.673	366.62
348.9	357.62
349.128	337.62
349.355	355.62
349.583	348.62
349.81	337.62
350.037	356.62
350.265	342.62
350.492	339.62
350.72	327.62
350.947	340.62
351.174	345.62
351.402	341.62
351.629	340.62
351.856	357.62
352.083	357.62
352.311	381.62
352.538	376.62
352.765	364.62
352.992	375.62
353.22	328.62
353.447	354.62
353.674	335.62
353.901	336.62
354.128	331.62
354.355	323.62
354.583	325.62
354.81	292.62
355.037	317.62
355.264	326.62
355.491	317.62
355.718	310.62
355.945	304.62
356.172	323.62
356.399	322.62
356.626	312.62
356.853	344.62
357.08	317.62
357.307	306.62
357.534	311.62
357.761	322.62
357.988	322.62
358.215	331.62
358.441	330.62
358.668	322.62
358.895	328.62
359.122	322.62
359.349	340.62
359.576	354.62
359.802	371.62
360.029	377.62
360.256	405.62
360.483	381.62
360.709	349.62
360.936	360.62
361.163	342.62
361.39	348.62
361.616	351.62
361.843	340.62
362.07	351.62
362.296	351.62
362.523	339.62
362.749	349.62
362.976	341.62
363.203	327.62
363.429	330.62
363.656	305.62
363.882	324.62
364.109	322.62
364.335	323.62
364.562	317.62
364.788	323.62
365.015	329.62
365.241	326.62
365.468	336.62
365.694	327.62
365.92	331.62
366.147	335.62
366.373	325.62
366.599	320.62
366.826	322.62
367.052	321.62
367.278	333.62
367.505	325.62
367.731	328.62
367.957	305.62
368.184	327.62
368.41	340.62
368.636	349.62
368.862	338.62
369.089	341.62
369.315	318.62
369.541	321.62
369.767	327.62
369.993	326.62
370.219	336.62
370.445	329.62
370.672	328.62
370.898	322.62
371.124	317.62
371.35	321.62
371.576	296.62
371.802	327.62
372.028	328.62
372.254	331.62
372.48	314.62
372.706	321.62
372.932	315.62
373.158	331.62
373.384	330.62
373.61	326.62
373.835	324.62
374.061	325.62
374.287	343.62
374.513	337.62
374.739	331.62
374.965	331.62
375.191	334.62
375.416	314.62
375.642	342.62
375.868	328.62
376.094	329.62
376.319	330.62
376.545	344.62
376.771	320.62
376.997	312.62
377.222	323.62
377.448	336.62
377.674	342.62
377.899	311.62
378.125	312.62
378.35	317.62
378.576	321.62
378.802	310.62
379.027	322.62
379.253	320.62
379.478	324.62
379.704	318.62
379.929	330.62
380.155	310.62
380.38	315.62
380.606	311.62
380.831	325.62
381.057	313.62
381.282	301.62
381.507	334.62
381.733	322.62
381.958	325.62
382.184	336.62
382.409	313.62
382.634	323.62
382.86	328.62
383.085	314.62
383.31	314.62
383.535	330.62
383.761	355.62
383.986	332.62
384.211	318.62
384.436	336.62
384.662	317.62
384.887	327.62
385.112	354.62
385.337	337.62
385.562	347.62
385.787	346.62
386.013	338.62
386.238	369.62
386.463	349.62
386.688	343.62
386.913	336.62
387.138	325.62
387.363	355.62
387.588	344.62
387.813	351.62
388.038	353.62
388.263	350.62
388.488	335.62
388.713	337.62
388.938	346.62
389.163	339.62
389.387	338.62
389.612	328.62
389.837	341.62
390.062	325.62
390.287	345.62
390.512	346.62
390.736	327.62
390.961	335.62
391.186	342.62
391.411	354.62
391.636	353.62
391.86	349.62
392.085	337.62
392.31	349.62
392.534	365.62
392.759	333.62
392.984	349.62
393.208	347.62
393.433	362.62
393.658	374.62
393.882	352.62
394.107	331.62
394.331	348.62
394.556	341.62
394.78	344.62
395.005	368.62
395.229	368.62
395.454	373.62
395.678	355.62
395.903	360.62
396.127	359.62
396.352	382.62
396.576	352.62
396.801	372.62
397.025	370.62
397.249	347.62
397.474	357.62
397.698	359.62
397.922	368.62
398.147	357.62
398.371	383.62
398.595	387.62
398.82	377.62
399.044	385.62
399.268	410.62
399.492	407.62
399.717	436.62
399.941	429.62
400.165	471.62
400.389	470.62
400.613	426.62
400.837	409.62
401.062	409.62
401.286	378.62
401.51	377.62
401.734	374.62
401.958	377.62
402.182	406.62
402.406	383.62
402.63	403.62
402.854	392.62
403.078	401.62
403.302	404.62
403.526	414.62
403.75	414.62
403.974	414.62
404.198	404.62
404.422	411.62
404.645	407.62
404.869	407.62
405.093	416.62
405.317	478.62
405.541	485.62
405.765	463.62
405.988	419.62
406.212	447.62
406.436	447.62
406.66	437.62
406.883	449.62
407.107	443.62
407.331	496.62
407.555	551.62
407.778	531.62
408.002	500.62
408.226	447.62
408.449	451.62
408.673	450.62
408.896	487.62
409.12	510.62
409.344	466.62
409.567	437.62
409.791	410.62
410.014	413.62
410.238	395.62
410.461	397.62
410.685	408.62
410.908	430.62
411.132	456.62
411.355	482.62
411.578	448.62
411.802	425.62
412.025	416.62
412.249	403.62
412.472	429.62
412.695	454.62
412.919	458.62
413.142	438.62
413.365	401.62
413.589	385.62
413.812	391.62
414.035	387.62
414.258	397.62
414.482	374.62
414.705	384.62
414.928	384.62
415.151	372.62
415.374	373.62
415.597	375.62
415.821	361.62
416.044	362.62
416.267	381.62
416.49	389.62
416.713	385.62
416.936	395.62
417.159	391.62
417.382	387.62
417.605	382.62
417.828	398.62
418.051	402.62
418.274	409.62
418.497	373.62
418.72	375.62
418.943	379.62
419.166	402.62
419.389	400.62
419.611	403.62
419.834	391.62
420.057	395.62
420.28	401.62
420.503	391.62
420.726	380.62
420.948	420.62
421.171	458.62
421.394	462.62
421.617	407.62
421.839	418.62
422.062	410.62
422.285	406.62
422.507	480.62
422.73	531.62
422.953	516.62
423.175	436.62
423.398	422.62
423.621	462.62
423.843	417.62
424.066	465.62
424.288	459.62
424.511	449.62
424.733	486.62
424.956	547.62
425.178	551.62
425.401	549.62
425.623	542.62
425.846	489.62
426.068	465.62
426.291	442.62
426.513	457.62
426.735	462.62
426.958	478.62
427.18	571.62
427.402	657.62
427.625	737.62
427.847	651.62
428.069	548.62
428.292	490.62
428.514	446.62
428.736	432.62
428.958	429.62
429.181	402.62
429.403	409.62
429.625	406.62
429.847	450.62
430.069	511.62
430.292	503.62
430.514	457.62
430.736	385.62
430.958	397.62
431.18	407.62
431.402	366.62
431.624	372.62
431.846	379.62
432.068	369.62
432.29	370.62
432.512	359.62
432.734	379.62
432.956	381.62
433.178	395.62
433.4	423.62
433.622	390.62
433.844	375.62
434.066	370.62
434.287	378.62
434.509	393.62
434.731	396.62
434.953	405.62
435.175	429.62
435.397	413.62
435.618	445.62
435.84	470.62
436.062	565.62
436.284	650.62
436.505	531.62
436.727	466.62
436.949	429.62
437.17	426.62
437.392	427.62
437.614	421.62
437.835	453.62
438.057	529.62
438.278	618.62
438.5	618.62
438.721	677.62
438.943	645.62
439.165	520.62
439.386	477.62
439.608	460.62
439.829	453.62
440.05	459.62
440.272	514.62
440.493	501.62
440.715	442.62
440.936	431.62
441.158	429.62
441.379	420.62
441.6	419.62
441.822	449.62
442.043	473.62
442.264	571.62
442.486	607.62
442.707	502.62
442.928	454.62
443.149	436.62
443.371	496.62
443.592	519.62
443.813	611.62
444.034	621.62
444.255	542.62
444.476	488.62
444.698	431.62
444.919	437.62
445.14	561.62
445.361	488.62
445.582	489.62
445.803	552.62
446.024	631.62
446.245	645.62
446.466	571.62
446.687	480.62
446.908	440.62
447.129	448.62
447.35	451.62
447.571	433.62
447.792	417.62
448.013	430.62
448.234	445.62
448.455	478.62
448.675	610.62
448.896	689.62
449.117	582.62
449.338	569.62
449.559	648.62
449.779	695.62
450	554.62
450.221	466.62
450.442	431.62
450.662	419.62
450.883	433.62
451.104	427.62
451.324	434.62
451.545	405.62
451.766	389.62
451.986	383.62
452.207	362.62
452.428	377.62
452.648	374.62
452.869	362.62
453.089	370.62
453.31	369.62
453.53	371.62
453.751	358.62
453.971	364.62
454.192	409.62
454.412	401.62
454.633	358.62
454.853	385.62
455.073	369.62
455.294	374.62
455.514	455.62
455.734	465.62
455.955	379.62
456.175	366.62
456.395	349.62
456.616	339.62
456.836	347.62
457.056	337.62
457.276	344.62
457.497	341.62
457.717	350.62
457.937	362.62
458.157	360.62
458.377	347.62
458.598	394.62
458.818	432.62
459.038	511.62
459.258	489.62
459.478	413.62
459.698	383.62
459.918	384.62
460.138	370.62
460.358	385.62
460.578	408.62
460.798	383.62
461.018	373.62
461.238	389.62
461.458	380.62
461.678	369.62
461.898	356.62
462.118	393.62
462.338	397.62
462.558	387.62
462.777	398.62
462.997	406.62
463.217	382.62
463.437	396.62
463.657	405.62
463.876	402.62
464.096	394.62
464.316	395.62
464.536	393.62
464.755	398.62
464.975	413.62
465.195	479.62
465.414	540.62
465.634	437.62
465.854	399.62
466.073	385.62
466.293	394.62
466.512	409.62
466.732	393.62
466.951	368.62
467.171	376.62
467.391	371.62
467.61	368.62
467.829	403.62
468.049	397.62
468.268	379.62
468.488	374.62
468.707	367.62
468.927	358.62
469.146	354.62
469.365	352.62
469.585	369.62
469.804	373.62
470.023	382.62
470.243	378.62
470.462	375.62
470.681	399.62
470.901	399.62
471.12	373.62
471.339	377.62
471.558	382.62
471.777	364.62
471.997	373.62
472.216	386.62
472.435	405.62
472.654	390.62
472.873	389.62
473.092	375.62
473.311	366.62
473.53	379.62
473.749	404.62
473.968	401.62
474.187	497.62
474.406	537.62
474.625	449.62
474.844	417.62
475.063	389.62
475.282	396.62
475.501	401.62
475.72	366.62
475.939	382.62
476.158	376.62
476.377	373.62
476.596	395.62
476.814	409.62
477.033	429.62
477.252	388.62
477.471	385.62
477.69	394.62
477.908	408.62
478.127	400.62
478.346	400.62
478.564	409.62
478.783	423.62
479.002	424.62
479.22	418.62
479.439	442.62
479.658	450.62
479.876	457.62
480.095	443.62
480.313	469.62
480.532	461.62
480.751	457.62
480.969	496.62
481.188	524.62
481.406	559.62
481.624	487.62
481.843	478.62
482.061	437.62
482.28	462.62
482.498	439.62
482.717	445.62
482.935	449.62
483.153	446.62
483.372	436.62
483.59	447.62
483.808	439.62
484.027	454.62
484.245	434.62
484.463	436.62
484.681	456.62
484.9	433.62
485.118	448.62
485.336	447.62
485.554	464.62
485.772	467.62
485.99	474.62
486.209	468.62
486.427	467.62
486.645	484.62
486.863	476.62
487.081	486.62
487.299	487.62
487.517	464.62
487.735	490.62
487.953	483.62
488.171	485.62
488.389	475.62
488.607	482.62
488.825	498.62
489.043	492.62
489.261	483.62
489.479	491.62
489.696	488.62
489.914	487.62
490.132	494.62
490.35	509.62
490.568	487.62
490.786	531.62
491.003	515.62
491.221	502.62
491.439	520.62
491.657	529.62
491.874	528.62
492.092	534.62
492.31	532.62
492.527	535.62
492.745	543.62
492.963	539.62
493.18	553.62
493.398	553.62
493.615	559.62
493.833	555.62
494.05	559.62
494.268	539.62
494.485	535.62
494.703	558.62
494.92	577.62
495.138	559.62
495.355	563.62
495.573	584.62
495.79	566.62
496.008	573.62
496.225	574.62
496.442	575.62
496.66	591.62
496.877	560.62
497.094	554.62
497.312	562.62
497.529	573.62
497.746	582.62
497.963	609.62
498.181	644.62
498.398	601.62
498.615	601.62
498.832	633.62
499.049	635.62
499.267	615.62
499.484	644.62
499.701	663.62
499.918	676.62
500.135	699.62
500.352	714.62
500.569	702.62
500.786	719.62
501.003	729.62
501.22	682.62
501.437	682.62
501.654	697.62
501.871	674.62
502.088	671.62
