Data from 1972.PennyLincolnUp.Lamp.En5.5.200Scan.071719.P1._HRD10591_15-28-25-844.txt Node
Date: Thu Jul 18 15:28:25 EDT 2019
User: cochatt
Spectrometer: HR+D1059
Trigger mode: 1
Integration Time (sec): 1.000000E-1
Scans to average: 1
Electric dark correction enabled: true
Nonlinearity correction enabled: false
Boxcar width: 0
XAxis mode: Wavelengths
Number of Pixels in Spectrum: 2048
>>>>>Begin Spectral Data<<<<<
223.165	-7.19
223.4	-7.19
223.635	-7.19
223.869	-23.19
224.104	-14.19
224.338	-21.19
224.573	-13.19
224.808	-15.19
225.042	-8.19
225.277	-1.19
225.511	-6.19
225.746	2.81
225.98	4.81
226.215	15.81
226.449	20.81
226.683	9.81
226.918	23.81
227.152	31.81
227.387	32.81
227.621	43.81
227.856	59.81
228.09	50.81
228.324	45.81
228.559	45.81
228.793	66.81
229.027	109.81
229.262	120.81
229.496	113.81
229.73	155.81
229.964	168.81
230.199	134.81
230.433	123.81
230.667	117.81
230.901	115.81
231.136	115.81
231.37	122.81
231.604	129.81
231.838	129.81
232.072	123.81
232.306	125.81
232.541	112.81
232.775	119.81
233.009	106.81
233.243	118.81
233.477	119.81
233.711	111.81
233.945	122.81
234.179	112.81
234.413	131.81
234.647	125.81
234.881	116.81
235.115	111.81
235.349	125.81
235.583	119.81
235.817	139.81
236.051	130.81
236.285	137.81
236.519	131.81
236.753	137.81
236.987	163.81
237.221	196.81
237.455	257.81
237.689	213.81
237.922	147.81
238.156	132.81
238.39	134.81
238.624	143.81
238.858	125.81
239.091	127.81
239.325	130.81
239.559	125.81
239.793	136.81
240.027	136.81
240.26	151.81
240.494	164.81
240.728	155.81
240.961	157.81
241.195	151.81
241.429	159.81
241.662	139.81
241.896	139.81
242.13	134.81
242.363	144.81
242.597	124.81
242.83	136.81
243.064	148.81
243.298	140.81
243.531	132.81
243.765	135.81
243.998	130.81
244.232	145.81
244.465	156.81
244.699	140.81
244.932	143.81
245.166	140.81
245.399	150.81
245.633	155.81
245.866	150.81
246.099	144.81
246.333	149.81
246.566	167.81
246.8	151.81
247.033	161.81
247.266	166.81
247.5	163.81
247.733	181.81
247.966	183.81
248.2	172.81
248.433	177.81
248.666	177.81
248.899	196.81
249.133	210.81
249.366	228.81
249.599	214.81
249.832	185.81
250.066	188.81
250.299	177.81
250.532	196.81
250.765	221.81
250.998	231.81
251.231	246.81
251.465	245.81
251.698	222.81
251.931	222.81
252.164	216.81
252.397	208.81
252.63	203.81
252.863	214.81
253.096	227.81
253.329	256.81
253.562	248.81
253.795	236.81
254.028	226.81
254.261	232.81
254.494	232.81
254.727	274.81
254.96	295.81
255.193	277.81
255.426	273.81
255.659	240.81
255.892	266.81
256.124	267.81
256.357	254.81
256.59	270.81
256.823	230.81
257.056	216.81
257.289	223.81
257.521	222.81
257.754	235.81
257.987	218.81
258.22	211.81
258.452	228.81
258.685	224.81
258.918	240.81
259.151	221.81
259.383	232.81
259.616	243.81
259.849	236.81
260.081	257.81
260.314	268.81
260.547	268.81
260.779	261.81
261.012	257.81
261.244	224.81
261.477	234.81
261.71	235.81
261.942	243.81
262.175	250.81
262.407	236.81
262.64	223.81
262.872	220.81
263.105	237.81
263.337	230.81
263.57	207.81
263.802	217.81
264.035	208.81
264.267	217.81
264.499	225.81
264.732	211.81
264.964	212.81
265.197	224.81
265.429	215.81
265.661	204.81
265.894	217.81
266.126	220.81
266.358	220.81
266.591	218.81
266.823	226.81
267.055	242.81
267.287	244.81
267.52	246.81
267.752	227.81
267.984	239.81
268.216	228.81
268.448	246.81
268.681	238.81
268.913	259.81
269.145	255.81
269.377	293.81
269.609	291.81
269.841	299.81
270.073	284.81
270.306	305.81
270.538	332.81
270.77	327.81
271.002	337.81
271.234	324.81
271.466	317.81
271.698	343.81
271.93	351.81
272.162	346.81
272.394	330.81
272.626	322.81
272.858	307.81
273.09	279.81
273.322	300.81
273.553	283.81
273.785	281.81
274.017	276.81
274.249	282.81
274.481	286.81
274.713	264.81
274.945	285.81
275.176	287.81
275.408	287.81
275.64	295.81
275.872	283.81
276.104	289.81
276.335	277.81
276.567	286.81
276.799	299.81
277.031	321.81
277.262	354.81
277.494	333.81
277.726	314.81
277.957	321.81
278.189	273.81
278.421	287.81
278.652	286.81
278.884	275.81
279.115	288.81
279.347	288.81
279.579	273.81
279.81	288.81
280.042	276.81
280.273	276.81
280.505	284.81
280.736	268.81
280.968	292.81
281.199	266.81
281.431	263.81
281.662	259.81
281.894	279.81
282.125	276.81
282.356	292.81
282.588	344.81
282.819	323.81
283.051	291.81
283.282	266.81
283.513	271.81
283.745	273.81
283.976	290.81
284.207	302.81
284.439	295.81
284.67	268.81
284.901	290.81
285.132	279.81
285.364	273.81
285.595	285.81
285.826	297.81
286.057	291.81
286.288	278.81
286.52	287.81
286.751	278.81
286.982	280.81
287.213	294.81
287.444	280.81
287.675	277.81
287.906	300.81
288.138	301.81
288.369	308.81
288.6	309.81
288.831	287.81
289.062	307.81
289.293	281.81
289.524	286.81
289.755	290.81
289.986	305.81
290.217	276.81
290.448	288.81
290.679	273.81
290.91	276.81
291.141	307.81
291.371	299.81
291.602	283.81
291.833	295.81
292.064	301.81
292.295	303.81
292.526	291.81
292.757	282.81
292.987	303.81
293.218	284.81
293.449	277.81
293.68	284.81
293.91	294.81
294.141	309.81
294.372	271.81
294.603	291.81
294.833	298.81
295.064	286.81
295.295	271.81
295.525	309.81
295.756	304.81
295.987	323.81
296.217	349.81
296.448	336.81
296.679	321.81
296.909	295.81
297.14	302.81
297.37	284.81
297.601	287.81
297.831	303.81
298.062	293.81
298.292	284.81
298.523	299.81
298.753	307.81
298.984	305.81
299.214	319.81
299.445	315.81
299.675	293.81
299.905	301.81
300.136	281.81
300.366	311.81
300.597	311.81
300.827	318.81
301.057	340.81
301.288	327.81
301.518	323.81
301.748	314.81
301.979	320.81
302.209	297.81
302.439	340.81
302.669	323.81
302.9	324.81
303.13	318.81
303.36	348.81
303.59	323.81
303.82	344.81
304.051	358.81
304.281	323.81
304.511	335.81
304.741	320.81
304.971	322.81
305.201	312.81
305.431	317.81
305.661	325.81
305.891	325.81
306.121	334.81
306.352	325.81
306.582	346.81
306.812	317.81
307.042	341.81
307.272	330.81
307.502	353.81
307.731	336.81
307.961	346.81
308.191	325.81
308.421	335.81
308.651	331.81
308.881	335.81
309.111	338.81
309.341	360.81
309.571	353.81
309.8	384.81
310.03	379.81
310.26	397.81
310.49	392.81
310.72	415.81
310.949	430.81
311.179	412.81
311.409	399.81
311.639	380.81
311.868	393.81
312.098	393.81
312.328	390.81
312.557	413.81
312.787	425.81
313.017	442.81
313.246	421.81
313.476	396.81
313.706	404.81
313.935	394.81
314.165	396.81
314.394	417.81
314.624	435.81
314.853	422.81
315.083	397.81
315.312	394.81
315.542	384.81
315.771	391.81
316.001	370.81
316.23	383.81
316.46	377.81
316.689	380.81
316.919	399.81
317.148	388.81
317.377	385.81
317.607	402.81
317.836	383.81
318.065	385.81
318.295	393.81
318.524	396.81
318.753	372.81
318.983	372.81
319.212	374.81
319.441	410.81
319.67	416.81
319.9	399.81
320.129	386.81
320.358	393.81
320.587	398.81
320.816	390.81
321.046	404.81
321.275	416.81
321.504	426.81
321.733	398.81
321.962	423.81
322.191	437.81
322.42	458.81
322.649	474.81
322.878	486.81
323.108	521.81
323.337	526.81
323.566	549.81
323.795	606.81
324.024	669.81
324.253	839.81
324.482	1228.81
324.71	1922.81
324.939	2794.81
325.168	2427.81
325.397	1246.81
325.626	763.81
325.855	643.81
326.084	583.81
326.313	565.81
326.542	578.81
326.77	636.81
326.999	760.81
327.228	1059.81
327.457	1657.81
327.686	2089.81
327.914	1359.81
328.143	893.81
328.372	741.81
328.6	689.81
328.829	645.81
329.058	671.81
329.287	678.81
329.515	613.81
329.744	547.81
329.972	569.81
330.201	599.81
330.43	618.81
330.658	665.81
330.887	708.81
331.115	673.81
331.344	573.81
331.572	525.81
331.801	528.81
332.03	529.81
332.258	516.81
332.486	463.81
332.715	458.81
332.943	448.81
333.172	473.81
333.4	444.81
333.629	461.81
333.857	495.81
334.085	501.81
334.314	541.81
334.542	597.81
334.771	584.81
334.999	544.81
335.227	473.81
335.455	443.81
335.684	454.81
335.912	472.81
336.14	422.81
336.369	458.81
336.597	455.81
336.825	462.81
337.053	445.81
337.281	441.81
337.51	422.81
337.738	435.81
337.966	442.81
338.194	463.81
338.422	462.81
338.65	442.81
338.878	413.81
339.106	429.81
339.334	430.81
339.562	419.81
339.79	422.81
340.018	430.81
340.246	436.81
340.474	438.81
340.702	423.81
340.93	425.81
341.158	409.81
341.386	433.81
341.614	437.81
341.842	445.81
342.07	442.81
342.298	400.81
342.526	413.81
342.754	394.81
342.981	420.81
343.209	399.81
343.437	392.81
343.665	404.81
343.893	425.81
344.12	423.81
344.348	464.81
344.576	423.81
344.804	429.81
345.031	446.81
345.259	463.81
345.487	446.81
345.714	444.81
345.942	427.81
346.17	433.81
346.397	423.81
346.625	417.81
346.853	393.81
347.08	420.81
347.308	410.81
347.535	423.81
347.763	431.81
347.99	430.81
348.218	413.81
348.445	443.81
348.673	441.81
348.9	424.81
349.128	406.81
349.355	407.81
349.583	394.81
349.81	405.81
350.037	393.81
350.265	411.81
350.492	391.81
350.72	406.81
350.947	411.81
351.174	426.81
351.402	447.81
351.629	437.81
351.856	427.81
352.083	419.81
352.311	429.81
352.538	453.81
352.765	442.81
352.992	441.81
353.22	445.81
353.447	419.81
353.674	411.81
353.901	398.81
354.128	393.81
354.355	377.81
354.583	391.81
354.81	385.81
355.037	372.81
355.264	372.81
355.491	378.81
355.718	377.81
355.945	385.81
356.172	382.81
356.399	373.81
356.626	367.81
356.853	393.81
357.08	364.81
357.307	366.81
357.534	375.81
357.761	403.81
357.988	373.81
358.215	384.81
358.441	388.81
358.668	369.81
358.895	391.81
359.122	397.81
359.349	419.81
359.576	415.81
359.802	456.81
360.029	497.81
360.256	493.81
360.483	469.81
360.709	436.81
360.936	424.81
361.163	405.81
361.39	421.81
361.616	412.81
361.843	405.81
362.07	427.81
362.296	419.81
362.523	423.81
362.749	415.81
362.976	398.81
363.203	398.81
363.429	399.81
363.656	405.81
363.882	384.81
364.109	400.81
364.335	383.81
364.562	396.81
364.788	371.81
365.015	380.81
365.241	381.81
365.468	398.81
365.694	419.81
365.92	392.81
366.147	391.81
366.373	398.81
366.599	389.81
366.826	402.81
367.052	396.81
367.278	368.81
367.505	377.81
367.731	389.81
367.957	375.81
368.184	391.81
368.41	392.81
368.636	419.81
368.862	389.81
369.089	384.81
369.315	393.81
369.541	394.81
369.767	378.81
369.993	366.81
370.219	389.81
370.445	361.81
370.672	361.81
370.898	383.81
371.124	363.81
371.35	374.81
371.576	373.81
371.802	379.81
372.028	368.81
372.254	366.81
372.48	382.81
372.706	368.81
372.932	385.81
373.158	385.81
373.384	381.81
373.61	401.81
373.835	381.81
374.061	365.81
374.287	387.81
374.513	373.81
374.739	391.81
374.965	385.81
375.191	379.81
375.416	371.81
375.642	376.81
375.868	364.81
376.094	357.81
376.319	364.81
376.545	363.81
376.771	366.81
376.997	376.81
377.222	367.81
377.448	367.81
377.674	393.81
377.899	363.81
378.125	361.81
378.35	367.81
378.576	365.81
378.802	384.81
379.027	363.81
379.253	363.81
379.478	381.81
379.704	373.81
379.929	364.81
380.155	363.81
380.38	365.81
380.606	362.81
380.831	372.81
381.057	385.81
381.282	377.81
381.507	375.81
381.733	379.81
381.958	359.81
382.184	377.81
382.409	385.81
382.634	374.81
382.86	373.81
383.085	378.81
383.31	388.81
383.535	390.81
383.761	361.81
383.986	375.81
384.211	383.81
384.436	379.81
384.662	400.81
384.887	402.81
385.112	398.81
385.337	387.81
385.562	375.81
385.787	380.81
386.013	403.81
386.238	422.81
386.463	400.81
386.688	415.81
386.913	397.81
387.138	383.81
387.363	399.81
387.588	404.81
387.813	404.81
388.038	397.81
388.263	387.81
388.488	395.81
388.713	398.81
388.938	395.81
389.163	393.81
389.387	389.81
389.612	385.81
389.837	390.81
390.062	381.81
390.287	394.81
390.512	390.81
390.736	399.81
390.961	396.81
391.186	393.81
391.411	419.81
391.636	409.81
391.86	410.81
392.085	389.81
392.31	403.81
392.534	395.81
392.759	412.81
392.984	415.81
393.208	410.81
393.433	405.81
393.658	405.81
393.882	390.81
394.107	401.81
394.331	414.81
394.556	398.81
394.78	392.81
395.005	404.81
395.229	401.81
395.454	408.81
395.678	401.81
395.903	414.81
396.127	433.81
396.352	453.81
396.576	431.81
396.801	418.81
397.025	422.81
397.249	425.81
397.474	409.81
397.698	411.81
397.922	426.81
398.147	457.81
398.371	460.81
398.595	442.81
398.82	436.81
399.044	455.81
399.268	459.81
399.492	474.81
399.717	487.81
399.941	512.81
400.165	537.81
400.389	576.81
400.613	522.81
400.837	476.81
401.062	445.81
401.286	450.81
401.51	447.81
401.734	454.81
401.958	456.81
402.182	469.81
402.406	462.81
402.63	482.81
402.854	455.81
403.078	456.81
403.302	474.81
403.526	483.81
403.75	454.81
403.974	456.81
404.198	448.81
404.422	456.81
404.645	470.81
404.869	477.81
405.093	527.81
405.317	570.81
405.541	577.81
405.765	563.81
405.988	519.81
406.212	521.81
406.436	548.81
406.66	544.81
406.883	529.81
407.107	567.81
407.331	593.81
407.555	658.81
407.778	653.81
408.002	611.81
408.226	546.81
408.449	520.81
408.673	509.81
408.896	547.81
409.12	605.81
409.344	579.81
409.567	496.81
409.791	480.81
410.014	455.81
410.238	437.81
410.461	464.81
410.685	487.81
410.908	502.81
411.132	541.81
411.355	554.81
411.578	520.81
411.802	479.81
412.025	481.81
412.249	483.81
412.472	517.81
412.695	573.81
412.919	553.81
413.142	476.81
413.365	465.81
413.589	475.81
413.812	460.81
414.035	459.81
414.258	456.81
414.482	449.81
414.705	448.81
414.928	456.81
415.151	451.81
415.374	433.81
415.597	437.81
415.821	425.81
416.044	440.81
416.267	448.81
416.49	438.81
416.713	450.81
416.936	446.81
417.159	433.81
417.382	453.81
417.605	453.81
417.828	454.81
418.051	474.81
418.274	459.81
418.497	447.81
418.72	461.81
418.943	463.81
419.166	466.81
419.389	469.81
419.611	455.81
419.834	463.81
420.057	474.81
420.28	473.81
420.503	469.81
420.726	457.81
420.948	488.81
421.171	541.81
421.394	577.81
421.617	513.81
421.839	471.81
422.062	457.81
422.285	470.81
422.507	558.81
422.73	631.81
422.953	625.81
423.175	533.81
423.398	512.81
423.621	478.81
423.843	526.81
424.066	513.81
424.288	497.81
424.511	517.81
424.733	596.81
424.956	672.81
425.178	671.81
425.401	665.81
425.623	649.81
425.846	570.81
426.068	531.81
426.291	535.81
426.513	509.81
426.735	506.81
426.958	553.81
427.18	699.81
427.402	815.81
427.625	891.81
427.847	817.81
428.069	683.81
428.292	596.81
428.514	551.81
428.736	485.81
428.958	490.81
429.181	508.81
429.403	479.81
429.625	511.81
429.847	538.81
430.069	616.81
430.292	613.81
430.514	509.81
430.736	478.81
430.958	471.81
431.18	447.81
431.402	456.81
431.624	427.81
431.846	451.81
432.068	440.81
432.29	440.81
432.512	442.81
432.734	457.81
432.956	463.81
433.178	452.81
433.4	471.81
433.622	483.81
433.844	455.81
434.066	446.81
434.287	437.81
434.509	459.81
434.731	447.81
434.953	447.81
435.175	458.81
435.397	501.81
435.618	525.81
435.84	553.81
436.062	693.81
436.284	733.81
436.505	645.81
436.727	559.81
436.949	514.81
437.17	486.81
437.392	517.81
437.614	502.81
437.835	551.81
438.057	668.81
438.278	766.81
438.5	767.81
438.721	815.81
438.943	799.81
439.165	633.81
439.386	575.81
439.608	550.81
439.829	535.81
440.05	593.81
440.272	655.81
440.493	598.81
440.715	531.81
440.936	492.81
441.158	467.81
441.379	491.81
441.6	515.81
441.822	542.81
442.043	572.81
442.264	641.81
442.486	716.81
442.707	606.81
442.928	548.81
443.149	535.81
443.371	571.81
443.592	633.81
443.813	717.81
444.034	795.81
444.255	643.81
444.476	573.81
444.698	536.81
444.919	529.81
445.14	639.81
445.361	569.81
445.582	585.81
445.803	656.81
446.024	782.81
446.245	783.81
446.466	740.81
446.687	593.81
446.908	543.81
447.129	519.81
447.35	497.81
447.571	471.81
447.792	482.81
448.013	492.81
448.234	548.81
448.455	574.81
448.675	683.81
448.896	831.81
449.117	702.81
449.338	650.81
449.559	750.81
449.779	873.81
450	683.81
450.221	567.81
450.442	531.81
450.662	518.81
450.883	518.81
451.104	534.81
451.324	519.81
451.545	459.81
451.766	457.81
451.986	443.81
452.207	441.81
452.428	421.81
452.648	432.81
452.869	442.81
453.089	458.81
453.31	471.81
453.53	465.81
453.751	439.81
453.971	454.81
454.192	482.81
454.412	460.81
454.633	470.81
454.853	443.81
455.073	448.81
455.294	467.81
455.514	543.81
455.734	531.81
455.955	445.81
456.175	411.81
456.395	397.81
456.616	411.81
456.836	401.81
457.056	408.81
457.276	409.81
457.497	429.81
457.717	416.81
457.937	421.81
458.157	413.81
458.377	421.81
458.598	448.81
458.818	542.81
459.038	615.81
459.258	609.81
459.478	524.81
459.698	444.81
459.918	458.81
460.138	449.81
460.358	442.81
460.578	447.81
460.798	432.81
461.018	431.81
461.238	457.81
461.458	441.81
461.678	438.81
461.898	431.81
462.118	426.81
462.338	445.81
462.558	435.81
462.777	461.81
462.997	460.81
463.217	475.81
463.437	469.81
463.657	438.81
463.876	465.81
464.096	467.81
464.316	455.81
464.536	475.81
464.755	464.81
464.975	495.81
465.195	550.81
465.414	657.81
465.634	574.81
465.854	512.81
466.073	462.81
466.293	480.81
466.512	464.81
466.732	451.81
466.951	442.81
467.171	446.81
467.391	429.81
467.61	444.81
467.829	460.81
468.049	459.81
468.268	450.81
468.488	449.81
468.707	409.81
468.927	420.81
469.146	427.81
469.365	415.81
469.585	426.81
469.804	447.81
470.023	471.81
470.243	440.81
470.462	472.81
470.681	466.81
470.901	477.81
471.12	437.81
471.339	440.81
471.558	464.81
471.777	452.81
471.997	458.81
472.216	451.81
472.435	496.81
472.654	494.81
472.873	462.81
473.092	451.81
473.311	471.81
473.53	445.81
473.749	479.81
473.968	493.81
474.187	644.81
474.406	642.81
474.625	534.81
474.844	482.81
475.063	442.81
475.282	452.81
475.501	466.81
475.72	452.81
475.939	466.81
476.158	465.81
476.377	439.81
476.596	461.81
476.814	460.81
477.033	476.81
477.252	466.81
477.471	475.81
477.69	488.81
477.908	472.81
478.127	469.81
478.346	471.81
478.564	487.81
478.783	497.81
479.002	503.81
479.22	530.81
479.439	528.81
479.658	568.81
479.876	540.81
480.095	545.81
480.313	563.81
480.532	550.81
480.751	529.81
480.969	563.81
481.188	645.81
481.406	698.81
481.624	600.81
481.843	557.81
482.061	543.81
482.28	511.81
482.498	525.81
482.717	536.81
482.935	513.81
483.153	525.81
483.372	508.81
483.59	525.81
483.808	520.81
484.027	521.81
484.245	511.81
484.463	529.81
484.681	547.81
484.9	528.81
485.118	545.81
485.336	549.81
485.554	545.81
485.772	556.81
485.99	544.81
486.209	526.81
486.427	543.81
486.645	565.81
486.863	571.81
487.081	588.81
487.299	556.81
487.517	562.81
487.735	543.81
487.953	573.81
488.171	566.81
488.389	543.81
488.607	561.81
488.825	568.81
489.043	564.81
489.261	587.81
489.479	586.81
489.696	566.81
489.914	576.81
490.132	565.81
490.35	592.81
490.568	590.81
490.786	607.81
491.003	614.81
491.221	614.81
491.439	638.81
491.657	643.81
491.874	640.81
492.092	647.81
492.31	654.81
492.527	658.81
492.745	629.81
492.963	669.81
493.18	673.81
493.398	674.81
493.615	658.81
493.833	668.81
494.05	687.81
494.268	663.81
494.485	673.81
494.703	665.81
494.92	674.81
495.138	672.81
495.355	676.81
495.573	680.81
495.79	691.81
496.008	677.81
496.225	665.81
496.442	670.81
496.66	691.81
496.877	677.81
497.094	657.81
497.312	667.81
497.529	683.81
497.746	686.81
497.963	696.81
498.181	719.81
498.398	728.81
498.615	731.81
498.832	744.81
499.049	752.81
499.267	744.81
499.484	773.81
499.701	784.81
499.918	793.81
500.135	785.81
500.352	824.81
500.569	827.81
500.786	831.81
501.003	837.81
501.22	829.81
501.437	811.81
501.654	835.81
501.871	839.81
