Data from 1972.PennyLincolnUp.Lamp.En5.5.200Scan.071719.P1._HRD10591_15-27-13-843.txt Node
Date: Thu Jul 18 15:27:13 EDT 2019
User: cochatt
Spectrometer: HR+D1059
Trigger mode: 1
Integration Time (sec): 1.000000E-1
Scans to average: 1
Electric dark correction enabled: true
Nonlinearity correction enabled: false
Boxcar width: 0
XAxis mode: Wavelengths
Number of Pixels in Spectrum: 2048
>>>>>Begin Spectral Data<<<<<
223.165	-6.81
223.4	-6.81
223.635	-6.81
223.869	-21.81
224.104	-18.81
224.338	-12.81
224.573	-17.81
224.808	1.19
225.042	-3.81
225.277	-2.81
225.511	-5.81
225.746	0.19
225.98	-2.81
226.215	19.19
226.449	13.19
226.683	9.19
226.918	26.19
227.152	24.19
227.387	28.19
227.621	36.19
227.856	36.19
228.09	46.19
228.324	59.19
228.559	39.19
228.793	66.19
229.027	86.19
229.262	99.19
229.496	111.19
229.73	147.19
229.964	143.19
230.199	125.19
230.433	101.19
230.667	106.19
230.901	104.19
231.136	117.19
231.37	93.19
231.604	106.19
231.838	94.19
232.072	106.19
232.306	107.19
232.541	87.19
232.775	113.19
233.009	99.19
233.243	113.19
233.477	110.19
233.711	92.19
233.945	102.19
234.179	109.19
234.413	97.19
234.647	118.19
234.881	119.19
235.115	107.19
235.349	110.19
235.583	129.19
235.817	120.19
236.051	126.19
236.285	113.19
236.519	104.19
236.753	110.19
236.987	141.19
237.221	167.19
237.455	222.19
237.689	187.19
237.922	132.19
238.156	141.19
238.39	113.19
238.624	119.19
238.858	118.19
239.091	107.19
239.325	118.19
239.559	115.19
239.793	117.19
240.027	135.19
240.26	134.19
240.494	136.19
240.728	134.19
240.961	141.19
241.195	134.19
241.429	128.19
241.662	133.19
241.896	117.19
242.13	122.19
242.363	124.19
242.597	125.19
242.83	134.19
243.064	137.19
243.298	126.19
243.531	134.19
243.765	126.19
243.998	127.19
244.232	128.19
244.465	141.19
244.699	135.19
244.932	143.19
245.166	132.19
245.399	136.19
245.633	135.19
245.866	139.19
246.099	142.19
246.333	149.19
246.566	145.19
246.8	137.19
247.033	141.19
247.266	141.19
247.5	147.19
247.733	171.19
247.966	143.19
248.2	180.19
248.433	170.19
248.666	154.19
248.899	182.19
249.133	200.19
249.366	198.19
249.599	190.19
249.832	168.19
250.066	173.19
250.299	175.19
250.532	181.19
250.765	193.19
250.998	207.19
251.231	202.19
251.465	203.19
251.698	202.19
251.931	197.19
252.164	175.19
252.397	182.19
252.63	191.19
252.863	205.19
253.096	202.19
253.329	212.19
253.562	213.19
253.795	215.19
254.028	190.19
254.261	219.19
254.494	217.19
254.727	237.19
254.96	247.19
255.193	242.19
255.426	234.19
255.659	224.19
255.892	209.19
256.124	211.19
256.357	223.19
256.59	215.19
256.823	220.19
257.056	202.19
257.289	201.19
257.521	208.19
257.754	215.19
257.987	200.19
258.22	189.19
258.452	186.19
258.685	181.19
258.918	209.19
259.151	183.19
259.383	201.19
259.616	203.19
259.849	214.19
260.081	211.19
260.314	239.19
260.547	228.19
260.779	235.19
261.012	204.19
261.244	214.19
261.477	216.19
261.71	221.19
261.942	222.19
262.175	225.19
262.407	220.19
262.64	215.19
262.872	191.19
263.105	202.19
263.337	199.19
263.57	193.19
263.802	200.19
264.035	194.19
264.267	206.19
264.499	198.19
264.732	201.19
264.964	195.19
265.197	191.19
265.429	197.19
265.661	174.19
265.894	202.19
266.126	181.19
266.358	181.19
266.591	211.19
266.823	215.19
267.055	201.19
267.287	216.19
267.52	196.19
267.752	202.19
267.984	218.19
268.216	213.19
268.448	210.19
268.681	207.19
268.913	214.19
269.145	246.19
269.377	247.19
269.609	246.19
269.841	235.19
270.073	259.19
270.306	254.19
270.538	281.19
270.77	270.19
271.002	267.19
271.234	252.19
271.466	261.19
271.698	273.19
271.93	288.19
272.162	293.19
272.394	289.19
272.626	269.19
272.858	250.19
273.09	245.19
273.322	236.19
273.553	252.19
273.785	239.19
274.017	228.19
274.249	234.19
274.481	226.19
274.713	236.19
274.945	277.19
275.176	231.19
275.408	245.19
275.64	226.19
275.872	231.19
276.104	241.19
276.335	259.19
276.567	255.19
276.799	255.19
277.031	273.19
277.262	275.19
277.494	278.19
277.726	261.19
277.957	251.19
278.189	258.19
278.421	252.19
278.652	253.19
278.884	245.19
279.115	239.19
279.347	253.19
279.579	231.19
279.81	244.19
280.042	225.19
280.273	230.19
280.505	229.19
280.736	219.19
280.968	249.19
281.199	245.19
281.431	254.19
281.662	237.19
281.894	242.19
282.125	265.19
282.356	254.19
282.588	288.19
282.819	283.19
283.051	241.19
283.282	237.19
283.513	263.19
283.745	259.19
283.976	270.19
284.207	267.19
284.439	251.19
284.67	259.19
284.901	234.19
285.132	239.19
285.364	227.19
285.595	253.19
285.826	235.19
286.057	242.19
286.288	253.19
286.52	249.19
286.751	255.19
286.982	252.19
287.213	245.19
287.444	266.19
287.675	264.19
287.906	254.19
288.138	259.19
288.369	281.19
288.6	273.19
288.831	263.19
289.062	248.19
289.293	263.19
289.524	249.19
289.755	251.19
289.986	246.19
290.217	257.19
290.448	241.19
290.679	260.19
290.91	248.19
291.141	257.19
291.371	263.19
291.602	270.19
291.833	249.19
292.064	263.19
292.295	262.19
292.526	263.19
292.757	243.19
292.987	271.19
293.218	267.19
293.449	270.19
293.68	261.19
293.91	254.19
294.141	234.19
294.372	243.19
294.603	247.19
294.833	266.19
295.064	261.19
295.295	268.19
295.525	265.19
295.756	271.19
295.987	276.19
296.217	293.19
296.448	281.19
296.679	257.19
296.909	277.19
297.14	263.19
297.37	278.19
297.601	261.19
297.831	247.19
298.062	259.19
298.292	264.19
298.523	272.19
298.753	272.19
298.984	284.19
299.214	286.19
299.445	270.19
299.675	275.19
299.905	290.19
300.136	275.19
300.366	273.19
300.597	295.19
300.827	290.19
301.057	278.19
301.288	300.19
301.518	287.19
301.748	267.19
301.979	295.19
302.209	290.19
302.439	289.19
302.669	289.19
302.9	284.19
303.13	289.19
303.36	286.19
303.59	299.19
303.82	288.19
304.051	299.19
304.281	276.19
304.511	275.19
304.741	273.19
304.971	289.19
305.201	285.19
305.431	294.19
305.661	265.19
305.891	314.19
306.121	263.19
306.352	311.19
306.582	294.19
306.812	303.19
307.042	291.19
307.272	311.19
307.502	286.19
307.731	295.19
307.961	290.19
308.191	281.19
308.421	293.19
308.651	309.19
308.881	293.19
309.111	303.19
309.341	292.19
309.571	320.19
309.8	319.19
310.03	321.19
310.26	341.19
310.49	324.19
310.72	327.19
310.949	371.19
311.179	359.19
311.409	328.19
311.639	345.19
311.868	349.19
312.098	324.19
312.328	333.19
312.557	360.19
312.787	375.19
313.017	345.19
313.246	377.19
313.476	331.19
313.706	335.19
313.935	341.19
314.165	350.19
314.394	364.19
314.624	364.19
314.853	353.19
315.083	335.19
315.312	325.19
315.542	317.19
315.771	320.19
316.001	323.19
316.23	317.19
316.46	318.19
316.689	341.19
316.919	353.19
317.148	369.19
317.377	353.19
317.607	337.19
317.836	347.19
318.065	354.19
318.295	315.19
318.524	333.19
318.753	335.19
318.983	336.19
319.212	354.19
319.441	327.19
319.67	343.19
319.9	346.19
320.129	359.19
320.358	359.19
320.587	344.19
320.816	357.19
321.046	369.19
321.275	363.19
321.504	353.19
321.733	369.19
321.962	377.19
322.191	387.19
322.42	384.19
322.649	397.19
322.878	399.19
323.108	409.19
323.337	442.19
323.566	463.19
323.795	483.19
324.024	532.19
324.253	660.19
324.482	919.19
324.71	1402.19
324.939	2086.19
325.168	1811.19
325.397	943.19
325.626	629.19
325.855	485.19
326.084	472.19
326.313	446.19
326.542	450.19
326.77	496.19
326.999	587.19
327.228	841.19
327.457	1265.19
327.686	1557.19
327.914	1035.19
328.143	653.19
328.372	572.19
328.6	541.19
328.829	494.19
329.058	516.19
329.287	513.19
329.515	497.19
329.744	478.19
329.972	464.19
330.201	481.19
330.43	478.19
330.658	535.19
330.887	544.19
331.115	530.19
331.344	459.19
331.572	425.19
331.801	438.19
332.03	433.19
332.258	418.19
332.486	413.19
332.715	389.19
332.943	391.19
333.172	395.19
333.4	389.19
333.629	397.19
333.857	427.19
334.085	425.19
334.314	440.19
334.542	470.19
334.771	479.19
334.999	437.19
335.227	419.19
335.455	397.19
335.684	409.19
335.912	395.19
336.14	377.19
336.369	385.19
336.597	382.19
336.825	381.19
337.053	381.19
337.281	373.19
337.51	384.19
337.738	391.19
337.966	386.19
338.194	385.19
338.422	378.19
338.65	382.19
338.878	382.19
339.106	384.19
339.334	363.19
339.562	373.19
339.79	369.19
340.018	381.19
340.246	360.19
340.474	383.19
340.702	373.19
340.93	366.19
341.158	393.19
341.386	378.19
341.614	391.19
341.842	390.19
342.07	358.19
342.298	367.19
342.526	353.19
342.754	355.19
342.981	357.19
343.209	354.19
343.437	366.19
343.665	360.19
343.893	354.19
344.12	381.19
344.348	379.19
344.576	373.19
344.804	378.19
345.031	389.19
345.259	397.19
345.487	384.19
345.714	389.19
345.942	380.19
346.17	354.19
346.397	366.19
346.625	381.19
346.853	377.19
347.08	361.19
347.308	374.19
347.535	373.19
347.763	383.19
347.99	370.19
348.218	372.19
348.445	348.19
348.673	366.19
348.9	342.19
349.128	350.19
349.355	358.19
349.583	350.19
349.81	366.19
350.037	350.19
350.265	340.19
350.492	361.19
350.72	358.19
350.947	357.19
351.174	393.19
351.402	375.19
351.629	384.19
351.856	373.19
352.083	382.19
352.311	385.19
352.538	389.19
352.765	381.19
352.992	371.19
353.22	368.19
353.447	353.19
353.674	357.19
353.901	369.19
354.128	345.19
354.355	326.19
354.583	343.19
354.81	339.19
355.037	351.19
355.264	342.19
355.491	339.19
355.718	351.19
355.945	343.19
356.172	334.19
356.399	328.19
356.626	341.19
356.853	339.19
357.08	329.19
357.307	339.19
357.534	332.19
357.761	340.19
357.988	329.19
358.215	342.19
358.441	329.19
358.668	346.19
358.895	344.19
359.122	342.19
359.349	335.19
359.576	361.19
359.802	368.19
360.029	412.19
360.256	428.19
360.483	400.19
360.709	379.19
360.936	357.19
361.163	362.19
361.39	370.19
361.616	375.19
361.843	358.19
362.07	347.19
362.296	349.19
362.523	361.19
362.749	350.19
362.976	357.19
363.203	359.19
363.429	356.19
363.656	339.19
363.882	346.19
364.109	348.19
364.335	350.19
364.562	325.19
364.788	349.19
365.015	341.19
365.241	341.19
365.468	334.19
365.694	334.19
365.92	353.19
366.147	335.19
366.373	349.19
366.599	323.19
366.826	337.19
367.052	342.19
367.278	329.19
367.505	359.19
367.731	352.19
367.957	344.19
368.184	346.19
368.41	337.19
368.636	349.19
368.862	345.19
369.089	356.19
369.315	344.19
369.541	348.19
369.767	331.19
369.993	342.19
370.219	356.19
370.445	340.19
370.672	346.19
370.898	341.19
371.124	329.19
371.35	329.19
371.576	338.19
371.802	355.19
372.028	343.19
372.254	348.19
372.48	339.19
372.706	343.19
372.932	351.19
373.158	349.19
373.384	345.19
373.61	339.19
373.835	347.19
374.061	354.19
374.287	344.19
374.513	357.19
374.739	361.19
374.965	342.19
375.191	348.19
375.416	345.19
375.642	345.19
375.868	338.19
376.094	343.19
376.319	349.19
376.545	356.19
376.771	340.19
376.997	316.19
377.222	345.19
377.448	332.19
377.674	348.19
377.899	340.19
378.125	331.19
378.35	334.19
378.576	344.19
378.802	327.19
379.027	350.19
379.253	339.19
379.478	369.19
379.704	339.19
379.929	347.19
380.155	331.19
380.38	315.19
380.606	344.19
380.831	353.19
381.057	343.19
381.282	333.19
381.507	346.19
381.733	339.19
381.958	337.19
382.184	334.19
382.409	347.19
382.634	358.19
382.86	358.19
383.085	345.19
383.31	346.19
383.535	356.19
383.761	351.19
383.986	339.19
384.211	354.19
384.436	336.19
384.662	354.19
384.887	356.19
385.112	357.19
385.337	334.19
385.562	344.19
385.787	366.19
386.013	386.19
386.238	387.19
386.463	378.19
386.688	373.19
386.913	355.19
387.138	370.19
387.363	360.19
387.588	369.19
387.813	347.19
388.038	343.19
388.263	375.19
388.488	380.19
388.713	359.19
388.938	371.19
389.163	364.19
389.387	368.19
389.612	362.19
389.837	362.19
390.062	357.19
390.287	363.19
390.512	356.19
390.736	380.19
390.961	346.19
391.186	354.19
391.411	376.19
391.636	385.19
391.86	381.19
392.085	375.19
392.31	377.19
392.534	347.19
392.759	376.19
392.984	365.19
393.208	374.19
393.433	405.19
393.658	394.19
393.882	373.19
394.107	370.19
394.331	373.19
394.556	361.19
394.78	363.19
395.005	397.19
395.229	354.19
395.454	371.19
395.678	377.19
395.903	382.19
396.127	425.19
396.352	419.19
396.576	384.19
396.801	398.19
397.025	392.19
397.249	389.19
397.474	407.19
397.698	397.19
397.922	409.19
398.147	408.19
398.371	411.19
398.595	405.19
398.82	392.19
399.044	414.19
399.268	416.19
399.492	427.19
399.717	467.19
399.941	466.19
400.165	493.19
400.389	497.19
400.613	465.19
400.837	417.19
401.062	453.19
401.286	442.19
401.51	430.19
401.734	420.19
401.958	420.19
402.182	397.19
402.406	434.19
402.63	419.19
402.854	420.19
403.078	411.19
403.302	422.19
403.526	425.19
403.75	425.19
403.974	418.19
404.198	433.19
404.422	429.19
404.645	425.19
404.869	433.19
405.093	469.19
405.317	534.19
405.541	517.19
405.765	487.19
405.988	454.19
406.212	434.19
406.436	483.19
406.66	498.19
406.883	469.19
407.107	497.19
407.331	525.19
407.555	595.19
407.778	567.19
408.002	515.19
408.226	471.19
408.449	450.19
408.673	486.19
408.896	506.19
409.12	557.19
409.344	527.19
409.567	463.19
409.791	430.19
410.014	450.19
410.238	426.19
410.461	423.19
410.685	437.19
410.908	445.19
411.132	481.19
411.355	487.19
411.578	474.19
411.802	430.19
412.025	424.19
412.249	441.19
412.472	452.19
412.695	497.19
412.919	476.19
413.142	439.19
413.365	423.19
413.589	417.19
413.812	411.19
414.035	407.19
414.258	417.19
414.482	401.19
414.705	401.19
414.928	405.19
415.151	375.19
415.374	407.19
415.597	399.19
415.821	408.19
416.044	409.19
416.267	398.19
416.49	416.19
416.713	397.19
416.936	399.19
417.159	413.19
417.382	429.19
417.605	392.19
417.828	434.19
418.051	420.19
418.274	401.19
418.497	409.19
418.72	415.19
418.943	391.19
419.166	423.19
419.389	454.19
419.611	423.19
419.834	422.19
420.057	406.19
420.28	420.19
420.503	409.19
420.726	429.19
420.948	446.19
421.171	488.19
421.394	517.19
421.617	458.19
421.839	441.19
422.062	426.19
422.285	443.19
422.507	487.19
422.73	543.19
422.953	546.19
423.175	465.19
423.398	450.19
423.621	459.19
423.843	468.19
424.066	470.19
424.288	436.19
424.511	479.19
424.733	517.19
424.956	601.19
425.178	572.19
425.401	574.19
425.623	585.19
425.846	499.19
426.068	451.19
426.291	447.19
426.513	456.19
426.735	487.19
426.958	517.19
427.18	600.19
427.402	707.19
427.625	787.19
427.847	677.19
428.069	583.19
428.292	509.19
428.514	472.19
428.736	449.19
428.958	461.19
429.181	439.19
429.403	425.19
429.625	448.19
429.847	476.19
430.069	508.19
430.292	526.19
430.514	456.19
430.736	424.19
430.958	433.19
431.18	424.19
431.402	413.19
431.624	405.19
431.846	399.19
432.068	403.19
432.29	386.19
432.512	415.19
432.734	421.19
432.956	431.19
433.178	419.19
433.4	430.19
433.622	419.19
433.844	414.19
434.066	411.19
434.287	386.19
434.509	402.19
434.731	409.19
434.953	422.19
435.175	438.19
435.397	449.19
435.618	461.19
435.84	495.19
436.062	615.19
436.284	679.19
436.505	544.19
436.727	481.19
436.949	481.19
437.17	438.19
437.392	431.19
437.614	445.19
437.835	499.19
438.057	558.19
438.278	657.19
438.5	663.19
438.721	727.19
438.943	704.19
439.165	547.19
439.386	500.19
439.608	481.19
439.829	473.19
440.05	511.19
440.272	566.19
440.493	512.19
440.715	484.19
440.936	451.19
441.158	455.19
441.379	421.19
441.6	458.19
441.822	470.19
442.043	484.19
442.264	594.19
442.486	632.19
442.707	521.19
442.928	509.19
443.149	478.19
443.371	493.19
443.592	552.19
443.813	638.19
444.034	700.19
444.255	563.19
444.476	486.19
444.698	463.19
444.919	471.19
445.14	572.19
445.361	527.19
445.582	491.19
445.803	590.19
446.024	656.19
446.245	673.19
446.466	599.19
446.687	501.19
446.908	490.19
447.129	449.19
447.35	431.19
447.571	454.19
447.792	422.19
448.013	435.19
448.234	460.19
448.455	512.19
448.675	619.19
448.896	720.19
449.117	620.19
449.338	563.19
449.559	647.19
449.779	757.19
450	606.19
450.221	535.19
450.442	459.19
450.662	448.19
450.883	423.19
451.104	456.19
451.324	457.19
451.545	425.19
451.766	401.19
451.986	399.19
452.207	391.19
452.428	395.19
452.648	390.19
452.869	393.19
453.089	396.19
453.31	392.19
453.53	392.19
453.751	386.19
453.971	387.19
454.192	402.19
454.412	388.19
454.633	389.19
454.853	389.19
455.073	383.19
455.294	418.19
455.514	493.19
455.734	458.19
455.955	414.19
456.175	388.19
456.395	376.19
456.616	377.19
456.836	356.19
457.056	359.19
457.276	353.19
457.497	350.19
457.717	354.19
457.937	365.19
458.157	375.19
458.377	382.19
458.598	407.19
458.818	451.19
459.038	539.19
459.258	542.19
459.478	443.19
459.698	411.19
459.918	412.19
460.138	401.19
460.358	414.19
460.578	397.19
460.798	429.19
461.018	395.19
461.238	387.19
461.458	396.19
461.678	413.19
461.898	399.19
462.118	393.19
462.338	399.19
462.558	415.19
462.777	434.19
462.997	417.19
463.217	418.19
463.437	431.19
463.657	421.19
463.876	444.19
464.096	444.19
464.316	435.19
464.536	418.19
464.755	446.19
464.975	438.19
465.195	481.19
465.414	525.19
465.634	478.19
465.854	459.19
466.073	429.19
466.293	413.19
466.512	396.19
466.732	390.19
466.951	394.19
467.171	398.19
467.391	391.19
467.61	405.19
467.829	402.19
468.049	413.19
468.268	394.19
468.488	406.19
468.707	380.19
468.927	378.19
469.146	377.19
469.365	387.19
469.585	379.19
469.804	391.19
470.023	424.19
470.243	392.19
470.462	398.19
470.681	411.19
470.901	418.19
471.12	391.19
471.339	407.19
471.558	402.19
471.777	408.19
471.997	411.19
472.216	414.19
472.435	464.19
472.654	437.19
472.873	405.19
473.092	412.19
473.311	418.19
473.53	382.19
473.749	408.19
473.968	459.19
474.187	549.19
474.406	564.19
474.625	474.19
474.844	418.19
475.063	415.19
475.282	410.19
475.501	410.19
475.72	422.19
475.939	416.19
476.158	422.19
476.377	427.19
476.596	419.19
476.814	423.19
477.033	430.19
477.252	427.19
477.471	415.19
477.69	423.19
477.908	439.19
478.127	435.19
478.346	421.19
478.564	428.19
478.783	444.19
479.002	447.19
479.22	457.19
479.439	467.19
479.658	468.19
479.876	473.19
480.095	483.19
480.313	503.19
480.532	478.19
480.751	485.19
480.969	508.19
481.188	564.19
481.406	568.19
481.624	515.19
481.843	481.19
482.061	479.19
482.28	491.19
482.498	484.19
482.717	478.19
482.935	465.19
483.153	471.19
483.372	474.19
483.59	481.19
483.808	481.19
484.027	478.19
484.245	472.19
484.463	481.19
484.681	474.19
484.9	470.19
485.118	476.19
485.336	488.19
485.554	491.19
485.772	487.19
485.99	484.19
486.209	505.19
486.427	503.19
486.645	490.19
486.863	526.19
487.081	515.19
487.299	493.19
487.517	529.19
487.735	494.19
487.953	502.19
488.171	511.19
488.389	505.19
488.607	485.19
488.825	515.19
489.043	500.19
489.261	507.19
489.479	508.19
489.696	523.19
489.914	524.19
490.132	512.19
490.35	525.19
490.568	528.19
490.786	550.19
491.003	537.19
491.221	557.19
491.439	550.19
491.657	557.19
491.874	561.19
492.092	571.19
492.31	563.19
492.527	567.19
492.745	572.19
492.963	585.19
493.18	601.19
493.398	592.19
493.615	616.19
493.833	591.19
494.05	579.19
494.268	575.19
494.485	577.19
494.703	613.19
494.92	594.19
495.138	600.19
495.355	610.19
495.573	607.19
495.79	591.19
496.008	610.19
496.225	593.19
496.442	585.19
496.66	607.19
496.877	582.19
497.094	580.19
497.312	605.19
497.529	604.19
497.746	632.19
497.963	647.19
498.181	640.19
498.398	641.19
498.615	653.19
498.832	649.19
499.049	645.19
499.267	656.19
499.484	702.19
499.701	684.19
499.918	729.19
500.135	757.19
500.352	759.19
500.569	783.19
500.786	782.19
501.003	780.19
501.22	742.19
501.437	761.19
501.654	723.19
501.871	719.19
502.088	711.19
