Data from 1972.PennyLincolnUp.Lamp.En5.5.200Scan.071719.P1._HRD10591_15-29-29-844.txt Node
Date: Thu Jul 18 15:29:29 EDT 2019
User: cochatt
Spectrometer: HR+D1059
Trigger mode: 1
Integration Time (sec): 1.000000E-1
Scans to average: 1
Electric dark correction enabled: true
Nonlinearity correction enabled: false
Boxcar width: 0
XAxis mode: Wavelengths
Number of Pixels in Spectrum: 2048
>>>>>Begin Spectral Data<<<<<
223.165	2.12
223.4	2.12
223.635	2.12
223.869	-14.88
224.104	-11.88
224.338	-12.88
224.573	-6.88
224.808	-20.88
225.042	-14.88
225.277	-6.88
225.511	-3.88
225.746	10.12
225.98	-5.88
226.215	3.12
226.449	18.12
226.683	10.12
226.918	30.12
227.152	25.12
227.387	26.12
227.621	41.12
227.856	57.12
228.09	37.12
228.324	48.12
228.559	60.12
228.793	62.12
229.027	102.12
229.262	117.12
229.496	128.12
229.73	119.12
229.964	182.12
230.199	136.12
230.433	121.12
230.667	118.12
230.901	120.12
231.136	115.12
231.37	123.12
231.604	119.12
231.838	107.12
232.072	108.12
232.306	124.12
232.541	105.12
232.775	110.12
233.009	122.12
233.243	129.12
233.477	112.12
233.711	121.12
233.945	117.12
234.179	122.12
234.413	124.12
234.647	117.12
234.881	112.12
235.115	122.12
235.349	124.12
235.583	110.12
235.817	107.12
236.051	142.12
236.285	126.12
236.519	128.12
236.753	135.12
236.987	162.12
237.221	205.12
237.455	265.12
237.689	196.12
237.922	159.12
238.156	145.12
238.39	138.12
238.624	111.12
238.858	128.12
239.091	135.12
239.325	130.12
239.559	137.12
239.793	129.12
240.027	134.12
240.26	145.12
240.494	170.12
240.728	165.12
240.961	133.12
241.195	138.12
241.429	144.12
241.662	129.12
241.896	158.12
242.13	151.12
242.363	135.12
242.597	143.12
242.83	143.12
243.064	147.12
243.298	136.12
243.531	153.12
243.765	129.12
243.998	139.12
244.232	149.12
244.465	133.12
244.699	121.12
244.932	151.12
245.166	142.12
245.399	149.12
245.633	140.12
245.866	137.12
246.099	164.12
246.333	147.12
246.566	160.12
246.8	163.12
247.033	160.12
247.266	161.12
247.5	172.12
247.733	162.12
247.966	173.12
248.2	164.12
248.433	182.12
248.666	175.12
248.899	193.12
249.133	222.12
249.366	209.12
249.599	216.12
249.832	195.12
250.066	198.12
250.299	193.12
250.532	190.12
250.765	224.12
250.998	249.12
251.231	234.12
251.465	221.12
251.698	215.12
251.931	223.12
252.164	206.12
252.397	209.12
252.63	203.12
252.863	211.12
253.096	228.12
253.329	236.12
253.562	235.12
253.795	239.12
254.028	229.12
254.261	251.12
254.494	243.12
254.727	274.12
254.96	306.12
255.193	289.12
255.426	285.12
255.659	261.12
255.892	249.12
256.124	242.12
256.357	271.12
256.59	244.12
256.823	219.12
257.056	231.12
257.289	238.12
257.521	228.12
257.754	211.12
257.987	225.12
258.22	222.12
258.452	202.12
258.685	226.12
258.918	242.12
259.151	229.12
259.383	221.12
259.616	226.12
259.849	235.12
260.081	225.12
260.314	262.12
260.547	272.12
260.779	256.12
261.012	242.12
261.244	233.12
261.477	229.12
261.71	218.12
261.942	228.12
262.175	272.12
262.407	248.12
262.64	226.12
262.872	227.12
263.105	236.12
263.337	218.12
263.57	222.12
263.802	225.12
264.035	204.12
264.267	226.12
264.499	215.12
264.732	219.12
264.964	215.12
265.197	207.12
265.429	222.12
265.661	212.12
265.894	234.12
266.126	230.12
266.358	225.12
266.591	213.12
266.823	237.12
267.055	234.12
267.287	246.12
267.52	235.12
267.752	251.12
267.984	231.12
268.216	232.12
268.448	234.12
268.681	233.12
268.913	260.12
269.145	284.12
269.377	291.12
269.609	302.12
269.841	289.12
270.073	299.12
270.306	320.12
270.538	348.12
270.77	337.12
271.002	323.12
271.234	322.12
271.466	335.12
271.698	315.12
271.93	347.12
272.162	330.12
272.394	373.12
272.626	334.12
272.858	323.12
273.09	317.12
273.322	286.12
273.553	275.12
273.785	296.12
274.017	293.12
274.249	292.12
274.481	269.12
274.713	293.12
274.945	284.12
275.176	307.12
275.408	284.12
275.64	261.12
275.872	257.12
276.104	283.12
276.335	276.12
276.567	306.12
276.799	313.12
277.031	327.12
277.262	331.12
277.494	344.12
277.726	337.12
277.957	325.12
278.189	292.12
278.421	294.12
278.652	291.12
278.884	278.12
279.115	281.12
279.347	264.12
279.579	277.12
279.81	278.12
280.042	276.12
280.273	258.12
280.505	261.12
280.736	277.12
280.968	287.12
281.199	269.12
281.431	279.12
281.662	277.12
281.894	269.12
282.125	295.12
282.356	282.12
282.588	321.12
282.819	321.12
283.051	292.12
283.282	253.12
283.513	276.12
283.745	274.12
283.976	258.12
284.207	281.12
284.439	265.12
284.67	279.12
284.901	267.12
285.132	291.12
285.364	283.12
285.595	252.12
285.826	271.12
286.057	289.12
286.288	280.12
286.52	290.12
286.751	275.12
286.982	278.12
287.213	256.12
287.444	295.12
287.675	294.12
287.906	301.12
288.138	300.12
288.369	304.12
288.6	303.12
288.831	317.12
289.062	292.12
289.293	274.12
289.524	301.12
289.755	297.12
289.986	280.12
290.217	289.12
290.448	302.12
290.679	266.12
290.91	285.12
291.141	273.12
291.371	287.12
291.602	280.12
291.833	275.12
292.064	289.12
292.295	282.12
292.526	277.12
292.757	298.12
292.987	278.12
293.218	298.12
293.449	291.12
293.68	277.12
293.91	289.12
294.141	288.12
294.372	284.12
294.603	286.12
294.833	291.12
295.064	283.12
295.295	306.12
295.525	294.12
295.756	279.12
295.987	304.12
296.217	320.12
296.448	358.12
296.679	314.12
296.909	299.12
297.14	290.12
297.37	279.12
297.601	290.12
297.831	306.12
298.062	282.12
298.292	298.12
298.523	312.12
298.753	297.12
298.984	290.12
299.214	297.12
299.445	323.12
299.675	287.12
299.905	312.12
300.136	321.12
300.366	324.12
300.597	311.12
300.827	310.12
301.057	302.12
301.288	324.12
301.518	317.12
301.748	316.12
301.979	343.12
302.209	336.12
302.439	335.12
302.669	333.12
302.9	339.12
303.13	328.12
303.36	335.12
303.59	333.12
303.82	333.12
304.051	333.12
304.281	355.12
304.511	327.12
304.741	338.12
304.971	323.12
305.201	310.12
305.431	309.12
305.661	323.12
305.891	314.12
306.121	311.12
306.352	321.12
306.582	346.12
306.812	330.12
307.042	333.12
307.272	335.12
307.502	311.12
307.731	318.12
307.961	349.12
308.191	340.12
308.421	341.12
308.651	334.12
308.881	327.12
309.111	347.12
309.341	347.12
309.571	360.12
309.8	367.12
310.03	362.12
310.26	387.12
310.49	389.12
310.72	403.12
310.949	397.12
311.179	433.12
311.409	393.12
311.639	389.12
311.868	391.12
312.098	413.12
312.328	413.12
312.557	418.12
312.787	443.12
313.017	429.12
313.246	389.12
313.476	385.12
313.706	398.12
313.935	394.12
314.165	410.12
314.394	423.12
314.624	417.12
314.853	393.12
315.083	386.12
315.312	401.12
315.542	355.12
315.771	369.12
316.001	387.12
316.23	385.12
316.46	384.12
316.689	374.12
316.919	383.12
317.148	404.12
317.377	391.12
317.607	385.12
317.836	413.12
318.065	383.12
318.295	375.12
318.524	376.12
318.753	389.12
318.983	381.12
319.212	385.12
319.441	380.12
319.67	387.12
319.9	419.12
320.129	381.12
320.358	389.12
320.587	395.12
320.816	410.12
321.046	430.12
321.275	414.12
321.504	402.12
321.733	418.12
321.962	436.12
322.191	442.12
322.42	460.12
322.649	495.12
322.878	518.12
323.108	503.12
323.337	545.12
323.566	570.12
323.795	595.12
324.024	676.12
324.253	855.12
324.482	1231.12
324.71	2009.12
324.939	2889.12
325.168	2546.12
325.397	1265.12
325.626	804.12
325.855	656.12
326.084	558.12
326.313	587.12
326.542	577.12
326.77	625.12
326.999	725.12
327.228	1112.12
327.457	1743.12
327.686	2154.12
327.914	1443.12
328.143	877.12
328.372	745.12
328.6	731.12
328.829	652.12
329.058	674.12
329.287	690.12
329.515	631.12
329.744	588.12
329.972	557.12
330.201	602.12
330.43	682.12
330.658	686.12
330.887	725.12
331.115	676.12
331.344	592.12
331.572	555.12
331.801	567.12
332.03	519.12
332.258	501.12
332.486	480.12
332.715	447.12
332.943	467.12
333.172	482.12
333.4	484.12
333.629	470.12
333.857	487.12
334.085	487.12
334.314	561.12
334.542	571.12
334.771	615.12
334.999	547.12
335.227	482.12
335.455	443.12
335.684	437.12
335.912	451.12
336.14	447.12
336.369	445.12
336.597	445.12
336.825	453.12
337.053	429.12
337.281	416.12
337.51	442.12
337.738	425.12
337.966	426.12
338.194	442.12
338.422	453.12
338.65	431.12
338.878	443.12
339.106	425.12
339.334	431.12
339.562	424.12
339.79	423.12
340.018	428.12
340.246	406.12
340.474	428.12
340.702	413.12
340.93	443.12
341.158	423.12
341.386	414.12
341.614	430.12
341.842	416.12
342.07	411.12
342.298	401.12
342.526	429.12
342.754	414.12
342.981	381.12
343.209	386.12
343.437	406.12
343.665	404.12
343.893	409.12
344.12	411.12
344.348	428.12
344.576	446.12
344.804	437.12
345.031	439.12
345.259	455.12
345.487	453.12
345.714	442.12
345.942	428.12
346.17	401.12
346.397	428.12
346.625	430.12
346.853	429.12
347.08	400.12
347.308	417.12
347.535	434.12
347.763	463.12
347.99	441.12
348.218	453.12
348.445	418.12
348.673	441.12
348.9	435.12
349.128	416.12
349.355	402.12
349.583	400.12
349.81	391.12
350.037	403.12
350.265	380.12
350.492	415.12
350.72	409.12
350.947	401.12
351.174	417.12
351.402	438.12
351.629	428.12
351.856	424.12
352.083	431.12
352.311	435.12
352.538	434.12
352.765	435.12
352.992	447.12
353.22	429.12
353.447	408.12
353.674	409.12
353.901	380.12
354.128	415.12
354.355	389.12
354.583	379.12
354.81	365.12
355.037	371.12
355.264	365.12
355.491	369.12
355.718	369.12
355.945	377.12
356.172	357.12
356.399	371.12
356.626	379.12
356.853	359.12
357.08	377.12
357.307	378.12
357.534	358.12
357.761	373.12
357.988	381.12
358.215	375.12
358.441	366.12
358.668	362.12
358.895	377.12
359.122	389.12
359.349	390.12
359.576	406.12
359.802	452.12
360.029	476.12
360.256	498.12
360.483	475.12
360.709	439.12
360.936	419.12
361.163	415.12
361.39	420.12
361.616	423.12
361.843	416.12
362.07	419.12
362.296	438.12
362.523	399.12
362.749	410.12
362.976	409.12
363.203	397.12
363.429	408.12
363.656	392.12
363.882	381.12
364.109	395.12
364.335	375.12
364.562	388.12
364.788	395.12
365.015	387.12
365.241	398.12
365.468	385.12
365.694	389.12
365.92	395.12
366.147	382.12
366.373	363.12
366.599	360.12
366.826	381.12
367.052	393.12
367.278	394.12
367.505	384.12
367.731	395.12
367.957	352.12
368.184	381.12
368.41	385.12
368.636	403.12
368.862	398.12
369.089	391.12
369.315	374.12
369.541	397.12
369.767	382.12
369.993	380.12
370.219	387.12
370.445	376.12
370.672	385.12
370.898	394.12
371.124	369.12
371.35	376.12
371.576	375.12
371.802	363.12
372.028	372.12
372.254	378.12
372.48	371.12
372.706	370.12
372.932	374.12
373.158	360.12
373.384	369.12
373.61	385.12
373.835	365.12
374.061	369.12
374.287	371.12
374.513	373.12
374.739	371.12
374.965	379.12
375.191	376.12
375.416	403.12
375.642	379.12
375.868	378.12
376.094	374.12
376.319	376.12
376.545	382.12
376.771	379.12
376.997	362.12
377.222	379.12
377.448	373.12
377.674	349.12
377.899	363.12
378.125	373.12
378.35	385.12
378.576	378.12
378.802	358.12
379.027	373.12
379.253	375.12
379.478	379.12
379.704	383.12
379.929	391.12
380.155	345.12
380.38	373.12
380.606	354.12
380.831	377.12
381.057	378.12
381.282	375.12
381.507	375.12
381.733	338.12
381.958	355.12
382.184	358.12
382.409	375.12
382.634	375.12
382.86	391.12
383.085	389.12
383.31	374.12
383.535	411.12
383.761	392.12
383.986	364.12
384.211	377.12
384.436	387.12
384.662	384.12
384.887	382.12
385.112	376.12
385.337	397.12
385.562	381.12
385.787	398.12
386.013	396.12
386.238	407.12
386.463	399.12
386.688	399.12
386.913	396.12
387.138	395.12
387.363	387.12
387.588	403.12
387.813	384.12
388.038	381.12
388.263	393.12
388.488	390.12
388.713	398.12
388.938	374.12
389.163	381.12
389.387	393.12
389.612	395.12
389.837	386.12
390.062	381.12
390.287	375.12
390.512	381.12
390.736	374.12
390.961	379.12
391.186	388.12
391.411	403.12
391.636	400.12
391.86	397.12
392.085	378.12
392.31	395.12
392.534	387.12
392.759	397.12
392.984	400.12
393.208	397.12
393.433	383.12
393.658	391.12
393.882	385.12
394.107	381.12
394.331	385.12
394.556	385.12
394.78	399.12
395.005	392.12
395.229	409.12
395.454	422.12
395.678	396.12
395.903	404.12
396.127	440.12
396.352	438.12
396.576	410.12
396.801	419.12
397.025	412.12
397.249	415.12
397.474	395.12
397.698	413.12
397.922	407.12
398.147	433.12
398.371	438.12
398.595	427.12
398.82	442.12
399.044	442.12
399.268	455.12
399.492	461.12
399.717	468.12
399.941	511.12
400.165	521.12
400.389	551.12
400.613	503.12
400.837	469.12
401.062	461.12
401.286	461.12
401.51	450.12
401.734	438.12
401.958	459.12
402.182	453.12
402.406	458.12
402.63	472.12
402.854	439.12
403.078	462.12
403.302	447.12
403.526	470.12
403.75	478.12
403.974	451.12
404.198	471.12
404.422	463.12
404.645	473.12
404.869	462.12
405.093	542.12
405.317	557.12
405.541	595.12
405.765	548.12
405.988	490.12
406.212	516.12
406.436	544.12
406.66	527.12
406.883	508.12
407.107	540.12
407.331	579.12
407.555	667.12
407.778	659.12
408.002	562.12
408.226	526.12
408.449	524.12
408.673	525.12
408.896	548.12
409.12	586.12
409.344	562.12
409.567	491.12
409.791	480.12
410.014	491.12
410.238	467.12
410.461	474.12
410.685	479.12
410.908	500.12
411.132	536.12
411.355	563.12
411.578	539.12
411.802	494.12
412.025	458.12
412.249	493.12
412.472	515.12
412.695	565.12
412.919	553.12
413.142	493.12
413.365	467.12
413.589	481.12
413.812	437.12
414.035	434.12
414.258	424.12
414.482	419.12
414.705	434.12
414.928	438.12
415.151	436.12
415.374	433.12
415.597	414.12
415.821	429.12
416.044	432.12
416.267	423.12
416.49	438.12
416.713	422.12
416.936	418.12
417.159	419.12
417.382	451.12
417.605	428.12
417.828	454.12
418.051	474.12
418.274	502.12
418.497	451.12
418.72	457.12
418.943	463.12
419.166	457.12
419.389	474.12
419.611	480.12
419.834	477.12
420.057	476.12
420.28	461.12
420.503	483.12
420.726	477.12
420.948	515.12
421.171	517.12
421.394	579.12
421.617	501.12
421.839	485.12
422.062	476.12
422.285	491.12
422.507	557.12
422.73	634.12
422.953	614.12
423.175	532.12
423.398	499.12
423.621	495.12
423.843	519.12
424.066	523.12
424.288	503.12
424.511	543.12
424.733	606.12
424.956	670.12
425.178	639.12
425.401	652.12
425.623	685.12
425.846	599.12
426.068	530.12
426.291	519.12
426.513	540.12
426.735	518.12
426.958	583.12
427.18	686.12
427.402	806.12
427.625	907.12
427.847	819.12
428.069	718.12
428.292	607.12
428.514	546.12
428.736	492.12
428.958	491.12
429.181	481.12
429.403	482.12
429.625	509.12
429.847	526.12
430.069	608.12
430.292	618.12
430.514	522.12
430.736	468.12
430.958	463.12
431.18	462.12
431.402	442.12
431.624	427.12
431.846	430.12
432.068	435.12
432.29	445.12
432.512	452.12
432.734	461.12
432.956	466.12
433.178	459.12
433.4	482.12
433.622	479.12
433.844	444.12
434.066	473.12
434.287	441.12
434.509	455.12
434.731	455.12
434.953	450.12
435.175	457.12
435.397	511.12
435.618	523.12
435.84	582.12
436.062	666.12
436.284	757.12
436.505	605.12
436.727	567.12
436.949	500.12
437.17	489.12
437.392	501.12
437.614	489.12
437.835	553.12
438.057	666.12
438.278	778.12
438.5	787.12
438.721	876.12
438.943	797.12
439.165	641.12
439.386	563.12
439.608	577.12
439.829	571.12
440.05	591.12
440.272	641.12
440.493	586.12
440.715	550.12
440.936	527.12
441.158	507.12
441.379	488.12
441.6	517.12
441.822	519.12
442.043	583.12
442.264	681.12
442.486	734.12
442.707	587.12
442.928	555.12
443.149	555.12
443.371	571.12
443.592	635.12
443.813	767.12
444.034	785.12
444.255	629.12
444.476	553.12
444.698	542.12
444.919	504.12
445.14	597.12
445.361	591.12
445.582	569.12
445.803	668.12
446.024	795.12
446.245	782.12
446.466	740.12
446.687	569.12
446.908	553.12
447.129	503.12
447.35	486.12
447.571	493.12
447.792	468.12
448.013	517.12
448.234	528.12
448.455	581.12
448.675	678.12
448.896	841.12
449.117	703.12
449.338	652.12
449.559	777.12
449.779	837.12
450	722.12
450.221	573.12
450.442	501.12
450.662	487.12
450.883	490.12
451.104	514.12
451.324	500.12
451.545	494.12
451.766	484.12
451.986	454.12
452.207	449.12
452.428	442.12
452.648	438.12
452.869	443.12
453.089	424.12
453.31	471.12
453.53	460.12
453.751	454.12
453.971	438.12
454.192	491.12
454.412	461.12
454.633	442.12
454.853	451.12
455.073	421.12
455.294	458.12
455.514	533.12
455.734	525.12
455.955	468.12
456.175	430.12
456.395	398.12
456.616	395.12
456.836	410.12
457.056	414.12
457.276	383.12
457.497	418.12
457.717	411.12
457.937	421.12
458.157	415.12
458.377	420.12
458.598	462.12
458.818	541.12
459.038	613.12
459.258	636.12
459.478	531.12
459.698	476.12
459.918	442.12
460.138	457.12
460.358	442.12
460.578	435.12
460.798	431.12
461.018	430.12
461.238	441.12
461.458	434.12
461.678	458.12
461.898	445.12
462.118	444.12
462.338	434.12
462.558	435.12
462.777	443.12
462.997	456.12
463.217	461.12
463.437	451.12
463.657	452.12
463.876	461.12
464.096	459.12
464.316	470.12
464.536	476.12
464.755	469.12
464.975	477.12
465.195	546.12
465.414	659.12
465.634	547.12
465.854	499.12
466.073	502.12
466.293	452.12
466.512	444.12
466.732	423.12
466.951	433.12
467.171	415.12
467.391	434.12
467.61	482.12
467.829	452.12
468.049	449.12
468.268	456.12
468.488	427.12
468.707	439.12
468.927	424.12
469.146	425.12
469.365	413.12
469.585	411.12
469.804	421.12
470.023	453.12
470.243	424.12
470.462	464.12
470.681	474.12
470.901	470.12
471.12	440.12
471.339	459.12
471.558	454.12
471.777	444.12
471.997	443.12
472.216	437.12
472.435	507.12
472.654	471.12
472.873	462.12
473.092	444.12
473.311	464.12
473.53	457.12
473.749	479.12
473.968	500.12
474.187	637.12
474.406	683.12
474.625	535.12
474.844	460.12
475.063	461.12
475.282	460.12
475.501	439.12
475.72	473.12
475.939	451.12
476.158	464.12
476.377	445.12
476.596	441.12
476.814	485.12
477.033	485.12
477.252	487.12
477.471	462.12
477.69	500.12
477.908	465.12
478.127	463.12
478.346	485.12
478.564	465.12
478.783	462.12
479.002	492.12
479.22	497.12
479.439	522.12
479.658	551.12
479.876	557.12
480.095	532.12
480.313	570.12
480.532	537.12
480.751	556.12
480.969	558.12
481.188	656.12
481.406	741.12
481.624	617.12
481.843	561.12
482.061	535.12
482.28	533.12
482.498	535.12
482.717	521.12
482.935	537.12
483.153	529.12
483.372	534.12
483.59	527.12
483.808	531.12
484.027	509.12
484.245	534.12
484.463	547.12
484.681	541.12
484.9	515.12
485.118	499.12
485.336	545.12
485.554	534.12
485.772	545.12
485.99	531.12
486.209	527.12
486.427	556.12
486.645	539.12
486.863	572.12
487.081	580.12
487.299	568.12
487.517	543.12
487.735	572.12
487.953	569.12
488.171	580.12
488.389	556.12
488.607	596.12
488.825	579.12
489.043	557.12
489.261	558.12
489.479	571.12
489.696	583.12
489.914	583.12
490.132	580.12
490.35	603.12
490.568	600.12
490.786	605.12
491.003	607.12
491.221	611.12
491.439	618.12
491.657	635.12
491.874	641.12
492.092	655.12
492.31	662.12
492.527	639.12
492.745	636.12
492.963	657.12
493.18	676.12
493.398	667.12
493.615	685.12
493.833	682.12
494.05	647.12
494.268	670.12
494.485	680.12
494.703	663.12
494.92	671.12
495.138	656.12
495.355	664.12
495.573	669.12
495.79	681.12
496.008	649.12
496.225	682.12
496.442	666.12
496.66	663.12
496.877	674.12
497.094	665.12
497.312	681.12
497.529	689.12
497.746	691.12
497.963	705.12
498.181	733.12
498.398	732.12
498.615	718.12
498.832	731.12
499.049	704.12
499.267	724.12
499.484	762.12
499.701	780.12
499.918	791.12
500.135	808.12
500.352	803.12
500.569	835.12
500.786	843.12
501.003	831.12
501.22	794.12
501.437	812.12
501.654	810.12
501.871	796.12
