Data from 1972.PennyLincolnUp.Lamp.En5.5.200Scan.071719.P1._HRD10591_15-28-57-844.txt Node
Date: Thu Jul 18 15:28:57 EDT 2019
User: cochatt
Spectrometer: HR+D1059
Trigger mode: 1
Integration Time (sec): 1.000000E-1
Scans to average: 1
Electric dark correction enabled: true
Nonlinearity correction enabled: false
Boxcar width: 0
XAxis mode: Wavelengths
Number of Pixels in Spectrum: 2048
>>>>>Begin Spectral Data<<<<<
223.165	-12.06
223.4	-12.06
223.635	-12.06
223.869	-30.06
224.104	-17.06
224.338	-23.06
224.573	-10.06
224.808	-20.06
225.042	-10.06
225.277	-16.06
225.511	-3.06
225.746	-4.06
225.98	24.94
226.215	13.94
226.449	26.94
226.683	24.94
226.918	24.94
227.152	29.94
227.387	43.94
227.621	44.94
227.856	32.94
228.09	49.94
228.324	59.94
228.559	59.94
228.793	72.94
229.027	106.94
229.262	110.94
229.496	116.94
229.73	145.94
229.964	175.94
230.199	144.94
230.433	120.94
230.667	114.94
230.901	129.94
231.136	119.94
231.37	121.94
231.604	130.94
231.838	119.94
232.072	122.94
232.306	121.94
232.541	115.94
232.775	111.94
233.009	110.94
233.243	109.94
233.477	136.94
233.711	121.94
233.945	131.94
234.179	109.94
234.413	127.94
234.647	123.94
234.881	137.94
235.115	125.94
235.349	123.94
235.583	115.94
235.817	141.94
236.051	144.94
236.285	129.94
236.519	129.94
236.753	142.94
236.987	155.94
237.221	191.94
237.455	245.94
237.689	214.94
237.922	157.94
238.156	134.94
238.39	143.94
238.624	132.94
238.858	119.94
239.091	140.94
239.325	118.94
239.559	131.94
239.793	146.94
240.027	123.94
240.26	153.94
240.494	186.94
240.728	173.94
240.961	182.94
241.195	148.94
241.429	154.94
241.662	128.94
241.896	154.94
242.13	145.94
242.363	133.94
242.597	134.94
242.83	141.94
243.064	151.94
243.298	146.94
243.531	147.94
243.765	143.94
243.998	150.94
244.232	143.94
244.465	153.94
244.699	140.94
244.932	152.94
245.166	159.94
245.399	134.94
245.633	141.94
245.866	146.94
246.099	146.94
246.333	154.94
246.566	138.94
246.8	163.94
247.033	159.94
247.266	164.94
247.5	154.94
247.733	179.94
247.966	175.94
248.2	185.94
248.433	165.94
248.666	168.94
248.899	200.94
249.133	226.94
249.366	195.94
249.599	231.94
249.832	214.94
250.066	197.94
250.299	198.94
250.532	208.94
250.765	225.94
250.998	224.94
251.231	237.94
251.465	219.94
251.698	233.94
251.931	201.94
252.164	210.94
252.397	204.94
252.63	200.94
252.863	216.94
253.096	229.94
253.329	238.94
253.562	245.94
253.795	223.94
254.028	239.94
254.261	226.94
254.494	254.94
254.727	253.94
254.96	313.94
255.193	299.94
255.426	269.94
255.659	252.94
255.892	253.94
256.124	247.94
256.357	252.94
256.59	233.94
256.823	219.94
257.056	226.94
257.289	210.94
257.521	216.94
257.754	207.94
257.987	245.94
258.22	215.94
258.452	221.94
258.685	229.94
258.918	201.94
259.151	213.94
259.383	234.94
259.616	224.94
259.849	233.94
260.081	261.94
260.314	260.94
260.547	272.94
260.779	278.94
261.012	252.94
261.244	233.94
261.477	243.94
261.71	256.94
261.942	229.94
262.175	257.94
262.407	263.94
262.64	235.94
262.872	230.94
263.105	225.94
263.337	223.94
263.57	224.94
263.802	222.94
264.035	232.94
264.267	219.94
264.499	207.94
264.732	224.94
264.964	217.94
265.197	221.94
265.429	227.94
265.661	226.94
265.894	206.94
266.126	233.94
266.358	231.94
266.591	221.94
266.823	219.94
267.055	245.94
267.287	249.94
267.52	225.94
267.752	217.94
267.984	250.94
268.216	241.94
268.448	239.94
268.681	239.94
268.913	255.94
269.145	285.94
269.377	285.94
269.609	280.94
269.841	298.94
270.073	290.94
270.306	302.94
270.538	345.94
270.77	337.94
271.002	345.94
271.234	304.94
271.466	315.94
271.698	351.94
271.93	350.94
272.162	348.94
272.394	338.94
272.626	321.94
272.858	327.94
273.09	304.94
273.322	291.94
273.553	287.94
273.785	283.94
274.017	270.94
274.249	283.94
274.481	276.94
274.713	285.94
274.945	278.94
275.176	281.94
275.408	288.94
275.64	276.94
275.872	279.94
276.104	271.94
276.335	269.94
276.567	272.94
276.799	308.94
277.031	323.94
277.262	321.94
277.494	341.94
277.726	305.94
277.957	299.94
278.189	304.94
278.421	288.94
278.652	279.94
278.884	281.94
279.115	281.94
279.347	278.94
279.579	272.94
279.81	250.94
280.042	278.94
280.273	270.94
280.505	279.94
280.736	263.94
280.968	282.94
281.199	274.94
281.431	281.94
281.662	287.94
281.894	279.94
282.125	272.94
282.356	299.94
282.588	319.94
282.819	323.94
283.051	287.94
283.282	285.94
283.513	265.94
283.745	284.94
283.976	273.94
284.207	261.94
284.439	283.94
284.67	281.94
284.901	288.94
285.132	274.94
285.364	297.94
285.595	283.94
285.826	270.94
286.057	283.94
286.288	282.94
286.52	270.94
286.751	272.94
286.982	269.94
287.213	280.94
287.444	273.94
287.675	286.94
287.906	297.94
288.138	303.94
288.369	316.94
288.6	323.94
288.831	298.94
289.062	293.94
289.293	286.94
289.524	277.94
289.755	282.94
289.986	290.94
290.217	296.94
290.448	282.94
290.679	272.94
290.91	286.94
291.141	283.94
291.371	313.94
291.602	281.94
291.833	285.94
292.064	290.94
292.295	290.94
292.526	294.94
292.757	276.94
292.987	271.94
293.218	285.94
293.449	295.94
293.68	299.94
293.91	280.94
294.141	273.94
294.372	282.94
294.603	275.94
294.833	292.94
295.064	268.94
295.295	302.94
295.525	292.94
295.756	300.94
295.987	306.94
296.217	330.94
296.448	346.94
296.679	306.94
296.909	299.94
297.14	267.94
297.37	300.94
297.601	300.94
297.831	286.94
298.062	300.94
298.292	285.94
298.523	321.94
298.753	306.94
298.984	297.94
299.214	300.94
299.445	293.94
299.675	288.94
299.905	293.94
300.136	294.94
300.366	291.94
300.597	309.94
300.827	301.94
301.057	311.94
301.288	322.94
301.518	315.94
301.748	325.94
301.979	319.94
302.209	318.94
302.439	334.94
302.669	333.94
302.9	317.94
303.13	307.94
303.36	301.94
303.59	332.94
303.82	340.94
304.051	338.94
304.281	319.94
304.511	315.94
304.741	297.94
304.971	317.94
305.201	306.94
305.431	341.94
305.661	329.94
305.891	307.94
306.121	298.94
306.352	328.94
306.582	335.94
306.812	324.94
307.042	329.94
307.272	333.94
307.502	326.94
307.731	313.94
307.961	306.94
308.191	317.94
308.421	339.94
308.651	347.94
308.881	332.94
309.111	333.94
309.341	343.94
309.571	358.94
309.8	378.94
310.03	376.94
310.26	392.94
310.49	402.94
310.72	383.94
310.949	428.94
311.179	430.94
311.409	399.94
311.639	386.94
311.868	377.94
312.098	401.94
312.328	401.94
312.557	414.94
312.787	420.94
313.017	441.94
313.246	405.94
313.476	373.94
313.706	390.94
313.935	382.94
314.165	395.94
314.394	423.94
314.624	418.94
314.853	395.94
315.083	402.94
315.312	377.94
315.542	375.94
315.771	371.94
316.001	361.94
316.23	383.94
316.46	385.94
316.689	391.94
316.919	394.94
317.148	408.94
317.377	402.94
317.607	402.94
317.836	401.94
318.065	387.94
318.295	363.94
318.524	369.94
318.753	384.94
318.983	357.94
319.212	385.94
319.441	376.94
319.67	377.94
319.9	393.94
320.129	389.94
320.358	388.94
320.587	395.94
320.816	409.94
321.046	399.94
321.275	411.94
321.504	415.94
321.733	425.94
321.962	434.94
322.191	427.94
322.42	452.94
322.649	477.94
322.878	503.94
323.108	486.94
323.337	530.94
323.566	536.94
323.795	607.94
324.024	653.94
324.253	825.94
324.482	1215.94
324.71	1954.94
324.939	2785.94
325.168	2421.94
325.397	1213.94
325.626	797.94
325.855	639.94
326.084	583.94
326.313	527.94
326.542	580.94
326.77	630.94
326.999	765.94
327.228	1034.94
327.457	1662.94
327.686	2116.94
327.914	1397.94
328.143	866.94
328.372	761.94
328.6	694.94
328.829	647.94
329.058	655.94
329.287	666.94
329.515	612.94
329.744	543.94
329.972	560.94
330.201	614.94
330.43	663.94
330.658	686.94
330.887	693.94
331.115	679.94
331.344	587.94
331.572	527.94
331.801	514.94
332.03	524.94
332.258	496.94
332.486	478.94
332.715	462.94
332.943	467.94
333.172	454.94
333.4	461.94
333.629	452.94
333.857	486.94
334.085	495.94
334.314	541.94
334.542	565.94
334.771	599.94
334.999	520.94
335.227	493.94
335.455	461.94
335.684	446.94
335.912	426.94
336.14	441.94
336.369	441.94
336.597	464.94
336.825	441.94
337.053	428.94
337.281	417.94
337.51	434.94
337.738	439.94
337.966	435.94
338.194	447.94
338.422	433.94
338.65	450.94
338.878	429.94
339.106	439.94
339.334	425.94
339.562	409.94
339.79	413.94
340.018	413.94
340.246	429.94
340.474	424.94
340.702	426.94
340.93	422.94
341.158	434.94
341.386	426.94
341.614	430.94
341.842	431.94
342.07	441.94
342.298	407.94
342.526	428.94
342.754	392.94
342.981	404.94
343.209	416.94
343.437	401.94
343.665	409.94
343.893	410.94
344.12	421.94
344.348	413.94
344.576	437.94
344.804	442.94
345.031	456.94
345.259	456.94
345.487	443.94
345.714	418.94
345.942	407.94
346.17	424.94
346.397	395.94
346.625	404.94
346.853	424.94
347.08	408.94
347.308	396.94
347.535	423.94
347.763	427.94
347.99	442.94
348.218	426.94
348.445	427.94
348.673	459.94
348.9	410.94
349.128	404.94
349.355	384.94
349.583	407.94
349.81	373.94
350.037	406.94
350.265	408.94
350.492	405.94
350.72	394.94
350.947	413.94
351.174	420.94
351.402	417.94
351.629	414.94
351.856	406.94
352.083	419.94
352.311	440.94
352.538	441.94
352.765	438.94
352.992	422.94
353.22	433.94
353.447	424.94
353.674	397.94
353.901	389.94
354.128	375.94
354.355	385.94
354.583	378.94
354.81	395.94
355.037	383.94
355.264	379.94
355.491	358.94
355.718	384.94
355.945	379.94
356.172	360.94
356.399	367.94
356.626	358.94
356.853	371.94
357.08	370.94
357.307	365.94
357.534	378.94
357.761	378.94
357.988	367.94
358.215	395.94
358.441	373.94
358.668	376.94
358.895	369.94
359.122	401.94
359.349	413.94
359.576	418.94
359.802	453.94
360.029	463.94
360.256	495.94
360.483	453.94
360.709	428.94
360.936	425.94
361.163	404.94
361.39	408.94
361.616	404.94
361.843	414.94
362.07	395.94
362.296	421.94
362.523	420.94
362.749	403.94
362.976	392.94
363.203	413.94
363.429	377.94
363.656	380.94
363.882	410.94
364.109	408.94
364.335	375.94
364.562	395.94
364.788	376.94
365.015	390.94
365.241	374.94
365.468	395.94
365.694	402.94
365.92	394.94
366.147	396.94
366.373	382.94
366.599	386.94
366.826	383.94
367.052	398.94
367.278	369.94
367.505	391.94
367.731	367.94
367.957	387.94
368.184	375.94
368.41	387.94
368.636	405.94
368.862	400.94
369.089	387.94
369.315	369.94
369.541	391.94
369.767	380.94
369.993	378.94
370.219	385.94
370.445	391.94
370.672	375.94
370.898	374.94
371.124	377.94
371.35	360.94
371.576	358.94
371.802	362.94
372.028	365.94
372.254	348.94
372.48	351.94
372.706	373.94
372.932	366.94
373.158	359.94
373.384	370.94
373.61	368.94
373.835	371.94
374.061	358.94
374.287	377.94
374.513	370.94
374.739	369.94
374.965	382.94
375.191	356.94
375.416	349.94
375.642	366.94
375.868	373.94
376.094	367.94
376.319	363.94
376.545	350.94
376.771	383.94
376.997	342.94
377.222	357.94
377.448	353.94
377.674	367.94
377.899	365.94
378.125	359.94
378.35	355.94
378.576	343.94
378.802	348.94
379.027	323.94
379.253	352.94
379.478	356.94
379.704	346.94
379.929	367.94
380.155	345.94
380.38	363.94
380.606	368.94
380.831	380.94
381.057	375.94
381.282	370.94
381.507	343.94
381.733	386.94
381.958	354.94
382.184	366.94
382.409	380.94
382.634	389.94
382.86	370.94
383.085	367.94
383.31	379.94
383.535	377.94
383.761	377.94
383.986	370.94
384.211	383.94
384.436	360.94
384.662	376.94
384.887	387.94
385.112	387.94
385.337	374.94
385.562	375.94
385.787	380.94
386.013	385.94
386.238	367.94
386.463	381.94
386.688	400.94
386.913	380.94
387.138	390.94
387.363	383.94
387.588	350.94
387.813	389.94
388.038	374.94
388.263	384.94
388.488	391.94
388.713	391.94
388.938	383.94
389.163	394.94
389.387	401.94
389.612	387.94
389.837	406.94
390.062	387.94
390.287	382.94
390.512	393.94
390.736	393.94
390.961	367.94
391.186	394.94
391.411	392.94
391.636	393.94
391.86	397.94
392.085	381.94
392.31	386.94
392.534	387.94
392.759	384.94
392.984	390.94
393.208	393.94
393.433	402.94
393.658	409.94
393.882	404.94
394.107	395.94
394.331	369.94
394.556	364.94
394.78	386.94
395.005	403.94
395.229	392.94
395.454	388.94
395.678	391.94
395.903	411.94
396.127	457.94
396.352	423.94
396.576	413.94
396.801	405.94
397.025	382.94
397.249	411.94
397.474	412.94
397.698	403.94
397.922	407.94
398.147	446.94
398.371	438.94
398.595	411.94
398.82	436.94
399.044	410.94
399.268	446.94
399.492	469.94
399.717	490.94
399.941	517.94
400.165	526.94
400.389	557.94
400.613	505.94
400.837	462.94
401.062	452.94
401.286	456.94
401.51	440.94
401.734	442.94
401.958	440.94
402.182	451.94
402.406	448.94
402.63	458.94
402.854	462.94
403.078	451.94
403.302	453.94
403.526	462.94
403.75	451.94
403.974	446.94
404.198	423.94
404.422	445.94
404.645	457.94
404.869	478.94
405.093	503.94
405.317	552.94
405.541	580.94
405.765	521.94
405.988	483.94
406.212	513.94
406.436	535.94
406.66	544.94
406.883	514.94
407.107	538.94
407.331	587.94
407.555	629.94
407.778	607.94
408.002	578.94
408.226	538.94
408.449	511.94
408.673	512.94
408.896	536.94
409.12	582.94
409.344	536.94
409.567	493.94
409.791	487.94
410.014	473.94
410.238	471.94
410.461	478.94
410.685	474.94
410.908	490.94
411.132	531.94
411.355	569.94
411.578	567.94
411.802	472.94
412.025	456.94
412.249	450.94
412.472	508.94
412.695	565.94
412.919	550.94
413.142	491.94
413.365	453.94
413.589	455.94
413.812	453.94
414.035	444.94
414.258	425.94
414.482	397.94
414.705	413.94
414.928	421.94
415.151	428.94
415.374	430.94
415.597	435.94
415.821	419.94
416.044	458.94
416.267	427.94
416.49	438.94
416.713	417.94
416.936	424.94
417.159	417.94
417.382	451.94
417.605	460.94
417.828	466.94
418.051	476.94
418.274	491.94
418.497	456.94
418.72	449.94
418.943	452.94
419.166	463.94
419.389	457.94
419.611	460.94
419.834	465.94
420.057	461.94
420.28	469.94
420.503	469.94
420.726	474.94
420.948	496.94
421.171	521.94
421.394	575.94
421.617	490.94
421.839	472.94
422.062	469.94
422.285	471.94
422.507	550.94
422.73	617.94
422.953	606.94
423.175	518.94
423.398	504.94
423.621	518.94
423.843	516.94
424.066	495.94
424.288	521.94
424.511	529.94
424.733	611.94
424.956	686.94
425.178	644.94
425.401	674.94
425.623	663.94
425.846	561.94
426.068	540.94
426.291	514.94
426.513	528.94
426.735	536.94
426.958	569.94
427.18	659.94
427.402	776.94
427.625	900.94
427.847	805.94
428.069	689.94
428.292	607.94
428.514	542.94
428.736	523.94
428.958	509.94
429.181	477.94
429.403	496.94
429.625	492.94
429.847	545.94
430.069	621.94
430.292	598.94
430.514	530.94
430.736	489.94
430.958	501.94
431.18	433.94
431.402	442.94
431.624	427.94
431.846	415.94
432.068	440.94
432.29	457.94
432.512	459.94
432.734	456.94
432.956	447.94
433.178	453.94
433.4	477.94
433.622	458.94
433.844	443.94
434.066	424.94
434.287	435.94
434.509	452.94
434.731	462.94
434.953	458.94
435.175	456.94
435.397	493.94
435.618	530.94
435.84	554.94
436.062	669.94
436.284	740.94
436.505	651.94
436.727	548.94
436.949	494.94
437.17	502.94
437.392	473.94
437.614	505.94
437.835	535.94
438.057	665.94
438.278	777.94
438.5	777.94
438.721	830.94
438.943	787.94
439.165	612.94
439.386	557.94
439.608	553.94
439.829	553.94
440.05	596.94
440.272	645.94
440.493	584.94
440.715	521.94
440.936	506.94
441.158	484.94
441.379	489.94
441.6	502.94
441.822	528.94
442.043	581.94
442.264	666.94
442.486	712.94
442.707	577.94
442.928	550.94
443.149	555.94
443.371	565.94
443.592	603.94
443.813	716.94
444.034	780.94
444.255	624.94
444.476	546.94
444.698	531.94
444.919	528.94
445.14	603.94
445.361	591.94
445.582	572.94
445.803	642.94
446.024	807.94
446.245	775.94
446.466	729.94
446.687	616.94
446.908	530.94
447.129	506.94
447.35	488.94
447.571	493.94
447.792	465.94
448.013	494.94
448.234	502.94
448.455	558.94
448.675	688.94
448.896	814.94
449.117	701.94
449.338	631.94
449.559	732.94
449.779	891.94
450	680.94
450.221	555.94
450.442	505.94
450.662	506.94
450.883	512.94
451.104	511.94
451.324	504.94
451.545	475.94
451.766	466.94
451.986	427.94
452.207	433.94
452.428	418.94
452.648	434.94
452.869	456.94
453.089	452.94
453.31	443.94
453.53	455.94
453.751	425.94
453.971	450.94
454.192	483.94
454.412	462.94
454.633	450.94
454.853	439.94
455.073	439.94
455.294	492.94
455.514	569.94
455.734	516.94
455.955	444.94
456.175	423.94
456.395	409.94
456.616	414.94
456.836	392.94
457.056	406.94
457.276	409.94
457.497	409.94
457.717	414.94
457.937	421.94
458.157	422.94
458.377	423.94
458.598	456.94
458.818	515.94
459.038	613.94
459.258	634.94
459.478	532.94
459.698	480.94
459.918	458.94
460.138	449.94
460.358	447.94
460.578	439.94
460.798	410.94
461.018	434.94
461.238	440.94
461.458	435.94
461.678	423.94
461.898	433.94
462.118	449.94
462.338	431.94
462.558	440.94
462.777	429.94
462.997	460.94
463.217	462.94
463.437	452.94
463.657	454.94
463.876	441.94
464.096	473.94
464.316	463.94
464.536	467.94
464.755	474.94
464.975	450.94
465.195	545.94
465.414	655.94
465.634	561.94
465.854	497.94
466.073	463.94
466.293	448.94
466.512	422.94
466.732	443.94
466.951	435.94
467.171	431.94
467.391	423.94
467.61	446.94
467.829	439.94
468.049	443.94
468.268	455.94
468.488	438.94
468.707	435.94
468.927	409.94
469.146	404.94
469.365	426.94
469.585	411.94
469.804	430.94
470.023	445.94
470.243	440.94
470.462	457.94
470.681	480.94
470.901	476.94
471.12	446.94
471.339	433.94
471.558	442.94
471.777	437.94
471.997	437.94
472.216	420.94
472.435	490.94
472.654	494.94
472.873	442.94
473.092	449.94
473.311	451.94
473.53	437.94
473.749	426.94
473.968	515.94
474.187	608.94
474.406	655.94
474.625	509.94
474.844	463.94
475.063	468.94
475.282	443.94
475.501	428.94
475.72	451.94
475.939	456.94
476.158	445.94
476.377	446.94
476.596	445.94
476.814	453.94
477.033	454.94
477.252	459.94
477.471	481.94
477.69	457.94
477.908	457.94
478.127	475.94
478.346	459.94
478.564	482.94
478.783	494.94
479.002	484.94
479.22	486.94
479.439	505.94
479.658	535.94
479.876	549.94
480.095	520.94
480.313	563.94
480.532	538.94
480.751	542.94
480.969	579.94
481.188	648.94
481.406	704.94
481.624	610.94
481.843	575.94
482.061	541.94
482.28	516.94
482.498	527.94
482.717	526.94
482.935	522.94
483.153	522.94
483.372	516.94
483.59	515.94
483.808	526.94
484.027	491.94
484.245	513.94
484.463	509.94
484.681	513.94
484.9	540.94
485.118	535.94
485.336	568.94
485.554	521.94
485.772	521.94
485.99	542.94
486.209	552.94
486.427	555.94
486.645	556.94
486.863	571.94
487.081	579.94
487.299	567.94
487.517	560.94
487.735	569.94
487.953	560.94
488.171	556.94
488.389	550.94
488.607	544.94
488.825	559.94
489.043	542.94
489.261	564.94
489.479	584.94
489.696	555.94
489.914	566.94
490.132	575.94
490.35	579.94
490.568	561.94
490.786	589.94
491.003	603.94
491.221	619.94
491.439	619.94
491.657	619.94
491.874	659.94
492.092	647.94
492.31	657.94
492.527	667.94
492.745	651.94
492.963	643.94
493.18	666.94
493.398	673.94
493.615	674.94
493.833	689.94
494.05	684.94
494.268	661.94
494.485	650.94
494.703	675.94
494.92	650.94
495.138	667.94
495.355	684.94
495.573	655.94
495.79	669.94
496.008	666.94
496.225	653.94
496.442	665.94
496.66	652.94
496.877	675.94
497.094	681.94
497.312	674.94
497.529	689.94
497.746	677.94
497.963	691.94
498.181	728.94
498.398	709.94
498.615	718.94
498.832	730.94
499.049	721.94
499.267	721.94
499.484	741.94
499.701	745.94
499.918	782.94
500.135	831.94
500.352	788.94
500.569	811.94
500.786	827.94
501.003	847.94
501.22	811.94
501.437	809.94
501.654	810.94
501.871	821.94
