Data from 1972.PennyLincolnUp.Lamp.En5.5.200Scan.071719.P1._HRD10591_15-28-39-846.txt Node
Date: Thu Jul 18 15:28:39 EDT 2019
User: cochatt
Spectrometer: HR+D1059
Trigger mode: 1
Integration Time (sec): 1.000000E-1
Scans to average: 1
Electric dark correction enabled: true
Nonlinearity correction enabled: false
Boxcar width: 0
XAxis mode: Wavelengths
Number of Pixels in Spectrum: 2048
>>>>>Begin Spectral Data<<<<<
223.165	-27.56
223.4	-27.56
223.635	-27.56
223.869	-5.56
224.104	-16.56
224.338	-22.56
224.573	-2.56
224.808	-11.56
225.042	-0.56
225.277	-8.56
225.511	-3.56
225.746	8.44
225.98	-5.56
226.215	16.44
226.449	2.44
226.683	21.44
226.918	25.44
227.152	30.44
227.387	48.44
227.621	42.44
227.856	51.44
228.09	40.44
228.324	50.44
228.559	60.44
228.793	61.44
229.027	105.44
229.262	115.44
229.496	117.44
229.73	156.44
229.964	168.44
230.199	138.44
230.433	109.44
230.667	109.44
230.901	109.44
231.136	96.44
231.37	108.44
231.604	125.44
231.838	124.44
232.072	105.44
232.306	110.44
232.541	116.44
232.775	109.44
233.009	127.44
233.243	131.44
233.477	111.44
233.711	122.44
233.945	109.44
234.179	97.44
234.413	109.44
234.647	107.44
234.881	103.44
235.115	116.44
235.349	123.44
235.583	124.44
235.817	136.44
236.051	131.44
236.285	126.44
236.519	141.44
236.753	128.44
236.987	151.44
237.221	177.44
237.455	230.44
237.689	191.44
237.922	139.44
238.156	141.44
238.39	131.44
238.624	129.44
238.858	132.44
239.091	130.44
239.325	123.44
239.559	129.44
239.793	142.44
240.027	137.44
240.26	138.44
240.494	157.44
240.728	161.44
240.961	157.44
241.195	158.44
241.429	141.44
241.662	137.44
241.896	122.44
242.13	144.44
242.363	135.44
242.597	138.44
242.83	147.44
243.064	141.44
243.298	145.44
243.531	142.44
243.765	138.44
243.998	141.44
244.232	146.44
244.465	137.44
244.699	137.44
244.932	157.44
245.166	148.44
245.399	139.44
245.633	144.44
245.866	145.44
246.099	133.44
246.333	142.44
246.566	152.44
246.8	161.44
247.033	173.44
247.266	155.44
247.5	170.44
247.733	167.44
247.966	177.44
248.2	174.44
248.433	167.44
248.666	174.44
248.899	180.44
249.133	197.44
249.366	208.44
249.599	208.44
249.832	187.44
250.066	187.44
250.299	185.44
250.532	198.44
250.765	205.44
250.998	228.44
251.231	237.44
251.465	234.44
251.698	205.44
251.931	199.44
252.164	193.44
252.397	202.44
252.63	209.44
252.863	199.44
253.096	231.44
253.329	249.44
253.562	239.44
253.795	245.44
254.028	227.44
254.261	222.44
254.494	227.44
254.727	282.44
254.96	299.44
255.193	286.44
255.426	262.44
255.659	259.44
255.892	235.44
256.124	261.44
256.357	243.44
256.59	236.44
256.823	214.44
257.056	228.44
257.289	229.44
257.521	203.44
257.754	217.44
257.987	216.44
258.22	217.44
258.452	200.44
258.685	214.44
258.918	201.44
259.151	215.44
259.383	223.44
259.616	227.44
259.849	234.44
260.081	237.44
260.314	269.44
260.547	264.44
260.779	241.44
261.012	247.44
261.244	241.44
261.477	245.44
261.71	206.44
261.942	247.44
262.175	249.44
262.407	233.44
262.64	229.44
262.872	210.44
263.105	206.44
263.337	219.44
263.57	216.44
263.802	203.44
264.035	213.44
264.267	213.44
264.499	222.44
264.732	213.44
264.964	221.44
265.197	207.44
265.429	214.44
265.661	206.44
265.894	211.44
266.126	226.44
266.358	214.44
266.591	218.44
266.823	222.44
267.055	222.44
267.287	226.44
267.52	214.44
267.752	225.44
267.984	234.44
268.216	219.44
268.448	230.44
268.681	242.44
268.913	261.44
269.145	281.44
269.377	287.44
269.609	285.44
269.841	273.44
270.073	290.44
270.306	300.44
270.538	306.44
270.77	324.44
271.002	310.44
271.234	322.44
271.466	286.44
271.698	316.44
271.93	318.44
272.162	329.44
272.394	344.44
272.626	312.44
272.858	318.44
273.09	281.44
273.322	279.44
273.553	258.44
273.785	270.44
274.017	282.44
274.249	246.44
274.481	267.44
274.713	261.44
274.945	269.44
275.176	284.44
275.408	269.44
275.64	277.44
275.872	263.44
276.104	252.44
276.335	277.44
276.567	293.44
276.799	287.44
277.031	291.44
277.262	335.44
277.494	327.44
277.726	311.44
277.957	299.44
278.189	277.44
278.421	248.44
278.652	277.44
278.884	271.44
279.115	269.44
279.347	260.44
279.579	268.44
279.81	269.44
280.042	259.44
280.273	262.44
280.505	275.44
280.736	242.44
280.968	265.44
281.199	271.44
281.431	256.44
281.662	254.44
281.894	263.44
282.125	277.44
282.356	314.44
282.588	317.44
282.819	321.44
283.051	274.44
283.282	259.44
283.513	254.44
283.745	263.44
283.976	265.44
284.207	269.44
284.439	270.44
284.67	269.44
284.901	285.44
285.132	270.44
285.364	252.44
285.595	262.44
285.826	262.44
286.057	280.44
286.288	262.44
286.52	261.44
286.751	287.44
286.982	263.44
287.213	275.44
287.444	275.44
287.675	276.44
287.906	295.44
288.138	294.44
288.369	307.44
288.6	301.44
288.831	281.44
289.062	275.44
289.293	294.44
289.524	290.44
289.755	257.44
289.986	265.44
290.217	264.44
290.448	268.44
290.679	284.44
290.91	283.44
291.141	269.44
291.371	275.44
291.602	275.44
291.833	295.44
292.064	280.44
292.295	271.44
292.526	290.44
292.757	277.44
292.987	254.44
293.218	263.44
293.449	269.44
293.68	296.44
293.91	281.44
294.141	269.44
294.372	269.44
294.603	290.44
294.833	286.44
295.064	277.44
295.295	278.44
295.525	276.44
295.756	281.44
295.987	300.44
296.217	326.44
296.448	325.44
296.679	299.44
296.909	276.44
297.14	285.44
297.37	280.44
297.601	257.44
297.831	289.44
298.062	298.44
298.292	300.44
298.523	298.44
298.753	298.44
298.984	291.44
299.214	290.44
299.445	284.44
299.675	299.44
299.905	305.44
300.136	273.44
300.366	294.44
300.597	310.44
300.827	310.44
301.057	307.44
301.288	306.44
301.518	302.44
301.748	303.44
301.979	318.44
302.209	302.44
302.439	296.44
302.669	298.44
302.9	297.44
303.13	298.44
303.36	307.44
303.59	307.44
303.82	348.44
304.051	343.44
304.281	299.44
304.511	293.44
304.741	297.44
304.971	319.44
305.201	309.44
305.431	333.44
305.661	305.44
305.891	314.44
306.121	307.44
306.352	313.44
306.582	323.44
306.812	312.44
307.042	322.44
307.272	321.44
307.502	325.44
307.731	318.44
307.961	309.44
308.191	309.44
308.421	308.44
308.651	321.44
308.881	324.44
309.111	340.44
309.341	349.44
309.571	319.44
309.8	350.44
310.03	373.44
310.26	361.44
310.49	373.44
310.72	400.44
310.949	399.44
311.179	406.44
311.409	376.44
311.639	381.44
311.868	371.44
312.098	410.44
312.328	389.44
312.557	387.44
312.787	416.44
313.017	415.44
313.246	378.44
313.476	359.44
313.706	377.44
313.935	379.44
314.165	388.44
314.394	407.44
314.624	403.44
314.853	394.44
315.083	373.44
315.312	381.44
315.542	366.44
315.771	359.44
316.001	343.44
316.23	362.44
316.46	346.44
316.689	354.44
316.919	365.44
317.148	370.44
317.377	381.44
317.607	381.44
317.836	367.44
318.065	373.44
318.295	371.44
318.524	357.44
318.753	357.44
318.983	375.44
319.212	379.44
319.441	369.44
319.67	395.44
319.9	356.44
320.129	385.44
320.358	369.44
320.587	376.44
320.816	399.44
321.046	397.44
321.275	394.44
321.504	394.44
321.733	408.44
321.962	414.44
322.191	442.44
322.42	441.44
322.649	465.44
322.878	481.44
323.108	473.44
323.337	538.44
323.566	539.44
323.795	566.44
324.024	648.44
324.253	803.44
324.482	1191.44
324.71	1825.44
324.939	2682.44
325.168	2395.44
325.397	1199.44
325.626	794.44
325.855	618.44
326.084	555.44
326.313	556.44
326.542	551.44
326.77	605.44
326.999	740.44
327.228	1030.44
327.457	1610.44
327.686	2037.44
327.914	1368.44
328.143	875.44
328.372	717.44
328.6	669.44
328.829	625.44
329.058	649.44
329.287	637.44
329.515	619.44
329.744	550.44
329.972	530.44
330.201	570.44
330.43	621.44
330.658	658.44
330.887	671.44
331.115	661.44
331.344	572.44
331.572	526.44
331.801	509.44
332.03	497.44
332.258	491.44
332.486	449.44
332.715	444.44
332.943	438.44
333.172	435.44
333.4	446.44
333.629	441.44
333.857	452.44
334.085	477.44
334.314	506.44
334.542	554.44
334.771	584.44
334.999	525.44
335.227	482.44
335.455	449.44
335.684	448.44
335.912	411.44
336.14	424.44
336.369	430.44
336.597	414.44
336.825	419.44
337.053	409.44
337.281	420.44
337.51	429.44
337.738	427.44
337.966	408.44
338.194	418.44
338.422	435.44
338.65	422.44
338.878	399.44
339.106	405.44
339.334	393.44
339.562	373.44
339.79	400.44
340.018	397.44
340.246	419.44
340.474	406.44
340.702	411.44
340.93	411.44
341.158	414.44
341.386	401.44
341.614	419.44
341.842	402.44
342.07	397.44
342.298	386.44
342.526	371.44
342.754	392.44
342.981	382.44
343.209	381.44
343.437	395.44
343.665	394.44
343.893	414.44
344.12	412.44
344.348	411.44
344.576	397.44
344.804	416.44
345.031	425.44
345.259	443.44
345.487	426.44
345.714	419.44
345.942	397.44
346.17	386.44
346.397	418.44
346.625	403.44
346.853	400.44
347.08	397.44
347.308	399.44
347.535	414.44
347.763	404.44
347.99	413.44
348.218	413.44
348.445	437.44
348.673	447.44
348.9	399.44
349.128	403.44
349.355	373.44
349.583	376.44
349.81	378.44
350.037	375.44
350.265	392.44
350.492	367.44
350.72	387.44
350.947	396.44
351.174	390.44
351.402	408.44
351.629	405.44
351.856	407.44
352.083	417.44
352.311	400.44
352.538	429.44
352.765	437.44
352.992	417.44
353.22	415.44
353.447	408.44
353.674	393.44
353.901	373.44
354.128	360.44
354.355	359.44
354.583	358.44
354.81	366.44
355.037	365.44
355.264	351.44
355.491	356.44
355.718	349.44
355.945	362.44
356.172	362.44
356.399	375.44
356.626	345.44
356.853	355.44
357.08	359.44
357.307	343.44
357.534	329.44
357.761	358.44
357.988	376.44
358.215	379.44
358.441	351.44
358.668	349.44
358.895	374.44
359.122	379.44
359.349	376.44
359.576	394.44
359.802	437.44
360.029	462.44
360.256	465.44
360.483	437.44
360.709	413.44
360.936	391.44
361.163	383.44
361.39	402.44
361.616	404.44
361.843	408.44
362.07	387.44
362.296	394.44
362.523	386.44
362.749	389.44
362.976	390.44
363.203	381.44
363.429	364.44
363.656	371.44
363.882	369.44
364.109	361.44
364.335	384.44
364.562	378.44
364.788	381.44
365.015	365.44
365.241	366.44
365.468	374.44
365.694	373.44
365.92	372.44
366.147	366.44
366.373	375.44
366.599	369.44
366.826	363.44
367.052	360.44
367.278	357.44
367.505	359.44
367.731	359.44
367.957	356.44
368.184	390.44
368.41	385.44
368.636	369.44
368.862	387.44
369.089	370.44
369.315	364.44
369.541	366.44
369.767	362.44
369.993	377.44
370.219	347.44
370.445	349.44
370.672	361.44
370.898	354.44
371.124	362.44
371.35	353.44
371.576	342.44
371.802	345.44
372.028	354.44
372.254	374.44
372.48	356.44
372.706	335.44
372.932	354.44
373.158	356.44
373.384	352.44
373.61	364.44
373.835	371.44
374.061	357.44
374.287	359.44
374.513	364.44
374.739	342.44
374.965	357.44
375.191	356.44
375.416	351.44
375.642	353.44
375.868	349.44
376.094	363.44
376.319	339.44
376.545	342.44
376.771	333.44
376.997	370.44
377.222	350.44
377.448	347.44
377.674	347.44
377.899	341.44
378.125	339.44
378.35	352.44
378.576	358.44
378.802	335.44
379.027	358.44
379.253	353.44
379.478	333.44
379.704	363.44
379.929	351.44
380.155	349.44
380.38	359.44
380.606	350.44
380.831	343.44
381.057	355.44
381.282	362.44
381.507	362.44
381.733	331.44
381.958	364.44
382.184	358.44
382.409	349.44
382.634	377.44
382.86	349.44
383.085	345.44
383.31	350.44
383.535	349.44
383.761	338.44
383.986	364.44
384.211	358.44
384.436	359.44
384.662	343.44
384.887	345.44
385.112	375.44
385.337	379.44
385.562	359.44
385.787	357.44
386.013	385.44
386.238	378.44
386.463	385.44
386.688	392.44
386.913	373.44
387.138	357.44
387.363	369.44
387.588	356.44
387.813	365.44
388.038	384.44
388.263	376.44
388.488	381.44
388.713	365.44
388.938	355.44
389.163	355.44
389.387	355.44
389.612	353.44
389.837	348.44
390.062	375.44
390.287	379.44
390.512	374.44
390.736	373.44
390.961	365.44
391.186	366.44
391.411	354.44
391.636	380.44
391.86	373.44
392.085	381.44
392.31	364.44
392.534	390.44
392.759	370.44
392.984	374.44
393.208	396.44
393.433	394.44
393.658	383.44
393.882	382.44
394.107	381.44
394.331	369.44
394.556	369.44
394.78	379.44
395.005	367.44
395.229	359.44
395.454	373.44
395.678	368.44
395.903	373.44
396.127	415.44
396.352	417.44
396.576	386.44
396.801	387.44
397.025	385.44
397.249	405.44
397.474	391.44
397.698	409.44
397.922	395.44
398.147	426.44
398.371	423.44
398.595	414.44
398.82	392.44
399.044	408.44
399.268	426.44
399.492	447.44
399.717	460.44
399.941	472.44
400.165	516.44
400.389	519.44
400.613	463.44
400.837	463.44
401.062	452.44
401.286	411.44
401.51	399.44
401.734	411.44
401.958	439.44
402.182	419.44
402.406	423.44
402.63	433.44
402.854	454.44
403.078	415.44
403.302	437.44
403.526	422.44
403.75	424.44
403.974	437.44
404.198	427.44
404.422	433.44
404.645	443.44
404.869	467.44
405.093	505.44
405.317	531.44
405.541	571.44
405.765	531.44
405.988	472.44
406.212	490.44
406.436	521.44
406.66	525.44
406.883	487.44
407.107	519.44
407.331	532.44
407.555	609.44
407.778	616.44
408.002	563.44
408.226	495.44
408.449	500.44
408.673	476.44
408.896	523.44
409.12	573.44
409.344	535.44
409.567	475.44
409.791	454.44
410.014	445.44
410.238	429.44
410.461	450.44
410.685	459.44
410.908	476.44
411.132	500.44
411.355	526.44
411.578	523.44
411.802	489.44
412.025	453.44
412.249	443.44
412.472	470.44
412.695	517.44
412.919	493.44
413.142	458.44
413.365	442.44
413.589	430.44
413.812	436.44
414.035	407.44
414.258	411.44
414.482	422.44
414.705	405.44
414.928	398.44
415.151	404.44
415.374	398.44
415.597	408.44
415.821	414.44
416.044	418.44
416.267	413.44
416.49	419.44
416.713	403.44
416.936	409.44
417.159	418.44
417.382	433.44
417.605	416.44
417.828	427.44
418.051	451.44
418.274	454.44
418.497	428.44
418.72	406.44
418.943	419.44
419.166	418.44
419.389	449.44
419.611	434.44
419.834	430.44
420.057	445.44
420.28	453.44
420.503	455.44
420.726	446.44
420.948	461.44
421.171	492.44
421.394	548.44
421.617	473.44
421.839	445.44
422.062	440.44
422.285	457.44
422.507	526.44
422.73	614.44
422.953	607.44
423.175	499.44
423.398	478.44
423.621	489.44
423.843	487.44
424.066	485.44
424.288	473.44
424.511	519.44
424.733	565.44
424.956	667.44
425.178	619.44
425.401	613.44
425.623	659.44
425.846	548.44
426.068	505.44
426.291	500.44
426.513	514.44
426.735	527.44
426.958	548.44
427.18	638.44
427.402	770.44
427.625	874.44
427.847	784.44
428.069	662.44
428.292	575.44
428.514	519.44
428.736	513.44
428.958	481.44
429.181	462.44
429.403	453.44
429.625	481.44
429.847	503.44
430.069	575.44
430.292	579.44
430.514	484.44
430.736	472.44
430.958	453.44
431.18	453.44
431.402	425.44
431.624	414.44
431.846	397.44
432.068	403.44
432.29	425.44
432.512	428.44
432.734	442.44
432.956	428.44
433.178	438.44
433.4	453.44
433.622	433.44
433.844	403.44
434.066	412.44
434.287	411.44
434.509	418.44
434.731	426.44
434.953	462.44
435.175	473.44
435.397	481.44
435.618	510.44
435.84	545.44
436.062	634.44
436.284	718.44
436.505	594.44
436.727	534.44
436.949	489.44
437.17	489.44
437.392	463.44
437.614	468.44
437.835	529.44
438.057	614.44
438.278	733.44
438.5	736.44
438.721	798.44
438.943	724.44
439.165	596.44
439.386	545.44
439.608	538.44
439.829	535.44
440.05	555.44
440.272	630.44
440.493	551.44
440.715	525.44
440.936	494.44
441.158	484.44
441.379	459.44
441.6	465.44
441.822	490.44
442.043	522.44
442.264	618.44
442.486	694.44
442.707	572.44
442.928	527.44
443.149	517.44
443.371	568.44
443.592	605.44
443.813	683.44
444.034	735.44
444.255	589.44
444.476	521.44
444.698	508.44
444.919	479.44
445.14	549.44
445.361	521.44
445.582	572.44
445.803	643.44
446.024	751.44
446.245	765.44
446.466	694.44
446.687	571.44
446.908	529.44
447.129	468.44
447.35	471.44
447.571	469.44
447.792	446.44
448.013	479.44
448.234	527.44
448.455	545.44
448.675	663.44
448.896	794.44
449.117	656.44
449.338	621.44
449.559	725.44
449.779	795.44
450	664.44
450.221	559.44
450.442	467.44
450.662	473.44
450.883	473.44
451.104	517.44
451.324	491.44
451.545	453.44
451.766	448.44
451.986	416.44
452.207	414.44
452.428	423.44
452.648	424.44
452.869	404.44
453.089	431.44
453.31	445.44
453.53	435.44
453.751	412.44
453.971	425.44
454.192	437.44
454.412	455.44
454.633	438.44
454.853	422.44
455.073	423.44
455.294	450.44
455.514	543.44
455.734	501.44
455.955	437.44
456.175	418.44
456.395	398.44
456.616	387.44
456.836	380.44
457.056	389.44
457.276	361.44
457.497	393.44
457.717	400.44
457.937	385.44
458.157	396.44
458.377	392.44
458.598	407.44
458.818	487.44
459.038	582.44
459.258	602.44
459.478	499.44
459.698	436.44
459.918	420.44
460.138	418.44
460.358	429.44
460.578	426.44
460.798	440.44
461.018	420.44
461.238	403.44
461.458	409.44
461.678	409.44
461.898	417.44
462.118	403.44
462.338	422.44
462.558	433.44
462.777	439.44
462.997	444.44
463.217	442.44
463.437	441.44
463.657	435.44
463.876	441.44
464.096	447.44
464.316	431.44
464.536	458.44
464.755	451.44
464.975	475.44
465.195	541.44
465.414	604.44
465.634	524.44
465.854	471.44
466.073	477.44
466.293	430.44
466.512	409.44
466.732	425.44
466.951	414.44
467.171	419.44
467.391	406.44
467.61	431.44
467.829	440.44
468.049	437.44
468.268	437.44
468.488	433.44
468.707	409.44
468.927	418.44
469.146	404.44
469.365	419.44
469.585	419.44
469.804	439.44
470.023	417.44
470.243	415.44
470.462	438.44
470.681	472.44
470.901	447.44
471.12	424.44
471.339	410.44
471.558	421.44
471.777	418.44
471.997	424.44
472.216	442.44
472.435	484.44
472.654	469.44
472.873	439.44
473.092	430.44
473.311	413.44
473.53	442.44
473.749	431.44
473.968	469.44
474.187	589.44
474.406	636.44
474.625	501.44
474.844	458.44
475.063	429.44
475.282	413.44
475.501	447.44
475.72	442.44
475.939	427.44
476.158	435.44
476.377	444.44
476.596	434.44
476.814	423.44
477.033	462.44
477.252	463.44
477.471	462.44
477.69	461.44
477.908	457.44
478.127	445.44
478.346	437.44
478.564	464.44
478.783	468.44
479.002	462.44
479.22	472.44
479.439	489.44
479.658	511.44
479.876	517.44
480.095	521.44
480.313	538.44
480.532	521.44
480.751	510.44
480.969	536.44
481.188	632.44
481.406	684.44
481.624	571.44
481.843	544.44
482.061	519.44
482.28	553.44
482.498	499.44
482.717	482.44
482.935	498.44
483.153	504.44
483.372	498.44
483.59	523.44
483.808	479.44
484.027	514.44
484.245	521.44
484.463	516.44
484.681	525.44
484.9	502.44
485.118	515.44
485.336	504.44
485.554	531.44
485.772	520.44
485.99	520.44
486.209	520.44
486.427	522.44
486.645	508.44
486.863	566.44
487.081	553.44
487.299	551.44
487.517	556.44
487.735	552.44
487.953	548.44
488.171	542.44
488.389	538.44
488.607	550.44
488.825	557.44
489.043	515.44
489.261	547.44
489.479	553.44
489.696	547.44
489.914	553.44
490.132	540.44
490.35	570.44
490.568	573.44
490.786	567.44
491.003	590.44
491.221	599.44
491.439	615.44
491.657	613.44
491.874	624.44
492.092	619.44
492.31	617.44
492.527	599.44
492.745	634.44
492.963	618.44
493.18	651.44
493.398	647.44
493.615	641.44
493.833	646.44
494.05	648.44
494.268	636.44
494.485	643.44
494.703	611.44
494.92	652.44
495.138	637.44
495.355	663.44
495.573	645.44
495.79	647.44
496.008	650.44
496.225	637.44
496.442	629.44
496.66	646.44
496.877	633.44
497.094	651.44
497.312	669.44
497.529	654.44
497.746	655.44
497.963	653.44
498.181	680.44
498.398	695.44
498.615	691.44
498.832	679.44
499.049	697.44
499.267	705.44
499.484	738.44
499.701	745.44
499.918	755.44
500.135	742.44
500.352	777.44
500.569	791.44
500.786	799.44
501.003	768.44
501.22	769.44
501.437	741.44
501.654	757.44
501.871	789.44
