Data from 1972.PennyLincolnUp.Lamp.En5.5.200Scan.071719.P1._HRD10591_15-26-50-844.txt Node
Date: Thu Jul 18 15:26:50 EDT 2019
User: cochatt
Spectrometer: HR+D1059
Trigger mode: 1
Integration Time (sec): 1.000000E-1
Scans to average: 1
Electric dark correction enabled: true
Nonlinearity correction enabled: false
Boxcar width: 0
XAxis mode: Wavelengths
Number of Pixels in Spectrum: 2048
>>>>>Begin Spectral Data<<<<<
223.165	-17.31
223.4	-17.31
223.635	-17.31
223.869	3.69
224.104	-21.31
224.338	-26.31
224.573	-8.31
224.808	-14.31
225.042	-7.31
225.277	4.69
225.511	-7.31
225.746	10.69
225.98	5.69
226.215	9.69
226.449	9.69
226.683	10.69
226.918	30.69
227.152	16.69
227.387	38.69
227.621	45.69
227.856	60.69
228.09	43.69
228.324	37.69
228.559	58.69
228.793	55.69
229.027	93.69
229.262	101.69
229.496	108.69
229.73	113.69
229.964	124.69
230.199	108.69
230.433	107.69
230.667	126.69
230.901	108.69
231.136	106.69
231.37	109.69
231.604	100.69
231.838	104.69
232.072	110.69
232.306	106.69
232.541	108.69
232.775	112.69
233.009	111.69
233.243	109.69
233.477	107.69
233.711	108.69
233.945	112.69
234.179	97.69
234.413	100.69
234.647	107.69
234.881	118.69
235.115	98.69
235.349	112.69
235.583	121.69
235.817	120.69
236.051	113.69
236.285	127.69
236.519	103.69
236.753	126.69
236.987	142.69
237.221	141.69
237.455	197.69
237.689	154.69
237.922	138.69
238.156	104.69
238.39	106.69
238.624	112.69
238.858	115.69
239.091	122.69
239.325	123.69
239.559	107.69
239.793	108.69
240.027	109.69
240.26	131.69
240.494	126.69
240.728	135.69
240.961	116.69
241.195	130.69
241.429	124.69
241.662	122.69
241.896	124.69
242.13	107.69
242.363	109.69
242.597	111.69
242.83	108.69
243.064	127.69
243.298	114.69
243.531	132.69
243.765	113.69
243.998	112.69
244.232	133.69
244.465	132.69
244.699	137.69
244.932	118.69
245.166	135.69
245.399	130.69
245.633	131.69
245.866	122.69
246.099	142.69
246.333	125.69
246.566	118.69
246.8	129.69
247.033	139.69
247.266	143.69
247.5	140.69
247.733	140.69
247.966	152.69
248.2	147.69
248.433	146.69
248.666	156.69
248.899	152.69
249.133	170.69
249.366	167.69
249.599	152.69
249.832	152.69
250.066	164.69
250.299	160.69
250.532	166.69
250.765	161.69
250.998	180.69
251.231	182.69
251.465	172.69
251.698	182.69
251.931	177.69
252.164	168.69
252.397	150.69
252.63	159.69
252.863	184.69
253.096	184.69
253.329	197.69
253.562	187.69
253.795	182.69
254.028	178.69
254.261	191.69
254.494	182.69
254.727	207.69
254.96	213.69
255.193	240.69
255.426	189.69
255.659	184.69
255.892	184.69
256.124	198.69
256.357	208.69
256.59	189.69
256.823	196.69
257.056	189.69
257.289	181.69
257.521	165.69
257.754	184.69
257.987	196.69
258.22	178.69
258.452	159.69
258.685	165.69
258.918	172.69
259.151	176.69
259.383	180.69
259.616	193.69
259.849	182.69
260.081	193.69
260.314	208.69
260.547	198.69
260.779	209.69
261.012	200.69
261.244	185.69
261.477	181.69
261.71	187.69
261.942	188.69
262.175	172.69
262.407	182.69
262.64	185.69
262.872	177.69
263.105	172.69
263.337	184.69
263.57	178.69
263.802	176.69
264.035	171.69
264.267	178.69
264.499	171.69
264.732	188.69
264.964	184.69
265.197	180.69
265.429	176.69
265.661	160.69
265.894	178.69
266.126	190.69
266.358	168.69
266.591	192.69
266.823	173.69
267.055	173.69
267.287	174.69
267.52	186.69
267.752	194.69
267.984	193.69
268.216	197.69
268.448	174.69
268.681	183.69
268.913	180.69
269.145	205.69
269.377	217.69
269.609	207.69
269.841	209.69
270.073	192.69
270.306	229.69
270.538	242.69
270.77	242.69
271.002	241.69
271.234	229.69
271.466	235.69
271.698	220.69
271.93	230.69
272.162	231.69
272.394	237.69
272.626	250.69
272.858	219.69
273.09	198.69
273.322	207.69
273.553	205.69
273.785	218.69
274.017	216.69
274.249	214.69
274.481	201.69
274.713	220.69
274.945	212.69
275.176	216.69
275.408	213.69
275.64	203.69
275.872	207.69
276.104	209.69
276.335	215.69
276.567	226.69
276.799	228.69
277.031	240.69
277.262	245.69
277.494	232.69
277.726	224.69
277.957	237.69
278.189	226.69
278.421	209.69
278.652	209.69
278.884	222.69
279.115	222.69
279.347	217.69
279.579	204.69
279.81	216.69
280.042	208.69
280.273	208.69
280.505	211.69
280.736	204.69
280.968	210.69
281.199	207.69
281.431	203.69
281.662	204.69
281.894	222.69
282.125	226.69
282.356	224.69
282.588	227.69
282.819	237.69
283.051	220.69
283.282	220.69
283.513	214.69
283.745	231.69
283.976	224.69
284.207	210.69
284.439	225.69
284.67	230.69
284.901	216.69
285.132	225.69
285.364	215.69
285.595	211.69
285.826	222.69
286.057	216.69
286.288	218.69
286.52	229.69
286.751	210.69
286.982	218.69
287.213	218.69
287.444	225.69
287.675	245.69
287.906	233.69
288.138	228.69
288.369	232.69
288.6	230.69
288.831	232.69
289.062	234.69
289.293	220.69
289.524	226.69
289.755	241.69
289.986	223.69
290.217	232.69
290.448	238.69
290.679	224.69
290.91	234.69
291.141	220.69
291.371	233.69
291.602	198.69
291.833	220.69
292.064	241.69
292.295	232.69
292.526	239.69
292.757	233.69
292.987	229.69
293.218	213.69
293.449	227.69
293.68	216.69
293.91	214.69
294.141	207.69
294.372	214.69
294.603	224.69
294.833	237.69
295.064	233.69
295.295	237.69
295.525	246.69
295.756	232.69
295.987	241.69
296.217	249.69
296.448	243.69
296.679	219.69
296.909	224.69
297.14	224.69
297.37	220.69
297.601	231.69
297.831	227.69
298.062	221.69
298.292	231.69
298.523	219.69
298.753	224.69
298.984	237.69
299.214	247.69
299.445	245.69
299.675	226.69
299.905	231.69
300.136	217.69
300.366	240.69
300.597	223.69
300.827	237.69
301.057	236.69
301.288	241.69
301.518	259.69
301.748	252.69
301.979	253.69
302.209	247.69
302.439	258.69
302.669	253.69
302.9	248.69
303.13	232.69
303.36	240.69
303.59	254.69
303.82	250.69
304.051	267.69
304.281	261.69
304.511	251.69
304.741	234.69
304.971	231.69
305.201	249.69
305.431	261.69
305.661	255.69
305.891	247.69
306.121	257.69
306.352	258.69
306.582	264.69
306.812	244.69
307.042	265.69
307.272	246.69
307.502	260.69
307.731	256.69
307.961	255.69
308.191	246.69
308.421	263.69
308.651	241.69
308.881	265.69
309.111	261.69
309.341	260.69
309.571	275.69
309.8	263.69
310.03	263.69
310.26	271.69
310.49	264.69
310.72	294.69
310.949	297.69
311.179	290.69
311.409	298.69
311.639	295.69
311.868	294.69
312.098	286.69
312.328	285.69
312.557	290.69
312.787	289.69
313.017	325.69
313.246	280.69
313.476	287.69
313.706	283.69
313.935	266.69
314.165	268.69
314.394	299.69
314.624	299.69
314.853	300.69
315.083	286.69
315.312	285.69
315.542	276.69
315.771	287.69
316.001	287.69
316.23	278.69
316.46	286.69
316.689	281.69
316.919	289.69
317.148	304.69
317.377	282.69
317.607	296.69
317.836	283.69
318.065	285.69
318.295	284.69
318.524	285.69
318.753	290.69
318.983	296.69
319.212	288.69
319.441	286.69
319.67	301.69
319.9	286.69
320.129	304.69
320.358	286.69
320.587	288.69
320.816	296.69
321.046	299.69
321.275	292.69
321.504	294.69
321.733	301.69
321.962	318.69
322.191	335.69
322.42	325.69
322.649	335.69
322.878	356.69
323.108	335.69
323.337	337.69
323.566	369.69
323.795	380.69
324.024	397.69
324.253	472.69
324.482	665.69
324.71	1005.69
324.939	1509.69
325.168	1370.69
325.397	659.69
325.626	461.69
325.855	374.69
326.084	365.69
326.313	358.69
326.542	375.69
326.77	408.69
326.999	470.69
327.228	604.69
327.457	926.69
327.686	1170.69
327.914	792.69
328.143	512.69
328.372	449.69
328.6	417.69
328.829	395.69
329.058	412.69
329.287	402.69
329.515	390.69
329.744	361.69
329.972	380.69
330.201	390.69
330.43	383.69
330.658	430.69
330.887	437.69
331.115	439.69
331.344	372.69
331.572	354.69
331.801	368.69
332.03	375.69
332.258	348.69
332.486	326.69
332.715	320.69
332.943	334.69
333.172	334.69
333.4	334.69
333.629	329.69
333.857	335.69
334.085	324.69
334.314	365.69
334.542	379.69
334.771	389.69
334.999	340.69
335.227	350.69
335.455	336.69
335.684	325.69
335.912	347.69
336.14	331.69
336.369	336.69
336.597	339.69
336.825	343.69
337.053	323.69
337.281	341.69
337.51	320.69
337.738	326.69
337.966	310.69
338.194	330.69
338.422	327.69
338.65	318.69
338.878	330.69
339.106	324.69
339.334	314.69
339.562	331.69
339.79	320.69
340.018	335.69
340.246	326.69
340.474	329.69
340.702	319.69
340.93	320.69
341.158	332.69
341.386	323.69
341.614	330.69
341.842	320.69
342.07	315.69
342.298	317.69
342.526	324.69
342.754	315.69
342.981	308.69
343.209	311.69
343.437	317.69
343.665	312.69
343.893	324.69
344.12	316.69
344.348	325.69
344.576	320.69
344.804	337.69
345.031	329.69
345.259	329.69
345.487	348.69
345.714	326.69
345.942	325.69
346.17	312.69
346.397	326.69
346.625	306.69
346.853	311.69
347.08	310.69
347.308	310.69
347.535	315.69
347.763	312.69
347.99	314.69
348.218	337.69
348.445	322.69
348.673	334.69
348.9	312.69
349.128	312.69
349.355	296.69
349.583	306.69
349.81	309.69
350.037	305.69
350.265	305.69
350.492	293.69
350.72	290.69
350.947	295.69
351.174	329.69
351.402	320.69
351.629	309.69
351.856	316.69
352.083	314.69
352.311	331.69
352.538	316.69
352.765	329.69
352.992	306.69
353.22	301.69
353.447	308.69
353.674	312.69
353.901	294.69
354.128	304.69
354.355	300.69
354.583	283.69
354.81	299.69
355.037	296.69
355.264	302.69
355.491	284.69
355.718	284.69
355.945	293.69
356.172	280.69
356.399	288.69
356.626	285.69
356.853	296.69
357.08	294.69
357.307	282.69
357.534	299.69
357.761	281.69
357.988	293.69
358.215	295.69
358.441	282.69
358.668	286.69
358.895	294.69
359.122	278.69
359.349	306.69
359.576	312.69
359.802	320.69
360.029	332.69
360.256	346.69
360.483	324.69
360.709	327.69
360.936	309.69
361.163	315.69
361.39	301.69
361.616	308.69
361.843	309.69
362.07	310.69
362.296	299.69
362.523	306.69
362.749	308.69
362.976	298.69
363.203	310.69
363.429	300.69
363.656	305.69
363.882	296.69
364.109	286.69
364.335	295.69
364.562	303.69
364.788	287.69
365.015	301.69
365.241	284.69
365.468	315.69
365.694	295.69
365.92	320.69
366.147	298.69
366.373	291.69
366.599	295.69
366.826	300.69
367.052	285.69
367.278	282.69
367.505	315.69
367.731	290.69
367.957	304.69
368.184	290.69
368.41	292.69
368.636	324.69
368.862	305.69
369.089	302.69
369.315	292.69
369.541	305.69
369.767	305.69
369.993	300.69
370.219	326.69
370.445	300.69
370.672	320.69
370.898	304.69
371.124	319.69
371.35	303.69
371.576	287.69
371.802	296.69
372.028	317.69
372.254	294.69
372.48	296.69
372.706	295.69
372.932	301.69
373.158	298.69
373.384	283.69
373.61	304.69
373.835	295.69
374.061	298.69
374.287	298.69
374.513	306.69
374.739	305.69
374.965	302.69
375.191	288.69
375.416	278.69
375.642	308.69
375.868	325.69
376.094	319.69
376.319	305.69
376.545	314.69
376.771	290.69
376.997	303.69
377.222	308.69
377.448	289.69
377.674	314.69
377.899	298.69
378.125	314.69
378.35	291.69
378.576	285.69
378.802	306.69
379.027	315.69
379.253	300.69
379.478	290.69
379.704	291.69
379.929	304.69
380.155	306.69
380.38	305.69
380.606	310.69
380.831	323.69
381.057	297.69
381.282	300.69
381.507	308.69
381.733	320.69
381.958	307.69
382.184	313.69
382.409	281.69
382.634	305.69
382.86	312.69
383.085	305.69
383.31	314.69
383.535	319.69
383.761	306.69
383.986	306.69
384.211	316.69
384.436	297.69
384.662	320.69
384.887	312.69
385.112	312.69
385.337	313.69
385.562	322.69
385.787	311.69
386.013	332.69
386.238	333.69
386.463	332.69
386.688	331.69
386.913	332.69
387.138	328.69
387.363	336.69
387.588	346.69
387.813	328.69
388.038	327.69
388.263	336.69
388.488	325.69
388.713	308.69
388.938	330.69
389.163	326.69
389.387	343.69
389.612	321.69
389.837	314.69
390.062	341.69
390.287	335.69
390.512	324.69
390.736	324.69
390.961	326.69
391.186	326.69
391.411	326.69
391.636	324.69
391.86	327.69
392.085	320.69
392.31	340.69
392.534	337.69
392.759	332.69
392.984	332.69
393.208	337.69
393.433	358.69
393.658	372.69
393.882	333.69
394.107	341.69
394.331	333.69
394.556	318.69
394.78	309.69
395.005	330.69
395.229	344.69
395.454	340.69
395.678	332.69
395.903	341.69
396.127	351.69
396.352	363.69
396.576	335.69
396.801	349.69
397.025	365.69
397.249	360.69
397.474	342.69
397.698	342.69
397.922	352.69
398.147	344.69
398.371	360.69
398.595	357.69
398.82	359.69
399.044	362.69
399.268	386.69
399.492	388.69
399.717	392.69
399.941	408.69
400.165	428.69
400.389	445.69
400.613	404.69
400.837	366.69
401.062	379.69
401.286	362.69
401.51	361.69
401.734	372.69
401.958	366.69
402.182	357.69
402.406	375.69
402.63	382.69
402.854	366.69
403.078	357.69
403.302	386.69
403.526	367.69
403.75	365.69
403.974	382.69
404.198	366.69
404.422	369.69
404.645	382.69
404.869	388.69
405.093	406.69
405.317	418.69
405.541	441.69
405.765	415.69
405.988	396.69
406.212	394.69
406.436	399.69
406.66	413.69
406.883	405.69
407.107	412.69
407.331	440.69
407.555	512.69
407.778	497.69
408.002	463.69
408.226	427.69
408.449	417.69
408.673	392.69
408.896	441.69
409.12	448.69
409.344	438.69
409.567	411.69
409.791	393.69
410.014	380.69
410.238	372.69
410.461	369.69
410.685	404.69
410.908	394.69
411.132	428.69
411.355	436.69
411.578	418.69
411.802	397.69
412.025	384.69
412.249	390.69
412.472	390.69
412.695	399.69
412.919	428.69
413.142	373.69
413.365	365.69
413.589	379.69
413.812	359.69
414.035	379.69
414.258	356.69
414.482	372.69
414.705	360.69
414.928	348.69
415.151	355.69
415.374	366.69
415.597	344.69
415.821	336.69
416.044	357.69
416.267	359.69
416.49	349.69
416.713	348.69
416.936	349.69
417.159	348.69
417.382	338.69
417.605	376.69
417.828	367.69
418.051	371.69
418.274	374.69
418.497	363.69
418.72	364.69
418.943	349.69
419.166	369.69
419.389	373.69
419.611	362.69
419.834	373.69
420.057	372.69
420.28	376.69
420.503	369.69
420.726	376.69
420.948	364.69
421.171	412.69
421.394	428.69
421.617	390.69
421.839	387.69
422.062	382.69
422.285	375.69
422.507	421.69
422.73	505.69
422.953	489.69
423.175	430.69
423.398	404.69
423.621	384.69
423.843	401.69
424.066	384.69
424.288	394.69
424.511	422.69
424.733	444.69
424.956	536.69
425.178	496.69
425.401	489.69
425.623	525.69
425.846	432.69
426.068	415.69
426.291	393.69
426.513	387.69
426.735	393.69
426.958	445.69
427.18	505.69
427.402	621.69
427.625	648.69
427.847	583.69
428.069	492.69
428.292	454.69
428.514	388.69
428.736	384.69
428.958	372.69
429.181	380.69
429.403	374.69
429.625	389.69
429.847	403.69
430.069	454.69
430.292	466.69
430.514	377.69
430.736	381.69
430.958	366.69
431.18	366.69
431.402	342.69
431.624	362.69
431.846	352.69
432.068	345.69
432.29	353.69
432.512	358.69
432.734	351.69
432.956	363.69
433.178	331.69
433.4	378.69
433.622	360.69
433.844	381.69
434.066	353.69
434.287	340.69
434.509	347.69
434.731	355.69
434.953	358.69
435.175	378.69
435.397	395.69
435.618	420.69
435.84	453.69
436.062	520.69
436.284	568.69
436.505	469.69
436.727	431.69
436.949	393.69
437.17	382.69
437.392	379.69
437.614	397.69
437.835	402.69
438.057	496.69
438.278	564.69
438.5	575.69
438.721	624.69
438.943	589.69
439.165	476.69
439.386	420.69
439.608	405.69
439.829	422.69
440.05	417.69
440.272	470.69
440.493	434.69
440.715	422.69
440.936	393.69
441.158	358.69
441.379	365.69
441.6	400.69
441.822	405.69
442.043	421.69
442.264	502.69
442.486	530.69
442.707	440.69
442.928	433.69
443.149	424.69
443.371	439.69
443.592	452.69
443.813	532.69
444.034	594.69
444.255	472.69
444.476	401.69
444.698	384.69
444.919	405.69
445.14	498.69
445.361	458.69
445.582	433.69
445.803	490.69
446.024	586.69
446.245	572.69
446.466	530.69
446.687	437.69
446.908	416.69
447.129	387.69
447.35	353.69
447.571	367.69
447.792	372.69
448.013	401.69
448.234	399.69
448.455	422.69
448.675	530.69
448.896	618.69
449.117	520.69
449.338	482.69
449.559	590.69
449.779	663.69
450	503.69
450.221	416.69
450.442	391.69
450.662	383.69
450.883	354.69
451.104	382.69
451.324	380.69
451.545	366.69
451.766	342.69
451.986	344.69
452.207	352.69
452.428	343.69
452.648	346.69
452.869	325.69
453.089	345.69
453.31	345.69
453.53	345.69
453.751	349.69
453.971	343.69
454.192	353.69
454.412	343.69
454.633	336.69
454.853	329.69
455.073	344.69
455.294	348.69
455.514	413.69
455.734	413.69
455.955	332.69
456.175	327.69
456.395	324.69
456.616	320.69
456.836	319.69
457.056	328.69
457.276	318.69
457.497	330.69
457.717	327.69
457.937	316.69
458.157	333.69
458.377	334.69
458.598	351.69
458.818	357.69
459.038	420.69
459.258	456.69
459.478	390.69
459.698	380.69
459.918	354.69
460.138	361.69
460.358	365.69
460.578	372.69
460.798	369.69
461.018	367.69
461.238	369.69
461.458	357.69
461.678	355.69
461.898	346.69
462.118	368.69
462.338	351.69
462.558	345.69
462.777	367.69
462.997	382.69
463.217	384.69
463.437	388.69
463.657	376.69
463.876	374.69
464.096	373.69
464.316	358.69
464.536	377.69
464.755	369.69
464.975	354.69
465.195	399.69
465.414	433.69
465.634	398.69
465.854	403.69
466.073	355.69
466.293	360.69
466.512	348.69
466.732	339.69
466.951	349.69
467.171	347.69
467.391	358.69
467.61	343.69
467.829	360.69
468.049	352.69
468.268	331.69
468.488	340.69
468.707	329.69
468.927	329.69
469.146	325.69
469.365	340.69
469.585	344.69
469.804	332.69
470.023	335.69
470.243	346.69
470.462	328.69
470.681	356.69
470.901	354.69
471.12	338.69
471.339	351.69
471.558	337.69
471.777	359.69
471.997	351.69
472.216	347.69
472.435	371.69
472.654	367.69
472.873	355.69
473.092	332.69
473.311	353.69
473.53	367.69
473.749	374.69
473.968	392.69
474.187	451.69
474.406	480.69
474.625	388.69
474.844	362.69
475.063	368.69
475.282	336.69
475.501	362.69
475.72	369.69
475.939	370.69
476.158	358.69
476.377	351.69
476.596	358.69
476.814	358.69
477.033	369.69
477.252	397.69
477.471	363.69
477.69	370.69
477.908	373.69
478.127	383.69
478.346	382.69
478.564	375.69
478.783	378.69
479.002	399.69
479.22	416.69
479.439	405.69
479.658	423.69
479.876	411.69
480.095	436.69
480.313	453.69
480.532	412.69
480.751	422.69
480.969	423.69
481.188	433.69
481.406	490.69
481.624	422.69
481.843	424.69
482.061	426.69
482.28	424.69
482.498	402.69
482.717	400.69
482.935	418.69
483.153	399.69
483.372	410.69
483.59	428.69
483.808	423.69
484.027	420.69
484.245	392.69
484.463	418.69
484.681	426.69
484.9	424.69
485.118	422.69
485.336	409.69
485.554	429.69
485.772	440.69
485.99	444.69
486.209	430.69
486.427	425.69
486.645	431.69
486.863	450.69
487.081	428.69
487.299	438.69
487.517	416.69
487.735	437.69
487.953	447.69
488.171	428.69
488.389	439.69
488.607	425.69
488.825	447.69
489.043	449.69
489.261	420.69
489.479	424.69
489.696	439.69
489.914	446.69
490.132	437.69
490.35	461.69
490.568	456.69
490.786	470.69
491.003	474.69
491.221	471.69
491.439	473.69
491.657	488.69
491.874	477.69
492.092	498.69
492.31	489.69
492.527	517.69
492.745	507.69
492.963	511.69
493.18	503.69
493.398	487.69
493.615	486.69
493.833	498.69
494.05	518.69
494.268	499.69
494.485	496.69
494.703	514.69
494.92	524.69
495.138	517.69
495.355	517.69
495.573	538.69
495.79	531.69
496.008	512.69
496.225	514.69
496.442	533.69
496.66	528.69
496.877	520.69
497.094	533.69
497.312	540.69
497.529	549.69
497.746	532.69
497.963	545.69
498.181	568.69
498.398	561.69
498.615	566.69
498.832	590.69
499.049	578.69
499.267	605.69
499.484	609.69
499.701	630.69
499.918	652.69
500.135	650.69
500.352	680.69
500.569	691.69
500.786	696.69
501.003	688.69
501.22	666.69
501.437	650.69
501.654	660.69
501.871	632.69
502.088	601.69
