Data from 1972.PennyLincolnUp.Lamp.En5.5.200Scan.071719.P1._HRD10591_15-27-27-843.txt Node
Date: Thu Jul 18 15:27:27 EDT 2019
User: cochatt
Spectrometer: HR+D1059
Trigger mode: 1
Integration Time (sec): 1.000000E-1
Scans to average: 1
Electric dark correction enabled: true
Nonlinearity correction enabled: false
Boxcar width: 0
XAxis mode: Wavelengths
Number of Pixels in Spectrum: 2048
>>>>>Begin Spectral Data<<<<<
223.165	-7.38
223.4	-7.38
223.635	-7.38
223.869	-15.38
224.104	-4.38
224.338	-4.38
224.573	-19.38
224.808	-14.38
225.042	-18.38
225.277	-14.38
225.511	-6.38
225.746	0.62
225.98	8.62
226.215	8.62
226.449	7.62
226.683	21.62
226.918	24.62
227.152	32.62
227.387	22.62
227.621	46.62
227.856	49.62
228.09	48.62
228.324	42.62
228.559	55.62
228.793	60.62
229.027	93.62
229.262	107.62
229.496	110.62
229.73	125.62
229.964	149.62
230.199	122.62
230.433	107.62
230.667	113.62
230.901	116.62
231.136	100.62
231.37	105.62
231.604	108.62
231.838	99.62
232.072	113.62
232.306	107.62
232.541	113.62
232.775	107.62
233.009	104.62
233.243	111.62
233.477	119.62
233.711	112.62
233.945	107.62
234.179	117.62
234.413	129.62
234.647	103.62
234.881	101.62
235.115	104.62
235.349	115.62
235.583	115.62
235.817	109.62
236.051	109.62
236.285	122.62
236.519	104.62
236.753	131.62
236.987	137.62
237.221	187.62
237.455	224.62
237.689	183.62
237.922	130.62
238.156	127.62
238.39	127.62
238.624	112.62
238.858	135.62
239.091	135.62
239.325	123.62
239.559	144.62
239.793	137.62
240.027	127.62
240.26	135.62
240.494	157.62
240.728	150.62
240.961	155.62
241.195	139.62
241.429	125.62
241.662	126.62
241.896	132.62
242.13	134.62
242.363	121.62
242.597	137.62
242.83	139.62
243.064	125.62
243.298	136.62
243.531	130.62
243.765	131.62
243.998	138.62
244.232	151.62
244.465	131.62
244.699	132.62
244.932	135.62
245.166	127.62
245.399	135.62
245.633	130.62
245.866	143.62
246.099	152.62
246.333	150.62
246.566	140.62
246.8	140.62
247.033	156.62
247.266	156.62
247.5	171.62
247.733	184.62
247.966	161.62
248.2	159.62
248.433	175.62
248.666	171.62
248.899	188.62
249.133	193.62
249.366	203.62
249.599	197.62
249.832	167.62
250.066	175.62
250.299	177.62
250.532	188.62
250.765	191.62
250.998	214.62
251.231	232.62
251.465	195.62
251.698	213.62
251.931	196.62
252.164	202.62
252.397	200.62
252.63	199.62
252.863	219.62
253.096	201.62
253.329	222.62
253.562	206.62
253.795	221.62
254.028	220.62
254.261	244.62
254.494	234.62
254.727	267.62
254.96	279.62
255.193	273.62
255.426	251.62
255.659	224.62
255.892	212.62
256.124	232.62
256.357	244.62
256.59	217.62
256.823	218.62
257.056	216.62
257.289	215.62
257.521	199.62
257.754	193.62
257.987	202.62
258.22	209.62
258.452	217.62
258.685	217.62
258.918	213.62
259.151	195.62
259.383	209.62
259.616	202.62
259.849	202.62
260.081	220.62
260.314	249.62
260.547	261.62
260.779	246.62
261.012	216.62
261.244	213.62
261.477	205.62
261.71	213.62
261.942	235.62
262.175	231.62
262.407	238.62
262.64	206.62
262.872	214.62
263.105	196.62
263.337	200.62
263.57	193.62
263.802	204.62
264.035	187.62
264.267	211.62
264.499	193.62
264.732	199.62
264.964	191.62
265.197	210.62
265.429	201.62
265.661	188.62
265.894	210.62
266.126	213.62
266.358	220.62
266.591	218.62
266.823	218.62
267.055	221.62
267.287	197.62
267.52	213.62
267.752	221.62
267.984	229.62
268.216	226.62
268.448	224.62
268.681	217.62
268.913	220.62
269.145	240.62
269.377	276.62
269.609	255.62
269.841	273.62
270.073	271.62
270.306	282.62
270.538	303.62
270.77	292.62
271.002	302.62
271.234	296.62
271.466	272.62
271.698	295.62
271.93	302.62
272.162	302.62
272.394	314.62
272.626	296.62
272.858	300.62
273.09	263.62
273.322	261.62
273.553	264.62
273.785	262.62
274.017	237.62
274.249	243.62
274.481	250.62
274.713	263.62
274.945	257.62
275.176	264.62
275.408	252.62
275.64	252.62
275.872	256.62
276.104	245.62
276.335	263.62
276.567	253.62
276.799	285.62
277.031	280.62
277.262	302.62
277.494	314.62
277.726	283.62
277.957	266.62
278.189	263.62
278.421	257.62
278.652	259.62
278.884	263.62
279.115	252.62
279.347	221.62
279.579	242.62
279.81	248.62
280.042	234.62
280.273	240.62
280.505	253.62
280.736	258.62
280.968	252.62
281.199	267.62
281.431	229.62
281.662	245.62
281.894	245.62
282.125	268.62
282.356	267.62
282.588	283.62
282.819	288.62
283.051	246.62
283.282	249.62
283.513	276.62
283.745	256.62
283.976	236.62
284.207	268.62
284.439	273.62
284.67	264.62
284.901	257.62
285.132	257.62
285.364	231.62
285.595	247.62
285.826	259.62
286.057	252.62
286.288	268.62
286.52	263.62
286.751	258.62
286.982	275.62
287.213	263.62
287.444	263.62
287.675	280.62
287.906	247.62
288.138	278.62
288.369	273.62
288.6	274.62
288.831	271.62
289.062	279.62
289.293	273.62
289.524	268.62
289.755	261.62
289.986	272.62
290.217	263.62
290.448	254.62
290.679	272.62
290.91	271.62
291.141	266.62
291.371	263.62
291.602	263.62
291.833	271.62
292.064	268.62
292.295	271.62
292.526	264.62
292.757	267.62
292.987	273.62
293.218	273.62
293.449	283.62
293.68	260.62
293.91	279.62
294.141	277.62
294.372	250.62
294.603	251.62
294.833	270.62
295.064	269.62
295.295	271.62
295.525	248.62
295.756	278.62
295.987	262.62
296.217	277.62
296.448	310.62
296.679	276.62
296.909	277.62
297.14	257.62
297.37	263.62
297.601	276.62
297.831	283.62
298.062	253.62
298.292	272.62
298.523	269.62
298.753	282.62
298.984	275.62
299.214	267.62
299.445	279.62
299.675	293.62
299.905	298.62
300.136	286.62
300.366	285.62
300.597	293.62
300.827	296.62
301.057	292.62
301.288	285.62
301.518	300.62
301.748	265.62
301.979	291.62
302.209	295.62
302.439	276.62
302.669	293.62
302.9	312.62
303.13	281.62
303.36	274.62
303.59	309.62
303.82	311.62
304.051	316.62
304.281	293.62
304.511	309.62
304.741	296.62
304.971	277.62
305.201	300.62
305.431	304.62
305.661	292.62
305.891	286.62
306.121	311.62
306.352	304.62
306.582	311.62
306.812	304.62
307.042	311.62
307.272	295.62
307.502	288.62
307.731	311.62
307.961	287.62
308.191	303.62
308.421	305.62
308.651	299.62
308.881	329.62
309.111	306.62
309.341	325.62
309.571	328.62
309.8	346.62
310.03	343.62
310.26	331.62
310.49	332.62
310.72	358.62
310.949	397.62
311.179	379.62
311.409	364.62
311.639	341.62
311.868	346.62
312.098	343.62
312.328	343.62
312.557	378.62
312.787	363.62
313.017	375.62
313.246	354.62
313.476	359.62
313.706	351.62
313.935	341.62
314.165	360.62
314.394	376.62
314.624	380.62
314.853	335.62
315.083	355.62
315.312	373.62
315.542	337.62
315.771	326.62
316.001	335.62
316.23	335.62
316.46	351.62
316.689	345.62
316.919	347.62
317.148	372.62
317.377	363.62
317.607	337.62
317.836	375.62
318.065	365.62
318.295	338.62
318.524	355.62
318.753	352.62
318.983	344.62
319.212	325.62
319.441	335.62
319.67	362.62
319.9	356.62
320.129	352.62
320.358	372.62
320.587	351.62
320.816	359.62
321.046	351.62
321.275	372.62
321.504	367.62
321.733	397.62
321.962	391.62
322.191	380.62
322.42	399.62
322.649	413.62
322.878	433.62
323.108	439.62
323.337	447.62
323.566	490.62
323.795	515.62
324.024	584.62
324.253	693.62
324.482	1002.62
324.71	1524.62
324.939	2230.62
325.168	2028.62
325.397	1030.62
325.626	679.62
325.855	563.62
326.084	497.62
326.313	503.62
326.542	495.62
326.77	549.62
326.999	643.62
327.228	872.62
327.457	1381.62
327.686	1707.62
327.914	1145.62
328.143	759.62
328.372	622.62
328.6	612.62
328.829	567.62
329.058	573.62
329.287	576.62
329.515	535.62
329.744	513.62
329.972	480.62
330.201	512.62
330.43	550.62
330.658	592.62
330.887	613.62
331.115	585.62
331.344	493.62
331.572	473.62
331.801	480.62
332.03	469.62
332.258	448.62
332.486	416.62
332.715	405.62
332.943	413.62
333.172	415.62
333.4	399.62
333.629	416.62
333.857	435.62
334.085	430.62
334.314	463.62
334.542	487.62
334.771	515.62
334.999	466.62
335.227	442.62
335.455	411.62
335.684	418.62
335.912	422.62
336.14	405.62
336.369	387.62
336.597	391.62
336.825	401.62
337.053	400.62
337.281	387.62
337.51	389.62
337.738	409.62
337.966	390.62
338.194	407.62
338.422	423.62
338.65	401.62
338.878	391.62
339.106	371.62
339.334	379.62
339.562	389.62
339.79	376.62
340.018	383.62
340.246	391.62
340.474	407.62
340.702	400.62
340.93	389.62
341.158	378.62
341.386	398.62
341.614	385.62
341.842	400.62
342.07	385.62
342.298	363.62
342.526	358.62
342.754	378.62
342.981	357.62
343.209	361.62
343.437	389.62
343.665	383.62
343.893	385.62
344.12	384.62
344.348	411.62
344.576	366.62
344.804	375.62
345.031	399.62
345.259	423.62
345.487	398.62
345.714	404.62
345.942	391.62
346.17	382.62
346.397	372.62
346.625	360.62
346.853	381.62
347.08	390.62
347.308	368.62
347.535	392.62
347.763	407.62
347.99	391.62
348.218	394.62
348.445	389.62
348.673	398.62
348.9	389.62
349.128	352.62
349.355	357.62
349.583	337.62
349.81	368.62
350.037	355.62
350.265	356.62
350.492	352.62
350.72	366.62
350.947	380.62
351.174	375.62
351.402	392.62
351.629	370.62
351.856	379.62
352.083	381.62
352.311	385.62
352.538	406.62
352.765	397.62
352.992	413.62
353.22	389.62
353.447	377.62
353.674	374.62
353.901	368.62
354.128	364.62
354.355	371.62
354.583	359.62
354.81	344.62
355.037	355.62
355.264	385.62
355.491	355.62
355.718	339.62
355.945	340.62
356.172	354.62
356.399	340.62
356.626	357.62
356.853	333.62
357.08	333.62
357.307	316.62
357.534	336.62
357.761	320.62
357.988	351.62
358.215	340.62
358.441	340.62
358.668	324.62
358.895	350.62
359.122	356.62
359.349	369.62
359.576	384.62
359.802	422.62
360.029	416.62
360.256	430.62
360.483	415.62
360.709	387.62
360.936	380.62
361.163	378.62
361.39	373.62
361.616	375.62
361.843	335.62
362.07	367.62
362.296	388.62
362.523	375.62
362.749	364.62
362.976	377.62
363.203	347.62
363.429	361.62
363.656	376.62
363.882	363.62
364.109	355.62
364.335	363.62
364.562	356.62
364.788	352.62
365.015	348.62
365.241	359.62
365.468	349.62
365.694	381.62
365.92	357.62
366.147	355.62
366.373	338.62
366.599	342.62
366.826	361.62
367.052	361.62
367.278	347.62
367.505	358.62
367.731	344.62
367.957	364.62
368.184	380.62
368.41	369.62
368.636	364.62
368.862	364.62
369.089	365.62
369.315	352.62
369.541	342.62
369.767	351.62
369.993	340.62
370.219	351.62
370.445	337.62
370.672	352.62
370.898	358.62
371.124	347.62
371.35	353.62
371.576	352.62
371.802	356.62
372.028	328.62
372.254	342.62
372.48	346.62
372.706	339.62
372.932	342.62
373.158	340.62
373.384	353.62
373.61	365.62
373.835	355.62
374.061	328.62
374.287	364.62
374.513	341.62
374.739	354.62
374.965	379.62
375.191	348.62
375.416	360.62
375.642	331.62
375.868	349.62
376.094	350.62
376.319	337.62
376.545	348.62
376.771	349.62
376.997	343.62
377.222	345.62
377.448	353.62
377.674	345.62
377.899	351.62
378.125	331.62
378.35	337.62
378.576	343.62
378.802	332.62
379.027	351.62
379.253	326.62
379.478	337.62
379.704	359.62
379.929	335.62
380.155	330.62
380.38	352.62
380.606	339.62
380.831	348.62
381.057	343.62
381.282	330.62
381.507	336.62
381.733	344.62
381.958	373.62
382.184	351.62
382.409	347.62
382.634	334.62
382.86	335.62
383.085	371.62
383.31	355.62
383.535	338.62
383.761	347.62
383.986	359.62
384.211	365.62
384.436	381.62
384.662	361.62
384.887	375.62
385.112	367.62
385.337	376.62
385.562	354.62
385.787	366.62
386.013	382.62
386.238	377.62
386.463	371.62
386.688	375.62
386.913	365.62
387.138	373.62
387.363	369.62
387.588	354.62
387.813	360.62
388.038	367.62
388.263	360.62
388.488	365.62
388.713	367.62
388.938	371.62
389.163	364.62
389.387	393.62
389.612	377.62
389.837	352.62
390.062	371.62
390.287	379.62
390.512	376.62
390.736	358.62
390.961	344.62
391.186	362.62
391.411	376.62
391.636	371.62
391.86	384.62
392.085	384.62
392.31	375.62
392.534	374.62
392.759	363.62
392.984	366.62
393.208	385.62
393.433	396.62
393.658	399.62
393.882	369.62
394.107	372.62
394.331	349.62
394.556	362.62
394.78	348.62
395.005	356.62
395.229	369.62
395.454	384.62
395.678	377.62
395.903	393.62
396.127	414.62
396.352	416.62
396.576	385.62
396.801	391.62
397.025	399.62
397.249	406.62
397.474	389.62
397.698	392.62
397.922	413.62
398.147	407.62
398.371	417.62
398.595	412.62
398.82	413.62
399.044	417.62
399.268	423.62
399.492	440.62
399.717	453.62
399.941	452.62
400.165	483.62
400.389	518.62
400.613	484.62
400.837	452.62
401.062	428.62
401.286	420.62
401.51	400.62
401.734	411.62
401.958	409.62
402.182	434.62
402.406	420.62
402.63	428.62
402.854	431.62
403.078	422.62
403.302	435.62
403.526	436.62
403.75	427.62
403.974	418.62
404.198	421.62
404.422	430.62
404.645	419.62
404.869	430.62
405.093	463.62
405.317	489.62
405.541	542.62
405.765	489.62
405.988	457.62
406.212	478.62
406.436	457.62
406.66	479.62
406.883	469.62
407.107	483.62
407.331	523.62
407.555	593.62
407.778	583.62
408.002	524.62
408.226	497.62
408.449	468.62
408.673	485.62
408.896	522.62
409.12	539.62
409.344	528.62
409.567	460.62
409.791	433.62
410.014	432.62
410.238	431.62
410.461	433.62
410.685	456.62
410.908	459.62
411.132	493.62
411.355	543.62
411.578	512.62
411.802	456.62
412.025	430.62
412.249	455.62
412.472	458.62
412.695	489.62
412.919	497.62
413.142	453.62
413.365	430.62
413.589	435.62
413.812	411.62
414.035	409.62
414.258	414.62
414.482	411.62
414.705	396.62
414.928	395.62
415.151	404.62
415.374	399.62
415.597	400.62
415.821	405.62
416.044	407.62
416.267	405.62
416.49	394.62
416.713	403.62
416.936	391.62
417.159	409.62
417.382	421.62
417.605	422.62
417.828	437.62
418.051	424.62
418.274	417.62
418.497	415.62
418.72	391.62
418.943	407.62
419.166	410.62
419.389	447.62
419.611	424.62
419.834	431.62
420.057	430.62
420.28	425.62
420.503	427.62
420.726	427.62
420.948	449.62
421.171	470.62
421.394	527.62
421.617	462.62
421.839	436.62
422.062	444.62
422.285	446.62
422.507	488.62
422.73	572.62
422.953	552.62
423.175	496.62
423.398	438.62
423.621	460.62
423.843	467.62
424.066	457.62
424.288	468.62
424.511	489.62
424.733	532.62
424.956	635.62
425.178	601.62
425.401	612.62
425.623	612.62
425.846	536.62
426.068	472.62
426.291	472.62
426.513	461.62
426.735	478.62
426.958	519.62
427.18	610.62
427.402	755.62
427.625	804.62
427.847	724.62
428.069	615.62
428.292	535.62
428.514	487.62
428.736	469.62
428.958	457.62
429.181	442.62
429.403	454.62
429.625	456.62
429.847	472.62
430.069	547.62
430.292	550.62
430.514	463.62
430.736	462.62
430.958	413.62
431.18	415.62
431.402	425.62
431.624	430.62
431.846	419.62
432.068	408.62
432.29	415.62
432.512	423.62
432.734	413.62
432.956	411.62
433.178	414.62
433.4	452.62
433.622	409.62
433.844	431.62
434.066	410.62
434.287	414.62
434.509	409.62
434.731	416.62
434.953	443.62
435.175	440.62
435.397	458.62
435.618	458.62
435.84	528.62
436.062	613.62
436.284	681.62
436.505	556.62
436.727	497.62
436.949	453.62
437.17	460.62
437.392	445.62
437.614	465.62
437.835	478.62
438.057	585.62
438.278	677.62
438.5	712.62
438.721	736.62
438.943	726.62
439.165	557.62
439.386	529.62
439.608	496.62
439.829	519.62
440.05	550.62
440.272	579.62
440.493	538.62
440.715	507.62
440.936	468.62
441.158	441.62
441.379	444.62
441.6	464.62
441.822	499.62
442.043	528.62
442.264	611.62
442.486	615.62
442.707	536.62
442.928	484.62
443.149	492.62
443.371	503.62
443.592	549.62
443.813	644.62
444.034	707.62
444.255	559.62
444.476	489.62
444.698	486.62
444.919	474.62
445.14	604.62
445.361	537.62
445.582	512.62
445.803	576.62
446.024	688.62
446.245	688.62
446.466	668.62
446.687	555.62
446.908	505.62
447.129	477.62
447.35	454.62
447.571	434.62
447.792	448.62
448.013	456.62
448.234	502.62
448.455	508.62
448.675	602.62
448.896	736.62
449.117	636.62
449.338	583.62
449.559	691.62
449.779	783.62
450	616.62
450.221	519.62
450.442	467.62
450.662	444.62
450.883	453.62
451.104	465.62
451.324	440.62
451.545	419.62
451.766	420.62
451.986	415.62
452.207	397.62
452.428	385.62
452.648	397.62
452.869	411.62
453.089	401.62
453.31	422.62
453.53	391.62
453.751	409.62
453.971	411.62
454.192	422.62
454.412	407.62
454.633	413.62
454.853	378.62
455.073	393.62
455.294	437.62
455.514	519.62
455.734	470.62
455.955	405.62
456.175	380.62
456.395	383.62
456.616	383.62
456.836	380.62
457.056	384.62
457.276	348.62
457.497	381.62
457.717	348.62
457.937	389.62
458.157	379.62
458.377	392.62
458.598	411.62
458.818	473.62
459.038	538.62
459.258	555.62
459.478	469.62
459.698	445.62
459.918	418.62
460.138	408.62
460.358	397.62
460.578	399.62
460.798	416.62
461.018	417.62
461.238	409.62
461.458	401.62
461.678	397.62
461.898	428.62
462.118	396.62
462.338	410.62
462.558	425.62
462.777	413.62
462.997	427.62
463.217	426.62
463.437	431.62
463.657	416.62
463.876	418.62
464.096	434.62
464.316	437.62
464.536	439.62
464.755	436.62
464.975	450.62
465.195	481.62
465.414	564.62
465.634	500.62
465.854	467.62
466.073	432.62
466.293	401.62
466.512	418.62
466.732	401.62
466.951	383.62
467.171	406.62
467.391	408.62
467.61	401.62
467.829	421.62
468.049	425.62
468.268	409.62
468.488	404.62
468.707	395.62
468.927	397.62
469.146	376.62
469.365	399.62
469.585	424.62
469.804	417.62
470.023	421.62
470.243	406.62
470.462	410.62
470.681	427.62
470.901	450.62
471.12	421.62
471.339	407.62
471.558	391.62
471.777	418.62
471.997	395.62
472.216	425.62
472.435	439.62
472.654	431.62
472.873	415.62
473.092	416.62
473.311	422.62
473.53	422.62
473.749	413.62
473.968	456.62
474.187	585.62
474.406	583.62
474.625	485.62
474.844	431.62
475.063	418.62
475.282	419.62
475.501	399.62
475.72	422.62
475.939	419.62
476.158	418.62
476.377	426.62
476.596	416.62
476.814	438.62
477.033	422.62
477.252	417.62
477.471	423.62
477.69	414.62
477.908	439.62
478.127	445.62
478.346	437.62
478.564	426.62
478.783	439.62
479.002	466.62
479.22	462.62
479.439	499.62
479.658	499.62
479.876	472.62
480.095	493.62
480.313	548.62
480.532	509.62
480.751	493.62
480.969	493.62
481.188	590.62
481.406	629.62
481.624	547.62
481.843	510.62
482.061	467.62
482.28	497.62
482.498	499.62
482.717	471.62
482.935	473.62
483.153	472.62
483.372	493.62
483.59	500.62
483.808	487.62
484.027	464.62
484.245	473.62
484.463	469.62
484.681	491.62
484.9	496.62
485.118	505.62
485.336	495.62
485.554	475.62
485.772	493.62
485.99	494.62
486.209	485.62
486.427	507.62
486.645	509.62
486.863	542.62
487.081	514.62
487.299	517.62
487.517	495.62
487.735	513.62
487.953	514.62
488.171	515.62
488.389	540.62
488.607	504.62
488.825	508.62
489.043	515.62
489.261	520.62
489.479	524.62
489.696	532.62
489.914	531.62
490.132	531.62
490.35	544.62
490.568	531.62
490.786	549.62
491.003	560.62
491.221	551.62
491.439	586.62
491.657	563.62
491.874	561.62
492.092	559.62
492.31	580.62
492.527	596.62
492.745	600.62
492.963	587.62
493.18	613.62
493.398	609.62
493.615	623.62
493.833	624.62
494.05	601.62
494.268	589.62
494.485	603.62
494.703	606.62
494.92	607.62
495.138	608.62
495.355	610.62
495.573	624.62
495.79	624.62
496.008	601.62
496.225	609.62
496.442	589.62
496.66	633.62
496.877	617.62
497.094	618.62
497.312	621.62
497.529	623.62
497.746	632.62
497.963	659.62
498.181	680.62
498.398	651.62
498.615	665.62
498.832	669.62
499.049	679.62
499.267	691.62
499.484	687.62
499.701	698.62
499.918	737.62
500.135	730.62
500.352	751.62
500.569	756.62
500.786	783.62
501.003	762.62
501.22	769.62
501.437	737.62
501.654	749.62
501.871	757.62
