Data from 1972.PennyLincolnUp.Lamp.En5.5.200Scan.071719.P1._HRD10591_15-28-19-844.txt Node
Date: Thu Jul 18 15:28:19 EDT 2019
User: cochatt
Spectrometer: HR+D1059
Trigger mode: 1
Integration Time (sec): 1.000000E-1
Scans to average: 1
Electric dark correction enabled: true
Nonlinearity correction enabled: false
Boxcar width: 0
XAxis mode: Wavelengths
Number of Pixels in Spectrum: 2048
>>>>>Begin Spectral Data<<<<<
223.165	-2.81
223.4	-2.81
223.635	-2.81
223.869	-4.81
224.104	-25.81
224.338	-12.81
224.573	-3.81
224.808	-20.81
225.042	-14.81
225.277	-1.81
225.511	-10.81
225.746	-11.81
225.98	0.19
226.215	14.19
226.449	18.19
226.683	26.19
226.918	24.19
227.152	27.19
227.387	31.19
227.621	31.19
227.856	41.19
228.09	37.19
228.324	58.19
228.559	65.19
228.793	43.19
229.027	94.19
229.262	93.19
229.496	118.19
229.73	135.19
229.964	155.19
230.199	114.19
230.433	119.19
230.667	123.19
230.901	101.19
231.136	107.19
231.37	124.19
231.604	113.19
231.838	99.19
232.072	124.19
232.306	119.19
232.541	100.19
232.775	115.19
233.009	120.19
233.243	111.19
233.477	119.19
233.711	105.19
233.945	117.19
234.179	110.19
234.413	123.19
234.647	125.19
234.881	123.19
235.115	105.19
235.349	98.19
235.583	107.19
235.817	116.19
236.051	119.19
236.285	137.19
236.519	125.19
236.753	120.19
236.987	145.19
237.221	184.19
237.455	257.19
237.689	204.19
237.922	129.19
238.156	135.19
238.39	131.19
238.624	123.19
238.858	125.19
239.091	130.19
239.325	117.19
239.559	118.19
239.793	118.19
240.027	138.19
240.26	140.19
240.494	149.19
240.728	152.19
240.961	142.19
241.195	142.19
241.429	139.19
241.662	133.19
241.896	133.19
242.13	134.19
242.363	133.19
242.597	127.19
242.83	131.19
243.064	133.19
243.298	127.19
243.531	134.19
243.765	141.19
243.998	123.19
244.232	131.19
244.465	153.19
244.699	143.19
244.932	144.19
245.166	143.19
245.399	153.19
245.633	154.19
245.866	145.19
246.099	156.19
246.333	136.19
246.566	158.19
246.8	147.19
247.033	156.19
247.266	151.19
247.5	159.19
247.733	184.19
247.966	165.19
248.2	175.19
248.433	177.19
248.666	176.19
248.899	204.19
249.133	183.19
249.366	217.19
249.599	190.19
249.832	179.19
250.066	174.19
250.299	179.19
250.532	186.19
250.765	203.19
250.998	230.19
251.231	233.19
251.465	221.19
251.698	215.19
251.931	189.19
252.164	202.19
252.397	202.19
252.63	202.19
252.863	214.19
253.096	227.19
253.329	224.19
253.562	231.19
253.795	218.19
254.028	221.19
254.261	218.19
254.494	237.19
254.727	255.19
254.96	295.19
255.193	289.19
255.426	238.19
255.659	235.19
255.892	237.19
256.124	255.19
256.357	246.19
256.59	233.19
256.823	223.19
257.056	219.19
257.289	224.19
257.521	221.19
257.754	221.19
257.987	225.19
258.22	217.19
258.452	212.19
258.685	206.19
258.918	213.19
259.151	209.19
259.383	205.19
259.616	218.19
259.849	214.19
260.081	238.19
260.314	258.19
260.547	268.19
260.779	246.19
261.012	219.19
261.244	230.19
261.477	235.19
261.71	215.19
261.942	242.19
262.175	234.19
262.407	228.19
262.64	235.19
262.872	231.19
263.105	220.19
263.337	197.19
263.57	225.19
263.802	210.19
264.035	219.19
264.267	214.19
264.499	231.19
264.732	223.19
264.964	210.19
265.197	204.19
265.429	214.19
265.661	205.19
265.894	202.19
266.126	209.19
266.358	214.19
266.591	220.19
266.823	229.19
267.055	216.19
267.287	217.19
267.52	233.19
267.752	214.19
267.984	219.19
268.216	226.19
268.448	236.19
268.681	234.19
268.913	257.19
269.145	275.19
269.377	269.19
269.609	266.19
269.841	267.19
270.073	261.19
270.306	311.19
270.538	309.19
270.77	312.19
271.002	305.19
271.234	325.19
271.466	293.19
271.698	321.19
271.93	326.19
272.162	335.19
272.394	333.19
272.626	306.19
272.858	293.19
273.09	298.19
273.322	287.19
273.553	247.19
273.785	265.19
274.017	270.19
274.249	270.19
274.481	282.19
274.713	251.19
274.945	269.19
275.176	279.19
275.408	278.19
275.64	266.19
275.872	267.19
276.104	267.19
276.335	265.19
276.567	267.19
276.799	289.19
277.031	317.19
277.262	318.19
277.494	313.19
277.726	323.19
277.957	289.19
278.189	277.19
278.421	265.19
278.652	272.19
278.884	243.19
279.115	266.19
279.347	282.19
279.579	268.19
279.81	267.19
280.042	284.19
280.273	263.19
280.505	264.19
280.736	235.19
280.968	265.19
281.199	249.19
281.431	249.19
281.662	262.19
281.894	271.19
282.125	258.19
282.356	288.19
282.588	294.19
282.819	311.19
283.051	265.19
283.282	255.19
283.513	271.19
283.745	250.19
283.976	274.19
284.207	270.19
284.439	265.19
284.67	258.19
284.901	276.19
285.132	269.19
285.364	271.19
285.595	262.19
285.826	282.19
286.057	265.19
286.288	270.19
286.52	265.19
286.751	271.19
286.982	295.19
287.213	261.19
287.444	260.19
287.675	278.19
287.906	279.19
288.138	274.19
288.369	290.19
288.6	299.19
288.831	293.19
289.062	276.19
289.293	271.19
289.524	279.19
289.755	293.19
289.986	278.19
290.217	281.19
290.448	262.19
290.679	280.19
290.91	266.19
291.141	261.19
291.371	260.19
291.602	279.19
291.833	268.19
292.064	275.19
292.295	282.19
292.526	282.19
292.757	271.19
292.987	265.19
293.218	261.19
293.449	267.19
293.68	258.19
293.91	267.19
294.141	277.19
294.372	276.19
294.603	282.19
294.833	299.19
295.064	283.19
295.295	276.19
295.525	269.19
295.756	275.19
295.987	304.19
296.217	305.19
296.448	327.19
296.679	298.19
296.909	294.19
297.14	295.19
297.37	291.19
297.601	281.19
297.831	284.19
298.062	263.19
298.292	311.19
298.523	295.19
298.753	286.19
298.984	284.19
299.214	298.19
299.445	300.19
299.675	310.19
299.905	286.19
300.136	306.19
300.366	290.19
300.597	292.19
300.827	289.19
301.057	307.19
301.288	309.19
301.518	308.19
301.748	317.19
301.979	302.19
302.209	297.19
302.439	317.19
302.669	305.19
302.9	314.19
303.13	306.19
303.36	297.19
303.59	311.19
303.82	321.19
304.051	315.19
304.281	322.19
304.511	307.19
304.741	306.19
304.971	306.19
305.201	301.19
305.431	313.19
305.661	312.19
305.891	298.19
306.121	297.19
306.352	323.19
306.582	314.19
306.812	323.19
307.042	317.19
307.272	317.19
307.502	309.19
307.731	313.19
307.961	315.19
308.191	316.19
308.421	318.19
308.651	324.19
308.881	338.19
309.111	333.19
309.341	351.19
309.571	339.19
309.8	344.19
310.03	357.19
310.26	375.19
310.49	394.19
310.72	376.19
310.949	393.19
311.179	379.19
311.409	355.19
311.639	366.19
311.868	369.19
312.098	381.19
312.328	366.19
312.557	411.19
312.787	396.19
313.017	399.19
313.246	390.19
313.476	367.19
313.706	353.19
313.935	370.19
314.165	377.19
314.394	397.19
314.624	393.19
314.853	380.19
315.083	381.19
315.312	377.19
315.542	378.19
315.771	348.19
316.001	362.19
316.23	357.19
316.46	358.19
316.689	355.19
316.919	370.19
317.148	371.19
317.377	383.19
317.607	374.19
317.836	369.19
318.065	348.19
318.295	369.19
318.524	361.19
318.753	371.19
318.983	371.19
319.212	356.19
319.441	376.19
319.67	374.19
319.9	375.19
320.129	365.19
320.358	356.19
320.587	367.19
320.816	370.19
321.046	403.19
321.275	382.19
321.504	399.19
321.733	373.19
321.962	395.19
322.191	417.19
322.42	419.19
322.649	460.19
322.878	453.19
323.108	474.19
323.337	517.19
323.566	534.19
323.795	601.19
324.024	647.19
324.253	787.19
324.482	1162.19
324.71	1837.19
324.939	2655.19
325.168	2319.19
325.397	1178.19
325.626	761.19
325.855	626.19
326.084	565.19
326.313	543.19
326.542	544.19
326.77	589.19
326.999	729.19
327.228	1011.19
327.457	1616.19
327.686	2003.19
327.914	1346.19
328.143	841.19
328.372	725.19
328.6	667.19
328.829	618.19
329.058	627.19
329.287	653.19
329.515	595.19
329.744	556.19
329.972	541.19
330.201	562.19
330.43	637.19
330.658	663.19
330.887	703.19
331.115	638.19
331.344	552.19
331.572	513.19
331.801	522.19
332.03	495.19
332.258	462.19
332.486	457.19
332.715	447.19
332.943	446.19
333.172	441.19
333.4	429.19
333.629	463.19
333.857	440.19
334.085	491.19
334.314	517.19
334.542	544.19
334.771	575.19
334.999	498.19
335.227	463.19
335.455	452.19
335.684	437.19
335.912	425.19
336.14	422.19
336.369	413.19
336.597	428.19
336.825	403.19
337.053	409.19
337.281	413.19
337.51	411.19
337.738	424.19
337.966	412.19
338.194	418.19
338.422	437.19
338.65	417.19
338.878	386.19
339.106	398.19
339.334	421.19
339.562	389.19
339.79	385.19
340.018	380.19
340.246	393.19
340.474	415.19
340.702	411.19
340.93	397.19
341.158	382.19
341.386	413.19
341.614	406.19
341.842	396.19
342.07	418.19
342.298	412.19
342.526	399.19
342.754	391.19
342.981	381.19
343.209	375.19
343.437	386.19
343.665	406.19
343.893	415.19
344.12	395.19
344.348	417.19
344.576	416.19
344.804	418.19
345.031	437.19
345.259	409.19
345.487	427.19
345.714	437.19
345.942	415.19
346.17	418.19
346.397	399.19
346.625	402.19
346.853	392.19
347.08	389.19
347.308	395.19
347.535	431.19
347.763	429.19
347.99	392.19
348.218	427.19
348.445	438.19
348.673	399.19
348.9	418.19
349.128	411.19
349.355	393.19
349.583	377.19
349.81	395.19
350.037	383.19
350.265	389.19
350.492	393.19
350.72	377.19
350.947	392.19
351.174	419.19
351.402	422.19
351.629	408.19
351.856	396.19
352.083	415.19
352.311	422.19
352.538	445.19
352.765	433.19
352.992	422.19
353.22	413.19
353.447	405.19
353.674	405.19
353.901	375.19
354.128	358.19
354.355	366.19
354.583	359.19
354.81	349.19
355.037	380.19
355.264	371.19
355.491	371.19
355.718	361.19
355.945	353.19
356.172	360.19
356.399	371.19
356.626	351.19
356.853	370.19
357.08	360.19
357.307	377.19
357.534	355.19
357.761	383.19
357.988	385.19
358.215	376.19
358.441	355.19
358.668	360.19
358.895	354.19
359.122	377.19
359.349	383.19
359.576	403.19
359.802	410.19
360.029	449.19
360.256	472.19
360.483	435.19
360.709	414.19
360.936	399.19
361.163	396.19
361.39	396.19
361.616	395.19
361.843	374.19
362.07	385.19
362.296	389.19
362.523	395.19
362.749	387.19
362.976	386.19
363.203	379.19
363.429	348.19
363.656	379.19
363.882	371.19
364.109	384.19
364.335	366.19
364.562	375.19
364.788	381.19
365.015	378.19
365.241	369.19
365.468	365.19
365.694	366.19
365.92	378.19
366.147	389.19
366.373	362.19
366.599	356.19
366.826	362.19
367.052	363.19
367.278	373.19
367.505	378.19
367.731	367.19
367.957	365.19
368.184	362.19
368.41	359.19
368.636	355.19
368.862	375.19
369.089	378.19
369.315	379.19
369.541	372.19
369.767	357.19
369.993	372.19
370.219	387.19
370.445	351.19
370.672	365.19
370.898	365.19
371.124	348.19
371.35	354.19
371.576	354.19
371.802	343.19
372.028	351.19
372.254	356.19
372.48	348.19
372.706	356.19
372.932	365.19
373.158	357.19
373.384	361.19
373.61	344.19
373.835	361.19
374.061	348.19
374.287	340.19
374.513	348.19
374.739	345.19
374.965	348.19
375.191	371.19
375.416	365.19
375.642	363.19
375.868	357.19
376.094	377.19
376.319	357.19
376.545	340.19
376.771	347.19
376.997	345.19
377.222	335.19
377.448	338.19
377.674	362.19
377.899	353.19
378.125	353.19
378.35	346.19
378.576	342.19
378.802	343.19
379.027	345.19
379.253	357.19
379.478	328.19
379.704	345.19
379.929	344.19
380.155	350.19
380.38	360.19
380.606	396.19
380.831	336.19
381.057	361.19
381.282	347.19
381.507	355.19
381.733	370.19
381.958	366.19
382.184	369.19
382.409	340.19
382.634	367.19
382.86	348.19
383.085	350.19
383.31	357.19
383.535	379.19
383.761	354.19
383.986	364.19
384.211	335.19
384.436	368.19
384.662	356.19
384.887	363.19
385.112	374.19
385.337	362.19
385.562	373.19
385.787	383.19
386.013	391.19
386.238	383.19
386.463	381.19
386.688	387.19
386.913	387.19
387.138	371.19
387.363	396.19
387.588	378.19
387.813	387.19
388.038	379.19
388.263	377.19
388.488	377.19
388.713	378.19
388.938	385.19
389.163	382.19
389.387	369.19
389.612	360.19
389.837	379.19
390.062	376.19
390.287	373.19
390.512	369.19
390.736	375.19
390.961	362.19
391.186	360.19
391.411	378.19
391.636	375.19
391.86	364.19
392.085	387.19
392.31	387.19
392.534	381.19
392.759	375.19
392.984	364.19
393.208	377.19
393.433	384.19
393.658	371.19
393.882	365.19
394.107	373.19
394.331	363.19
394.556	361.19
394.78	388.19
395.005	400.19
395.229	377.19
395.454	380.19
395.678	381.19
395.903	383.19
396.127	409.19
396.352	433.19
396.576	405.19
396.801	396.19
397.025	392.19
397.249	392.19
397.474	394.19
397.698	386.19
397.922	433.19
398.147	435.19
398.371	397.19
398.595	398.19
398.82	415.19
399.044	420.19
399.268	425.19
399.492	449.19
399.717	461.19
399.941	491.19
400.165	527.19
400.389	521.19
400.613	472.19
400.837	441.19
401.062	441.19
401.286	421.19
401.51	428.19
401.734	446.19
401.958	418.19
402.182	441.19
402.406	423.19
402.63	453.19
402.854	423.19
403.078	438.19
403.302	441.19
403.526	436.19
403.75	430.19
403.974	425.19
404.198	429.19
404.422	454.19
404.645	450.19
404.869	471.19
405.093	485.19
405.317	532.19
405.541	574.19
405.765	525.19
405.988	489.19
406.212	500.19
406.436	513.19
406.66	518.19
406.883	497.19
407.107	519.19
407.331	552.19
407.555	605.19
407.778	601.19
408.002	545.19
408.226	504.19
408.449	522.19
408.673	492.19
408.896	531.19
409.12	565.19
409.344	537.19
409.567	482.19
409.791	473.19
410.014	426.19
410.238	449.19
410.461	427.19
410.685	453.19
410.908	460.19
411.132	521.19
411.355	524.19
411.578	522.19
411.802	451.19
412.025	450.19
412.249	456.19
412.472	479.19
412.695	521.19
412.919	521.19
413.142	491.19
413.365	466.19
413.589	426.19
413.812	461.19
414.035	429.19
414.258	406.19
414.482	394.19
414.705	408.19
414.928	418.19
415.151	399.19
415.374	390.19
415.597	412.19
415.821	427.19
416.044	425.19
416.267	412.19
416.49	425.19
416.713	414.19
416.936	413.19
417.159	397.19
417.382	434.19
417.605	430.19
417.828	440.19
418.051	459.19
418.274	427.19
418.497	446.19
418.72	425.19
418.943	408.19
419.166	438.19
419.389	440.19
419.611	439.19
419.834	442.19
420.057	454.19
420.28	450.19
420.503	451.19
420.726	450.19
420.948	482.19
421.171	493.19
421.394	565.19
421.617	456.19
421.839	456.19
422.062	442.19
422.285	460.19
422.507	528.19
422.73	581.19
422.953	596.19
423.175	512.19
423.398	474.19
423.621	463.19
423.843	476.19
424.066	481.19
424.288	470.19
424.511	514.19
424.733	550.19
424.956	626.19
425.178	633.19
425.401	616.19
425.623	643.19
425.846	533.19
426.068	537.19
426.291	514.19
426.513	500.19
426.735	502.19
426.958	548.19
427.18	639.19
427.402	791.19
427.625	868.19
427.847	785.19
428.069	661.19
428.292	578.19
428.514	492.19
428.736	475.19
428.958	486.19
429.181	473.19
429.403	439.19
429.625	472.19
429.847	500.19
430.069	585.19
430.292	555.19
430.514	487.19
430.736	457.19
430.958	446.19
431.18	439.19
431.402	441.19
431.624	423.19
431.846	411.19
432.068	435.19
432.29	415.19
432.512	449.19
432.734	435.19
432.956	444.19
433.178	454.19
433.4	449.19
433.622	449.19
433.844	429.19
434.066	407.19
434.287	408.19
434.509	409.19
434.731	426.19
434.953	463.19
435.175	452.19
435.397	485.19
435.618	500.19
435.84	546.19
436.062	635.19
436.284	689.19
436.505	590.19
436.727	513.19
436.949	485.19
437.17	463.19
437.392	465.19
437.614	465.19
437.835	519.19
438.057	634.19
438.278	737.19
438.5	736.19
438.721	807.19
438.943	751.19
439.165	576.19
439.386	540.19
439.608	529.19
439.829	536.19
440.05	558.19
440.272	611.19
440.493	591.19
440.715	506.19
440.936	473.19
441.158	468.19
441.379	463.19
441.6	485.19
441.822	503.19
442.043	567.19
442.264	634.19
442.486	681.19
442.707	561.19
442.928	528.19
443.149	551.19
443.371	541.19
443.592	597.19
443.813	697.19
444.034	723.19
444.255	605.19
444.476	528.19
444.698	502.19
444.919	498.19
445.14	597.19
445.361	549.19
445.582	554.19
445.803	645.19
446.024	733.19
446.245	762.19
446.466	698.19
446.687	582.19
446.908	513.19
447.129	498.19
447.35	477.19
447.571	453.19
447.792	477.19
448.013	491.19
448.234	501.19
448.455	550.19
448.675	646.19
448.896	772.19
449.117	644.19
449.338	628.19
449.559	729.19
449.779	811.19
450	671.19
450.221	557.19
450.442	531.19
450.662	458.19
450.883	487.19
451.104	498.19
451.324	497.19
451.545	443.19
451.766	427.19
451.986	417.19
452.207	406.19
452.428	408.19
452.648	410.19
452.869	422.19
453.089	435.19
453.31	433.19
453.53	424.19
453.751	427.19
453.971	419.19
454.192	449.19
454.412	452.19
454.633	431.19
454.853	434.19
455.073	435.19
455.294	437.19
455.514	530.19
455.734	509.19
455.955	436.19
456.175	417.19
456.395	391.19
456.616	395.19
456.836	400.19
457.056	364.19
457.276	386.19
457.497	381.19
457.717	377.19
457.937	387.19
458.157	409.19
458.377	389.19
458.598	431.19
458.818	522.19
459.038	614.19
459.258	595.19
459.478	470.19
459.698	452.19
459.918	420.19
460.138	411.19
460.358	414.19
460.578	403.19
460.798	423.19
461.018	432.19
461.238	421.19
461.458	425.19
461.678	426.19
461.898	424.19
462.118	418.19
462.338	411.19
462.558	445.19
462.777	434.19
462.997	422.19
463.217	426.19
463.437	437.19
463.657	409.19
463.876	447.19
464.096	437.19
464.316	453.19
464.536	451.19
464.755	453.19
464.975	473.19
465.195	526.19
465.414	612.19
465.634	534.19
465.854	487.19
466.073	459.19
466.293	429.19
466.512	436.19
466.732	425.19
466.951	410.19
467.171	400.19
467.391	415.19
467.61	436.19
467.829	457.19
468.049	439.19
468.268	423.19
468.488	396.19
468.707	415.19
468.927	411.19
469.146	396.19
469.365	401.19
469.585	397.19
469.804	411.19
470.023	426.19
470.243	428.19
470.462	460.19
470.681	439.19
470.901	452.19
471.12	431.19
471.339	425.19
471.558	419.19
471.777	408.19
471.997	402.19
472.216	438.19
472.435	478.19
472.654	494.19
472.873	421.19
473.092	437.19
473.311	424.19
473.53	444.19
473.749	453.19
473.968	466.19
474.187	595.19
474.406	637.19
474.625	490.19
474.844	444.19
475.063	435.19
475.282	435.19
475.501	433.19
475.72	429.19
475.939	424.19
476.158	449.19
476.377	441.19
476.596	437.19
476.814	438.19
477.033	432.19
477.252	459.19
477.471	443.19
477.69	460.19
477.908	459.19
478.127	465.19
478.346	467.19
478.564	449.19
478.783	469.19
479.002	483.19
479.22	476.19
479.439	499.19
479.658	513.19
479.876	503.19
480.095	519.19
480.313	549.19
480.532	521.19
480.751	525.19
480.969	534.19
481.188	637.19
481.406	677.19
481.624	588.19
481.843	542.19
482.061	522.19
482.28	480.19
482.498	511.19
482.717	488.19
482.935	489.19
483.153	490.19
483.372	510.19
483.59	503.19
483.808	505.19
484.027	479.19
484.245	490.19
484.463	511.19
484.681	523.19
484.9	524.19
485.118	506.19
485.336	501.19
485.554	526.19
485.772	507.19
485.99	514.19
486.209	517.19
486.427	521.19
486.645	514.19
486.863	548.19
487.081	575.19
487.299	547.19
487.517	533.19
487.735	521.19
487.953	561.19
488.171	535.19
488.389	550.19
488.607	529.19
488.825	529.19
489.043	511.19
489.261	540.19
489.479	517.19
489.696	554.19
489.914	545.19
490.132	555.19
490.35	548.19
490.568	571.19
490.786	552.19
491.003	571.19
491.221	597.19
491.439	588.19
491.657	608.19
491.874	619.19
492.092	644.19
492.31	613.19
492.527	603.19
492.745	633.19
492.963	608.19
493.18	643.19
493.398	614.19
493.615	661.19
493.833	643.19
494.05	623.19
494.268	645.19
494.485	631.19
494.703	651.19
494.92	629.19
495.138	638.19
495.355	631.19
495.573	657.19
495.79	628.19
496.008	627.19
496.225	656.19
496.442	642.19
496.66	639.19
496.877	650.19
497.094	633.19
497.312	639.19
497.529	665.19
497.746	682.19
497.963	653.19
498.181	683.19
498.398	695.19
498.615	691.19
498.832	681.19
499.049	676.19
499.267	702.19
499.484	713.19
499.701	728.19
499.918	724.19
500.135	753.19
500.352	778.19
500.569	785.19
500.786	830.19
501.003	801.19
501.22	786.19
501.437	770.19
501.654	775.19
501.871	761.19
