Data from 1972.PennyLincolnUp.Lamp.En5.5.200Scan.071719.P1._HRD10591_15-28-59-844.txt Node
Date: Thu Jul 18 15:28:59 EDT 2019
User: cochatt
Spectrometer: HR+D1059
Trigger mode: 1
Integration Time (sec): 1.000000E-1
Scans to average: 1
Electric dark correction enabled: true
Nonlinearity correction enabled: false
Boxcar width: 0
XAxis mode: Wavelengths
Number of Pixels in Spectrum: 2048
>>>>>Begin Spectral Data<<<<<
223.165	-12.56
223.4	-12.56
223.635	-12.56
223.869	-3.56
224.104	-19.56
224.338	-23.56
224.573	-25.56
224.808	-15.56
225.042	-10.56
225.277	-10.56
225.511	-1.56
225.746	11.44
225.98	17.44
226.215	9.44
226.449	3.44
226.683	34.44
226.918	21.44
227.152	25.44
227.387	37.44
227.621	38.44
227.856	49.44
228.09	40.44
228.324	64.44
228.559	51.44
228.793	77.44
229.027	90.44
229.262	105.44
229.496	124.44
229.73	143.44
229.964	168.44
230.199	143.44
230.433	125.44
230.667	125.44
230.901	108.44
231.136	116.44
231.37	109.44
231.604	116.44
231.838	101.44
232.072	104.44
232.306	105.44
232.541	129.44
232.775	126.44
233.009	107.44
233.243	121.44
233.477	106.44
233.711	112.44
233.945	117.44
234.179	103.44
234.413	119.44
234.647	116.44
234.881	126.44
235.115	126.44
235.349	118.44
235.583	140.44
235.817	133.44
236.051	135.44
236.285	113.44
236.519	135.44
236.753	145.44
236.987	159.44
237.221	209.44
237.455	262.44
237.689	217.44
237.922	165.44
238.156	143.44
238.39	135.44
238.624	141.44
238.858	125.44
239.091	118.44
239.325	128.44
239.559	139.44
239.793	140.44
240.027	149.44
240.26	141.44
240.494	172.44
240.728	161.44
240.961	156.44
241.195	144.44
241.429	151.44
241.662	145.44
241.896	132.44
242.13	147.44
242.363	132.44
242.597	139.44
242.83	147.44
243.064	148.44
243.298	143.44
243.531	129.44
243.765	131.44
243.998	149.44
244.232	149.44
244.465	161.44
244.699	152.44
244.932	140.44
245.166	139.44
245.399	158.44
245.633	154.44
245.866	152.44
246.099	149.44
246.333	144.44
246.566	146.44
246.8	153.44
247.033	163.44
247.266	166.44
247.5	159.44
247.733	181.44
247.966	175.44
248.2	163.44
248.433	166.44
248.666	164.44
248.899	174.44
249.133	218.44
249.366	236.44
249.599	211.44
249.832	195.44
250.066	188.44
250.299	185.44
250.532	215.44
250.765	211.44
250.998	236.44
251.231	235.44
251.465	219.44
251.698	232.44
251.931	219.44
252.164	191.44
252.397	213.44
252.63	215.44
252.863	216.44
253.096	214.44
253.329	230.44
253.562	246.44
253.795	257.44
254.028	232.44
254.261	230.44
254.494	248.44
254.727	267.44
254.96	316.44
255.193	313.44
255.426	264.44
255.659	273.44
255.892	250.44
256.124	264.44
256.357	255.44
256.59	255.44
256.823	225.44
257.056	236.44
257.289	236.44
257.521	227.44
257.754	233.44
257.987	221.44
258.22	213.44
258.452	207.44
258.685	214.44
258.918	223.44
259.151	229.44
259.383	233.44
259.616	252.44
259.849	230.44
260.081	224.44
260.314	262.44
260.547	267.44
260.779	282.44
261.012	252.44
261.244	229.44
261.477	244.44
261.71	228.44
261.942	239.44
262.175	259.44
262.407	245.44
262.64	232.44
262.872	227.44
263.105	225.44
263.337	207.44
263.57	223.44
263.802	223.44
264.035	224.44
264.267	201.44
264.499	218.44
264.732	215.44
264.964	217.44
265.197	241.44
265.429	230.44
265.661	227.44
265.894	206.44
266.126	237.44
266.358	208.44
266.591	209.44
266.823	228.44
267.055	240.44
267.287	228.44
267.52	230.44
267.752	227.44
267.984	238.44
268.216	236.44
268.448	240.44
268.681	233.44
268.913	245.44
269.145	251.44
269.377	291.44
269.609	280.44
269.841	285.44
270.073	291.44
270.306	320.44
270.538	344.44
270.77	335.44
271.002	310.44
271.234	317.44
271.466	308.44
271.698	344.44
271.93	328.44
272.162	345.44
272.394	334.44
272.626	327.44
272.858	303.44
273.09	317.44
273.322	281.44
273.553	281.44
273.785	287.44
274.017	269.44
274.249	271.44
274.481	270.44
274.713	279.44
274.945	276.44
275.176	281.44
275.408	274.44
275.64	260.44
275.872	277.44
276.104	267.44
276.335	268.44
276.567	287.44
276.799	308.44
277.031	318.44
277.262	341.44
277.494	330.44
277.726	323.44
277.957	308.44
278.189	281.44
278.421	289.44
278.652	292.44
278.884	267.44
279.115	285.44
279.347	267.44
279.579	252.44
279.81	275.44
280.042	265.44
280.273	273.44
280.505	265.44
280.736	286.44
280.968	278.44
281.199	275.44
281.431	274.44
281.662	271.44
281.894	265.44
282.125	269.44
282.356	289.44
282.588	333.44
282.819	336.44
283.051	289.44
283.282	273.44
283.513	273.44
283.745	270.44
283.976	283.44
284.207	296.44
284.439	282.44
284.67	271.44
284.901	279.44
285.132	276.44
285.364	272.44
285.595	286.44
285.826	278.44
286.057	298.44
286.288	279.44
286.52	286.44
286.751	272.44
286.982	271.44
287.213	291.44
287.444	277.44
287.675	294.44
287.906	294.44
288.138	309.44
288.369	315.44
288.6	302.44
288.831	287.44
289.062	307.44
289.293	297.44
289.524	287.44
289.755	279.44
289.986	271.44
290.217	285.44
290.448	301.44
290.679	300.44
290.91	268.44
291.141	297.44
291.371	270.44
291.602	285.44
291.833	297.44
292.064	303.44
292.295	288.44
292.526	278.44
292.757	273.44
292.987	282.44
293.218	279.44
293.449	289.44
293.68	288.44
293.91	313.44
294.141	291.44
294.372	290.44
294.603	290.44
294.833	286.44
295.064	296.44
295.295	283.44
295.525	288.44
295.756	300.44
295.987	311.44
296.217	326.44
296.448	334.44
296.679	312.44
296.909	287.44
297.14	293.44
297.37	294.44
297.601	304.44
297.831	291.44
298.062	285.44
298.292	303.44
298.523	318.44
298.753	296.44
298.984	296.44
299.214	298.44
299.445	303.44
299.675	300.44
299.905	297.44
300.136	326.44
300.366	308.44
300.597	305.44
300.827	313.44
301.057	330.44
301.288	321.44
301.518	320.44
301.748	316.44
301.979	312.44
302.209	321.44
302.439	328.44
302.669	321.44
302.9	323.44
303.13	310.44
303.36	302.44
303.59	345.44
303.82	330.44
304.051	352.44
304.281	324.44
304.511	328.44
304.741	315.44
304.971	315.44
305.201	332.44
305.431	325.44
305.661	334.44
305.891	311.44
306.121	325.44
306.352	347.44
306.582	357.44
306.812	325.44
307.042	339.44
307.272	323.44
307.502	330.44
307.731	335.44
307.961	314.44
308.191	316.44
308.421	319.44
308.651	346.44
308.881	348.44
309.111	332.44
309.341	343.44
309.571	347.44
309.8	345.44
310.03	363.44
310.26	384.44
310.49	384.44
310.72	402.44
310.949	397.44
311.179	417.44
311.409	383.44
311.639	380.44
311.868	380.44
312.098	379.44
312.328	392.44
312.557	409.44
312.787	433.44
313.017	437.44
313.246	393.44
313.476	402.44
313.706	400.44
313.935	399.44
314.165	416.44
314.394	430.44
314.624	417.44
314.853	389.44
315.083	402.44
315.312	385.44
315.542	368.44
315.771	377.44
316.001	376.44
316.23	367.44
316.46	406.44
316.689	382.44
316.919	395.44
317.148	420.44
317.377	399.44
317.607	393.44
317.836	385.44
318.065	377.44
318.295	384.44
318.524	371.44
318.753	380.44
318.983	379.44
319.212	378.44
319.441	394.44
319.67	397.44
319.9	402.44
320.129	383.44
320.358	389.44
320.587	393.44
320.816	402.44
321.046	408.44
321.275	417.44
321.504	406.44
321.733	404.44
321.962	432.44
322.191	458.44
322.42	474.44
322.649	480.44
322.878	480.44
323.108	491.44
323.337	535.44
323.566	569.44
323.795	604.44
324.024	671.44
324.253	839.44
324.482	1262.44
324.71	1922.44
324.939	2809.44
325.168	2478.44
325.397	1244.44
325.626	800.44
325.855	667.44
326.084	592.44
326.313	577.44
326.542	567.44
326.77	620.44
326.999	766.44
327.228	1088.44
327.457	1667.44
327.686	2141.44
327.914	1375.44
328.143	895.44
328.372	744.44
328.6	683.44
328.829	652.44
329.058	673.44
329.287	658.44
329.515	629.44
329.744	564.44
329.972	601.44
330.201	591.44
330.43	640.44
330.658	686.44
330.887	712.44
331.115	693.44
331.344	587.44
331.572	533.44
331.801	556.44
332.03	538.44
332.258	499.44
332.486	467.44
332.715	457.44
332.943	438.44
333.172	465.44
333.4	459.44
333.629	462.44
333.857	468.44
334.085	503.44
334.314	535.44
334.542	579.44
334.771	600.44
334.999	539.44
335.227	488.44
335.455	474.44
335.684	436.44
335.912	439.44
336.14	444.44
336.369	455.44
336.597	472.44
336.825	451.44
337.053	462.44
337.281	426.44
337.51	427.44
337.738	437.44
337.966	455.44
338.194	456.44
338.422	429.44
338.65	421.44
338.878	444.44
339.106	421.44
339.334	405.44
339.562	403.44
339.79	425.44
340.018	426.44
340.246	439.44
340.474	440.44
340.702	432.44
340.93	432.44
341.158	419.44
341.386	432.44
341.614	420.44
341.842	422.44
342.07	430.44
342.298	420.44
342.526	419.44
342.754	422.44
342.981	410.44
343.209	402.44
343.437	396.44
343.665	437.44
343.893	420.44
344.12	411.44
344.348	437.44
344.576	447.44
344.804	442.44
345.031	421.44
345.259	476.44
345.487	462.44
345.714	431.44
345.942	405.44
346.17	419.44
346.397	407.44
346.625	411.44
346.853	410.44
347.08	412.44
347.308	428.44
347.535	432.44
347.763	448.44
347.99	436.44
348.218	445.44
348.445	439.44
348.673	410.44
348.9	420.44
349.128	412.44
349.355	395.44
349.583	390.44
349.81	412.44
350.037	407.44
350.265	407.44
350.492	412.44
350.72	400.44
350.947	405.44
351.174	397.44
351.402	430.44
351.629	432.44
351.856	431.44
352.083	424.44
352.311	443.44
352.538	447.44
352.765	451.44
352.992	437.44
353.22	399.44
353.447	422.44
353.674	411.44
353.901	383.44
354.128	385.44
354.355	383.44
354.583	385.44
354.81	389.44
355.037	376.44
355.264	360.44
355.491	376.44
355.718	367.44
355.945	375.44
356.172	377.44
356.399	373.44
356.626	363.44
356.853	389.44
357.08	364.44
357.307	405.44
357.534	383.44
357.761	374.44
357.988	382.44
358.215	387.44
358.441	366.44
358.668	391.44
358.895	392.44
359.122	393.44
359.349	395.44
359.576	410.44
359.802	437.44
360.029	485.44
360.256	492.44
360.483	460.44
360.709	433.44
360.936	413.44
361.163	400.44
361.39	430.44
361.616	405.44
361.843	405.44
362.07	410.44
362.296	420.44
362.523	415.44
362.749	417.44
362.976	413.44
363.203	400.44
363.429	391.44
363.656	376.44
363.882	407.44
364.109	377.44
364.335	385.44
364.562	375.44
364.788	390.44
365.015	402.44
365.241	382.44
365.468	414.44
365.694	400.44
365.92	398.44
366.147	379.44
366.373	394.44
366.599	375.44
366.826	381.44
367.052	373.44
367.278	375.44
367.505	378.44
367.731	379.44
367.957	374.44
368.184	382.44
368.41	392.44
368.636	391.44
368.862	398.44
369.089	382.44
369.315	365.44
369.541	381.44
369.767	376.44
369.993	369.44
370.219	367.44
370.445	378.44
370.672	371.44
370.898	367.44
371.124	366.44
371.35	368.44
371.576	358.44
371.802	365.44
372.028	355.44
372.254	359.44
372.48	365.44
372.706	375.44
372.932	377.44
373.158	367.44
373.384	357.44
373.61	377.44
373.835	371.44
374.061	379.44
374.287	374.44
374.513	371.44
374.739	367.44
374.965	383.44
375.191	373.44
375.416	372.44
375.642	367.44
375.868	360.44
376.094	360.44
376.319	359.44
376.545	374.44
376.771	348.44
376.997	362.44
377.222	380.44
377.448	361.44
377.674	364.44
377.899	344.44
378.125	351.44
378.35	366.44
378.576	361.44
378.802	356.44
379.027	373.44
379.253	355.44
379.478	350.44
379.704	357.44
379.929	356.44
380.155	379.44
380.38	368.44
380.606	360.44
380.831	377.44
381.057	381.44
381.282	346.44
381.507	362.44
381.733	361.44
381.958	373.44
382.184	376.44
382.409	368.44
382.634	375.44
382.86	365.44
383.085	363.44
383.31	358.44
383.535	361.44
383.761	380.44
383.986	371.44
384.211	383.44
384.436	368.44
384.662	367.44
384.887	394.44
385.112	365.44
385.337	395.44
385.562	389.44
385.787	379.44
386.013	393.44
386.238	399.44
386.463	395.44
386.688	395.44
386.913	366.44
387.138	395.44
387.363	397.44
387.588	382.44
387.813	387.44
388.038	399.44
388.263	372.44
388.488	372.44
388.713	376.44
388.938	389.44
389.163	397.44
389.387	387.44
389.612	369.44
389.837	392.44
390.062	390.44
390.287	384.44
390.512	381.44
390.736	368.44
390.961	393.44
391.186	388.44
391.411	389.44
391.636	396.44
391.86	379.44
392.085	374.44
392.31	402.44
392.534	389.44
392.759	419.44
392.984	390.44
393.208	398.44
393.433	408.44
393.658	397.44
393.882	393.44
394.107	405.44
394.331	400.44
394.556	381.44
394.78	385.44
395.005	380.44
395.229	380.44
395.454	363.44
395.678	402.44
395.903	411.44
396.127	412.44
396.352	408.44
396.576	421.44
396.801	390.44
397.025	392.44
397.249	416.44
397.474	397.44
397.698	419.44
397.922	422.44
398.147	444.44
398.371	459.44
398.595	413.44
398.82	425.44
399.044	431.44
399.268	446.44
399.492	461.44
399.717	471.44
399.941	496.44
400.165	534.44
400.389	549.44
400.613	502.44
400.837	462.44
401.062	435.44
401.286	440.44
401.51	441.44
401.734	432.44
401.958	427.44
402.182	421.44
402.406	437.44
402.63	461.44
402.854	457.44
403.078	462.44
403.302	467.44
403.526	460.44
403.75	471.44
403.974	470.44
404.198	448.44
404.422	456.44
404.645	474.44
404.869	468.44
405.093	508.44
405.317	553.44
405.541	603.44
405.765	533.44
405.988	502.44
406.212	496.44
406.436	535.44
406.66	560.44
406.883	515.44
407.107	551.44
407.331	558.44
407.555	636.44
407.778	637.44
408.002	577.44
408.226	529.44
408.449	505.44
408.673	504.44
408.896	561.44
409.12	604.44
409.344	572.44
409.567	492.44
409.791	472.44
410.014	484.44
410.238	463.44
410.461	448.44
410.685	462.44
410.908	493.44
411.132	538.44
411.355	545.44
411.578	523.44
411.802	459.44
412.025	456.44
412.249	496.44
412.472	519.44
412.695	550.44
412.919	534.44
413.142	482.44
413.365	459.44
413.589	466.44
413.812	472.44
414.035	438.44
414.258	425.44
414.482	429.44
414.705	425.44
414.928	421.44
415.151	424.44
415.374	447.44
415.597	403.44
415.821	432.44
416.044	424.44
416.267	445.44
416.49	432.44
416.713	421.44
416.936	462.44
417.159	431.44
417.382	443.44
417.605	438.44
417.828	465.44
418.051	471.44
418.274	447.44
418.497	433.44
418.72	430.44
418.943	431.44
419.166	435.44
419.389	450.44
419.611	477.44
419.834	472.44
420.057	457.44
420.28	472.44
420.503	459.44
420.726	484.44
420.948	500.44
421.171	542.44
421.394	559.44
421.617	482.44
421.839	477.44
422.062	456.44
422.285	481.44
422.507	550.44
422.73	629.44
422.953	599.44
423.175	526.44
423.398	476.44
423.621	490.44
423.843	516.44
424.066	524.44
424.288	500.44
424.511	551.44
424.733	587.44
424.956	686.44
425.178	635.44
425.401	649.44
425.623	677.44
425.846	575.44
426.068	525.44
426.291	523.44
426.513	524.44
426.735	526.44
426.958	559.44
427.18	645.44
427.402	821.44
427.625	880.44
427.847	789.44
428.069	711.44
428.292	616.44
428.514	542.44
428.736	501.44
428.958	485.44
429.181	464.44
429.403	477.44
429.625	495.44
429.847	522.44
430.069	618.44
430.292	609.44
430.514	491.44
430.736	465.44
430.958	444.44
431.18	447.44
431.402	456.44
431.624	436.44
431.846	450.44
432.068	441.44
432.29	461.44
432.512	455.44
432.734	468.44
432.956	457.44
433.178	453.44
433.4	469.44
433.622	455.44
433.844	451.44
434.066	437.44
434.287	445.44
434.509	452.44
434.731	452.44
434.953	467.44
435.175	474.44
435.397	515.44
435.618	490.44
435.84	585.44
436.062	645.44
436.284	728.44
436.505	631.44
436.727	560.44
436.949	499.44
437.17	480.44
437.392	494.44
437.614	515.44
437.835	567.44
438.057	661.44
438.278	764.44
438.5	778.44
438.721	829.44
438.943	800.44
439.165	608.44
439.386	553.44
439.608	535.44
439.829	543.44
440.05	583.44
440.272	647.44
440.493	587.44
440.715	552.44
440.936	504.44
441.158	492.44
441.379	499.44
441.6	503.44
441.822	525.44
442.043	560.44
442.264	655.44
442.486	703.44
442.707	593.44
442.928	539.44
443.149	545.44
443.371	576.44
443.592	633.44
443.813	725.44
444.034	775.44
444.255	643.44
444.476	542.44
444.698	515.44
444.919	515.44
445.14	593.44
445.361	567.44
445.582	571.44
445.803	639.44
446.024	764.44
446.245	777.44
446.466	707.44
446.687	597.44
446.908	547.44
447.129	500.44
447.35	501.44
447.571	486.44
447.792	466.44
448.013	495.44
448.234	512.44
448.455	569.44
448.675	706.44
448.896	788.44
449.117	681.44
449.338	632.44
449.559	774.44
449.779	872.44
450	677.44
450.221	547.44
450.442	518.44
450.662	487.44
450.883	483.44
451.104	531.44
451.324	505.44
451.545	460.44
451.766	449.44
451.986	432.44
452.207	424.44
452.428	424.44
452.648	435.44
452.869	425.44
453.089	468.44
453.31	461.44
453.53	443.44
453.751	452.44
453.971	454.44
454.192	487.44
454.412	463.44
454.633	438.44
454.853	457.44
455.073	448.44
455.294	465.44
455.514	539.44
455.734	524.44
455.955	460.44
456.175	425.44
456.395	414.44
456.616	395.44
456.836	398.44
457.056	397.44
457.276	384.44
457.497	401.44
457.717	398.44
457.937	395.44
458.157	410.44
458.377	422.44
458.598	445.44
458.818	505.44
459.038	629.44
459.258	599.44
459.478	515.44
459.698	476.44
459.918	444.44
460.138	434.44
460.358	436.44
460.578	436.44
460.798	433.44
461.018	440.44
461.238	431.44
461.458	423.44
461.678	424.44
461.898	428.44
462.118	428.44
462.338	431.44
462.558	432.44
462.777	457.44
462.997	456.44
463.217	460.44
463.437	454.44
463.657	453.44
463.876	451.44
464.096	460.44
464.316	448.44
464.536	468.44
464.755	470.44
464.975	492.44
465.195	535.44
465.414	635.44
465.634	559.44
465.854	501.44
466.073	443.44
466.293	467.44
466.512	431.44
466.732	419.44
466.951	430.44
467.171	455.44
467.391	436.44
467.61	436.44
467.829	449.44
468.049	447.44
468.268	463.44
468.488	413.44
468.707	404.44
468.927	445.44
469.146	416.44
469.365	407.44
469.585	421.44
469.804	427.44
470.023	456.44
470.243	439.44
470.462	441.44
470.681	461.44
470.901	464.44
471.12	442.44
471.339	434.44
471.558	445.44
471.777	474.44
471.997	432.44
472.216	450.44
472.435	506.44
472.654	481.44
472.873	477.44
473.092	449.44
473.311	429.44
473.53	445.44
473.749	437.44
473.968	492.44
474.187	647.44
474.406	641.44
474.625	502.44
474.844	437.44
475.063	432.44
475.282	453.44
475.501	427.44
475.72	435.44
475.939	459.44
476.158	439.44
476.377	454.44
476.596	453.44
476.814	446.44
477.033	469.44
477.252	454.44
477.471	473.44
477.69	461.44
477.908	487.44
478.127	477.44
478.346	462.44
478.564	477.44
478.783	465.44
479.002	492.44
479.22	471.44
479.439	511.44
479.658	515.44
479.876	524.44
480.095	548.44
480.313	558.44
480.532	560.44
480.751	528.44
480.969	540.44
481.188	636.44
481.406	710.44
481.624	594.44
481.843	566.44
482.061	523.44
482.28	523.44
482.498	520.44
482.717	521.44
482.935	512.44
483.153	520.44
483.372	522.44
483.59	519.44
483.808	517.44
484.027	501.44
484.245	516.44
484.463	508.44
484.681	526.44
484.9	521.44
485.118	529.44
485.336	528.44
485.554	527.44
485.772	533.44
485.99	514.44
486.209	534.44
486.427	552.44
486.645	539.44
486.863	556.44
487.081	573.44
487.299	572.44
487.517	555.44
487.735	552.44
487.953	515.44
488.171	559.44
488.389	552.44
488.607	576.44
488.825	554.44
489.043	566.44
489.261	571.44
489.479	553.44
489.696	564.44
489.914	565.44
490.132	581.44
490.35	581.44
490.568	601.44
490.786	594.44
491.003	609.44
491.221	620.44
491.439	614.44
491.657	619.44
491.874	640.44
492.092	639.44
492.31	647.44
492.527	648.44
492.745	647.44
492.963	680.44
493.18	669.44
493.398	666.44
493.615	668.44
493.833	655.44
494.05	665.44
494.268	665.44
494.485	651.44
494.703	643.44
494.92	667.44
495.138	645.44
495.355	671.44
495.573	672.44
495.79	663.44
496.008	664.44
496.225	653.44
496.442	649.44
496.66	671.44
496.877	671.44
497.094	679.44
497.312	670.44
497.529	693.44
497.746	669.44
497.963	672.44
498.181	710.44
498.398	699.44
498.615	684.44
498.832	721.44
499.049	731.44
499.267	734.44
499.484	732.44
499.701	750.44
499.918	778.44
500.135	772.44
500.352	781.44
500.569	807.44
500.786	816.44
501.003	832.44
501.22	795.44
501.437	779.44
501.654	785.44
501.871	811.44
