Data from 1972.PennyLincolnUp.Lamp.En5.5.200Scan.071719.P1._HRD10591_15-29-44-844.txt Node
Date: Thu Jul 18 15:29:44 EDT 2019
User: cochatt
Spectrometer: HR+D1059
Trigger mode: 1
Integration Time (sec): 1.000000E-1
Scans to average: 1
Electric dark correction enabled: true
Nonlinearity correction enabled: false
Boxcar width: 0
XAxis mode: Wavelengths
Number of Pixels in Spectrum: 2048
>>>>>Begin Spectral Data<<<<<
223.165	-16.81
223.4	-16.81
223.635	-16.81
223.869	-10.81
224.104	-11.81
224.338	-5.81
224.573	-20.81
224.808	-12.81
225.042	-5.81
225.277	-16.81
225.511	-1.81
225.746	-3.81
225.98	0.19
226.215	11.19
226.449	19.19
226.683	9.19
226.918	33.19
227.152	34.19
227.387	53.19
227.621	37.19
227.856	35.19
228.09	28.19
228.324	44.19
228.559	62.19
228.793	69.19
229.027	97.19
229.262	108.19
229.496	116.19
229.73	150.19
229.964	177.19
230.199	139.19
230.433	111.19
230.667	109.19
230.901	105.19
231.136	113.19
231.37	113.19
231.604	101.19
231.838	107.19
232.072	119.19
232.306	122.19
232.541	111.19
232.775	103.19
233.009	122.19
233.243	129.19
233.477	108.19
233.711	123.19
233.945	108.19
234.179	124.19
234.413	123.19
234.647	132.19
234.881	121.19
235.115	112.19
235.349	129.19
235.583	125.19
235.817	130.19
236.051	132.19
236.285	129.19
236.519	129.19
236.753	138.19
236.987	155.19
237.221	196.19
237.455	261.19
237.689	208.19
237.922	155.19
238.156	149.19
238.39	149.19
238.624	128.19
238.858	141.19
239.091	107.19
239.325	131.19
239.559	114.19
239.793	128.19
240.027	129.19
240.26	152.19
240.494	167.19
240.728	175.19
240.961	180.19
241.195	151.19
241.429	135.19
241.662	128.19
241.896	135.19
242.13	130.19
242.363	138.19
242.597	120.19
242.83	150.19
243.064	133.19
243.298	146.19
243.531	134.19
243.765	139.19
243.998	144.19
244.232	142.19
244.465	151.19
244.699	133.19
244.932	137.19
245.166	161.19
245.399	147.19
245.633	152.19
245.866	174.19
246.099	154.19
246.333	169.19
246.566	170.19
246.8	157.19
247.033	165.19
247.266	182.19
247.5	177.19
247.733	193.19
247.966	164.19
248.2	179.19
248.433	180.19
248.666	174.19
248.899	202.19
249.133	205.19
249.366	229.19
249.599	199.19
249.832	183.19
250.066	201.19
250.299	189.19
250.532	196.19
250.765	220.19
250.998	241.19
251.231	245.19
251.465	247.19
251.698	211.19
251.931	223.19
252.164	225.19
252.397	218.19
252.63	215.19
252.863	205.19
253.096	231.19
253.329	249.19
253.562	240.19
253.795	233.19
254.028	241.19
254.261	223.19
254.494	261.19
254.727	279.19
254.96	318.19
255.193	289.19
255.426	270.19
255.659	263.19
255.892	261.19
256.124	254.19
256.357	258.19
256.59	249.19
256.823	225.19
257.056	232.19
257.289	241.19
257.521	229.19
257.754	227.19
257.987	231.19
258.22	234.19
258.452	220.19
258.685	227.19
258.918	213.19
259.151	225.19
259.383	225.19
259.616	236.19
259.849	241.19
260.081	271.19
260.314	274.19
260.547	284.19
260.779	261.19
261.012	267.19
261.244	261.19
261.477	235.19
261.71	249.19
261.942	254.19
262.175	266.19
262.407	249.19
262.64	245.19
262.872	215.19
263.105	218.19
263.337	228.19
263.57	234.19
263.802	219.19
264.035	241.19
264.267	241.19
264.499	236.19
264.732	233.19
264.964	224.19
265.197	234.19
265.429	217.19
265.661	234.19
265.894	221.19
266.126	233.19
266.358	224.19
266.591	237.19
266.823	243.19
267.055	226.19
267.287	246.19
267.52	244.19
267.752	242.19
267.984	229.19
268.216	244.19
268.448	239.19
268.681	245.19
268.913	266.19
269.145	283.19
269.377	313.19
269.609	291.19
269.841	295.19
270.073	278.19
270.306	309.19
270.538	356.19
270.77	338.19
271.002	337.19
271.234	333.19
271.466	331.19
271.698	337.19
271.93	344.19
272.162	350.19
272.394	362.19
272.626	335.19
272.858	331.19
273.09	303.19
273.322	290.19
273.553	295.19
273.785	274.19
274.017	285.19
274.249	290.19
274.481	286.19
274.713	262.19
274.945	285.19
275.176	296.19
275.408	284.19
275.64	279.19
275.872	289.19
276.104	279.19
276.335	264.19
276.567	297.19
276.799	305.19
277.031	333.19
277.262	346.19
277.494	365.19
277.726	337.19
277.957	312.19
278.189	315.19
278.421	289.19
278.652	305.19
278.884	272.19
279.115	286.19
279.347	283.19
279.579	303.19
279.81	289.19
280.042	290.19
280.273	272.19
280.505	273.19
280.736	273.19
280.968	299.19
281.199	275.19
281.431	292.19
281.662	285.19
281.894	268.19
282.125	287.19
282.356	285.19
282.588	336.19
282.819	323.19
283.051	288.19
283.282	285.19
283.513	279.19
283.745	286.19
283.976	285.19
284.207	281.19
284.439	280.19
284.67	282.19
284.901	280.19
285.132	292.19
285.364	267.19
285.595	297.19
285.826	286.19
286.057	277.19
286.288	284.19
286.52	275.19
286.751	277.19
286.982	293.19
287.213	305.19
287.444	286.19
287.675	305.19
287.906	303.19
288.138	284.19
288.369	309.19
288.6	334.19
288.831	304.19
289.062	299.19
289.293	294.19
289.524	293.19
289.755	295.19
289.986	308.19
290.217	289.19
290.448	293.19
290.679	290.19
290.91	284.19
291.141	291.19
291.371	291.19
291.602	297.19
291.833	297.19
292.064	298.19
292.295	292.19
292.526	293.19
292.757	282.19
292.987	284.19
293.218	301.19
293.449	290.19
293.68	293.19
293.91	324.19
294.141	288.19
294.372	303.19
294.603	303.19
294.833	297.19
295.064	303.19
295.295	296.19
295.525	286.19
295.756	324.19
295.987	307.19
296.217	345.19
296.448	366.19
296.679	325.19
296.909	297.19
297.14	305.19
297.37	300.19
297.601	311.19
297.831	293.19
298.062	306.19
298.292	288.19
298.523	328.19
298.753	306.19
298.984	307.19
299.214	315.19
299.445	324.19
299.675	313.19
299.905	315.19
300.136	295.19
300.366	331.19
300.597	326.19
300.827	319.19
301.057	336.19
301.288	348.19
301.518	353.19
301.748	329.19
301.979	324.19
302.209	337.19
302.439	335.19
302.669	342.19
302.9	339.19
303.13	337.19
303.36	334.19
303.59	322.19
303.82	352.19
304.051	338.19
304.281	334.19
304.511	331.19
304.741	331.19
304.971	329.19
305.201	328.19
305.431	328.19
305.661	320.19
305.891	337.19
306.121	339.19
306.352	337.19
306.582	345.19
306.812	328.19
307.042	339.19
307.272	328.19
307.502	355.19
307.731	330.19
307.961	337.19
308.191	327.19
308.421	364.19
308.651	346.19
308.881	359.19
309.111	352.19
309.341	365.19
309.571	375.19
309.8	375.19
310.03	390.19
310.26	390.19
310.49	416.19
310.72	419.19
310.949	438.19
311.179	431.19
311.409	395.19
311.639	431.19
311.868	400.19
312.098	384.19
312.328	413.19
312.557	437.19
312.787	455.19
313.017	444.19
313.246	431.19
313.476	389.19
313.706	392.19
313.935	405.19
314.165	429.19
314.394	427.19
314.624	432.19
314.853	413.19
315.083	408.19
315.312	385.19
315.542	375.19
315.771	403.19
316.001	367.19
316.23	387.19
316.46	401.19
316.689	385.19
316.919	415.19
317.148	413.19
317.377	421.19
317.607	408.19
317.836	409.19
318.065	403.19
318.295	387.19
318.524	377.19
318.753	386.19
318.983	405.19
319.212	405.19
319.441	392.19
319.67	406.19
319.9	433.19
320.129	403.19
320.358	394.19
320.587	451.19
320.816	420.19
321.046	472.19
321.275	433.19
321.504	417.19
321.733	417.19
321.962	441.19
322.191	452.19
322.42	464.19
322.649	498.19
322.878	512.19
323.108	518.19
323.337	539.19
323.566	569.19
323.795	633.19
324.024	693.19
324.253	891.19
324.482	1285.19
324.71	2021.19
324.939	3038.19
325.168	2634.19
325.397	1333.19
325.626	837.19
325.855	661.19
326.084	603.19
326.313	595.19
326.542	596.19
326.77	668.19
326.999	809.19
327.228	1112.19
327.457	1748.19
327.686	2265.19
327.914	1495.19
328.143	921.19
328.372	785.19
328.6	729.19
328.829	688.19
329.058	702.19
329.287	726.19
329.515	669.19
329.744	601.19
329.972	595.19
330.201	612.19
330.43	692.19
330.658	718.19
330.887	753.19
331.115	721.19
331.344	618.19
331.572	539.19
331.801	540.19
332.03	549.19
332.258	516.19
332.486	479.19
332.715	484.19
332.943	480.19
333.172	470.19
333.4	481.19
333.629	487.19
333.857	502.19
334.085	531.19
334.314	562.19
334.542	597.19
334.771	619.19
334.999	580.19
335.227	489.19
335.455	479.19
335.684	471.19
335.912	465.19
336.14	462.19
336.369	471.19
336.597	476.19
336.825	487.19
337.053	460.19
337.281	448.19
337.51	450.19
337.738	462.19
337.966	449.19
338.194	474.19
338.422	443.19
338.65	447.19
338.878	444.19
339.106	429.19
339.334	439.19
339.562	411.19
339.79	444.19
340.018	455.19
340.246	427.19
340.474	441.19
340.702	460.19
340.93	457.19
341.158	423.19
341.386	455.19
341.614	453.19
341.842	449.19
342.07	437.19
342.298	428.19
342.526	433.19
342.754	417.19
342.981	402.19
343.209	412.19
343.437	413.19
343.665	411.19
343.893	427.19
344.12	435.19
344.348	430.19
344.576	437.19
344.804	440.19
345.031	447.19
345.259	477.19
345.487	448.19
345.714	461.19
345.942	437.19
346.17	447.19
346.397	443.19
346.625	410.19
346.853	417.19
347.08	421.19
347.308	432.19
347.535	445.19
347.763	457.19
347.99	460.19
348.218	456.19
348.445	438.19
348.673	440.19
348.9	427.19
349.128	417.19
349.355	397.19
349.583	395.19
349.81	430.19
350.037	398.19
350.265	399.19
350.492	421.19
350.72	425.19
350.947	429.19
351.174	424.19
351.402	441.19
351.629	461.19
351.856	450.19
352.083	469.19
352.311	468.19
352.538	460.19
352.765	456.19
352.992	441.19
353.22	429.19
353.447	447.19
353.674	409.19
353.901	397.19
354.128	400.19
354.355	397.19
354.583	398.19
354.81	385.19
355.037	388.19
355.264	386.19
355.491	391.19
355.718	386.19
355.945	383.19
356.172	377.19
356.399	363.19
356.626	377.19
356.853	369.19
357.08	380.19
357.307	387.19
357.534	369.19
357.761	385.19
357.988	388.19
358.215	393.19
358.441	398.19
358.668	391.19
358.895	405.19
359.122	388.19
359.349	407.19
359.576	438.19
359.802	447.19
360.029	488.19
360.256	525.19
360.483	486.19
360.709	457.19
360.936	423.19
361.163	417.19
361.39	440.19
361.616	433.19
361.843	422.19
362.07	435.19
362.296	437.19
362.523	431.19
362.749	447.19
362.976	409.19
363.203	410.19
363.429	395.19
363.656	404.19
363.882	394.19
364.109	399.19
364.335	383.19
364.562	398.19
364.788	372.19
365.015	383.19
365.241	392.19
365.468	407.19
365.694	412.19
365.92	391.19
366.147	397.19
366.373	401.19
366.599	394.19
366.826	379.19
367.052	378.19
367.278	394.19
367.505	393.19
367.731	397.19
367.957	397.19
368.184	390.19
368.41	391.19
368.636	421.19
368.862	434.19
369.089	398.19
369.315	405.19
369.541	388.19
369.767	383.19
369.993	397.19
370.219	381.19
370.445	395.19
370.672	389.19
370.898	355.19
371.124	364.19
371.35	385.19
371.576	389.19
371.802	384.19
372.028	391.19
372.254	371.19
372.48	378.19
372.706	380.19
372.932	367.19
373.158	385.19
373.384	398.19
373.61	380.19
373.835	401.19
374.061	390.19
374.287	382.19
374.513	365.19
374.739	365.19
374.965	381.19
375.191	387.19
375.416	378.19
375.642	376.19
375.868	380.19
376.094	400.19
376.319	363.19
376.545	364.19
376.771	385.19
376.997	379.19
377.222	369.19
377.448	379.19
377.674	361.19
377.899	369.19
378.125	353.19
378.35	365.19
378.576	383.19
378.802	388.19
379.027	381.19
379.253	372.19
379.478	381.19
379.704	389.19
379.929	392.19
380.155	377.19
380.38	376.19
380.606	385.19
380.831	379.19
381.057	366.19
381.282	384.19
381.507	375.19
381.733	366.19
381.958	376.19
382.184	376.19
382.409	387.19
382.634	393.19
382.86	401.19
383.085	376.19
383.31	398.19
383.535	394.19
383.761	373.19
383.986	378.19
384.211	411.19
384.436	410.19
384.662	405.19
384.887	381.19
385.112	380.19
385.337	402.19
385.562	394.19
385.787	393.19
386.013	421.19
386.238	411.19
386.463	414.19
386.688	416.19
386.913	414.19
387.138	390.19
387.363	410.19
387.588	394.19
387.813	400.19
388.038	407.19
388.263	400.19
388.488	392.19
388.713	393.19
388.938	396.19
389.163	411.19
389.387	398.19
389.612	394.19
389.837	423.19
390.062	403.19
390.287	394.19
390.512	422.19
390.736	380.19
390.961	399.19
391.186	396.19
391.411	393.19
391.636	404.19
391.86	397.19
392.085	407.19
392.31	403.19
392.534	410.19
392.759	423.19
392.984	394.19
393.208	391.19
393.433	428.19
393.658	403.19
393.882	403.19
394.107	403.19
394.331	405.19
394.556	402.19
394.78	394.19
395.005	397.19
395.229	413.19
395.454	418.19
395.678	435.19
395.903	414.19
396.127	455.19
396.352	462.19
396.576	431.19
396.801	428.19
397.025	430.19
397.249	426.19
397.474	431.19
397.698	410.19
397.922	444.19
398.147	455.19
398.371	437.19
398.595	435.19
398.82	440.19
399.044	443.19
399.268	443.19
399.492	461.19
399.717	515.19
399.941	533.19
400.165	564.19
400.389	571.19
400.613	537.19
400.837	504.19
401.062	474.19
401.286	475.19
401.51	466.19
401.734	440.19
401.958	431.19
402.182	452.19
402.406	477.19
402.63	480.19
402.854	456.19
403.078	493.19
403.302	454.19
403.526	463.19
403.75	465.19
403.974	473.19
404.198	481.19
404.422	484.19
404.645	489.19
404.869	468.19
405.093	527.19
405.317	587.19
405.541	604.19
405.765	545.19
405.988	509.19
406.212	518.19
406.436	545.19
406.66	546.19
406.883	543.19
407.107	548.19
407.331	635.19
407.555	672.19
407.778	669.19
408.002	598.19
408.226	545.19
408.449	548.19
408.673	529.19
408.896	579.19
409.12	608.19
409.344	574.19
409.567	534.19
409.791	499.19
410.014	484.19
410.238	469.19
410.461	471.19
410.685	512.19
410.908	515.19
411.132	532.19
411.355	585.19
411.578	567.19
411.802	489.19
412.025	475.19
412.249	480.19
412.472	523.19
412.695	571.19
412.919	563.19
413.142	518.19
413.365	476.19
413.589	479.19
413.812	459.19
414.035	449.19
414.258	469.19
414.482	452.19
414.705	458.19
414.928	446.19
415.151	444.19
415.374	433.19
415.597	433.19
415.821	449.19
416.044	458.19
416.267	465.19
416.49	455.19
416.713	441.19
416.936	447.19
417.159	443.19
417.382	456.19
417.605	454.19
417.828	477.19
418.051	485.19
418.274	469.19
418.497	487.19
418.72	465.19
418.943	441.19
419.166	470.19
419.389	487.19
419.611	487.19
419.834	476.19
420.057	474.19
420.28	488.19
420.503	487.19
420.726	508.19
420.948	476.19
421.171	557.19
421.394	581.19
421.617	515.19
421.839	486.19
422.062	472.19
422.285	515.19
422.507	580.19
422.73	627.19
422.953	619.19
423.175	544.19
423.398	506.19
423.621	515.19
423.843	524.19
424.066	519.19
424.288	494.19
424.511	555.19
424.733	615.19
424.956	713.19
425.178	683.19
425.401	690.19
425.623	675.19
425.846	595.19
426.068	548.19
426.291	529.19
426.513	539.19
426.735	559.19
426.958	591.19
427.18	692.19
427.402	855.19
427.625	966.19
427.847	848.19
428.069	723.19
428.292	626.19
428.514	566.19
428.736	547.19
428.958	543.19
429.181	497.19
429.403	479.19
429.625	513.19
429.847	553.19
430.069	621.19
430.292	625.19
430.514	555.19
430.736	509.19
430.958	485.19
431.18	459.19
431.402	459.19
431.624	455.19
431.846	448.19
432.068	457.19
432.29	455.19
432.512	445.19
432.734	457.19
432.956	460.19
433.178	463.19
433.4	507.19
433.622	461.19
433.844	465.19
434.066	447.19
434.287	455.19
434.509	449.19
434.731	477.19
434.953	490.19
435.175	487.19
435.397	525.19
435.618	535.19
435.84	589.19
436.062	705.19
436.284	763.19
436.505	637.19
436.727	571.19
436.949	524.19
437.17	506.19
437.392	503.19
437.614	540.19
437.835	564.19
438.057	670.19
438.278	796.19
438.5	773.19
438.721	847.19
438.943	821.19
439.165	639.19
439.386	575.19
439.608	576.19
439.829	583.19
440.05	599.19
440.272	659.19
440.493	609.19
440.715	554.19
440.936	532.19
441.158	505.19
441.379	512.19
441.6	513.19
441.822	542.19
442.043	601.19
442.264	696.19
442.486	732.19
442.707	616.19
442.928	563.19
443.149	562.19
443.371	606.19
443.592	642.19
443.813	745.19
444.034	807.19
444.255	669.19
444.476	563.19
444.698	543.19
444.919	543.19
445.14	620.19
445.361	599.19
445.582	585.19
445.803	709.19
446.024	836.19
446.245	833.19
446.466	724.19
446.687	605.19
446.908	563.19
447.129	531.19
447.35	499.19
447.571	519.19
447.792	500.19
448.013	522.19
448.234	524.19
448.455	594.19
448.675	732.19
448.896	842.19
449.117	721.19
449.338	667.19
449.559	778.19
449.779	894.19
450	705.19
450.221	550.19
450.442	531.19
450.662	504.19
450.883	510.19
451.104	543.19
451.324	520.19
451.545	492.19
451.766	481.19
451.986	435.19
452.207	455.19
452.428	438.19
452.648	451.19
452.869	460.19
453.089	476.19
453.31	471.19
453.53	491.19
453.751	451.19
453.971	472.19
454.192	475.19
454.412	471.19
454.633	452.19
454.853	459.19
455.073	450.19
455.294	475.19
455.514	562.19
455.734	572.19
455.955	469.19
456.175	414.19
456.395	426.19
456.616	407.19
456.836	417.19
457.056	416.19
457.276	404.19
457.497	411.19
457.717	399.19
457.937	420.19
458.157	428.19
458.377	443.19
458.598	445.19
458.818	543.19
459.038	637.19
459.258	654.19
459.478	556.19
459.698	492.19
459.918	465.19
460.138	464.19
460.358	432.19
460.578	474.19
460.798	444.19
461.018	439.19
461.238	438.19
461.458	445.19
461.678	427.19
461.898	431.19
462.118	439.19
462.338	444.19
462.558	466.19
462.777	447.19
462.997	448.19
463.217	466.19
463.437	469.19
463.657	488.19
463.876	472.19
464.096	453.19
464.316	483.19
464.536	497.19
464.755	491.19
464.975	500.19
465.195	556.19
465.414	653.19
465.634	599.19
465.854	511.19
466.073	481.19
466.293	475.19
466.512	455.19
466.732	440.19
466.951	441.19
467.171	440.19
467.391	456.19
467.61	454.19
467.829	466.19
468.049	465.19
468.268	472.19
468.488	465.19
468.707	429.19
468.927	449.19
469.146	428.19
469.365	421.19
469.585	412.19
469.804	440.19
470.023	464.19
470.243	451.19
470.462	462.19
470.681	481.19
470.901	469.19
471.12	445.19
471.339	459.19
471.558	462.19
471.777	457.19
471.997	459.19
472.216	482.19
472.435	537.19
472.654	512.19
472.873	440.19
473.092	447.19
473.311	446.19
473.53	463.19
473.749	484.19
473.968	520.19
474.187	643.19
474.406	680.19
474.625	531.19
474.844	497.19
475.063	468.19
475.282	457.19
475.501	463.19
475.72	484.19
475.939	470.19
476.158	463.19
476.377	463.19
476.596	457.19
476.814	477.19
477.033	477.19
477.252	477.19
477.471	477.19
477.69	490.19
477.908	485.19
478.127	492.19
478.346	492.19
478.564	490.19
478.783	505.19
479.002	504.19
479.22	522.19
479.439	537.19
479.658	554.19
479.876	555.19
480.095	544.19
480.313	599.19
480.532	565.19
480.751	545.19
480.969	550.19
481.188	666.19
481.406	751.19
481.624	627.19
481.843	581.19
482.061	567.19
482.28	543.19
482.498	550.19
482.717	544.19
482.935	547.19
483.153	537.19
483.372	520.19
483.59	538.19
483.808	527.19
484.027	529.19
484.245	549.19
484.463	534.19
484.681	527.19
484.9	561.19
485.118	546.19
485.336	561.19
485.554	549.19
485.772	545.19
485.99	567.19
486.209	568.19
486.427	560.19
486.645	579.19
486.863	568.19
487.081	602.19
487.299	589.19
487.517	577.19
487.735	572.19
487.953	570.19
488.171	540.19
488.389	570.19
488.607	558.19
488.825	589.19
489.043	581.19
489.261	602.19
489.479	594.19
489.696	592.19
489.914	599.19
490.132	591.19
490.35	594.19
490.568	605.19
490.786	637.19
491.003	632.19
491.221	655.19
491.439	651.19
491.657	660.19
491.874	644.19
492.092	677.19
492.31	664.19
492.527	690.19
492.745	687.19
492.963	677.19
493.18	703.19
493.398	714.19
493.615	692.19
493.833	684.19
494.05	685.19
494.268	694.19
494.485	681.19
494.703	705.19
494.92	684.19
495.138	677.19
495.355	691.19
495.573	698.19
495.79	689.19
496.008	710.19
496.225	685.19
496.442	693.19
496.66	685.19
496.877	673.19
497.094	717.19
497.312	703.19
497.529	708.19
497.746	714.19
497.963	731.19
498.181	750.19
498.398	746.19
498.615	756.19
498.832	755.19
499.049	754.19
499.267	771.19
499.484	758.19
499.701	780.19
499.918	806.19
500.135	826.19
500.352	867.19
500.569	824.19
500.786	844.19
501.003	877.19
501.22	827.19
501.437	833.19
501.654	821.19
501.871	842.19
