Data from 1972.PennyLincolnUp.Lamp.En5.5.200Scan.071719.P1._HRD10591_15-27-52-844.txt Node
Date: Thu Jul 18 15:27:52 EDT 2019
User: cochatt
Spectrometer: HR+D1059
Trigger mode: 1
Integration Time (sec): 1.000000E-1
Scans to average: 1
Electric dark correction enabled: true
Nonlinearity correction enabled: false
Boxcar width: 0
XAxis mode: Wavelengths
Number of Pixels in Spectrum: 2048
>>>>>Begin Spectral Data<<<<<
223.165	-14.19
223.4	-14.19
223.635	-14.19
223.869	-29.19
224.104	-18.19
224.338	-8.19
224.573	-16.19
224.808	-4.19
225.042	-7.19
225.277	-4.19
225.511	0.81
225.746	4.81
225.98	13.81
226.215	13.81
226.449	8.81
226.683	18.81
226.918	12.81
227.152	27.81
227.387	51.81
227.621	34.81
227.856	43.81
228.09	46.81
228.324	47.81
228.559	67.81
228.793	75.81
229.027	96.81
229.262	108.81
229.496	126.81
229.73	153.81
229.964	165.81
230.199	144.81
230.433	116.81
230.667	113.81
230.901	105.81
231.136	120.81
231.37	122.81
231.604	97.81
231.838	127.81
232.072	112.81
232.306	117.81
232.541	121.81
232.775	119.81
233.009	114.81
233.243	116.81
233.477	105.81
233.711	119.81
233.945	115.81
234.179	112.81
234.413	120.81
234.647	106.81
234.881	147.81
235.115	124.81
235.349	107.81
235.583	128.81
235.817	127.81
236.051	138.81
236.285	133.81
236.519	126.81
236.753	129.81
236.987	158.81
237.221	174.81
237.455	255.81
237.689	190.81
237.922	150.81
238.156	142.81
238.39	130.81
238.624	116.81
238.858	137.81
239.091	126.81
239.325	118.81
239.559	138.81
239.793	142.81
240.027	135.81
240.26	143.81
240.494	148.81
240.728	161.81
240.961	154.81
241.195	147.81
241.429	147.81
241.662	145.81
241.896	155.81
242.13	149.81
242.363	121.81
242.597	127.81
242.83	140.81
243.064	126.81
243.298	132.81
243.531	152.81
243.765	139.81
243.998	143.81
244.232	169.81
244.465	152.81
244.699	145.81
244.932	145.81
245.166	143.81
245.399	150.81
245.633	140.81
245.866	156.81
246.099	143.81
246.333	160.81
246.566	146.81
246.8	151.81
247.033	140.81
247.266	155.81
247.5	158.81
247.733	165.81
247.966	176.81
248.2	183.81
248.433	178.81
248.666	192.81
248.899	188.81
249.133	203.81
249.366	203.81
249.599	198.81
249.832	178.81
250.066	178.81
250.299	198.81
250.532	200.81
250.765	210.81
250.998	227.81
251.231	228.81
251.465	211.81
251.698	209.81
251.931	211.81
252.164	202.81
252.397	202.81
252.63	215.81
252.863	211.81
253.096	223.81
253.329	234.81
253.562	238.81
253.795	223.81
254.028	228.81
254.261	227.81
254.494	229.81
254.727	259.81
254.96	295.81
255.193	276.81
255.426	276.81
255.659	241.81
255.892	239.81
256.124	249.81
256.357	243.81
256.59	239.81
256.823	243.81
257.056	231.81
257.289	219.81
257.521	237.81
257.754	230.81
257.987	209.81
258.22	213.81
258.452	207.81
258.685	209.81
258.918	218.81
259.151	224.81
259.383	228.81
259.616	246.81
259.849	227.81
260.081	236.81
260.314	263.81
260.547	259.81
260.779	258.81
261.012	252.81
261.244	238.81
261.477	220.81
261.71	216.81
261.942	243.81
262.175	255.81
262.407	247.81
262.64	208.81
262.872	226.81
263.105	210.81
263.337	224.81
263.57	211.81
263.802	215.81
264.035	212.81
264.267	222.81
264.499	209.81
264.732	230.81
264.964	211.81
265.197	214.81
265.429	212.81
265.661	193.81
265.894	216.81
266.126	207.81
266.358	218.81
266.591	213.81
266.823	222.81
267.055	215.81
267.287	251.81
267.52	249.81
267.752	225.81
267.984	214.81
268.216	252.81
268.448	239.81
268.681	241.81
268.913	243.81
269.145	250.81
269.377	277.81
269.609	268.81
269.841	273.81
270.073	283.81
270.306	301.81
270.538	319.81
270.77	310.81
271.002	304.81
271.234	288.81
271.466	314.81
271.698	320.81
271.93	347.81
272.162	316.81
272.394	331.81
272.626	297.81
272.858	308.81
273.09	295.81
273.322	279.81
273.553	307.81
273.785	280.81
274.017	263.81
274.249	260.81
274.481	262.81
274.713	286.81
274.945	262.81
275.176	286.81
275.408	282.81
275.64	272.81
275.872	259.81
276.104	267.81
276.335	250.81
276.567	262.81
276.799	289.81
277.031	332.81
277.262	314.81
277.494	335.81
277.726	302.81
277.957	303.81
278.189	282.81
278.421	266.81
278.652	272.81
278.884	266.81
279.115	284.81
279.347	280.81
279.579	285.81
279.81	260.81
280.042	246.81
280.273	269.81
280.505	276.81
280.736	275.81
280.968	268.81
281.199	274.81
281.431	268.81
281.662	256.81
281.894	261.81
282.125	266.81
282.356	286.81
282.588	310.81
282.819	314.81
283.051	279.81
283.282	264.81
283.513	275.81
283.745	268.81
283.976	274.81
284.207	281.81
284.439	288.81
284.67	264.81
284.901	267.81
285.132	259.81
285.364	272.81
285.595	284.81
285.826	278.81
286.057	263.81
286.288	285.81
286.52	275.81
286.751	269.81
286.982	267.81
287.213	272.81
287.444	267.81
287.675	266.81
287.906	284.81
288.138	291.81
288.369	284.81
288.6	303.81
288.831	283.81
289.062	298.81
289.293	277.81
289.524	275.81
289.755	286.81
289.986	275.81
290.217	278.81
290.448	286.81
290.679	279.81
290.91	287.81
291.141	276.81
291.371	282.81
291.602	273.81
291.833	271.81
292.064	275.81
292.295	289.81
292.526	291.81
292.757	295.81
292.987	274.81
293.218	290.81
293.449	273.81
293.68	280.81
293.91	244.81
294.141	304.81
294.372	281.81
294.603	287.81
294.833	276.81
295.064	275.81
295.295	252.81
295.525	291.81
295.756	307.81
295.987	284.81
296.217	338.81
296.448	336.81
296.679	301.81
296.909	285.81
297.14	290.81
297.37	283.81
297.601	323.81
297.831	288.81
298.062	307.81
298.292	305.81
298.523	299.81
298.753	324.81
298.984	292.81
299.214	290.81
299.445	303.81
299.675	301.81
299.905	281.81
300.136	319.81
300.366	296.81
300.597	314.81
300.827	327.81
301.057	306.81
301.288	319.81
301.518	327.81
301.748	301.81
301.979	324.81
302.209	312.81
302.439	322.81
302.669	318.81
302.9	329.81
303.13	305.81
303.36	315.81
303.59	320.81
303.82	337.81
304.051	314.81
304.281	331.81
304.511	299.81
304.741	317.81
304.971	303.81
305.201	305.81
305.431	314.81
305.661	323.81
305.891	316.81
306.121	332.81
306.352	330.81
306.582	330.81
306.812	343.81
307.042	331.81
307.272	311.81
307.502	309.81
307.731	307.81
307.961	315.81
308.191	315.81
308.421	326.81
308.651	341.81
308.881	321.81
309.111	326.81
309.341	333.81
309.571	353.81
309.8	356.81
310.03	367.81
310.26	391.81
310.49	380.81
310.72	410.81
310.949	404.81
311.179	398.81
311.409	365.81
311.639	365.81
311.868	375.81
312.098	377.81
312.328	385.81
312.557	421.81
312.787	409.81
313.017	417.81
313.246	386.81
313.476	382.81
313.706	357.81
313.935	364.81
314.165	378.81
314.394	380.81
314.624	401.81
314.853	386.81
315.083	364.81
315.312	358.81
315.542	362.81
315.771	367.81
316.001	358.81
316.23	379.81
316.46	366.81
316.689	372.81
316.919	370.81
317.148	400.81
317.377	373.81
317.607	371.81
317.836	373.81
318.065	353.81
318.295	356.81
318.524	352.81
318.753	374.81
318.983	386.81
319.212	386.81
319.441	396.81
319.67	374.81
319.9	392.81
320.129	376.81
320.358	386.81
320.587	359.81
320.816	374.81
321.046	382.81
321.275	414.81
321.504	411.81
321.733	409.81
321.962	411.81
322.191	431.81
322.42	449.81
322.649	458.81
322.878	462.81
323.108	484.81
323.337	496.81
323.566	528.81
323.795	574.81
324.024	643.81
324.253	789.81
324.482	1112.81
324.71	1794.81
324.939	2584.81
325.168	2273.81
325.397	1151.81
325.626	762.81
325.855	616.81
326.084	554.81
326.313	527.81
326.542	527.81
326.77	604.81
326.999	716.81
327.228	1005.81
327.457	1567.81
327.686	1939.81
327.914	1280.81
328.143	817.81
328.372	710.81
328.6	657.81
328.829	588.81
329.058	648.81
329.287	648.81
329.515	599.81
329.744	544.81
329.972	546.81
330.201	574.81
330.43	613.81
330.658	658.81
330.887	652.81
331.115	673.81
331.344	572.81
331.572	510.81
331.801	505.81
332.03	515.81
332.258	469.81
332.486	458.81
332.715	452.81
332.943	440.81
333.172	427.81
333.4	448.81
333.629	483.81
333.857	469.81
334.085	475.81
334.314	493.81
334.542	572.81
334.771	570.81
334.999	533.81
335.227	487.81
335.455	457.81
335.684	418.81
335.912	447.81
336.14	428.81
336.369	427.81
336.597	447.81
336.825	435.81
337.053	435.81
337.281	418.81
337.51	432.81
337.738	458.81
337.966	418.81
338.194	443.81
338.422	429.81
338.65	442.81
338.878	419.81
339.106	402.81
339.334	408.81
339.562	417.81
339.79	416.81
340.018	403.81
340.246	428.81
340.474	394.81
340.702	417.81
340.93	416.81
341.158	418.81
341.386	426.81
341.614	418.81
341.842	426.81
342.07	420.81
342.298	426.81
342.526	410.81
342.754	413.81
342.981	392.81
343.209	386.81
343.437	402.81
343.665	412.81
343.893	406.81
344.12	422.81
344.348	403.81
344.576	413.81
344.804	432.81
345.031	424.81
345.259	434.81
345.487	424.81
345.714	419.81
345.942	405.81
346.17	391.81
346.397	399.81
346.625	417.81
346.853	402.81
347.08	424.81
347.308	413.81
347.535	419.81
347.763	436.81
347.99	407.81
348.218	418.81
348.445	416.81
348.673	424.81
348.9	426.81
349.128	399.81
349.355	417.81
349.583	382.81
349.81	395.81
350.037	385.81
350.265	394.81
350.492	386.81
350.72	404.81
350.947	387.81
351.174	406.81
351.402	423.81
351.629	433.81
351.856	415.81
352.083	404.81
352.311	428.81
352.538	419.81
352.765	440.81
352.992	433.81
353.22	408.81
353.447	410.81
353.674	394.81
353.901	375.81
354.128	380.81
354.355	383.81
354.583	387.81
354.81	380.81
355.037	358.81
355.264	359.81
355.491	367.81
355.718	372.81
355.945	359.81
356.172	374.81
356.399	368.81
356.626	352.81
356.853	368.81
357.08	365.81
357.307	378.81
357.534	352.81
357.761	353.81
357.988	375.81
358.215	366.81
358.441	372.81
358.668	383.81
358.895	368.81
359.122	388.81
359.349	384.81
359.576	435.81
359.802	456.81
360.029	477.81
360.256	463.81
360.483	455.81
360.709	406.81
360.936	410.81
361.163	408.81
361.39	408.81
361.616	404.81
361.843	406.81
362.07	413.81
362.296	388.81
362.523	399.81
362.749	407.81
362.976	381.81
363.203	382.81
363.429	375.81
363.656	382.81
363.882	347.81
364.109	381.81
364.335	378.81
364.562	351.81
364.788	371.81
365.015	382.81
365.241	390.81
365.468	387.81
365.694	384.81
365.92	394.81
366.147	388.81
366.373	394.81
366.599	370.81
366.826	398.81
367.052	354.81
367.278	382.81
367.505	379.81
367.731	394.81
367.957	380.81
368.184	383.81
368.41	387.81
368.636	400.81
368.862	407.81
369.089	384.81
369.315	351.81
369.541	375.81
369.767	382.81
369.993	368.81
370.219	382.81
370.445	362.81
370.672	370.81
370.898	380.81
371.124	362.81
371.35	367.81
371.576	374.81
371.802	374.81
372.028	381.81
372.254	351.81
372.48	366.81
372.706	367.81
372.932	374.81
373.158	350.81
373.384	359.81
373.61	367.81
373.835	379.81
374.061	375.81
374.287	383.81
374.513	365.81
374.739	380.81
374.965	344.81
375.191	380.81
375.416	382.81
375.642	391.81
375.868	394.81
376.094	380.81
376.319	369.81
376.545	356.81
376.771	369.81
376.997	339.81
377.222	356.81
377.448	396.81
377.674	354.81
377.899	382.81
378.125	362.81
378.35	368.81
378.576	334.81
378.802	359.81
379.027	365.81
379.253	343.81
379.478	373.81
379.704	374.81
379.929	370.81
380.155	369.81
380.38	359.81
380.606	366.81
380.831	361.81
381.057	360.81
381.282	369.81
381.507	356.81
381.733	379.81
381.958	354.81
382.184	362.81
382.409	361.81
382.634	370.81
382.86	365.81
383.085	391.81
383.31	375.81
383.535	382.81
383.761	389.81
383.986	384.81
384.211	360.81
384.436	369.81
384.662	378.81
384.887	382.81
385.112	374.81
385.337	379.81
385.562	379.81
385.787	403.81
386.013	411.81
386.238	421.81
386.463	394.81
386.688	389.81
386.913	371.81
387.138	369.81
387.363	386.81
387.588	380.81
387.813	398.81
388.038	375.81
388.263	395.81
388.488	401.81
388.713	367.81
388.938	403.81
389.163	388.81
389.387	389.81
389.612	378.81
389.837	371.81
390.062	386.81
390.287	394.81
390.512	386.81
390.736	384.81
390.961	378.81
391.186	388.81
391.411	389.81
391.636	400.81
391.86	400.81
392.085	375.81
392.31	404.81
392.534	374.81
392.759	399.81
392.984	380.81
393.208	394.81
393.433	400.81
393.658	411.81
393.882	396.81
394.107	376.81
394.331	397.81
394.556	389.81
394.78	390.81
395.005	399.81
395.229	380.81
395.454	402.81
395.678	392.81
395.903	439.81
396.127	412.81
396.352	414.81
396.576	422.81
396.801	416.81
397.025	422.81
397.249	398.81
397.474	415.81
397.698	422.81
397.922	431.81
398.147	452.81
398.371	454.81
398.595	426.81
398.82	429.81
399.044	428.81
399.268	448.81
399.492	471.81
399.717	483.81
399.941	479.81
400.165	537.81
400.389	550.81
400.613	478.81
400.837	475.81
401.062	443.81
401.286	456.81
401.51	438.81
401.734	436.81
401.958	453.81
402.182	436.81
402.406	459.81
402.63	462.81
402.854	442.81
403.078	460.81
403.302	442.81
403.526	448.81
403.75	481.81
403.974	458.81
404.198	444.81
404.422	457.81
404.645	464.81
404.869	468.81
405.093	494.81
405.317	559.81
405.541	580.81
405.765	532.81
405.988	507.81
406.212	498.81
406.436	546.81
406.66	530.81
406.883	510.81
407.107	537.81
407.331	582.81
407.555	636.81
407.778	630.81
408.002	569.81
408.226	512.81
408.449	520.81
408.673	524.81
408.896	550.81
409.12	610.81
409.344	545.81
409.567	500.81
409.791	460.81
410.014	467.81
410.238	462.81
410.461	477.81
410.685	470.81
410.908	496.81
411.132	502.81
411.355	566.81
411.578	504.81
411.802	458.81
412.025	448.81
412.249	481.81
412.472	482.81
412.695	555.81
412.919	530.81
413.142	479.81
413.365	459.81
413.589	448.81
413.812	448.81
414.035	450.81
414.258	434.81
414.482	432.81
414.705	425.81
414.928	428.81
415.151	434.81
415.374	401.81
415.597	406.81
415.821	418.81
416.044	442.81
416.267	430.81
416.49	442.81
416.713	431.81
416.936	414.81
417.159	432.81
417.382	440.81
417.605	450.81
417.828	459.81
418.051	462.81
418.274	455.81
418.497	457.81
418.72	431.81
418.943	422.81
419.166	455.81
419.389	474.81
419.611	452.81
419.834	445.81
420.057	443.81
420.28	474.81
420.503	482.81
420.726	477.81
420.948	464.81
421.171	511.81
421.394	571.81
421.617	489.81
421.839	468.81
422.062	462.81
422.285	494.81
422.507	545.81
422.73	618.81
422.953	595.81
423.175	529.81
423.398	507.81
423.621	471.81
423.843	516.81
424.066	500.81
424.288	499.81
424.511	532.81
424.733	588.81
424.956	646.81
425.178	664.81
425.401	612.81
425.623	668.81
425.846	568.81
426.068	513.81
426.291	510.81
426.513	501.81
426.735	525.81
426.958	563.81
427.18	646.81
427.402	788.81
427.625	903.81
427.847	794.81
428.069	680.81
428.292	603.81
428.514	529.81
428.736	512.81
428.958	501.81
429.181	482.81
429.403	486.81
429.625	492.81
429.847	518.81
430.069	612.81
430.292	604.81
430.514	501.81
430.736	462.81
430.958	464.81
431.18	458.81
431.402	446.81
431.624	430.81
431.846	440.81
432.068	458.81
432.29	431.81
432.512	442.81
432.734	456.81
432.956	435.81
433.178	460.81
433.4	476.81
433.622	448.81
433.844	414.81
434.066	435.81
434.287	437.81
434.509	470.81
434.731	458.81
434.953	448.81
435.175	465.81
435.397	478.81
435.618	535.81
435.84	570.81
436.062	672.81
436.284	732.81
436.505	623.81
436.727	548.81
436.949	487.81
437.17	464.81
437.392	479.81
437.614	480.81
437.835	534.81
438.057	618.81
438.278	736.81
438.5	735.81
438.721	809.81
438.943	772.81
439.165	630.81
439.386	542.81
439.608	546.81
439.829	523.81
440.05	567.81
440.272	613.81
440.493	589.81
440.715	530.81
440.936	484.81
441.158	467.81
441.379	487.81
441.6	488.81
441.822	509.81
442.043	560.81
442.264	624.81
442.486	710.81
442.707	578.81
442.928	529.81
443.149	542.81
443.371	591.81
443.592	617.81
443.813	706.81
444.034	755.81
444.255	606.81
444.476	530.81
444.698	507.81
444.919	497.81
445.14	616.81
445.361	577.81
445.582	579.81
445.803	644.81
446.024	747.81
446.245	755.81
446.466	693.81
446.687	567.81
446.908	525.81
447.129	497.81
447.35	461.81
447.571	498.81
447.792	503.81
448.013	474.81
448.234	507.81
448.455	567.81
448.675	673.81
448.896	812.81
449.117	684.81
449.338	665.81
449.559	728.81
449.779	837.81
450	659.81
450.221	562.81
450.442	518.81
450.662	498.81
450.883	490.81
451.104	512.81
451.324	488.81
451.545	460.81
451.766	443.81
451.986	432.81
452.207	431.81
452.428	429.81
452.648	428.81
452.869	455.81
453.089	425.81
453.31	452.81
453.53	452.81
453.751	426.81
453.971	452.81
454.192	474.81
454.412	454.81
454.633	430.81
454.853	426.81
455.073	410.81
455.294	464.81
455.514	530.81
455.734	531.81
455.955	446.81
456.175	408.81
456.395	396.81
456.616	384.81
456.836	402.81
457.056	386.81
457.276	397.81
457.497	400.81
457.717	398.81
457.937	406.81
458.157	424.81
458.377	428.81
458.598	448.81
458.818	507.81
459.038	606.81
459.258	618.81
459.478	518.81
459.698	468.81
459.918	454.81
460.138	427.81
460.358	424.81
460.578	448.81
460.798	426.81
461.018	456.81
461.238	437.81
461.458	407.81
461.678	434.81
461.898	423.81
462.118	441.81
462.338	435.81
462.558	447.81
462.777	439.81
462.997	454.81
463.217	457.81
463.437	452.81
463.657	474.81
463.876	473.81
464.096	468.81
464.316	465.81
464.536	459.81
464.755	478.81
464.975	495.81
465.195	546.81
465.414	620.81
465.634	552.81
465.854	491.81
466.073	468.81
466.293	454.81
466.512	442.81
466.732	438.81
466.951	440.81
467.171	421.81
467.391	430.81
467.61	444.81
467.829	456.81
468.049	444.81
468.268	443.81
468.488	426.81
468.707	434.81
468.927	416.81
469.146	407.81
469.365	416.81
469.585	431.81
469.804	419.81
470.023	443.81
470.243	454.81
470.462	441.81
470.681	458.81
470.901	449.81
471.12	449.81
471.339	450.81
471.558	434.81
471.777	445.81
471.997	424.81
472.216	450.81
472.435	504.81
472.654	484.81
472.873	450.81
473.092	432.81
473.311	421.81
473.53	437.81
473.749	473.81
473.968	516.81
474.187	610.81
474.406	624.81
474.625	506.81
474.844	466.81
475.063	445.81
475.282	454.81
475.501	429.81
475.72	450.81
475.939	447.81
476.158	453.81
476.377	438.81
476.596	447.81
476.814	464.81
477.033	475.81
477.252	461.81
477.471	466.81
477.69	462.81
477.908	459.81
478.127	468.81
478.346	494.81
478.564	481.81
478.783	470.81
479.002	462.81
479.22	476.81
479.439	510.81
479.658	528.81
479.876	535.81
480.095	540.81
480.313	544.81
480.532	553.81
480.751	522.81
480.969	570.81
481.188	619.81
481.406	684.81
481.624	584.81
481.843	539.81
482.061	536.81
482.28	524.81
482.498	530.81
482.717	497.81
482.935	530.81
483.153	528.81
483.372	520.81
483.59	532.81
483.808	508.81
484.027	506.81
484.245	522.81
484.463	539.81
484.681	512.81
484.9	535.81
485.118	520.81
485.336	527.81
485.554	524.81
485.772	543.81
485.99	518.81
486.209	538.81
486.427	548.81
486.645	549.81
486.863	577.81
487.081	572.81
487.299	559.81
487.517	557.81
487.735	534.81
487.953	555.81
488.171	550.81
488.389	552.81
488.607	565.81
488.825	550.81
489.043	570.81
489.261	576.81
489.479	551.81
489.696	552.81
489.914	560.81
490.132	564.81
490.35	571.81
490.568	575.81
490.786	592.81
491.003	589.81
491.221	599.81
491.439	632.81
491.657	623.81
491.874	656.81
492.092	625.81
492.31	658.81
492.527	630.81
492.745	638.81
492.963	659.81
493.18	635.81
493.398	642.81
493.615	683.81
493.833	643.81
494.05	648.81
494.268	636.81
494.485	650.81
494.703	630.81
494.92	654.81
495.138	636.81
495.355	673.81
495.573	657.81
495.79	675.81
496.008	648.81
496.225	668.81
496.442	655.81
496.66	653.81
496.877	642.81
497.094	643.81
497.312	664.81
497.529	658.81
497.746	658.81
497.963	689.81
498.181	714.81
498.398	730.81
498.615	712.81
498.832	732.81
499.049	729.81
499.267	717.81
499.484	713.81
499.701	786.81
499.918	787.81
500.135	792.81
500.352	822.81
500.569	807.81
500.786	830.81
501.003	801.81
501.22	826.81
501.437	795.81
501.654	779.81
501.871	797.81
