Data from 1972.PennyLincolnUp.Lamp.En5.5.200Scan.071719.P1._HRD10591_15-29-20-844.txt Node
Date: Thu Jul 18 15:29:20 EDT 2019
User: cochatt
Spectrometer: HR+D1059
Trigger mode: 1
Integration Time (sec): 1.000000E-1
Scans to average: 1
Electric dark correction enabled: true
Nonlinearity correction enabled: false
Boxcar width: 0
XAxis mode: Wavelengths
Number of Pixels in Spectrum: 2048
>>>>>Begin Spectral Data<<<<<
223.165	-7.19
223.4	-7.19
223.635	-7.19
223.869	-30.19
224.104	-17.19
224.338	-28.19
224.573	-4.19
224.808	2.81
225.042	-19.19
225.277	3.81
225.511	-5.19
225.746	12.81
225.98	-2.19
226.215	3.81
226.449	5.81
226.683	21.81
226.918	31.81
227.152	30.81
227.387	37.81
227.621	32.81
227.856	53.81
228.09	45.81
228.324	61.81
228.559	65.81
228.793	66.81
229.027	108.81
229.262	107.81
229.496	115.81
229.73	158.81
229.964	187.81
230.199	133.81
230.433	130.81
230.667	121.81
230.901	119.81
231.136	114.81
231.37	112.81
231.604	116.81
231.838	128.81
232.072	119.81
232.306	117.81
232.541	120.81
232.775	119.81
233.009	123.81
233.243	116.81
233.477	126.81
233.711	98.81
233.945	126.81
234.179	124.81
234.413	123.81
234.647	123.81
234.881	111.81
235.115	108.81
235.349	108.81
235.583	134.81
235.817	122.81
236.051	130.81
236.285	130.81
236.519	125.81
236.753	128.81
236.987	154.81
237.221	213.81
237.455	249.81
237.689	222.81
237.922	162.81
238.156	139.81
238.39	142.81
238.624	129.81
238.858	125.81
239.091	125.81
239.325	131.81
239.559	132.81
239.793	140.81
240.027	131.81
240.26	142.81
240.494	148.81
240.728	166.81
240.961	150.81
241.195	162.81
241.429	145.81
241.662	148.81
241.896	140.81
242.13	139.81
242.363	152.81
242.597	121.81
242.83	135.81
243.064	154.81
243.298	146.81
243.531	136.81
243.765	151.81
243.998	154.81
244.232	151.81
244.465	142.81
244.699	142.81
244.932	143.81
245.166	158.81
245.399	132.81
245.633	167.81
245.866	153.81
246.099	146.81
246.333	159.81
246.566	156.81
246.8	151.81
247.033	164.81
247.266	180.81
247.5	168.81
247.733	196.81
247.966	170.81
248.2	180.81
248.433	175.81
248.666	194.81
248.899	188.81
249.133	209.81
249.366	230.81
249.599	212.81
249.832	193.81
250.066	202.81
250.299	188.81
250.532	204.81
250.765	201.81
250.998	232.81
251.231	256.81
251.465	224.81
251.698	223.81
251.931	218.81
252.164	199.81
252.397	213.81
252.63	232.81
252.863	232.81
253.096	238.81
253.329	280.81
253.562	244.81
253.795	255.81
254.028	231.81
254.261	235.81
254.494	250.81
254.727	267.81
254.96	308.81
255.193	291.81
255.426	271.81
255.659	258.81
255.892	248.81
256.124	269.81
256.357	248.81
256.59	240.81
256.823	246.81
257.056	228.81
257.289	229.81
257.521	237.81
257.754	229.81
257.987	237.81
258.22	251.81
258.452	207.81
258.685	218.81
258.918	228.81
259.151	235.81
259.383	226.81
259.616	229.81
259.849	264.81
260.081	249.81
260.314	267.81
260.547	279.81
260.779	268.81
261.012	249.81
261.244	240.81
261.477	245.81
261.71	256.81
261.942	240.81
262.175	254.81
262.407	252.81
262.64	244.81
262.872	232.81
263.105	232.81
263.337	228.81
263.57	225.81
263.802	218.81
264.035	226.81
264.267	218.81
264.499	220.81
264.732	224.81
264.964	220.81
265.197	224.81
265.429	208.81
265.661	225.81
265.894	233.81
266.126	210.81
266.358	234.81
266.591	231.81
266.823	233.81
267.055	236.81
267.287	243.81
267.52	211.81
267.752	243.81
267.984	242.81
268.216	256.81
268.448	244.81
268.681	246.81
268.913	254.81
269.145	288.81
269.377	304.81
269.609	301.81
269.841	296.81
270.073	290.81
270.306	313.81
270.538	362.81
270.77	331.81
271.002	325.81
271.234	310.81
271.466	299.81
271.698	333.81
271.93	343.81
272.162	355.81
272.394	355.81
272.626	334.81
272.858	309.81
273.09	325.81
273.322	317.81
273.553	265.81
273.785	273.81
274.017	298.81
274.249	289.81
274.481	288.81
274.713	286.81
274.945	283.81
275.176	270.81
275.408	267.81
275.64	281.81
275.872	290.81
276.104	272.81
276.335	275.81
276.567	296.81
276.799	309.81
277.031	326.81
277.262	318.81
277.494	343.81
277.726	319.81
277.957	334.81
278.189	296.81
278.421	276.81
278.652	295.81
278.884	300.81
279.115	289.81
279.347	279.81
279.579	283.81
279.81	279.81
280.042	294.81
280.273	269.81
280.505	284.81
280.736	250.81
280.968	268.81
281.199	287.81
281.431	280.81
281.662	298.81
281.894	290.81
282.125	279.81
282.356	302.81
282.588	338.81
282.819	329.81
283.051	285.81
283.282	279.81
283.513	262.81
283.745	292.81
283.976	285.81
284.207	290.81
284.439	298.81
284.67	313.81
284.901	288.81
285.132	290.81
285.364	281.81
285.595	281.81
285.826	287.81
286.057	277.81
286.288	289.81
286.52	279.81
286.751	289.81
286.982	282.81
287.213	275.81
287.444	274.81
287.675	289.81
287.906	294.81
288.138	309.81
288.369	307.81
288.6	313.81
288.831	309.81
289.062	311.81
289.293	307.81
289.524	293.81
289.755	278.81
289.986	307.81
290.217	298.81
290.448	287.81
290.679	279.81
290.91	301.81
291.141	274.81
291.371	282.81
291.602	298.81
291.833	287.81
292.064	288.81
292.295	288.81
292.526	299.81
292.757	284.81
292.987	306.81
293.218	312.81
293.449	298.81
293.68	294.81
293.91	303.81
294.141	291.81
294.372	296.81
294.603	288.81
294.833	301.81
295.064	309.81
295.295	291.81
295.525	282.81
295.756	309.81
295.987	307.81
296.217	346.81
296.448	346.81
296.679	298.81
296.909	298.81
297.14	298.81
297.37	301.81
297.601	293.81
297.831	327.81
298.062	295.81
298.292	307.81
298.523	300.81
298.753	318.81
298.984	310.81
299.214	312.81
299.445	307.81
299.675	326.81
299.905	319.81
300.136	319.81
300.366	319.81
300.597	289.81
300.827	324.81
301.057	339.81
301.288	342.81
301.518	330.81
301.748	322.81
301.979	317.81
302.209	318.81
302.439	315.81
302.669	324.81
302.9	312.81
303.13	338.81
303.36	338.81
303.59	336.81
303.82	362.81
304.051	349.81
304.281	328.81
304.511	314.81
304.741	325.81
304.971	333.81
305.201	324.81
305.431	328.81
305.661	348.81
305.891	331.81
306.121	335.81
306.352	334.81
306.582	342.81
306.812	346.81
307.042	336.81
307.272	328.81
307.502	346.81
307.731	328.81
307.961	316.81
308.191	325.81
308.421	326.81
308.651	343.81
308.881	350.81
309.111	354.81
309.341	351.81
309.571	378.81
309.8	366.81
310.03	394.81
310.26	382.81
310.49	401.81
310.72	400.81
310.949	422.81
311.179	413.81
311.409	412.81
311.639	399.81
311.868	392.81
312.098	388.81
312.328	401.81
312.557	420.81
312.787	450.81
313.017	431.81
313.246	417.81
313.476	390.81
313.706	394.81
313.935	388.81
314.165	434.81
314.394	453.81
314.624	428.81
314.853	402.81
315.083	403.81
315.312	381.81
315.542	384.81
315.771	381.81
316.001	380.81
316.23	401.81
316.46	388.81
316.689	393.81
316.919	384.81
317.148	395.81
317.377	388.81
317.607	407.81
317.836	410.81
318.065	380.81
318.295	389.81
318.524	382.81
318.753	390.81
318.983	385.81
319.212	377.81
319.441	395.81
319.67	422.81
319.9	411.81
320.129	401.81
320.358	401.81
320.587	398.81
320.816	415.81
321.046	438.81
321.275	419.81
321.504	414.81
321.733	424.81
321.962	425.81
322.191	452.81
322.42	459.81
322.649	488.81
322.878	518.81
323.108	511.81
323.337	552.81
323.566	580.81
323.795	628.81
324.024	698.81
324.253	859.81
324.482	1234.81
324.71	1980.81
324.939	2908.81
325.168	2558.81
325.397	1259.81
325.626	794.81
325.855	662.81
326.084	604.81
326.313	578.81
326.542	587.81
326.77	611.81
326.999	763.81
327.228	1108.81
327.457	1740.81
327.686	2221.81
327.914	1418.81
328.143	896.81
328.372	757.81
328.6	706.81
328.829	661.81
329.058	686.81
329.287	683.81
329.515	636.81
329.744	575.81
329.972	591.81
330.201	623.81
330.43	679.81
330.658	691.81
330.887	728.81
331.115	687.81
331.344	599.81
331.572	551.81
331.801	547.81
332.03	548.81
332.258	515.81
332.486	484.81
332.715	487.81
332.943	467.81
333.172	471.81
333.4	489.81
333.629	493.81
333.857	505.81
334.085	534.81
334.314	557.81
334.542	605.81
334.771	611.81
334.999	527.81
335.227	490.81
335.455	479.81
335.684	450.81
335.912	456.81
336.14	439.81
336.369	439.81
336.597	484.81
336.825	458.81
337.053	445.81
337.281	453.81
337.51	432.81
337.738	457.81
337.966	432.81
338.194	450.81
338.422	456.81
338.65	436.81
338.878	442.81
339.106	411.81
339.334	415.81
339.562	452.81
339.79	426.81
340.018	429.81
340.246	442.81
340.474	457.81
340.702	450.81
340.93	437.81
341.158	440.81
341.386	446.81
341.614	442.81
341.842	455.81
342.07	458.81
342.298	442.81
342.526	421.81
342.754	403.81
342.981	406.81
343.209	405.81
343.437	424.81
343.665	436.81
343.893	432.81
344.12	451.81
344.348	434.81
344.576	447.81
344.804	456.81
345.031	466.81
345.259	446.81
345.487	436.81
345.714	455.81
345.942	432.81
346.17	423.81
346.397	438.81
346.625	426.81
346.853	425.81
347.08	423.81
347.308	431.81
347.535	434.81
347.763	438.81
347.99	427.81
348.218	446.81
348.445	423.81
348.673	434.81
348.9	434.81
349.128	430.81
349.355	391.81
349.583	388.81
349.81	411.81
350.037	393.81
350.265	419.81
350.492	412.81
350.72	414.81
350.947	419.81
351.174	432.81
351.402	423.81
351.629	427.81
351.856	438.81
352.083	450.81
352.311	445.81
352.538	443.81
352.765	440.81
352.992	429.81
353.22	425.81
353.447	421.81
353.674	412.81
353.901	411.81
354.128	403.81
354.355	395.81
354.583	380.81
354.81	381.81
355.037	388.81
355.264	396.81
355.491	375.81
355.718	380.81
355.945	385.81
356.172	375.81
356.399	364.81
356.626	386.81
356.853	382.81
357.08	378.81
357.307	394.81
357.534	376.81
357.761	358.81
357.988	378.81
358.215	366.81
358.441	374.81
358.668	373.81
358.895	379.81
359.122	393.81
359.349	396.81
359.576	412.81
359.802	461.81
360.029	502.81
360.256	501.81
360.483	472.81
360.709	437.81
360.936	436.81
361.163	447.81
361.39	433.81
361.616	391.81
361.843	438.81
362.07	394.81
362.296	418.81
362.523	424.81
362.749	416.81
362.976	397.81
363.203	426.81
363.429	390.81
363.656	416.81
363.882	412.81
364.109	386.81
364.335	390.81
364.562	381.81
364.788	387.81
365.015	380.81
365.241	399.81
365.468	410.81
365.694	406.81
365.92	430.81
366.147	396.81
366.373	388.81
366.599	387.81
366.826	383.81
367.052	386.81
367.278	393.81
367.505	390.81
367.731	379.81
367.957	398.81
368.184	389.81
368.41	412.81
368.636	410.81
368.862	395.81
369.089	406.81
369.315	384.81
369.541	382.81
369.767	372.81
369.993	393.81
370.219	391.81
370.445	403.81
370.672	393.81
370.898	374.81
371.124	379.81
371.35	381.81
371.576	379.81
371.802	387.81
372.028	376.81
372.254	372.81
372.48	381.81
372.706	371.81
372.932	402.81
373.158	361.81
373.384	352.81
373.61	390.81
373.835	384.81
374.061	390.81
374.287	386.81
374.513	363.81
374.739	388.81
374.965	383.81
375.191	396.81
375.416	373.81
375.642	365.81
375.868	376.81
376.094	391.81
376.319	353.81
376.545	356.81
376.771	377.81
376.997	373.81
377.222	366.81
377.448	386.81
377.674	359.81
377.899	374.81
378.125	362.81
378.35	372.81
378.576	369.81
378.802	357.81
379.027	370.81
379.253	367.81
379.478	363.81
379.704	358.81
379.929	378.81
380.155	382.81
380.38	398.81
380.606	392.81
380.831	390.81
381.057	392.81
381.282	386.81
381.507	382.81
381.733	377.81
381.958	386.81
382.184	373.81
382.409	375.81
382.634	367.81
382.86	377.81
383.085	392.81
383.31	379.81
383.535	380.81
383.761	358.81
383.986	386.81
384.211	384.81
384.436	375.81
384.662	372.81
384.887	387.81
385.112	398.81
385.337	380.81
385.562	400.81
385.787	411.81
386.013	413.81
386.238	382.81
386.463	386.81
386.688	401.81
386.913	392.81
387.138	399.81
387.363	392.81
387.588	398.81
387.813	397.81
388.038	408.81
388.263	382.81
388.488	406.81
388.713	382.81
388.938	399.81
389.163	394.81
389.387	403.81
389.612	391.81
389.837	391.81
390.062	378.81
390.287	395.81
390.512	403.81
390.736	389.81
390.961	390.81
391.186	410.81
391.411	380.81
391.636	408.81
391.86	407.81
392.085	401.81
392.31	395.81
392.534	412.81
392.759	394.81
392.984	417.81
393.208	389.81
393.433	397.81
393.658	390.81
393.882	404.81
394.107	382.81
394.331	401.81
394.556	381.81
394.78	401.81
395.005	390.81
395.229	399.81
395.454	400.81
395.678	429.81
395.903	421.81
396.127	450.81
396.352	453.81
396.576	420.81
396.801	415.81
397.025	400.81
397.249	428.81
397.474	420.81
397.698	418.81
397.922	439.81
398.147	436.81
398.371	451.81
398.595	425.81
398.82	452.81
399.044	436.81
399.268	468.81
399.492	495.81
399.717	489.81
399.941	504.81
400.165	554.81
400.389	564.81
400.613	502.81
400.837	492.81
401.062	468.81
401.286	478.81
401.51	453.81
401.734	442.81
401.958	444.81
402.182	461.81
402.406	479.81
402.63	487.81
402.854	483.81
403.078	452.81
403.302	460.81
403.526	459.81
403.75	478.81
403.974	462.81
404.198	451.81
404.422	469.81
404.645	504.81
404.869	490.81
405.093	528.81
405.317	563.81
405.541	603.81
405.765	548.81
405.988	505.81
406.212	538.81
406.436	536.81
406.66	546.81
406.883	540.81
407.107	531.81
407.331	572.81
407.555	657.81
407.778	650.81
408.002	571.81
408.226	539.81
408.449	535.81
408.673	518.81
408.896	561.81
409.12	608.81
409.344	567.81
409.567	470.81
409.791	479.81
410.014	470.81
410.238	472.81
410.461	464.81
410.685	473.81
410.908	507.81
411.132	534.81
411.355	570.81
411.578	545.81
411.802	506.81
412.025	473.81
412.249	485.81
412.472	527.81
412.695	543.81
412.919	544.81
413.142	498.81
413.365	469.81
413.589	472.81
413.812	448.81
414.035	462.81
414.258	445.81
414.482	435.81
414.705	448.81
414.928	452.81
415.151	446.81
415.374	434.81
415.597	439.81
415.821	440.81
416.044	454.81
416.267	463.81
416.49	436.81
416.713	432.81
416.936	453.81
417.159	423.81
417.382	462.81
417.605	458.81
417.828	438.81
418.051	458.81
418.274	482.81
418.497	443.81
418.72	437.81
418.943	462.81
419.166	458.81
419.389	490.81
419.611	452.81
419.834	474.81
420.057	468.81
420.28	482.81
420.503	481.81
420.726	490.81
420.948	488.81
421.171	536.81
421.394	584.81
421.617	536.81
421.839	488.81
422.062	487.81
422.285	506.81
422.507	566.81
422.73	651.81
422.953	618.81
423.175	532.81
423.398	527.81
423.621	491.81
423.843	516.81
424.066	511.81
424.288	527.81
424.511	559.81
424.733	583.81
424.956	708.81
425.178	671.81
425.401	650.81
425.623	681.81
425.846	582.81
426.068	546.81
426.291	528.81
426.513	548.81
426.735	538.81
426.958	596.81
427.18	697.81
427.402	816.81
427.625	914.81
427.847	796.81
428.069	718.81
428.292	610.81
428.514	546.81
428.736	525.81
428.958	506.81
429.181	482.81
429.403	501.81
429.625	502.81
429.847	535.81
430.069	601.81
430.292	626.81
430.514	520.81
430.736	471.81
430.958	487.81
431.18	463.81
431.402	466.81
431.624	458.81
431.846	439.81
432.068	466.81
432.29	452.81
432.512	457.81
432.734	465.81
432.956	458.81
433.178	479.81
433.4	480.81
433.622	459.81
433.844	456.81
434.066	454.81
434.287	461.81
434.509	448.81
434.731	451.81
434.953	470.81
435.175	476.81
435.397	510.81
435.618	527.81
435.84	571.81
436.062	654.81
436.284	776.81
436.505	645.81
436.727	572.81
436.949	520.81
437.17	503.81
437.392	501.81
437.614	525.81
437.835	565.81
438.057	664.81
438.278	757.81
438.5	777.81
438.721	873.81
438.943	795.81
439.165	651.81
439.386	569.81
439.608	579.81
439.829	569.81
440.05	595.81
440.272	638.81
440.493	607.81
440.715	534.81
440.936	553.81
441.158	515.81
441.379	495.81
441.6	541.81
441.822	528.81
442.043	571.81
442.264	682.81
442.486	698.81
442.707	614.81
442.928	556.81
443.149	561.81
443.371	594.81
443.592	644.81
443.813	710.81
444.034	790.81
444.255	634.81
444.476	562.81
444.698	536.81
444.919	527.81
445.14	597.81
445.361	578.81
445.582	592.81
445.803	672.81
446.024	775.81
446.245	824.81
446.466	727.81
446.687	615.81
446.908	564.81
447.129	536.81
447.35	500.81
447.571	477.81
447.792	479.81
448.013	498.81
448.234	526.81
448.455	606.81
448.675	729.81
448.896	834.81
449.117	708.81
449.338	651.81
449.559	786.81
449.779	873.81
450	700.81
450.221	588.81
450.442	534.81
450.662	511.81
450.883	498.81
451.104	525.81
451.324	508.81
451.545	486.81
451.766	449.81
451.986	444.81
452.207	443.81
452.428	434.81
452.648	454.81
452.869	461.81
453.089	471.81
453.31	447.81
453.53	470.81
453.751	446.81
453.971	449.81
454.192	472.81
454.412	489.81
454.633	431.81
454.853	446.81
455.073	446.81
455.294	462.81
455.514	572.81
455.734	545.81
455.955	455.81
456.175	415.81
456.395	406.81
456.616	392.81
456.836	416.81
457.056	403.81
457.276	408.81
457.497	416.81
457.717	400.81
457.937	406.81
458.157	424.81
458.377	430.81
458.598	452.81
458.818	536.81
459.038	642.81
459.258	662.81
459.478	543.81
459.698	469.81
459.918	430.81
460.138	447.81
460.358	434.81
460.578	448.81
460.798	444.81
461.018	450.81
461.238	439.81
461.458	447.81
461.678	435.81
461.898	454.81
462.118	444.81
462.338	463.81
462.558	468.81
462.777	456.81
462.997	444.81
463.217	435.81
463.437	447.81
463.657	453.81
463.876	463.81
464.096	461.81
464.316	463.81
464.536	471.81
464.755	482.81
464.975	498.81
465.195	532.81
465.414	639.81
465.634	574.81
465.854	518.81
466.073	474.81
466.293	482.81
466.512	458.81
466.732	446.81
466.951	436.81
467.171	453.81
467.391	460.81
467.61	434.81
467.829	472.81
468.049	475.81
468.268	445.81
468.488	453.81
468.707	436.81
468.927	416.81
469.146	418.81
469.365	443.81
469.585	429.81
469.804	442.81
470.023	465.81
470.243	449.81
470.462	449.81
470.681	496.81
470.901	461.81
471.12	447.81
471.339	451.81
471.558	449.81
471.777	444.81
471.997	436.81
472.216	471.81
472.435	500.81
472.654	495.81
472.873	442.81
473.092	460.81
473.311	427.81
473.53	469.81
473.749	466.81
473.968	521.81
474.187	622.81
474.406	670.81
474.625	539.81
474.844	485.81
475.063	481.81
475.282	445.81
475.501	450.81
475.72	468.81
475.939	437.81
476.158	442.81
476.377	431.81
476.596	445.81
476.814	470.81
477.033	474.81
477.252	474.81
477.471	456.81
477.69	477.81
477.908	471.81
478.127	478.81
478.346	472.81
478.564	485.81
478.783	481.81
479.002	493.81
479.22	487.81
479.439	523.81
479.658	532.81
479.876	548.81
480.095	548.81
480.313	591.81
480.532	582.81
480.751	566.81
480.969	585.81
481.188	639.81
481.406	721.81
481.624	622.81
481.843	564.81
482.061	555.81
482.28	538.81
482.498	539.81
482.717	523.81
482.935	543.81
483.153	522.81
483.372	546.81
483.59	495.81
483.808	534.81
484.027	516.81
484.245	526.81
484.463	539.81
484.681	562.81
484.9	554.81
485.118	528.81
485.336	535.81
485.554	548.81
485.772	543.81
485.99	551.81
486.209	544.81
486.427	558.81
486.645	574.81
486.863	597.81
487.081	586.81
487.299	604.81
487.517	594.81
487.735	566.81
487.953	582.81
488.171	563.81
488.389	558.81
488.607	556.81
488.825	595.81
489.043	555.81
489.261	582.81
489.479	565.81
489.696	573.81
489.914	577.81
490.132	610.81
490.35	581.81
490.568	610.81
490.786	607.81
491.003	606.81
491.221	614.81
491.439	640.81
491.657	651.81
491.874	651.81
492.092	658.81
492.31	639.81
492.527	660.81
492.745	678.81
492.963	669.81
493.18	682.81
493.398	701.81
493.615	677.81
493.833	677.81
494.05	674.81
494.268	660.81
494.485	696.81
494.703	674.81
494.92	694.81
495.138	693.81
495.355	685.81
495.573	690.81
495.79	678.81
496.008	679.81
496.225	672.81
496.442	660.81
496.66	665.81
496.877	670.81
497.094	691.81
497.312	671.81
497.529	701.81
497.746	699.81
497.963	724.81
498.181	704.81
498.398	742.81
498.615	739.81
498.832	747.81
499.049	727.81
499.267	732.81
499.484	740.81
499.701	775.81
499.918	804.81
500.135	805.81
500.352	823.81
500.569	831.81
500.786	843.81
501.003	858.81
501.22	839.81
501.437	800.81
501.654	814.81
501.871	836.81
