Data from 1972.PennyLincolnUp.Lamp.En5.5.200Scan.071719.P1._HRD10591_15-29-42-845.txt Node
Date: Thu Jul 18 15:29:42 EDT 2019
User: cochatt
Spectrometer: HR+D1059
Trigger mode: 1
Integration Time (sec): 1.000000E-1
Scans to average: 1
Electric dark correction enabled: true
Nonlinearity correction enabled: false
Boxcar width: 0
XAxis mode: Wavelengths
Number of Pixels in Spectrum: 2048
>>>>>Begin Spectral Data<<<<<
223.165	-24.88
223.4	-24.88
223.635	-24.88
223.869	-10.88
224.104	-26.88
224.338	-10.88
224.573	-9.88
224.808	-3.88
225.042	-15.88
225.277	-3.88
225.511	0.12
225.746	0.12
225.98	6.12
226.215	8.12
226.449	28.12
226.683	29.12
226.918	3.12
227.152	32.12
227.387	29.12
227.621	27.12
227.856	40.12
228.09	42.12
228.324	35.12
228.559	52.12
228.793	61.12
229.027	108.12
229.262	114.12
229.496	131.12
229.73	152.12
229.964	178.12
230.199	140.12
230.433	123.12
230.667	102.12
230.901	113.12
231.136	114.12
231.37	116.12
231.604	101.12
231.838	99.12
232.072	113.12
232.306	118.12
232.541	128.12
232.775	106.12
233.009	119.12
233.243	112.12
233.477	104.12
233.711	105.12
233.945	117.12
234.179	123.12
234.413	115.12
234.647	128.12
234.881	119.12
235.115	118.12
235.349	120.12
235.583	102.12
235.817	126.12
236.051	138.12
236.285	134.12
236.519	125.12
236.753	127.12
236.987	141.12
237.221	209.12
237.455	267.12
237.689	212.12
237.922	162.12
238.156	143.12
238.39	130.12
238.624	150.12
238.858	128.12
239.091	126.12
239.325	128.12
239.559	134.12
239.793	132.12
240.027	141.12
240.26	139.12
240.494	161.12
240.728	162.12
240.961	166.12
241.195	140.12
241.429	149.12
241.662	133.12
241.896	138.12
242.13	141.12
242.363	135.12
242.597	139.12
242.83	138.12
243.064	145.12
243.298	140.12
243.531	138.12
243.765	131.12
243.998	140.12
244.232	143.12
244.465	149.12
244.699	155.12
244.932	164.12
245.166	136.12
245.399	147.12
245.633	148.12
245.866	152.12
246.099	143.12
246.333	153.12
246.566	159.12
246.8	156.12
247.033	152.12
247.266	175.12
247.5	166.12
247.733	172.12
247.966	148.12
248.2	170.12
248.433	195.12
248.666	188.12
248.899	196.12
249.133	201.12
249.366	242.12
249.599	207.12
249.832	226.12
250.066	179.12
250.299	178.12
250.532	193.12
250.765	214.12
250.998	243.12
251.231	252.12
251.465	244.12
251.698	210.12
251.931	218.12
252.164	205.12
252.397	197.12
252.63	219.12
252.863	208.12
253.096	228.12
253.329	249.12
253.562	222.12
253.795	245.12
254.028	230.12
254.261	230.12
254.494	238.12
254.727	283.12
254.96	303.12
255.193	302.12
255.426	276.12
255.659	255.12
255.892	265.12
256.124	254.12
256.357	258.12
256.59	235.12
256.823	236.12
257.056	231.12
257.289	232.12
257.521	236.12
257.754	238.12
257.987	227.12
258.22	234.12
258.452	203.12
258.685	216.12
258.918	213.12
259.151	212.12
259.383	241.12
259.616	209.12
259.849	229.12
260.081	262.12
260.314	274.12
260.547	271.12
260.779	278.12
261.012	253.12
261.244	251.12
261.477	250.12
261.71	232.12
261.942	257.12
262.175	255.12
262.407	246.12
262.64	235.12
262.872	205.12
263.105	244.12
263.337	229.12
263.57	226.12
263.802	211.12
264.035	214.12
264.267	214.12
264.499	242.12
264.732	215.12
264.964	221.12
265.197	219.12
265.429	213.12
265.661	220.12
265.894	217.12
266.126	234.12
266.358	220.12
266.591	241.12
266.823	235.12
267.055	256.12
267.287	219.12
267.52	232.12
267.752	228.12
267.984	256.12
268.216	247.12
268.448	234.12
268.681	242.12
268.913	254.12
269.145	283.12
269.377	289.12
269.609	308.12
269.841	297.12
270.073	301.12
270.306	307.12
270.538	332.12
270.77	344.12
271.002	339.12
271.234	323.12
271.466	312.12
271.698	344.12
271.93	345.12
272.162	362.12
272.394	350.12
272.626	320.12
272.858	314.12
273.09	310.12
273.322	309.12
273.553	287.12
273.785	294.12
274.017	280.12
274.249	288.12
274.481	285.12
274.713	283.12
274.945	295.12
275.176	274.12
275.408	268.12
275.64	284.12
275.872	276.12
276.104	269.12
276.335	278.12
276.567	297.12
276.799	302.12
277.031	326.12
277.262	360.12
277.494	338.12
277.726	339.12
277.957	316.12
278.189	305.12
278.421	297.12
278.652	285.12
278.884	281.12
279.115	295.12
279.347	300.12
279.579	285.12
279.81	278.12
280.042	282.12
280.273	282.12
280.505	270.12
280.736	266.12
280.968	297.12
281.199	261.12
281.431	270.12
281.662	286.12
281.894	281.12
282.125	284.12
282.356	289.12
282.588	330.12
282.819	340.12
283.051	308.12
283.282	265.12
283.513	282.12
283.745	282.12
283.976	280.12
284.207	286.12
284.439	288.12
284.67	279.12
284.901	297.12
285.132	281.12
285.364	276.12
285.595	260.12
285.826	298.12
286.057	287.12
286.288	287.12
286.52	291.12
286.751	285.12
286.982	300.12
287.213	292.12
287.444	289.12
287.675	303.12
287.906	298.12
288.138	320.12
288.369	307.12
288.6	299.12
288.831	307.12
289.062	292.12
289.293	301.12
289.524	304.12
289.755	293.12
289.986	283.12
290.217	280.12
290.448	315.12
290.679	289.12
290.91	293.12
291.141	281.12
291.371	298.12
291.602	298.12
291.833	284.12
292.064	296.12
292.295	302.12
292.526	295.12
292.757	274.12
292.987	280.12
293.218	275.12
293.449	274.12
293.68	301.12
293.91	286.12
294.141	296.12
294.372	275.12
294.603	278.12
294.833	304.12
295.064	303.12
295.295	275.12
295.525	297.12
295.756	308.12
295.987	320.12
296.217	346.12
296.448	351.12
296.679	310.12
296.909	296.12
297.14	306.12
297.37	297.12
297.601	295.12
297.831	299.12
298.062	295.12
298.292	298.12
298.523	297.12
298.753	301.12
298.984	320.12
299.214	312.12
299.445	323.12
299.675	306.12
299.905	322.12
300.136	307.12
300.366	300.12
300.597	312.12
300.827	297.12
301.057	304.12
301.288	341.12
301.518	330.12
301.748	322.12
301.979	328.12
302.209	324.12
302.439	314.12
302.669	312.12
302.9	327.12
303.13	319.12
303.36	311.12
303.59	341.12
303.82	365.12
304.051	354.12
304.281	334.12
304.511	345.12
304.741	323.12
304.971	324.12
305.201	323.12
305.431	318.12
305.661	329.12
305.891	326.12
306.121	318.12
306.352	334.12
306.582	348.12
306.812	340.12
307.042	317.12
307.272	321.12
307.502	342.12
307.731	344.12
307.961	321.12
308.191	321.12
308.421	333.12
308.651	324.12
308.881	334.12
309.111	348.12
309.341	370.12
309.571	362.12
309.8	363.12
310.03	400.12
310.26	383.12
310.49	401.12
310.72	425.12
310.949	424.12
311.179	436.12
311.409	400.12
311.639	403.12
311.868	370.12
312.098	381.12
312.328	400.12
312.557	407.12
312.787	450.12
313.017	437.12
313.246	436.12
313.476	410.12
313.706	401.12
313.935	400.12
314.165	395.12
314.394	420.12
314.624	430.12
314.853	408.12
315.083	402.12
315.312	388.12
315.542	374.12
315.771	389.12
316.001	385.12
316.23	399.12
316.46	379.12
316.689	384.12
316.919	405.12
317.148	404.12
317.377	411.12
317.607	403.12
317.836	390.12
318.065	397.12
318.295	376.12
318.524	391.12
318.753	368.12
318.983	383.12
319.212	386.12
319.441	407.12
319.67	412.12
319.9	401.12
320.129	408.12
320.358	382.12
320.587	394.12
320.816	409.12
321.046	403.12
321.275	418.12
321.504	402.12
321.733	417.12
321.962	441.12
322.191	446.12
322.42	459.12
322.649	509.12
322.878	500.12
323.108	511.12
323.337	556.12
323.566	563.12
323.795	635.12
324.024	708.12
324.253	892.12
324.482	1248.12
324.71	2014.12
324.939	2986.12
325.168	2556.12
325.397	1272.12
325.626	828.12
325.855	680.12
326.084	588.12
326.313	572.12
326.542	595.12
326.77	651.12
326.999	777.12
327.228	1102.12
327.457	1748.12
327.686	2183.12
327.914	1476.12
328.143	936.12
328.372	779.12
328.6	685.12
328.829	679.12
329.058	686.12
329.287	679.12
329.515	640.12
329.744	591.12
329.972	600.12
330.201	630.12
330.43	680.12
330.658	722.12
330.887	733.12
331.115	690.12
331.344	579.12
331.572	542.12
331.801	526.12
332.03	536.12
332.258	502.12
332.486	496.12
332.715	467.12
332.943	476.12
333.172	465.12
333.4	459.12
333.629	466.12
333.857	466.12
334.085	515.12
334.314	548.12
334.542	572.12
334.771	628.12
334.999	561.12
335.227	506.12
335.455	486.12
335.684	454.12
335.912	468.12
336.14	440.12
336.369	450.12
336.597	482.12
336.825	455.12
337.053	450.12
337.281	445.12
337.51	429.12
337.738	446.12
337.966	451.12
338.194	429.12
338.422	456.12
338.65	454.12
338.878	428.12
339.106	447.12
339.334	432.12
339.562	432.12
339.79	436.12
340.018	440.12
340.246	442.12
340.474	434.12
340.702	442.12
340.93	441.12
341.158	440.12
341.386	462.12
341.614	435.12
341.842	446.12
342.07	426.12
342.298	415.12
342.526	418.12
342.754	413.12
342.981	400.12
343.209	413.12
343.437	417.12
343.665	404.12
343.893	420.12
344.12	422.12
344.348	420.12
344.576	433.12
344.804	432.12
345.031	465.12
345.259	466.12
345.487	451.12
345.714	461.12
345.942	418.12
346.17	404.12
346.397	429.12
346.625	436.12
346.853	406.12
347.08	408.12
347.308	451.12
347.535	440.12
347.763	438.12
347.99	426.12
348.218	449.12
348.445	445.12
348.673	424.12
348.9	432.12
349.128	414.12
349.355	412.12
349.583	397.12
349.81	393.12
350.037	401.12
350.265	412.12
350.492	396.12
350.72	410.12
350.947	426.12
351.174	440.12
351.402	430.12
351.629	429.12
351.856	451.12
352.083	451.12
352.311	445.12
352.538	440.12
352.765	440.12
352.992	441.12
353.22	427.12
353.447	416.12
353.674	428.12
353.901	406.12
354.128	401.12
354.355	390.12
354.583	380.12
354.81	387.12
355.037	384.12
355.264	368.12
355.491	380.12
355.718	383.12
355.945	382.12
356.172	388.12
356.399	376.12
356.626	372.12
356.853	394.12
357.08	372.12
357.307	388.12
357.534	363.12
357.761	365.12
357.988	382.12
358.215	369.12
358.441	377.12
358.668	368.12
358.895	386.12
359.122	406.12
359.349	416.12
359.576	420.12
359.802	458.12
360.029	497.12
360.256	493.12
360.483	472.12
360.709	439.12
360.936	428.12
361.163	429.12
361.39	408.12
361.616	422.12
361.843	419.12
362.07	404.12
362.296	414.12
362.523	395.12
362.749	402.12
362.976	386.12
363.203	386.12
363.429	399.12
363.656	394.12
363.882	407.12
364.109	390.12
364.335	403.12
364.562	402.12
364.788	390.12
365.015	387.12
365.241	392.12
365.468	388.12
365.694	391.12
365.92	409.12
366.147	372.12
366.373	397.12
366.599	378.12
366.826	388.12
367.052	397.12
367.278	377.12
367.505	390.12
367.731	379.12
367.957	380.12
368.184	386.12
368.41	398.12
368.636	413.12
368.862	407.12
369.089	402.12
369.315	379.12
369.541	378.12
369.767	378.12
369.993	389.12
370.219	394.12
370.445	385.12
370.672	395.12
370.898	388.12
371.124	389.12
371.35	383.12
371.576	368.12
371.802	369.12
372.028	396.12
372.254	382.12
372.48	373.12
372.706	369.12
372.932	373.12
373.158	379.12
373.384	383.12
373.61	382.12
373.835	369.12
374.061	346.12
374.287	392.12
374.513	384.12
374.739	385.12
374.965	397.12
375.191	364.12
375.416	375.12
375.642	364.12
375.868	368.12
376.094	379.12
376.319	370.12
376.545	362.12
376.771	376.12
376.997	380.12
377.222	374.12
377.448	361.12
377.674	378.12
377.899	370.12
378.125	343.12
378.35	355.12
378.576	361.12
378.802	365.12
379.027	360.12
379.253	356.12
379.478	370.12
379.704	358.12
379.929	364.12
380.155	383.12
380.38	364.12
380.606	390.12
380.831	377.12
381.057	362.12
381.282	398.12
381.507	365.12
381.733	398.12
381.958	375.12
382.184	361.12
382.409	379.12
382.634	389.12
382.86	361.12
383.085	359.12
383.31	372.12
383.535	378.12
383.761	365.12
383.986	384.12
384.211	390.12
384.436	399.12
384.662	375.12
384.887	386.12
385.112	380.12
385.337	394.12
385.562	377.12
385.787	391.12
386.013	382.12
386.238	423.12
386.463	399.12
386.688	379.12
386.913	384.12
387.138	405.12
387.363	397.12
387.588	405.12
387.813	392.12
388.038	417.12
388.263	394.12
388.488	385.12
388.713	408.12
388.938	410.12
389.163	407.12
389.387	405.12
389.612	377.12
389.837	380.12
390.062	390.12
390.287	407.12
390.512	387.12
390.736	383.12
390.961	389.12
391.186	394.12
391.411	407.12
391.636	383.12
391.86	416.12
392.085	398.12
392.31	412.12
392.534	412.12
392.759	411.12
392.984	402.12
393.208	406.12
393.433	404.12
393.658	392.12
393.882	400.12
394.107	396.12
394.331	400.12
394.556	406.12
394.78	415.12
395.005	394.12
395.229	393.12
395.454	386.12
395.678	421.12
395.903	428.12
396.127	437.12
396.352	426.12
396.576	393.12
396.801	409.12
397.025	398.12
397.249	395.12
397.474	416.12
397.698	424.12
397.922	437.12
398.147	443.12
398.371	454.12
398.595	432.12
398.82	420.12
399.044	431.12
399.268	453.12
399.492	470.12
399.717	499.12
399.941	505.12
400.165	537.12
400.389	553.12
400.613	514.12
400.837	461.12
401.062	460.12
401.286	455.12
401.51	440.12
401.734	436.12
401.958	457.12
402.182	493.12
402.406	479.12
402.63	481.12
402.854	473.12
403.078	472.12
403.302	457.12
403.526	444.12
403.75	489.12
403.974	480.12
404.198	456.12
404.422	493.12
404.645	473.12
404.869	476.12
405.093	507.12
405.317	569.12
405.541	612.12
405.765	550.12
405.988	510.12
406.212	501.12
406.436	556.12
406.66	554.12
406.883	494.12
407.107	553.12
407.331	584.12
407.555	661.12
407.778	647.12
408.002	599.12
408.226	562.12
408.449	546.12
408.673	518.12
408.896	551.12
409.12	606.12
409.344	572.12
409.567	501.12
409.791	480.12
410.014	480.12
410.238	487.12
410.461	473.12
410.685	476.12
410.908	496.12
411.132	522.12
411.355	586.12
411.578	553.12
411.802	488.12
412.025	473.12
412.249	487.12
412.472	501.12
412.695	554.12
412.919	548.12
413.142	497.12
413.365	470.12
413.589	466.12
413.812	457.12
414.035	458.12
414.258	444.12
414.482	428.12
414.705	438.12
414.928	440.12
415.151	458.12
415.374	448.12
415.597	444.12
415.821	442.12
416.044	468.12
416.267	433.12
416.49	441.12
416.713	440.12
416.936	423.12
417.159	432.12
417.382	455.12
417.605	450.12
417.828	468.12
418.051	462.12
418.274	468.12
418.497	423.12
418.72	450.12
418.943	436.12
419.166	471.12
419.389	461.12
419.611	482.12
419.834	472.12
420.057	468.12
420.28	479.12
420.503	460.12
420.726	483.12
420.948	507.12
421.171	533.12
421.394	582.12
421.617	528.12
421.839	481.12
422.062	484.12
422.285	510.12
422.507	554.12
422.73	642.12
422.953	616.12
423.175	522.12
423.398	502.12
423.621	513.12
423.843	539.12
424.066	492.12
424.288	509.12
424.511	544.12
424.733	614.12
424.956	714.12
425.178	692.12
425.401	634.12
425.623	674.12
425.846	602.12
426.068	538.12
426.291	539.12
426.513	534.12
426.735	552.12
426.958	583.12
427.18	673.12
427.402	804.12
427.625	932.12
427.847	835.12
428.069	715.12
428.292	628.12
428.514	548.12
428.736	508.12
428.958	526.12
429.181	498.12
429.403	474.12
429.625	508.12
429.847	522.12
430.069	618.12
430.292	612.12
430.514	508.12
430.736	511.12
430.958	469.12
431.18	464.12
431.402	452.12
431.624	449.12
431.846	446.12
432.068	447.12
432.29	461.12
432.512	465.12
432.734	475.12
432.956	479.12
433.178	468.12
433.4	457.12
433.622	482.12
433.844	450.12
434.066	435.12
434.287	438.12
434.509	440.12
434.731	454.12
434.953	457.12
435.175	484.12
435.397	522.12
435.618	542.12
435.84	588.12
436.062	673.12
436.284	780.12
436.505	627.12
436.727	566.12
436.949	524.12
437.17	510.12
437.392	498.12
437.614	513.12
437.835	556.12
438.057	660.12
438.278	787.12
438.5	757.12
438.721	853.12
438.943	820.12
439.165	642.12
439.386	579.12
439.608	574.12
439.829	583.12
440.05	597.12
440.272	652.12
440.493	591.12
440.715	539.12
440.936	510.12
441.158	502.12
441.379	496.12
441.6	516.12
441.822	524.12
442.043	585.12
442.264	655.12
442.486	722.12
442.707	614.12
442.928	572.12
443.149	546.12
443.371	605.12
443.592	611.12
443.813	752.12
444.034	818.12
444.255	643.12
444.476	562.12
444.698	522.12
444.919	521.12
445.14	629.12
445.361	577.12
445.582	596.12
445.803	660.12
446.024	800.12
446.245	806.12
446.466	740.12
446.687	609.12
446.908	564.12
447.129	528.12
447.35	489.12
447.571	509.12
447.792	480.12
448.013	509.12
448.234	569.12
448.455	590.12
448.675	720.12
448.896	831.12
449.117	702.12
449.338	661.12
449.559	754.12
449.779	866.12
450	714.12
450.221	571.12
450.442	534.12
450.662	508.12
450.883	519.12
451.104	543.12
451.324	519.12
451.545	475.12
451.766	430.12
451.986	448.12
452.207	428.12
452.428	429.12
452.648	448.12
452.869	452.12
453.089	455.12
453.31	471.12
453.53	458.12
453.751	443.12
453.971	440.12
454.192	488.12
454.412	463.12
454.633	466.12
454.853	432.12
455.073	442.12
455.294	469.12
455.514	549.12
455.734	577.12
455.955	456.12
456.175	412.12
456.395	404.12
456.616	403.12
456.836	403.12
457.056	418.12
457.276	408.12
457.497	384.12
457.717	408.12
457.937	413.12
458.157	410.12
458.377	440.12
458.598	453.12
458.818	515.12
459.038	624.12
459.258	629.12
459.478	525.12
459.698	455.12
459.918	446.12
460.138	437.12
460.358	442.12
460.578	443.12
460.798	451.12
461.018	461.12
461.238	446.12
461.458	434.12
461.678	430.12
461.898	441.12
462.118	436.12
462.338	432.12
462.558	454.12
462.777	467.12
462.997	461.12
463.217	462.12
463.437	473.12
463.657	470.12
463.876	471.12
464.096	470.12
464.316	479.12
464.536	464.12
464.755	489.12
464.975	488.12
465.195	568.12
465.414	658.12
465.634	577.12
465.854	508.12
466.073	491.12
466.293	457.12
466.512	433.12
466.732	436.12
466.951	432.12
467.171	438.12
467.391	428.12
467.61	462.12
467.829	481.12
468.049	486.12
468.268	445.12
468.488	445.12
468.707	443.12
468.927	429.12
469.146	440.12
469.365	421.12
469.585	436.12
469.804	436.12
470.023	452.12
470.243	452.12
470.462	472.12
470.681	483.12
470.901	466.12
471.12	454.12
471.339	447.12
471.558	457.12
471.777	461.12
471.997	459.12
472.216	453.12
472.435	523.12
472.654	509.12
472.873	473.12
473.092	440.12
473.311	456.12
473.53	435.12
473.749	466.12
473.968	520.12
474.187	668.12
474.406	686.12
474.625	534.12
474.844	483.12
475.063	469.12
475.282	459.12
475.501	455.12
475.72	485.12
475.939	471.12
476.158	456.12
476.377	454.12
476.596	468.12
476.814	475.12
477.033	478.12
477.252	490.12
477.471	482.12
477.69	489.12
477.908	447.12
478.127	472.12
478.346	489.12
478.564	481.12
478.783	504.12
479.002	485.12
479.22	494.12
479.439	531.12
479.658	536.12
479.876	550.12
480.095	556.12
480.313	583.12
480.532	574.12
480.751	551.12
480.969	569.12
481.188	653.12
481.406	733.12
481.624	593.12
481.843	549.12
482.061	573.12
482.28	549.12
482.498	552.12
482.717	540.12
482.935	542.12
483.153	529.12
483.372	545.12
483.59	545.12
483.808	521.12
484.027	535.12
484.245	539.12
484.463	517.12
484.681	551.12
484.9	544.12
485.118	536.12
485.336	547.12
485.554	551.12
485.772	544.12
485.99	561.12
486.209	544.12
486.427	550.12
486.645	577.12
486.863	586.12
487.081	592.12
487.299	584.12
487.517	571.12
487.735	575.12
487.953	565.12
488.171	563.12
488.389	565.12
488.607	567.12
488.825	556.12
489.043	586.12
489.261	565.12
489.479	599.12
489.696	576.12
489.914	593.12
490.132	584.12
490.35	598.12
490.568	621.12
490.786	600.12
491.003	603.12
491.221	640.12
491.439	640.12
491.657	661.12
491.874	654.12
492.092	653.12
492.31	659.12
492.527	649.12
492.745	644.12
492.963	668.12
493.18	678.12
493.398	674.12
493.615	659.12
493.833	690.12
494.05	682.12
494.268	705.12
494.485	664.12
494.703	682.12
494.92	683.12
495.138	700.12
495.355	690.12
495.573	703.12
495.79	678.12
496.008	688.12
496.225	669.12
496.442	690.12
496.66	698.12
496.877	697.12
497.094	666.12
497.312	690.12
497.529	704.12
497.746	690.12
497.963	684.12
498.181	729.12
498.398	752.12
498.615	740.12
498.832	749.12
499.049	748.12
499.267	745.12
499.484	747.12
499.701	803.12
499.918	798.12
500.135	809.12
500.352	831.12
500.569	822.12
500.786	851.12
501.003	857.12
501.22	842.12
501.437	812.12
501.654	810.12
501.871	838.12
