Data from 1972.PennyLincolnUp.Lamp.En5.5.200Scan.071719.P1._HRD10591_15-27-16-843.txt Node
Date: Thu Jul 18 15:27:16 EDT 2019
User: cochatt
Spectrometer: HR+D1059
Trigger mode: 1
Integration Time (sec): 1.000000E-1
Scans to average: 1
Electric dark correction enabled: true
Nonlinearity correction enabled: false
Boxcar width: 0
XAxis mode: Wavelengths
Number of Pixels in Spectrum: 2048
>>>>>Begin Spectral Data<<<<<
223.165	-12.88
223.4	-12.88
223.635	-12.88
223.869	-18.88
224.104	-22.88
224.338	-13.88
224.573	-11.88
224.808	-7.88
225.042	-11.88
225.277	-10.88
225.511	-1.88
225.746	0.12
225.98	4.12
226.215	8.12
226.449	16.12
226.683	19.12
226.918	31.12
227.152	34.12
227.387	42.12
227.621	46.12
227.856	38.12
228.09	35.12
228.324	53.12
228.559	58.12
228.793	69.12
229.027	85.12
229.262	108.12
229.496	94.12
229.73	137.12
229.964	154.12
230.199	130.12
230.433	115.12
230.667	112.12
230.901	121.12
231.136	114.12
231.37	86.12
231.604	111.12
231.838	119.12
232.072	104.12
232.306	124.12
232.541	106.12
232.775	103.12
233.009	117.12
233.243	107.12
233.477	108.12
233.711	111.12
233.945	116.12
234.179	104.12
234.413	116.12
234.647	119.12
234.881	109.12
235.115	127.12
235.349	124.12
235.583	127.12
235.817	114.12
236.051	118.12
236.285	124.12
236.519	116.12
236.753	128.12
236.987	127.12
237.221	189.12
237.455	228.12
237.689	189.12
237.922	148.12
238.156	127.12
238.39	123.12
238.624	127.12
238.858	134.12
239.091	133.12
239.325	110.12
239.559	123.12
239.793	126.12
240.027	134.12
240.26	144.12
240.494	140.12
240.728	165.12
240.961	151.12
241.195	147.12
241.429	133.12
241.662	121.12
241.896	136.12
242.13	135.12
242.363	128.12
242.597	133.12
242.83	155.12
243.064	145.12
243.298	132.12
243.531	133.12
243.765	129.12
243.998	119.12
244.232	132.12
244.465	145.12
244.699	142.12
244.932	150.12
245.166	142.12
245.399	148.12
245.633	133.12
245.866	144.12
246.099	135.12
246.333	128.12
246.566	155.12
246.8	154.12
247.033	155.12
247.266	159.12
247.5	167.12
247.733	197.12
247.966	170.12
248.2	165.12
248.433	172.12
248.666	163.12
248.899	186.12
249.133	190.12
249.366	221.12
249.599	198.12
249.832	197.12
250.066	174.12
250.299	183.12
250.532	180.12
250.765	204.12
250.998	237.12
251.231	217.12
251.465	220.12
251.698	211.12
251.931	203.12
252.164	179.12
252.397	194.12
252.63	202.12
252.863	200.12
253.096	196.12
253.329	225.12
253.562	232.12
253.795	203.12
254.028	217.12
254.261	216.12
254.494	213.12
254.727	248.12
254.96	297.12
255.193	266.12
255.426	260.12
255.659	227.12
255.892	232.12
256.124	217.12
256.357	243.12
256.59	220.12
256.823	218.12
257.056	226.12
257.289	194.12
257.521	207.12
257.754	212.12
257.987	212.12
258.22	207.12
258.452	194.12
258.685	200.12
258.918	201.12
259.151	189.12
259.383	210.12
259.616	224.12
259.849	216.12
260.081	233.12
260.314	233.12
260.547	264.12
260.779	243.12
261.012	228.12
261.244	222.12
261.477	218.12
261.71	213.12
261.942	208.12
262.175	218.12
262.407	237.12
262.64	223.12
262.872	224.12
263.105	202.12
263.337	203.12
263.57	201.12
263.802	212.12
264.035	199.12
264.267	204.12
264.499	194.12
264.732	205.12
264.964	207.12
265.197	219.12
265.429	223.12
265.661	189.12
265.894	199.12
266.126	214.12
266.358	208.12
266.591	210.12
266.823	214.12
267.055	220.12
267.287	219.12
267.52	207.12
267.752	214.12
267.984	218.12
268.216	214.12
268.448	221.12
268.681	236.12
268.913	244.12
269.145	262.12
269.377	271.12
269.609	264.12
269.841	262.12
270.073	270.12
270.306	276.12
270.538	287.12
270.77	310.12
271.002	291.12
271.234	289.12
271.466	301.12
271.698	290.12
271.93	308.12
272.162	303.12
272.394	299.12
272.626	299.12
272.858	277.12
273.09	280.12
273.322	262.12
273.553	264.12
273.785	247.12
274.017	247.12
274.249	272.12
274.481	246.12
274.713	248.12
274.945	256.12
275.176	247.12
275.408	252.12
275.64	251.12
275.872	247.12
276.104	242.12
276.335	269.12
276.567	268.12
276.799	286.12
277.031	306.12
277.262	308.12
277.494	294.12
277.726	286.12
277.957	272.12
278.189	262.12
278.421	252.12
278.652	247.12
278.884	258.12
279.115	242.12
279.347	254.12
279.579	278.12
279.81	268.12
280.042	268.12
280.273	247.12
280.505	255.12
280.736	250.12
280.968	248.12
281.199	249.12
281.431	239.12
281.662	243.12
281.894	255.12
282.125	257.12
282.356	281.12
282.588	296.12
282.819	324.12
283.051	250.12
283.282	266.12
283.513	261.12
283.745	253.12
283.976	280.12
284.207	263.12
284.439	284.12
284.67	250.12
284.901	253.12
285.132	264.12
285.364	282.12
285.595	247.12
285.826	253.12
286.057	273.12
286.288	275.12
286.52	276.12
286.751	266.12
286.982	279.12
287.213	264.12
287.444	275.12
287.675	269.12
287.906	284.12
288.138	288.12
288.369	290.12
288.6	282.12
288.831	293.12
289.062	268.12
289.293	274.12
289.524	267.12
289.755	253.12
289.986	257.12
290.217	268.12
290.448	278.12
290.679	278.12
290.91	284.12
291.141	258.12
291.371	265.12
291.602	273.12
291.833	262.12
292.064	262.12
292.295	269.12
292.526	277.12
292.757	278.12
292.987	267.12
293.218	268.12
293.449	265.12
293.68	268.12
293.91	267.12
294.141	269.12
294.372	276.12
294.603	259.12
294.833	288.12
295.064	264.12
295.295	276.12
295.525	291.12
295.756	267.12
295.987	268.12
296.217	315.12
296.448	333.12
296.679	298.12
296.909	272.12
297.14	285.12
297.37	272.12
297.601	277.12
297.831	274.12
298.062	274.12
298.292	278.12
298.523	286.12
298.753	298.12
298.984	295.12
299.214	279.12
299.445	321.12
299.675	283.12
299.905	280.12
300.136	288.12
300.366	299.12
300.597	300.12
300.827	312.12
301.057	280.12
301.288	300.12
301.518	301.12
301.748	297.12
301.979	297.12
302.209	290.12
302.439	285.12
302.669	300.12
302.9	307.12
303.13	298.12
303.36	324.12
303.59	312.12
303.82	319.12
304.051	313.12
304.281	295.12
304.511	301.12
304.741	301.12
304.971	295.12
305.201	318.12
305.431	290.12
305.661	299.12
305.891	304.12
306.121	291.12
306.352	318.12
306.582	301.12
306.812	314.12
307.042	323.12
307.272	303.12
307.502	312.12
307.731	328.12
307.961	302.12
308.191	318.12
308.421	300.12
308.651	316.12
308.881	320.12
309.111	310.12
309.341	319.12
309.571	343.12
309.8	377.12
310.03	349.12
310.26	360.12
310.49	344.12
310.72	347.12
310.949	363.12
311.179	375.12
311.409	361.12
311.639	364.12
311.868	368.12
312.098	341.12
312.328	372.12
312.557	386.12
312.787	389.12
313.017	375.12
313.246	370.12
313.476	380.12
313.706	381.12
313.935	366.12
314.165	345.12
314.394	378.12
314.624	366.12
314.853	373.12
315.083	363.12
315.312	351.12
315.542	345.12
315.771	357.12
316.001	347.12
316.23	348.12
316.46	343.12
316.689	356.12
316.919	375.12
317.148	372.12
317.377	366.12
317.607	354.12
317.836	369.12
318.065	357.12
318.295	367.12
318.524	369.12
318.753	345.12
318.983	372.12
319.212	354.12
319.441	379.12
319.67	354.12
319.9	354.12
320.129	339.12
320.358	357.12
320.587	370.12
320.816	396.12
321.046	357.12
321.275	376.12
321.504	386.12
321.733	388.12
321.962	392.12
322.191	397.12
322.42	399.12
322.649	437.12
322.878	443.12
323.108	439.12
323.337	503.12
323.566	499.12
323.795	539.12
324.024	600.12
324.253	691.12
324.482	1004.12
324.71	1592.12
324.939	2291.12
325.168	2012.12
325.397	1028.12
325.626	678.12
325.855	561.12
326.084	489.12
326.313	494.12
326.542	494.12
326.77	553.12
326.999	640.12
327.228	898.12
327.457	1396.12
327.686	1749.12
327.914	1184.12
328.143	728.12
328.372	642.12
328.6	601.12
328.829	579.12
329.058	580.12
329.287	579.12
329.515	536.12
329.744	499.12
329.972	504.12
330.201	520.12
330.43	558.12
330.658	612.12
330.887	624.12
331.115	595.12
331.344	509.12
331.572	486.12
331.801	463.12
332.03	478.12
332.258	422.12
332.486	424.12
332.715	437.12
332.943	439.12
333.172	419.12
333.4	436.12
333.629	442.12
333.857	450.12
334.085	448.12
334.314	483.12
334.542	501.12
334.771	528.12
334.999	468.12
335.227	424.12
335.455	426.12
335.684	421.12
335.912	410.12
336.14	413.12
336.369	404.12
336.597	426.12
336.825	415.12
337.053	416.12
337.281	402.12
337.51	406.12
337.738	420.12
337.966	434.12
338.194	424.12
338.422	420.12
338.65	414.12
338.878	398.12
339.106	398.12
339.334	426.12
339.562	391.12
339.79	388.12
340.018	380.12
340.246	398.12
340.474	400.12
340.702	407.12
340.93	393.12
341.158	390.12
341.386	390.12
341.614	389.12
341.842	394.12
342.07	388.12
342.298	381.12
342.526	376.12
342.754	398.12
342.981	380.12
343.209	401.12
343.437	384.12
343.665	376.12
343.893	371.12
344.12	386.12
344.348	396.12
344.576	404.12
344.804	396.12
345.031	399.12
345.259	427.12
345.487	400.12
345.714	401.12
345.942	396.12
346.17	409.12
346.397	365.12
346.625	412.12
346.853	376.12
347.08	372.12
347.308	390.12
347.535	391.12
347.763	406.12
347.99	398.12
348.218	402.12
348.445	414.12
348.673	411.12
348.9	395.12
349.128	403.12
349.355	384.12
349.583	381.12
349.81	363.12
350.037	356.12
350.265	357.12
350.492	379.12
350.72	361.12
350.947	384.12
351.174	376.12
351.402	386.12
351.629	381.12
351.856	383.12
352.083	404.12
352.311	415.12
352.538	400.12
352.765	404.12
352.992	395.12
353.22	397.12
353.447	395.12
353.674	380.12
353.901	376.12
354.128	356.12
354.355	355.12
354.583	356.12
354.81	360.12
355.037	357.12
355.264	351.12
355.491	327.12
355.718	318.12
355.945	340.12
356.172	355.12
356.399	378.12
356.626	361.12
356.853	359.12
357.08	345.12
357.307	349.12
357.534	360.12
357.761	333.12
357.988	346.12
358.215	330.12
358.441	364.12
358.668	360.12
358.895	359.12
359.122	357.12
359.349	376.12
359.576	382.12
359.802	406.12
360.029	429.12
360.256	448.12
360.483	427.12
360.709	384.12
360.936	382.12
361.163	395.12
361.39	379.12
361.616	390.12
361.843	374.12
362.07	383.12
362.296	385.12
362.523	368.12
362.749	372.12
362.976	371.12
363.203	364.12
363.429	362.12
363.656	371.12
363.882	354.12
364.109	361.12
364.335	359.12
364.562	361.12
364.788	363.12
365.015	359.12
365.241	360.12
365.468	360.12
365.694	359.12
365.92	360.12
366.147	380.12
366.373	363.12
366.599	356.12
366.826	346.12
367.052	379.12
367.278	351.12
367.505	374.12
367.731	369.12
367.957	359.12
368.184	360.12
368.41	371.12
368.636	372.12
368.862	367.12
369.089	366.12
369.315	368.12
369.541	380.12
369.767	337.12
369.993	356.12
370.219	357.12
370.445	340.12
370.672	332.12
370.898	352.12
371.124	352.12
371.35	342.12
371.576	353.12
371.802	346.12
372.028	363.12
372.254	327.12
372.48	350.12
372.706	374.12
372.932	375.12
373.158	364.12
373.384	349.12
373.61	350.12
373.835	352.12
374.061	352.12
374.287	350.12
374.513	373.12
374.739	369.12
374.965	355.12
375.191	356.12
375.416	351.12
375.642	341.12
375.868	378.12
376.094	357.12
376.319	346.12
376.545	354.12
376.771	357.12
376.997	341.12
377.222	346.12
377.448	340.12
377.674	337.12
377.899	335.12
378.125	337.12
378.35	370.12
378.576	354.12
378.802	343.12
379.027	355.12
379.253	349.12
379.478	325.12
379.704	364.12
379.929	352.12
380.155	350.12
380.38	351.12
380.606	339.12
380.831	345.12
381.057	346.12
381.282	335.12
381.507	327.12
381.733	341.12
381.958	338.12
382.184	357.12
382.409	364.12
382.634	358.12
382.86	347.12
383.085	370.12
383.31	354.12
383.535	371.12
383.761	358.12
383.986	368.12
384.211	343.12
384.436	370.12
384.662	362.12
384.887	355.12
385.112	376.12
385.337	357.12
385.562	378.12
385.787	374.12
386.013	397.12
386.238	390.12
386.463	375.12
386.688	381.12
386.913	370.12
387.138	366.12
387.363	371.12
387.588	370.12
387.813	378.12
388.038	378.12
388.263	370.12
388.488	358.12
388.713	361.12
388.938	370.12
389.163	384.12
389.387	374.12
389.612	394.12
389.837	376.12
390.062	369.12
390.287	370.12
390.512	377.12
390.736	372.12
390.961	368.12
391.186	382.12
391.411	378.12
391.636	373.12
391.86	378.12
392.085	366.12
392.31	394.12
392.534	372.12
392.759	363.12
392.984	398.12
393.208	377.12
393.433	395.12
393.658	424.12
393.882	379.12
394.107	375.12
394.331	378.12
394.556	363.12
394.78	374.12
395.005	356.12
395.229	375.12
395.454	385.12
395.678	388.12
395.903	389.12
396.127	418.12
396.352	429.12
396.576	396.12
396.801	406.12
397.025	391.12
397.249	394.12
397.474	408.12
397.698	394.12
397.922	399.12
398.147	427.12
398.371	413.12
398.595	424.12
398.82	422.12
399.044	416.12
399.268	432.12
399.492	458.12
399.717	452.12
399.941	478.12
400.165	520.12
400.389	504.12
400.613	476.12
400.837	452.12
401.062	423.12
401.286	460.12
401.51	433.12
401.734	421.12
401.958	423.12
402.182	424.12
402.406	451.12
402.63	461.12
402.854	434.12
403.078	415.12
403.302	446.12
403.526	434.12
403.75	444.12
403.974	443.12
404.198	431.12
404.422	423.12
404.645	435.12
404.869	434.12
405.093	462.12
405.317	514.12
405.541	543.12
405.765	518.12
405.988	464.12
406.212	471.12
406.436	508.12
406.66	524.12
406.883	492.12
407.107	487.12
407.331	524.12
407.555	594.12
407.778	592.12
408.002	563.12
408.226	510.12
408.449	483.12
408.673	495.12
408.896	496.12
409.12	560.12
409.344	525.12
409.567	450.12
409.791	446.12
410.014	466.12
410.238	471.12
410.461	444.12
410.685	436.12
410.908	465.12
411.132	498.12
411.355	543.12
411.578	509.12
411.802	468.12
412.025	430.12
412.249	446.12
412.472	477.12
412.695	511.12
412.919	511.12
413.142	448.12
413.365	435.12
413.589	452.12
413.812	428.12
414.035	422.12
414.258	411.12
414.482	404.12
414.705	406.12
414.928	409.12
415.151	422.12
415.374	406.12
415.597	412.12
415.821	399.12
416.044	414.12
416.267	416.12
416.49	424.12
416.713	431.12
416.936	403.12
417.159	425.12
417.382	419.12
417.605	423.12
417.828	435.12
418.051	441.12
418.274	425.12
418.497	416.12
418.72	386.12
418.943	429.12
419.166	438.12
419.389	439.12
419.611	438.12
419.834	429.12
420.057	462.12
420.28	430.12
420.503	444.12
420.726	457.12
420.948	426.12
421.171	495.12
421.394	520.12
421.617	468.12
421.839	442.12
422.062	456.12
422.285	430.12
422.507	519.12
422.73	590.12
422.953	567.12
423.175	483.12
423.398	461.12
423.621	481.12
423.843	485.12
424.066	491.12
424.288	483.12
424.511	500.12
424.733	538.12
424.956	628.12
425.178	613.12
425.401	602.12
425.623	640.12
425.846	550.12
426.068	484.12
426.291	472.12
426.513	454.12
426.735	484.12
426.958	527.12
427.18	617.12
427.402	724.12
427.625	838.12
427.847	737.12
428.069	624.12
428.292	549.12
428.514	502.12
428.736	490.12
428.958	470.12
429.181	452.12
429.403	434.12
429.625	455.12
429.847	486.12
430.069	547.12
430.292	544.12
430.514	465.12
430.736	452.12
430.958	442.12
431.18	423.12
431.402	420.12
431.624	412.12
431.846	412.12
432.068	429.12
432.29	426.12
432.512	399.12
432.734	450.12
432.956	406.12
433.178	453.12
433.4	424.12
433.622	437.12
433.844	440.12
434.066	420.12
434.287	415.12
434.509	408.12
434.731	404.12
434.953	434.12
435.175	443.12
435.397	471.12
435.618	478.12
435.84	519.12
436.062	602.12
436.284	718.12
436.505	567.12
436.727	501.12
436.949	471.12
437.17	452.12
437.392	466.12
437.614	465.12
437.835	500.12
438.057	581.12
438.278	687.12
438.5	688.12
438.721	731.12
438.943	746.12
439.165	590.12
439.386	534.12
439.608	529.12
439.829	500.12
440.05	533.12
440.272	592.12
440.493	557.12
440.715	465.12
440.936	492.12
441.158	471.12
441.379	451.12
441.6	477.12
441.822	485.12
442.043	518.12
442.264	590.12
442.486	648.12
442.707	547.12
442.928	482.12
443.149	500.12
443.371	516.12
443.592	582.12
443.813	671.12
444.034	714.12
444.255	562.12
444.476	510.12
444.698	491.12
444.919	494.12
445.14	594.12
445.361	546.12
445.582	542.12
445.803	596.12
446.024	709.12
446.245	748.12
446.466	650.12
446.687	542.12
446.908	514.12
447.129	475.12
447.35	431.12
447.571	448.12
447.792	425.12
448.013	473.12
448.234	482.12
448.455	520.12
448.675	621.12
448.896	727.12
449.117	654.12
449.338	605.12
449.559	694.12
449.779	792.12
450	635.12
450.221	524.12
450.442	483.12
450.662	452.12
450.883	457.12
451.104	472.12
451.324	460.12
451.545	437.12
451.766	412.12
451.986	394.12
452.207	378.12
452.428	398.12
452.648	398.12
452.869	395.12
453.089	415.12
453.31	424.12
453.53	412.12
453.751	414.12
453.971	411.12
454.192	430.12
454.412	421.12
454.633	403.12
454.853	410.12
455.073	407.12
455.294	428.12
455.514	500.12
455.734	461.12
455.955	402.12
456.175	394.12
456.395	379.12
456.616	371.12
456.836	407.12
457.056	359.12
457.276	372.12
457.497	381.12
457.717	384.12
457.937	377.12
458.157	396.12
458.377	407.12
458.598	414.12
458.818	482.12
459.038	551.12
459.258	557.12
459.478	462.12
459.698	423.12
459.918	410.12
460.138	417.12
460.358	426.12
460.578	420.12
460.798	429.12
461.018	444.12
461.238	420.12
461.458	406.12
461.678	403.12
461.898	418.12
462.118	414.12
462.338	416.12
462.558	418.12
462.777	403.12
462.997	418.12
463.217	448.12
463.437	442.12
463.657	442.12
463.876	445.12
464.096	436.12
464.316	434.12
464.536	446.12
464.755	422.12
464.975	430.12
465.195	518.12
465.414	575.12
465.634	530.12
465.854	465.12
466.073	468.12
466.293	412.12
466.512	425.12
466.732	401.12
466.951	432.12
467.171	389.12
467.391	420.12
467.61	438.12
467.829	410.12
468.049	438.12
468.268	418.12
468.488	409.12
468.707	395.12
468.927	381.12
469.146	396.12
469.365	392.12
469.585	396.12
469.804	395.12
470.023	415.12
470.243	416.12
470.462	435.12
470.681	439.12
470.901	416.12
471.12	405.12
471.339	426.12
471.558	412.12
471.777	425.12
471.997	411.12
472.216	431.12
472.435	453.12
472.654	442.12
472.873	425.12
473.092	426.12
473.311	399.12
473.53	401.12
473.749	430.12
473.968	469.12
474.187	585.12
474.406	574.12
474.625	462.12
474.844	436.12
475.063	419.12
475.282	432.12
475.501	424.12
475.72	432.12
475.939	431.12
476.158	418.12
476.377	443.12
476.596	432.12
476.814	426.12
477.033	454.12
477.252	423.12
477.471	431.12
477.69	435.12
477.908	440.12
478.127	447.12
478.346	444.12
478.564	469.12
478.783	459.12
479.002	468.12
479.22	452.12
479.439	483.12
479.658	493.12
479.876	499.12
480.095	506.12
480.313	541.12
480.532	530.12
480.751	534.12
480.969	509.12
481.188	590.12
481.406	612.12
481.624	547.12
481.843	500.12
482.061	477.12
482.28	480.12
482.498	496.12
482.717	477.12
482.935	498.12
483.153	494.12
483.372	510.12
483.59	475.12
483.808	495.12
484.027	493.12
484.245	488.12
484.463	470.12
484.681	486.12
484.9	511.12
485.118	514.12
485.336	527.12
485.554	490.12
485.772	524.12
485.99	490.12
486.209	510.12
486.427	508.12
486.645	525.12
486.863	544.12
487.081	519.12
487.299	518.12
487.517	517.12
487.735	496.12
487.953	515.12
488.171	518.12
488.389	514.12
488.607	528.12
488.825	510.12
489.043	534.12
489.261	538.12
489.479	494.12
489.696	539.12
489.914	522.12
490.132	541.12
490.35	541.12
490.568	543.12
490.786	556.12
491.003	579.12
491.221	559.12
491.439	591.12
491.657	594.12
491.874	594.12
492.092	584.12
492.31	590.12
492.527	589.12
492.745	594.12
492.963	593.12
493.18	604.12
493.398	631.12
493.615	644.12
493.833	627.12
494.05	617.12
494.268	622.12
494.485	626.12
494.703	628.12
494.92	629.12
495.138	633.12
495.355	610.12
495.573	616.12
495.79	612.12
496.008	640.12
496.225	633.12
496.442	633.12
496.66	644.12
496.877	619.12
497.094	646.12
497.312	628.12
497.529	640.12
497.746	646.12
497.963	658.12
498.181	651.12
498.398	648.12
498.615	702.12
498.832	700.12
499.049	669.12
499.267	712.12
499.484	707.12
499.701	735.12
499.918	756.12
500.135	781.12
500.352	782.12
500.569	788.12
500.786	792.12
501.003	751.12
501.22	783.12
501.437	759.12
501.654	751.12
501.871	770.12
