Data from 1972.PennyLincolnUp.Lamp.En5.5.200Scan.071719.P1._HRD10591_15-27-25-844.txt Node
Date: Thu Jul 18 15:27:25 EDT 2019
User: cochatt
Spectrometer: HR+D1059
Trigger mode: 1
Integration Time (sec): 1.000000E-1
Scans to average: 1
Electric dark correction enabled: true
Nonlinearity correction enabled: false
Boxcar width: 0
XAxis mode: Wavelengths
Number of Pixels in Spectrum: 2048
>>>>>Begin Spectral Data<<<<<
223.165	-17.56
223.4	-17.56
223.635	-17.56
223.869	-11.56
224.104	-30.56
224.338	-18.56
224.573	0.44
224.808	-21.56
225.042	0.44
225.277	13.44
225.511	-13.56
225.746	11.44
225.98	6.44
226.215	3.44
226.449	7.44
226.683	25.44
226.918	16.44
227.152	28.44
227.387	20.44
227.621	41.44
227.856	39.44
228.09	50.44
228.324	53.44
228.559	68.44
228.793	81.44
229.027	100.44
229.262	94.44
229.496	107.44
229.73	136.44
229.964	161.44
230.199	128.44
230.433	109.44
230.667	130.44
230.901	101.44
231.136	119.44
231.37	118.44
231.604	110.44
231.838	139.44
232.072	129.44
232.306	114.44
232.541	109.44
232.775	100.44
233.009	120.44
233.243	117.44
233.477	110.44
233.711	121.44
233.945	118.44
234.179	129.44
234.413	122.44
234.647	110.44
234.881	83.44
235.115	116.44
235.349	117.44
235.583	126.44
235.817	115.44
236.051	137.44
236.285	129.44
236.519	126.44
236.753	127.44
236.987	147.44
237.221	192.44
237.455	238.44
237.689	195.44
237.922	139.44
238.156	126.44
238.39	127.44
238.624	132.44
238.858	116.44
239.091	122.44
239.325	100.44
239.559	109.44
239.793	121.44
240.027	123.44
240.26	129.44
240.494	157.44
240.728	161.44
240.961	152.44
241.195	150.44
241.429	138.44
241.662	123.44
241.896	126.44
242.13	134.44
242.363	121.44
242.597	125.44
242.83	133.44
243.064	138.44
243.298	143.44
243.531	129.44
243.765	146.44
243.998	147.44
244.232	135.44
244.465	148.44
244.699	145.44
244.932	137.44
245.166	122.44
245.399	143.44
245.633	120.44
245.866	134.44
246.099	133.44
246.333	134.44
246.566	143.44
246.8	130.44
247.033	156.44
247.266	167.44
247.5	161.44
247.733	157.44
247.966	165.44
248.2	156.44
248.433	160.44
248.666	151.44
248.899	174.44
249.133	174.44
249.366	204.44
249.599	183.44
249.832	174.44
250.066	171.44
250.299	149.44
250.532	179.44
250.765	193.44
250.998	212.44
251.231	213.44
251.465	213.44
251.698	214.44
251.931	206.44
252.164	196.44
252.397	212.44
252.63	185.44
252.863	202.44
253.096	207.44
253.329	209.44
253.562	223.44
253.795	228.44
254.028	209.44
254.261	217.44
254.494	214.44
254.727	243.44
254.96	265.44
255.193	268.44
255.426	246.44
255.659	233.44
255.892	212.44
256.124	213.44
256.357	230.44
256.59	227.44
256.823	216.44
257.056	201.44
257.289	205.44
257.521	214.44
257.754	204.44
257.987	211.44
258.22	195.44
258.452	214.44
258.685	208.44
258.918	194.44
259.151	197.44
259.383	202.44
259.616	201.44
259.849	221.44
260.081	207.44
260.314	236.44
260.547	248.44
260.779	223.44
261.012	223.44
261.244	242.44
261.477	221.44
261.71	217.44
261.942	222.44
262.175	221.44
262.407	226.44
262.64	225.44
262.872	221.44
263.105	212.44
263.337	197.44
263.57	199.44
263.802	205.44
264.035	217.44
264.267	188.44
264.499	201.44
264.732	200.44
264.964	184.44
265.197	198.44
265.429	212.44
265.661	193.44
265.894	197.44
266.126	202.44
266.358	209.44
266.591	183.44
266.823	202.44
267.055	209.44
267.287	211.44
267.52	211.44
267.752	204.44
267.984	206.44
268.216	217.44
268.448	228.44
268.681	226.44
268.913	251.44
269.145	229.44
269.377	267.44
269.609	272.44
269.841	257.44
270.073	243.44
270.306	287.44
270.538	305.44
270.77	285.44
271.002	271.44
271.234	274.44
271.466	274.44
271.698	301.44
271.93	296.44
272.162	310.44
272.394	290.44
272.626	315.44
272.858	271.44
273.09	269.44
273.322	272.44
273.553	262.44
273.785	245.44
274.017	261.44
274.249	239.44
274.481	247.44
274.713	269.44
274.945	265.44
275.176	263.44
275.408	233.44
275.64	246.44
275.872	264.44
276.104	261.44
276.335	226.44
276.567	254.44
276.799	262.44
277.031	304.44
277.262	292.44
277.494	290.44
277.726	285.44
277.957	280.44
278.189	260.44
278.421	260.44
278.652	261.44
278.884	268.44
279.115	266.44
279.347	261.44
279.579	243.44
279.81	227.44
280.042	244.44
280.273	247.44
280.505	265.44
280.736	252.44
280.968	225.44
281.199	263.44
281.431	248.44
281.662	240.44
281.894	256.44
282.125	234.44
282.356	279.44
282.588	283.44
282.819	282.44
283.051	266.44
283.282	261.44
283.513	261.44
283.745	248.44
283.976	270.44
284.207	258.44
284.439	253.44
284.67	261.44
284.901	259.44
285.132	259.44
285.364	267.44
285.595	250.44
285.826	247.44
286.057	256.44
286.288	234.44
286.52	264.44
286.751	247.44
286.982	265.44
287.213	260.44
287.444	272.44
287.675	270.44
287.906	269.44
288.138	264.44
288.369	263.44
288.6	271.44
288.831	267.44
289.062	272.44
289.293	265.44
289.524	257.44
289.755	283.44
289.986	280.44
290.217	254.44
290.448	274.44
290.679	250.44
290.91	271.44
291.141	277.44
291.371	277.44
291.602	262.44
291.833	276.44
292.064	271.44
292.295	242.44
292.526	267.44
292.757	263.44
292.987	249.44
293.218	275.44
293.449	275.44
293.68	275.44
293.91	259.44
294.141	265.44
294.372	258.44
294.603	270.44
294.833	261.44
295.064	285.44
295.295	275.44
295.525	267.44
295.756	281.44
295.987	291.44
296.217	311.44
296.448	299.44
296.679	293.44
296.909	265.44
297.14	271.44
297.37	276.44
297.601	279.44
297.831	246.44
298.062	271.44
298.292	274.44
298.523	295.44
298.753	273.44
298.984	262.44
299.214	281.44
299.445	273.44
299.675	300.44
299.905	279.44
300.136	302.44
300.366	271.44
300.597	268.44
300.827	287.44
301.057	280.44
301.288	302.44
301.518	308.44
301.748	314.44
301.979	295.44
302.209	291.44
302.439	298.44
302.669	305.44
302.9	298.44
303.13	282.44
303.36	285.44
303.59	299.44
303.82	316.44
304.051	275.44
304.281	311.44
304.511	293.44
304.741	316.44
304.971	286.44
305.201	285.44
305.431	292.44
305.661	301.44
305.891	301.44
306.121	294.44
306.352	309.44
306.582	307.44
306.812	301.44
307.042	309.44
307.272	296.44
307.502	298.44
307.731	305.44
307.961	304.44
308.191	291.44
308.421	285.44
308.651	307.44
308.881	309.44
309.111	324.44
309.341	299.44
309.571	341.44
309.8	346.44
310.03	332.44
310.26	347.44
310.49	346.44
310.72	356.44
310.949	370.44
311.179	385.44
311.409	363.44
311.639	345.44
311.868	342.44
312.098	361.44
312.328	360.44
312.557	366.44
312.787	383.44
313.017	382.44
313.246	364.44
313.476	339.44
313.706	333.44
313.935	353.44
314.165	356.44
314.394	375.44
314.624	355.44
314.853	345.44
315.083	343.44
315.312	349.44
315.542	341.44
315.771	348.44
316.001	338.44
316.23	352.44
316.46	351.44
316.689	329.44
316.919	346.44
317.148	360.44
317.377	344.44
317.607	354.44
317.836	348.44
318.065	346.44
318.295	351.44
318.524	347.44
318.753	346.44
318.983	371.44
319.212	341.44
319.441	359.44
319.67	356.44
319.9	345.44
320.129	359.44
320.358	342.44
320.587	363.44
320.816	371.44
321.046	379.44
321.275	388.44
321.504	362.44
321.733	361.44
321.962	377.44
322.191	385.44
322.42	399.44
322.649	410.44
322.878	411.44
323.108	429.44
323.337	457.44
323.566	494.44
323.795	512.44
324.024	587.44
324.253	670.44
324.482	998.44
324.71	1506.44
324.939	2244.44
325.168	1964.44
325.397	1029.44
325.626	667.44
325.855	557.44
326.084	489.44
326.313	463.44
326.542	484.44
326.77	535.44
326.999	648.44
327.228	884.44
327.457	1394.44
327.686	1679.44
327.914	1146.44
328.143	734.44
328.372	642.44
328.6	581.44
328.829	551.44
329.058	556.44
329.287	559.44
329.515	536.44
329.744	499.44
329.972	499.44
330.201	522.44
330.43	562.44
330.658	598.44
330.887	596.44
331.115	584.44
331.344	502.44
331.572	456.44
331.801	452.44
332.03	455.44
332.258	430.44
332.486	407.44
332.715	396.44
332.943	414.44
333.172	400.44
333.4	416.44
333.629	430.44
333.857	438.44
334.085	452.44
334.314	458.44
334.542	487.44
334.771	494.44
334.999	480.44
335.227	462.44
335.455	408.44
335.684	415.44
335.912	398.44
336.14	409.44
336.369	418.44
336.597	382.44
336.825	409.44
337.053	384.44
337.281	379.44
337.51	407.44
337.738	389.44
337.966	396.44
338.194	394.44
338.422	380.44
338.65	388.44
338.878	397.44
339.106	376.44
339.334	392.44
339.562	372.44
339.79	372.44
340.018	393.44
340.246	371.44
340.474	392.44
340.702	373.44
340.93	371.44
341.158	396.44
341.386	403.44
341.614	399.44
341.842	378.44
342.07	385.44
342.298	375.44
342.526	386.44
342.754	373.44
342.981	370.44
343.209	373.44
343.437	368.44
343.665	379.44
343.893	382.44
344.12	381.44
344.348	388.44
344.576	369.44
344.804	396.44
345.031	398.44
345.259	409.44
345.487	384.44
345.714	392.44
345.942	380.44
346.17	365.44
346.397	365.44
346.625	370.44
346.853	371.44
347.08	379.44
347.308	375.44
347.535	387.44
347.763	397.44
347.99	406.44
348.218	377.44
348.445	394.44
348.673	378.44
348.9	379.44
349.128	388.44
349.355	359.44
349.583	365.44
349.81	374.44
350.037	353.44
350.265	383.44
350.492	373.44
350.72	343.44
350.947	368.44
351.174	369.44
351.402	383.44
351.629	387.44
351.856	377.44
352.083	391.44
352.311	382.44
352.538	395.44
352.765	395.44
352.992	382.44
353.22	398.44
353.447	380.44
353.674	380.44
353.901	359.44
354.128	359.44
354.355	342.44
354.583	359.44
354.81	358.44
355.037	335.44
355.264	354.44
355.491	321.44
355.718	339.44
355.945	336.44
356.172	337.44
356.399	333.44
356.626	346.44
356.853	343.44
357.08	343.44
357.307	349.44
357.534	351.44
357.761	325.44
357.988	338.44
358.215	363.44
358.441	329.44
358.668	329.44
358.895	351.44
359.122	341.44
359.349	353.44
359.576	359.44
359.802	400.44
360.029	430.44
360.256	447.44
360.483	421.44
360.709	401.44
360.936	380.44
361.163	383.44
361.39	371.44
361.616	380.44
361.843	384.44
362.07	380.44
362.296	373.44
362.523	387.44
362.749	387.44
362.976	401.44
363.203	363.44
363.429	354.44
363.656	367.44
363.882	352.44
364.109	347.44
364.335	348.44
364.562	348.44
364.788	368.44
365.015	376.44
365.241	336.44
365.468	373.44
365.694	364.44
365.92	352.44
366.147	362.44
366.373	357.44
366.599	353.44
366.826	333.44
367.052	340.44
367.278	343.44
367.505	361.44
367.731	360.44
367.957	353.44
368.184	348.44
368.41	347.44
368.636	351.44
368.862	364.44
369.089	377.44
369.315	349.44
369.541	352.44
369.767	335.44
369.993	360.44
370.219	366.44
370.445	339.44
370.672	345.44
370.898	340.44
371.124	346.44
371.35	341.44
371.576	328.44
371.802	345.44
372.028	366.44
372.254	342.44
372.48	313.44
372.706	347.44
372.932	334.44
373.158	353.44
373.384	323.44
373.61	340.44
373.835	340.44
374.061	355.44
374.287	368.44
374.513	346.44
374.739	361.44
374.965	348.44
375.191	337.44
375.416	335.44
375.642	341.44
375.868	342.44
376.094	348.44
376.319	354.44
376.545	349.44
376.771	341.44
376.997	353.44
377.222	338.44
377.448	341.44
377.674	357.44
377.899	343.44
378.125	331.44
378.35	341.44
378.576	342.44
378.802	317.44
379.027	344.44
379.253	351.44
379.478	350.44
379.704	332.44
379.929	333.44
380.155	353.44
380.38	350.44
380.606	344.44
380.831	349.44
381.057	348.44
381.282	333.44
381.507	351.44
381.733	344.44
381.958	359.44
382.184	355.44
382.409	345.44
382.634	329.44
382.86	330.44
383.085	330.44
383.31	360.44
383.535	343.44
383.761	357.44
383.986	329.44
384.211	355.44
384.436	357.44
384.662	353.44
384.887	367.44
385.112	353.44
385.337	357.44
385.562	351.44
385.787	354.44
386.013	391.44
386.238	383.44
386.463	369.44
386.688	367.44
386.913	360.44
387.138	375.44
387.363	379.44
387.588	375.44
387.813	359.44
388.038	371.44
388.263	357.44
388.488	373.44
388.713	369.44
388.938	363.44
389.163	362.44
389.387	371.44
389.612	391.44
389.837	359.44
390.062	361.44
390.287	352.44
390.512	366.44
390.736	354.44
390.961	374.44
391.186	355.44
391.411	375.44
391.636	353.44
391.86	361.44
392.085	386.44
392.31	366.44
392.534	360.44
392.759	358.44
392.984	377.44
393.208	362.44
393.433	363.44
393.658	400.44
393.882	387.44
394.107	366.44
394.331	367.44
394.556	347.44
394.78	369.44
395.005	351.44
395.229	367.44
395.454	367.44
395.678	349.44
395.903	386.44
396.127	411.44
396.352	411.44
396.576	370.44
396.801	382.44
397.025	391.44
397.249	392.44
397.474	383.44
397.698	385.44
397.922	401.44
398.147	418.44
398.371	420.44
398.595	403.44
398.82	390.44
399.044	399.44
399.268	415.44
399.492	425.44
399.717	441.44
399.941	472.44
400.165	479.44
400.389	497.44
400.613	467.44
400.837	444.44
401.062	443.44
401.286	427.44
401.51	429.44
401.734	403.44
401.958	433.44
402.182	428.44
402.406	419.44
402.63	426.44
402.854	444.44
403.078	415.44
403.302	397.44
403.526	429.44
403.75	421.44
403.974	440.44
404.198	439.44
404.422	413.44
404.645	429.44
404.869	445.44
405.093	489.44
405.317	507.44
405.541	524.44
405.765	491.44
405.988	458.44
406.212	481.44
406.436	484.44
406.66	492.44
406.883	462.44
407.107	479.44
407.331	507.44
407.555	557.44
407.778	579.44
408.002	531.44
408.226	479.44
408.449	455.44
408.673	479.44
408.896	502.44
409.12	527.44
409.344	516.44
409.567	458.44
409.791	426.44
410.014	431.44
410.238	427.44
410.461	422.44
410.685	437.44
410.908	433.44
411.132	486.44
411.355	520.44
411.578	503.44
411.802	439.44
412.025	430.44
412.249	436.44
412.472	481.44
412.695	514.44
412.919	495.44
413.142	454.44
413.365	438.44
413.589	421.44
413.812	435.44
414.035	433.44
414.258	403.44
414.482	406.44
414.705	393.44
414.928	399.44
415.151	415.44
415.374	395.44
415.597	413.44
415.821	396.44
416.044	410.44
416.267	399.44
416.49	399.44
416.713	396.44
416.936	410.44
417.159	421.44
417.382	418.44
417.605	427.44
417.828	417.44
418.051	426.44
418.274	434.44
418.497	403.44
418.72	421.44
418.943	417.44
419.166	438.44
419.389	420.44
419.611	422.44
419.834	446.44
420.057	435.44
420.28	422.44
420.503	433.44
420.726	422.44
420.948	446.44
421.171	490.44
421.394	522.44
421.617	454.44
421.839	421.44
422.062	415.44
422.285	447.44
422.507	507.44
422.73	582.44
422.953	545.44
423.175	476.44
423.398	457.44
423.621	441.44
423.843	457.44
424.066	465.44
424.288	479.44
424.511	497.44
424.733	534.44
424.956	629.44
425.178	584.44
425.401	568.44
425.623	618.44
425.846	534.44
426.068	490.44
426.291	487.44
426.513	481.44
426.735	484.44
426.958	532.44
427.18	620.44
427.402	747.44
427.625	809.44
427.847	727.44
428.069	619.44
428.292	542.44
428.514	485.44
428.736	469.44
428.958	443.44
429.181	433.44
429.403	423.44
429.625	455.44
429.847	479.44
430.069	549.44
430.292	547.44
430.514	458.44
430.736	444.44
430.958	435.44
431.18	406.44
431.402	405.44
431.624	402.44
431.846	414.44
432.068	398.44
432.29	401.44
432.512	401.44
432.734	423.44
432.956	425.44
433.178	420.44
433.4	428.44
433.622	428.44
433.844	404.44
434.066	417.44
434.287	424.44
434.509	422.44
434.731	434.44
434.953	430.44
435.175	455.44
435.397	464.44
435.618	494.44
435.84	491.44
436.062	583.44
436.284	677.44
436.505	559.44
436.727	494.44
436.949	439.44
437.17	454.44
437.392	451.44
437.614	433.44
437.835	482.44
438.057	589.44
438.278	673.44
438.5	675.44
438.721	740.44
438.943	709.44
439.165	560.44
439.386	517.44
439.608	485.44
439.829	479.44
440.05	536.44
440.272	552.44
440.493	516.44
440.715	484.44
440.936	440.44
441.158	446.44
441.379	441.44
441.6	453.44
441.822	480.44
442.043	538.44
442.264	635.44
442.486	642.44
442.707	533.44
442.928	495.44
443.149	496.44
443.371	533.44
443.592	547.44
443.813	642.44
444.034	683.44
444.255	578.44
444.476	504.44
444.698	470.44
444.919	483.44
445.14	593.44
445.361	538.44
445.582	517.44
445.803	599.44
446.024	700.44
446.245	710.44
446.466	647.44
446.687	543.44
446.908	511.44
447.129	473.44
447.35	443.44
447.571	461.44
447.792	442.44
448.013	445.44
448.234	467.44
448.455	535.44
448.675	617.44
448.896	724.44
449.117	631.44
449.338	579.44
449.559	653.44
449.779	773.44
450	627.44
450.221	493.44
450.442	454.44
450.662	458.44
450.883	460.44
451.104	450.44
451.324	438.44
451.545	439.44
451.766	425.44
451.986	411.44
452.207	385.44
452.428	375.44
452.648	402.44
452.869	403.44
453.089	396.44
453.31	426.44
453.53	417.44
453.751	400.44
453.971	411.44
454.192	421.44
454.412	413.44
454.633	397.44
454.853	398.44
455.073	387.44
455.294	435.44
455.514	486.44
455.734	459.44
455.955	396.44
456.175	385.44
456.395	377.44
456.616	373.44
456.836	365.44
457.056	360.44
457.276	372.44
457.497	372.44
457.717	380.44
457.937	376.44
458.157	369.44
458.377	398.44
458.598	414.44
458.818	467.44
459.038	547.44
459.258	573.44
459.478	474.44
459.698	438.44
459.918	411.44
460.138	406.44
460.358	414.44
460.578	399.44
460.798	410.44
461.018	414.44
461.238	417.44
461.458	427.44
461.678	389.44
461.898	415.44
462.118	397.44
462.338	417.44
462.558	416.44
462.777	409.44
462.997	428.44
463.217	430.44
463.437	422.44
463.657	433.44
463.876	442.44
464.096	427.44
464.316	397.44
464.536	433.44
464.755	423.44
464.975	441.44
465.195	489.44
465.414	551.44
465.634	499.44
465.854	445.44
466.073	439.44
466.293	400.44
466.512	399.44
466.732	413.44
466.951	401.44
467.171	409.44
467.391	400.44
467.61	415.44
467.829	410.44
468.049	423.44
468.268	405.44
468.488	398.44
468.707	385.44
468.927	383.44
469.146	385.44
469.365	405.44
469.585	394.44
469.804	426.44
470.023	422.44
470.243	422.44
470.462	424.44
470.681	414.44
470.901	397.44
471.12	412.44
471.339	414.44
471.558	415.44
471.777	419.44
471.997	388.44
472.216	431.44
472.435	445.44
472.654	439.44
472.873	410.44
473.092	393.44
473.311	422.44
473.53	440.44
473.749	421.44
473.968	456.44
474.187	555.44
474.406	559.44
474.625	458.44
474.844	444.44
475.063	426.44
475.282	415.44
475.501	410.44
475.72	424.44
475.939	400.44
476.158	410.44
476.377	421.44
476.596	429.44
476.814	408.44
477.033	446.44
477.252	435.44
477.471	430.44
477.69	446.44
477.908	432.44
478.127	469.44
478.346	438.44
478.564	455.44
478.783	438.44
479.002	461.44
479.22	465.44
479.439	479.44
479.658	482.44
479.876	509.44
480.095	497.44
480.313	528.44
480.532	526.44
480.751	476.44
480.969	483.44
481.188	549.44
481.406	611.44
481.624	532.44
481.843	513.44
482.061	484.44
482.28	494.44
482.498	448.44
482.717	479.44
482.935	471.44
483.153	485.44
483.372	481.44
483.59	485.44
483.808	466.44
484.027	481.44
484.245	473.44
484.463	478.44
484.681	490.44
484.9	478.44
485.118	482.44
485.336	469.44
485.554	501.44
485.772	504.44
485.99	502.44
486.209	509.44
486.427	488.44
486.645	525.44
486.863	531.44
487.081	519.44
487.299	511.44
487.517	524.44
487.735	520.44
487.953	533.44
488.171	521.44
488.389	517.44
488.607	504.44
488.825	500.44
489.043	519.44
489.261	517.44
489.479	519.44
489.696	532.44
489.914	537.44
490.132	504.44
490.35	515.44
490.568	526.44
490.786	545.44
491.003	552.44
491.221	577.44
491.439	589.44
491.657	570.44
491.874	574.44
492.092	599.44
492.31	610.44
492.527	579.44
492.745	609.44
492.963	578.44
493.18	598.44
493.398	616.44
493.615	610.44
493.833	616.44
494.05	604.44
494.268	627.44
494.485	602.44
494.703	601.44
494.92	604.44
495.138	596.44
495.355	606.44
495.573	618.44
495.79	613.44
496.008	629.44
496.225	608.44
496.442	604.44
496.66	602.44
496.877	605.44
497.094	594.44
497.312	617.44
497.529	621.44
497.746	645.44
497.963	617.44
498.181	673.44
498.398	638.44
498.615	657.44
498.832	667.44
499.049	672.44
499.267	668.44
499.484	694.44
499.701	719.44
499.918	725.44
500.135	754.44
500.352	774.44
500.569	757.44
500.786	779.44
501.003	770.44
501.22	782.44
501.437	725.44
501.654	727.44
501.871	722.44
