Data from 1972.PennyLincolnUp.Lamp.En5.5.200Scan.071719.P1._HRD10591_15-28-10-844.txt Node
Date: Thu Jul 18 15:28:10 EDT 2019
User: cochatt
Spectrometer: HR+D1059
Trigger mode: 1
Integration Time (sec): 1.000000E-1
Scans to average: 1
Electric dark correction enabled: true
Nonlinearity correction enabled: false
Boxcar width: 0
XAxis mode: Wavelengths
Number of Pixels in Spectrum: 2048
>>>>>Begin Spectral Data<<<<<
223.165	-23.19
223.4	-23.19
223.635	-23.19
223.869	-15.19
224.104	-22.19
224.338	-6.19
224.573	-20.19
224.808	-7.19
225.042	-12.19
225.277	0.81
225.511	2.81
225.746	6.81
225.98	4.81
226.215	3.81
226.449	16.81
226.683	10.81
226.918	16.81
227.152	42.81
227.387	36.81
227.621	34.81
227.856	40.81
228.09	52.81
228.324	51.81
228.559	46.81
228.793	83.81
229.027	88.81
229.262	97.81
229.496	122.81
229.73	136.81
229.964	173.81
230.199	124.81
230.433	118.81
230.667	101.81
230.901	116.81
231.136	112.81
231.37	115.81
231.604	104.81
231.838	105.81
232.072	105.81
232.306	105.81
232.541	98.81
232.775	94.81
233.009	112.81
233.243	112.81
233.477	113.81
233.711	119.81
233.945	122.81
234.179	123.81
234.413	118.81
234.647	110.81
234.881	130.81
235.115	121.81
235.349	117.81
235.583	124.81
235.817	108.81
236.051	129.81
236.285	133.81
236.519	129.81
236.753	129.81
236.987	144.81
237.221	176.81
237.455	267.81
237.689	204.81
237.922	153.81
238.156	133.81
238.39	128.81
238.624	138.81
238.858	122.81
239.091	110.81
239.325	124.81
239.559	122.81
239.793	124.81
240.027	132.81
240.26	148.81
240.494	150.81
240.728	146.81
240.961	138.81
241.195	147.81
241.429	142.81
241.662	129.81
241.896	138.81
242.13	134.81
242.363	140.81
242.597	132.81
242.83	121.81
243.064	131.81
243.298	130.81
243.531	143.81
243.765	132.81
243.998	141.81
244.232	140.81
244.465	156.81
244.699	140.81
244.932	157.81
245.166	147.81
245.399	149.81
245.633	147.81
245.866	150.81
246.099	145.81
246.333	146.81
246.566	140.81
246.8	154.81
247.033	161.81
247.266	162.81
247.5	165.81
247.733	172.81
247.966	173.81
248.2	170.81
248.433	181.81
248.666	169.81
248.899	173.81
249.133	204.81
249.366	219.81
249.599	190.81
249.832	195.81
250.066	195.81
250.299	180.81
250.532	188.81
250.765	200.81
250.998	211.81
251.231	224.81
251.465	221.81
251.698	214.81
251.931	219.81
252.164	213.81
252.397	211.81
252.63	197.81
252.863	208.81
253.096	218.81
253.329	237.81
253.562	238.81
253.795	202.81
254.028	230.81
254.261	228.81
254.494	256.81
254.727	256.81
254.96	305.81
255.193	296.81
255.426	276.81
255.659	251.81
255.892	238.81
256.124	247.81
256.357	241.81
256.59	216.81
256.823	220.81
257.056	208.81
257.289	224.81
257.521	232.81
257.754	224.81
257.987	198.81
258.22	226.81
258.452	210.81
258.685	211.81
258.918	212.81
259.151	209.81
259.383	236.81
259.616	225.81
259.849	236.81
260.081	237.81
260.314	267.81
260.547	285.81
260.779	274.81
261.012	237.81
261.244	229.81
261.477	240.81
261.71	228.81
261.942	245.81
262.175	249.81
262.407	238.81
262.64	226.81
262.872	209.81
263.105	234.81
263.337	222.81
263.57	220.81
263.802	225.81
264.035	208.81
264.267	214.81
264.499	208.81
264.732	226.81
264.964	217.81
265.197	206.81
265.429	205.81
265.661	221.81
265.894	224.81
266.126	207.81
266.358	215.81
266.591	213.81
266.823	219.81
267.055	241.81
267.287	227.81
267.52	212.81
267.752	222.81
267.984	213.81
268.216	226.81
268.448	247.81
268.681	242.81
268.913	256.81
269.145	260.81
269.377	282.81
269.609	282.81
269.841	285.81
270.073	278.81
270.306	294.81
270.538	320.81
270.77	320.81
271.002	315.81
271.234	308.81
271.466	301.81
271.698	333.81
271.93	340.81
272.162	335.81
272.394	331.81
272.626	323.81
272.858	300.81
273.09	285.81
273.322	264.81
273.553	282.81
273.785	262.81
274.017	270.81
274.249	283.81
274.481	267.81
274.713	265.81
274.945	268.81
275.176	289.81
275.408	278.81
275.64	275.81
275.872	259.81
276.104	266.81
276.335	260.81
276.567	293.81
276.799	319.81
277.031	298.81
277.262	344.81
277.494	333.81
277.726	322.81
277.957	304.81
278.189	294.81
278.421	278.81
278.652	260.81
278.884	278.81
279.115	270.81
279.347	266.81
279.579	268.81
279.81	247.81
280.042	284.81
280.273	274.81
280.505	279.81
280.736	270.81
280.968	267.81
281.199	279.81
281.431	270.81
281.662	246.81
281.894	270.81
282.125	271.81
282.356	289.81
282.588	308.81
282.819	317.81
283.051	273.81
283.282	270.81
283.513	291.81
283.745	272.81
283.976	279.81
284.207	276.81
284.439	271.81
284.67	276.81
284.901	277.81
285.132	272.81
285.364	268.81
285.595	281.81
285.826	270.81
286.057	291.81
286.288	265.81
286.52	276.81
286.751	265.81
286.982	268.81
287.213	278.81
287.444	286.81
287.675	289.81
287.906	274.81
288.138	293.81
288.369	296.81
288.6	302.81
288.831	280.81
289.062	294.81
289.293	270.81
289.524	302.81
289.755	289.81
289.986	278.81
290.217	269.81
290.448	266.81
290.679	286.81
290.91	269.81
291.141	277.81
291.371	286.81
291.602	272.81
291.833	279.81
292.064	272.81
292.295	274.81
292.526	290.81
292.757	291.81
292.987	274.81
293.218	286.81
293.449	279.81
293.68	278.81
293.91	282.81
294.141	293.81
294.372	288.81
294.603	277.81
294.833	267.81
295.064	285.81
295.295	288.81
295.525	283.81
295.756	288.81
295.987	317.81
296.217	302.81
296.448	330.81
296.679	304.81
296.909	280.81
297.14	299.81
297.37	281.81
297.601	301.81
297.831	291.81
298.062	277.81
298.292	277.81
298.523	310.81
298.753	295.81
298.984	296.81
299.214	283.81
299.445	292.81
299.675	273.81
299.905	317.81
300.136	300.81
300.366	288.81
300.597	299.81
300.827	308.81
301.057	308.81
301.288	323.81
301.518	312.81
301.748	316.81
301.979	299.81
302.209	310.81
302.439	323.81
302.669	329.81
302.9	329.81
303.13	316.81
303.36	312.81
303.59	315.81
303.82	340.81
304.051	343.81
304.281	312.81
304.511	328.81
304.741	310.81
304.971	306.81
305.201	318.81
305.431	314.81
305.661	307.81
305.891	310.81
306.121	325.81
306.352	333.81
306.582	330.81
306.812	313.81
307.042	305.81
307.272	322.81
307.502	323.81
307.731	339.81
307.961	313.81
308.191	317.81
308.421	310.81
308.651	331.81
308.881	328.81
309.111	313.81
309.341	326.81
309.571	352.81
309.8	341.81
310.03	372.81
310.26	370.81
310.49	375.81
310.72	394.81
310.949	416.81
311.179	420.81
311.409	402.81
311.639	376.81
311.868	357.81
312.098	380.81
312.328	384.81
312.557	414.81
312.787	429.81
313.017	429.81
313.246	409.81
313.476	374.81
313.706	380.81
313.935	388.81
314.165	397.81
314.394	398.81
314.624	386.81
314.853	389.81
315.083	377.81
315.312	374.81
315.542	357.81
315.771	368.81
316.001	366.81
316.23	352.81
316.46	382.81
316.689	384.81
316.919	362.81
317.148	389.81
317.377	404.81
317.607	404.81
317.836	370.81
318.065	383.81
318.295	386.81
318.524	367.81
318.753	371.81
318.983	369.81
319.212	365.81
319.441	382.81
319.67	397.81
319.9	392.81
320.129	375.81
320.358	389.81
320.587	388.81
320.816	392.81
321.046	407.81
321.275	407.81
321.504	410.81
321.733	418.81
321.962	406.81
322.191	427.81
322.42	438.81
322.649	477.81
322.878	464.81
323.108	476.81
323.337	512.81
323.566	568.81
323.795	562.81
324.024	636.81
324.253	820.81
324.482	1172.81
324.71	1850.81
324.939	2684.81
325.168	2345.81
325.397	1203.81
325.626	782.81
325.855	628.81
326.084	568.81
326.313	552.81
326.542	557.81
326.77	622.81
326.999	752.81
327.228	1063.81
327.457	1656.81
327.686	2044.81
327.914	1340.81
328.143	836.81
328.372	737.81
328.6	656.81
328.829	630.81
329.058	677.81
329.287	661.81
329.515	609.81
329.744	564.81
329.972	558.81
330.201	585.81
330.43	656.81
330.658	670.81
330.887	678.81
331.115	664.81
331.344	557.81
331.572	530.81
331.801	512.81
332.03	503.81
332.258	480.81
332.486	432.81
332.715	445.81
332.943	456.81
333.172	445.81
333.4	446.81
333.629	462.81
333.857	461.81
334.085	473.81
334.314	503.81
334.542	558.81
334.771	604.81
334.999	520.81
335.227	464.81
335.455	447.81
335.684	419.81
335.912	434.81
336.14	440.81
336.369	411.81
336.597	450.81
336.825	452.81
337.053	443.81
337.281	440.81
337.51	425.81
337.738	446.81
337.966	434.81
338.194	442.81
338.422	438.81
338.65	403.81
338.878	426.81
339.106	420.81
339.334	397.81
339.562	404.81
339.79	421.81
340.018	418.81
340.246	426.81
340.474	425.81
340.702	410.81
340.93	413.81
341.158	412.81
341.386	413.81
341.614	393.81
341.842	421.81
342.07	421.81
342.298	413.81
342.526	390.81
342.754	406.81
342.981	411.81
343.209	419.81
343.437	401.81
343.665	398.81
343.893	407.81
344.12	414.81
344.348	408.81
344.576	396.81
344.804	418.81
345.031	426.81
345.259	434.81
345.487	429.81
345.714	423.81
345.942	395.81
346.17	422.81
346.397	414.81
346.625	400.81
346.853	396.81
347.08	386.81
347.308	394.81
347.535	410.81
347.763	442.81
347.99	422.81
348.218	419.81
348.445	433.81
348.673	427.81
348.9	425.81
349.128	398.81
349.355	373.81
349.583	392.81
349.81	373.81
350.037	380.81
350.265	377.81
350.492	388.81
350.72	388.81
350.947	389.81
351.174	413.81
351.402	424.81
351.629	402.81
351.856	423.81
352.083	427.81
352.311	436.81
352.538	417.81
352.765	432.81
352.992	421.81
353.22	420.81
353.447	389.81
353.674	387.81
353.901	373.81
354.128	379.81
354.355	357.81
354.583	370.81
354.81	400.81
355.037	375.81
355.264	356.81
355.491	360.81
355.718	349.81
355.945	360.81
356.172	356.81
356.399	355.81
356.626	372.81
356.853	375.81
357.08	371.81
357.307	385.81
357.534	368.81
357.761	382.81
357.988	375.81
358.215	374.81
358.441	369.81
358.668	378.81
358.895	391.81
359.122	366.81
359.349	404.81
359.576	407.81
359.802	435.81
360.029	466.81
360.256	493.81
360.483	458.81
360.709	426.81
360.936	420.81
361.163	421.81
361.39	412.81
361.616	407.81
361.843	398.81
362.07	395.81
362.296	386.81
362.523	381.81
362.749	395.81
362.976	396.81
363.203	388.81
363.429	371.81
363.656	378.81
363.882	388.81
364.109	374.81
364.335	365.81
364.562	376.81
364.788	376.81
365.015	379.81
365.241	367.81
365.468	384.81
365.694	404.81
365.92	398.81
366.147	385.81
366.373	347.81
366.599	370.81
366.826	373.81
367.052	363.81
367.278	365.81
367.505	377.81
367.731	372.81
367.957	380.81
368.184	383.81
368.41	376.81
368.636	403.81
368.862	390.81
369.089	376.81
369.315	370.81
369.541	379.81
369.767	360.81
369.993	360.81
370.219	377.81
370.445	372.81
370.672	381.81
370.898	376.81
371.124	387.81
371.35	366.81
371.576	373.81
371.802	367.81
372.028	360.81
372.254	367.81
372.48	370.81
372.706	381.81
372.932	360.81
373.158	374.81
373.384	382.81
373.61	381.81
373.835	357.81
374.061	374.81
374.287	362.81
374.513	384.81
374.739	377.81
374.965	376.81
375.191	356.81
375.416	370.81
375.642	344.81
375.868	378.81
376.094	372.81
376.319	357.81
376.545	373.81
376.771	357.81
376.997	372.81
377.222	368.81
377.448	354.81
377.674	366.81
377.899	364.81
378.125	358.81
378.35	345.81
378.576	362.81
378.802	347.81
379.027	355.81
379.253	366.81
379.478	372.81
379.704	356.81
379.929	362.81
380.155	371.81
380.38	360.81
380.606	356.81
380.831	362.81
381.057	362.81
381.282	369.81
381.507	368.81
381.733	358.81
381.958	368.81
382.184	375.81
382.409	358.81
382.634	370.81
382.86	356.81
383.085	363.81
383.31	391.81
383.535	376.81
383.761	364.81
383.986	357.81
384.211	363.81
384.436	363.81
384.662	354.81
384.887	360.81
385.112	370.81
385.337	372.81
385.562	380.81
385.787	386.81
386.013	394.81
386.238	412.81
386.463	399.81
386.688	387.81
386.913	397.81
387.138	396.81
387.363	373.81
387.588	365.81
387.813	392.81
388.038	362.81
388.263	364.81
388.488	388.81
388.713	389.81
388.938	369.81
389.163	386.81
389.387	383.81
389.612	377.81
389.837	350.81
390.062	372.81
390.287	378.81
390.512	384.81
390.736	371.81
390.961	378.81
391.186	388.81
391.411	382.81
391.636	366.81
391.86	384.81
392.085	404.81
392.31	399.81
392.534	396.81
392.759	393.81
392.984	384.81
393.208	404.81
393.433	406.81
393.658	389.81
393.882	395.81
394.107	390.81
394.331	395.81
394.556	381.81
394.78	404.81
395.005	389.81
395.229	376.81
395.454	383.81
395.678	388.81
395.903	414.81
396.127	408.81
396.352	433.81
396.576	414.81
396.801	392.81
397.025	421.81
397.249	403.81
397.474	421.81
397.698	396.81
397.922	428.81
398.147	420.81
398.371	441.81
398.595	440.81
398.82	408.81
399.044	426.81
399.268	452.81
399.492	439.81
399.717	465.81
399.941	487.81
400.165	522.81
400.389	562.81
400.613	508.81
400.837	457.81
401.062	450.81
401.286	456.81
401.51	439.81
401.734	454.81
401.958	428.81
402.182	448.81
402.406	443.81
402.63	462.81
402.854	436.81
403.078	434.81
403.302	443.81
403.526	459.81
403.75	468.81
403.974	440.81
404.198	428.81
404.422	451.81
404.645	469.81
404.869	453.81
405.093	497.81
405.317	554.81
405.541	586.81
405.765	533.81
405.988	508.81
406.212	507.81
406.436	519.81
406.66	525.81
406.883	519.81
407.107	531.81
407.331	549.81
407.555	662.81
407.778	613.81
408.002	547.81
408.226	539.81
408.449	499.81
408.673	521.81
408.896	537.81
409.12	563.81
409.344	539.81
409.567	477.81
409.791	476.81
410.014	454.81
410.238	470.81
410.461	463.81
410.685	471.81
410.908	492.81
411.132	516.81
411.355	564.81
411.578	532.81
411.802	481.81
412.025	465.81
412.249	471.81
412.472	503.81
412.695	553.81
412.919	523.81
413.142	499.81
413.365	458.81
413.589	444.81
413.812	456.81
414.035	435.81
414.258	400.81
414.482	421.81
414.705	420.81
414.928	430.81
415.151	422.81
415.374	438.81
415.597	402.81
415.821	419.81
416.044	416.81
416.267	433.81
416.49	427.81
416.713	429.81
416.936	433.81
417.159	420.81
417.382	443.81
417.605	449.81
417.828	459.81
418.051	474.81
418.274	468.81
418.497	437.81
418.72	438.81
418.943	427.81
419.166	437.81
419.389	474.81
419.611	466.81
419.834	464.81
420.057	465.81
420.28	475.81
420.503	455.81
420.726	441.81
420.948	466.81
421.171	511.81
421.394	573.81
421.617	500.81
421.839	465.81
422.062	475.81
422.285	470.81
422.507	524.81
422.73	608.81
422.953	580.81
423.175	508.81
423.398	480.81
423.621	489.81
423.843	497.81
424.066	508.81
424.288	488.81
424.511	531.81
424.733	593.81
424.956	669.81
425.178	631.81
425.401	630.81
425.623	673.81
425.846	568.81
426.068	504.81
426.291	505.81
426.513	508.81
426.735	533.81
426.958	591.81
427.18	645.81
427.402	754.81
427.625	865.81
427.847	786.81
428.069	694.81
428.292	586.81
428.514	518.81
428.736	502.81
428.958	496.81
429.181	464.81
429.403	475.81
429.625	485.81
429.847	521.81
430.069	578.81
430.292	571.81
430.514	508.81
430.736	480.81
430.958	466.81
431.18	459.81
431.402	441.81
431.624	435.81
431.846	444.81
432.068	422.81
432.29	423.81
432.512	435.81
432.734	442.81
432.956	431.81
433.178	466.81
433.4	463.81
433.622	455.81
433.844	433.81
434.066	416.81
434.287	442.81
434.509	437.81
434.731	450.81
434.953	450.81
435.175	467.81
435.397	487.81
435.618	498.81
435.84	568.81
436.062	663.81
436.284	723.81
436.505	605.81
436.727	537.81
436.949	510.81
437.17	467.81
437.392	482.81
437.614	492.81
437.835	532.81
438.057	630.81
438.278	743.81
438.5	720.81
438.721	828.81
438.943	782.81
439.165	613.81
439.386	564.81
439.608	566.81
439.829	527.81
440.05	595.81
440.272	636.81
440.493	594.81
440.715	518.81
440.936	498.81
441.158	487.81
441.379	477.81
441.6	490.81
441.822	516.81
442.043	554.81
442.264	640.81
442.486	682.81
442.707	584.81
442.928	540.81
443.149	562.81
443.371	552.81
443.592	599.81
443.813	693.81
444.034	789.81
444.255	626.81
444.476	531.81
444.698	512.81
444.919	496.81
445.14	608.81
445.361	561.81
445.582	580.81
445.803	648.81
446.024	763.81
446.245	754.81
446.466	696.81
446.687	584.81
446.908	535.81
447.129	480.81
447.35	479.81
447.571	472.81
447.792	476.81
448.013	481.81
448.234	489.81
448.455	569.81
448.675	679.81
448.896	777.81
449.117	655.81
449.338	644.81
449.559	736.81
449.779	838.81
450	669.81
450.221	548.81
450.442	516.81
450.662	488.81
450.883	501.81
451.104	520.81
451.324	489.81
451.545	459.81
451.766	462.81
451.986	438.81
452.207	405.81
452.428	421.81
452.648	428.81
452.869	442.81
453.089	449.81
453.31	451.81
453.53	437.81
453.751	427.81
453.971	438.81
454.192	459.81
454.412	448.81
454.633	429.81
454.853	422.81
455.073	414.81
455.294	462.81
455.514	540.81
455.734	527.81
455.955	442.81
456.175	412.81
456.395	390.81
456.616	393.81
456.836	384.81
457.056	396.81
457.276	400.81
457.497	389.81
457.717	394.81
457.937	390.81
458.157	384.81
458.377	409.81
458.598	444.81
458.818	494.81
459.038	615.81
459.258	618.81
459.478	497.81
459.698	471.81
459.918	418.81
460.138	425.81
460.358	425.81
460.578	421.81
460.798	441.81
461.018	437.81
461.238	417.81
461.458	430.81
461.678	430.81
461.898	444.81
462.118	432.81
462.338	440.81
462.558	433.81
462.777	433.81
462.997	454.81
463.217	437.81
463.437	451.81
463.657	454.81
463.876	453.81
464.096	448.81
464.316	453.81
464.536	465.81
464.755	458.81
464.975	467.81
465.195	544.81
465.414	643.81
465.634	526.81
465.854	487.81
466.073	463.81
466.293	430.81
466.512	418.81
466.732	405.81
466.951	443.81
467.171	413.81
467.391	428.81
467.61	461.81
467.829	434.81
468.049	456.81
468.268	456.81
468.488	422.81
468.707	408.81
468.927	444.81
469.146	405.81
469.365	414.81
469.585	405.81
469.804	411.81
470.023	428.81
470.243	429.81
470.462	445.81
470.681	460.81
470.901	445.81
471.12	440.81
471.339	434.81
471.558	437.81
471.777	425.81
471.997	434.81
472.216	432.81
472.435	494.81
472.654	473.81
472.873	423.81
473.092	415.81
473.311	427.81
473.53	438.81
473.749	460.81
473.968	499.81
474.187	634.81
474.406	621.81
474.625	530.81
474.844	446.81
475.063	442.81
475.282	439.81
475.501	449.81
475.72	447.81
475.939	435.81
476.158	432.81
476.377	439.81
476.596	430.81
476.814	440.81
477.033	459.81
477.252	470.81
477.471	459.81
477.69	446.81
477.908	450.81
478.127	457.81
478.346	470.81
478.564	470.81
478.783	499.81
479.002	489.81
479.22	508.81
479.439	509.81
479.658	540.81
479.876	541.81
480.095	512.81
480.313	571.81
480.532	551.81
480.751	538.81
480.969	560.81
481.188	640.81
481.406	677.81
481.624	592.81
481.843	550.81
482.061	530.81
482.28	529.81
482.498	524.81
482.717	541.81
482.935	523.81
483.153	498.81
483.372	520.81
483.59	527.81
483.808	527.81
484.027	515.81
484.245	510.81
484.463	534.81
484.681	525.81
484.9	514.81
485.118	545.81
485.336	514.81
485.554	518.81
485.772	513.81
485.99	548.81
486.209	519.81
486.427	520.81
486.645	557.81
486.863	560.81
487.081	557.81
487.299	555.81
487.517	537.81
487.735	540.81
487.953	532.81
488.171	550.81
488.389	555.81
488.607	560.81
488.825	558.81
489.043	537.81
489.261	571.81
489.479	549.81
489.696	536.81
489.914	547.81
490.132	576.81
490.35	558.81
490.568	570.81
490.786	586.81
491.003	594.81
491.221	617.81
491.439	609.81
491.657	611.81
491.874	613.81
492.092	642.81
492.31	650.81
492.527	653.81
492.745	642.81
492.963	637.81
493.18	638.81
493.398	657.81
493.615	662.81
493.833	651.81
494.05	645.81
494.268	648.81
494.485	634.81
494.703	658.81
494.92	643.81
495.138	644.81
495.355	650.81
495.573	672.81
495.79	662.81
496.008	657.81
496.225	680.81
496.442	660.81
496.66	658.81
496.877	638.81
497.094	644.81
497.312	650.81
497.529	659.81
497.746	657.81
497.963	692.81
498.181	700.81
498.398	724.81
498.615	698.81
498.832	701.81
499.049	739.81
499.267	722.81
499.484	738.81
499.701	741.81
499.918	745.81
500.135	778.81
500.352	820.81
500.569	807.81
500.786	810.81
501.003	821.81
501.22	812.81
501.437	783.81
501.654	800.81
501.871	808.81
