Data from 1972.PennyLincolnUp.Lamp.En5.5.200Scan.071719.P1._HRD10591_15-28-29-845.txt Node
Date: Thu Jul 18 15:28:29 EDT 2019
User: cochatt
Spectrometer: HR+D1059
Trigger mode: 1
Integration Time (sec): 1.000000E-1
Scans to average: 1
Electric dark correction enabled: true
Nonlinearity correction enabled: false
Boxcar width: 0
XAxis mode: Wavelengths
Number of Pixels in Spectrum: 2048
>>>>>Begin Spectral Data<<<<<
223.165	-12.44
223.4	-12.44
223.635	-12.44
223.869	-24.44
224.104	-18.44
224.338	-6.44
224.573	-9.44
224.808	-11.44
225.042	-10.44
225.277	-7.44
225.511	2.56
225.746	7.56
225.98	3.56
226.215	14.56
226.449	10.56
226.683	10.56
226.918	21.56
227.152	29.56
227.387	36.56
227.621	36.56
227.856	30.56
228.09	36.56
228.324	56.56
228.559	47.56
228.793	67.56
229.027	91.56
229.262	113.56
229.496	122.56
229.73	132.56
229.964	139.56
230.199	147.56
230.433	113.56
230.667	105.56
230.901	116.56
231.136	103.56
231.37	101.56
231.604	123.56
231.838	108.56
232.072	104.56
232.306	117.56
232.541	110.56
232.775	111.56
233.009	113.56
233.243	118.56
233.477	124.56
233.711	111.56
233.945	115.56
234.179	113.56
234.413	112.56
234.647	119.56
234.881	113.56
235.115	124.56
235.349	101.56
235.583	122.56
235.817	114.56
236.051	109.56
236.285	123.56
236.519	131.56
236.753	125.56
236.987	149.56
237.221	195.56
237.455	265.56
237.689	200.56
237.922	145.56
238.156	137.56
238.39	134.56
238.624	136.56
238.858	131.56
239.091	114.56
239.325	130.56
239.559	114.56
239.793	134.56
240.027	125.56
240.26	145.56
240.494	161.56
240.728	156.56
240.961	149.56
241.195	144.56
241.429	150.56
241.662	135.56
241.896	129.56
242.13	124.56
242.363	131.56
242.597	130.56
242.83	132.56
243.064	130.56
243.298	152.56
243.531	133.56
243.765	135.56
243.998	137.56
244.232	129.56
244.465	137.56
244.699	124.56
244.932	130.56
245.166	139.56
245.399	152.56
245.633	147.56
245.866	141.56
246.099	142.56
246.333	138.56
246.566	147.56
246.8	147.56
247.033	141.56
247.266	150.56
247.5	170.56
247.733	167.56
247.966	170.56
248.2	176.56
248.433	176.56
248.666	168.56
248.899	187.56
249.133	195.56
249.366	217.56
249.599	190.56
249.832	181.56
250.066	177.56
250.299	188.56
250.532	180.56
250.765	216.56
250.998	231.56
251.231	226.56
251.465	223.56
251.698	211.56
251.931	215.56
252.164	196.56
252.397	204.56
252.63	203.56
252.863	221.56
253.096	235.56
253.329	233.56
253.562	212.56
253.795	223.56
254.028	215.56
254.261	229.56
254.494	239.56
254.727	284.56
254.96	272.56
255.193	292.56
255.426	255.56
255.659	257.56
255.892	243.56
256.124	236.56
256.357	232.56
256.59	243.56
256.823	218.56
257.056	211.56
257.289	213.56
257.521	214.56
257.754	204.56
257.987	221.56
258.22	200.56
258.452	211.56
258.685	217.56
258.918	206.56
259.151	209.56
259.383	222.56
259.616	233.56
259.849	213.56
260.081	227.56
260.314	252.56
260.547	269.56
260.779	235.56
261.012	223.56
261.244	237.56
261.477	219.56
261.71	219.56
261.942	235.56
262.175	245.56
262.407	244.56
262.64	242.56
262.872	220.56
263.105	208.56
263.337	211.56
263.57	212.56
263.802	221.56
264.035	230.56
264.267	217.56
264.499	207.56
264.732	213.56
264.964	202.56
265.197	223.56
265.429	201.56
265.661	202.56
265.894	223.56
266.126	223.56
266.358	212.56
266.591	221.56
266.823	213.56
267.055	235.56
267.287	220.56
267.52	220.56
267.752	218.56
267.984	232.56
268.216	211.56
268.448	216.56
268.681	233.56
268.913	241.56
269.145	268.56
269.377	281.56
269.609	293.56
269.841	267.56
270.073	259.56
270.306	291.56
270.538	318.56
270.77	337.56
271.002	310.56
271.234	309.56
271.466	325.56
271.698	308.56
271.93	345.56
272.162	339.56
272.394	339.56
272.626	314.56
272.858	300.56
273.09	289.56
273.322	288.56
273.553	272.56
273.785	272.56
274.017	266.56
274.249	280.56
274.481	266.56
274.713	261.56
274.945	271.56
275.176	289.56
275.408	284.56
275.64	270.56
275.872	286.56
276.104	266.56
276.335	260.56
276.567	268.56
276.799	295.56
277.031	316.56
277.262	313.56
277.494	337.56
277.726	315.56
277.957	296.56
278.189	289.56
278.421	256.56
278.652	274.56
278.884	265.56
279.115	261.56
279.347	272.56
279.579	266.56
279.81	255.56
280.042	257.56
280.273	273.56
280.505	255.56
280.736	272.56
280.968	266.56
281.199	254.56
281.431	247.56
281.662	277.56
281.894	244.56
282.125	272.56
282.356	295.56
282.588	325.56
282.819	337.56
283.051	298.56
283.282	261.56
283.513	279.56
283.745	270.56
283.976	289.56
284.207	272.56
284.439	280.56
284.67	266.56
284.901	280.56
285.132	277.56
285.364	292.56
285.595	273.56
285.826	271.56
286.057	263.56
286.288	270.56
286.52	277.56
286.751	283.56
286.982	284.56
287.213	288.56
287.444	269.56
287.675	277.56
287.906	285.56
288.138	281.56
288.369	283.56
288.6	309.56
288.831	296.56
289.062	298.56
289.293	287.56
289.524	263.56
289.755	287.56
289.986	284.56
290.217	284.56
290.448	280.56
290.679	287.56
290.91	279.56
291.141	270.56
291.371	288.56
291.602	270.56
291.833	291.56
292.064	268.56
292.295	273.56
292.526	281.56
292.757	267.56
292.987	287.56
293.218	283.56
293.449	290.56
293.68	264.56
293.91	287.56
294.141	266.56
294.372	311.56
294.603	297.56
294.833	279.56
295.064	287.56
295.295	267.56
295.525	284.56
295.756	283.56
295.987	297.56
296.217	331.56
296.448	353.56
296.679	316.56
296.909	300.56
297.14	311.56
297.37	287.56
297.601	272.56
297.831	292.56
298.062	288.56
298.292	308.56
298.523	312.56
298.753	310.56
298.984	300.56
299.214	288.56
299.445	288.56
299.675	315.56
299.905	318.56
300.136	301.56
300.366	317.56
300.597	321.56
300.827	309.56
301.057	303.56
301.288	305.56
301.518	310.56
301.748	308.56
301.979	306.56
302.209	321.56
302.439	308.56
302.669	305.56
302.9	298.56
303.13	305.56
303.36	313.56
303.59	309.56
303.82	344.56
304.051	307.56
304.281	350.56
304.511	329.56
304.741	303.56
304.971	313.56
305.201	341.56
305.431	315.56
305.661	315.56
305.891	315.56
306.121	330.56
306.352	323.56
306.582	340.56
306.812	328.56
307.042	332.56
307.272	328.56
307.502	343.56
307.731	331.56
307.961	335.56
308.191	328.56
308.421	320.56
308.651	330.56
308.881	338.56
309.111	353.56
309.341	346.56
309.571	342.56
309.8	334.56
310.03	372.56
310.26	388.56
310.49	388.56
310.72	380.56
310.949	381.56
311.179	397.56
311.409	391.56
311.639	380.56
311.868	377.56
312.098	381.56
312.328	402.56
312.557	427.56
312.787	428.56
313.017	431.56
313.246	386.56
313.476	391.56
313.706	380.56
313.935	394.56
314.165	405.56
314.394	425.56
314.624	397.56
314.853	388.56
315.083	387.56
315.312	371.56
315.542	368.56
315.771	376.56
316.001	367.56
316.23	375.56
316.46	360.56
316.689	371.56
316.919	381.56
317.148	385.56
317.377	396.56
317.607	387.56
317.836	395.56
318.065	382.56
318.295	392.56
318.524	373.56
318.753	381.56
318.983	380.56
319.212	375.56
319.441	387.56
319.67	383.56
319.9	384.56
320.129	381.56
320.358	370.56
320.587	383.56
320.816	427.56
321.046	410.56
321.275	396.56
321.504	405.56
321.733	409.56
321.962	397.56
322.191	422.56
322.42	448.56
322.649	480.56
322.878	480.56
323.108	502.56
323.337	537.56
323.566	537.56
323.795	589.56
324.024	660.56
324.253	787.56
324.482	1147.56
324.71	1824.56
324.939	2721.56
325.168	2402.56
325.397	1191.56
325.626	744.56
325.855	608.56
326.084	567.56
326.313	542.56
326.542	568.56
326.77	620.56
326.999	719.56
327.228	1035.56
327.457	1663.56
327.686	2025.56
327.914	1333.56
328.143	850.56
328.372	736.56
328.6	668.56
328.829	633.56
329.058	654.56
329.287	661.56
329.515	604.56
329.744	567.56
329.972	573.56
330.201	587.56
330.43	624.56
330.658	658.56
330.887	696.56
331.115	653.56
331.344	567.56
331.572	515.56
331.801	507.56
332.03	521.56
332.258	499.56
332.486	446.56
332.715	470.56
332.943	461.56
333.172	453.56
333.4	481.56
333.629	449.56
333.857	460.56
334.085	487.56
334.314	520.56
334.542	571.56
334.771	548.56
334.999	501.56
335.227	477.56
335.455	479.56
335.684	461.56
335.912	426.56
336.14	423.56
336.369	441.56
336.597	439.56
336.825	450.56
337.053	437.56
337.281	428.56
337.51	422.56
337.738	437.56
337.966	447.56
338.194	431.56
338.422	453.56
338.65	421.56
338.878	423.56
339.106	416.56
339.334	418.56
339.562	409.56
339.79	418.56
340.018	444.56
340.246	428.56
340.474	422.56
340.702	421.56
340.93	440.56
341.158	405.56
341.386	424.56
341.614	412.56
341.842	410.56
342.07	417.56
342.298	431.56
342.526	423.56
342.754	416.56
342.981	377.56
343.209	395.56
343.437	418.56
343.665	415.56
343.893	422.56
344.12	406.56
344.348	423.56
344.576	418.56
344.804	444.56
345.031	430.56
345.259	431.56
345.487	438.56
345.714	441.56
345.942	425.56
346.17	425.56
346.397	427.56
346.625	414.56
346.853	407.56
347.08	426.56
347.308	405.56
347.535	435.56
347.763	415.56
347.99	433.56
348.218	436.56
348.445	444.56
348.673	426.56
348.9	440.56
349.128	394.56
349.355	384.56
349.583	410.56
349.81	380.56
350.037	395.56
350.265	392.56
350.492	386.56
350.72	389.56
350.947	414.56
351.174	435.56
351.402	431.56
351.629	420.56
351.856	417.56
352.083	431.56
352.311	448.56
352.538	411.56
352.765	431.56
352.992	405.56
353.22	406.56
353.447	407.56
353.674	388.56
353.901	407.56
354.128	375.56
354.355	354.56
354.583	367.56
354.81	373.56
355.037	385.56
355.264	379.56
355.491	381.56
355.718	380.56
355.945	375.56
356.172	360.56
356.399	377.56
356.626	391.56
356.853	363.56
357.08	363.56
357.307	373.56
357.534	379.56
357.761	357.56
357.988	360.56
358.215	372.56
358.441	375.56
358.668	367.56
358.895	394.56
359.122	379.56
359.349	398.56
359.576	420.56
359.802	431.56
360.029	448.56
360.256	468.56
360.483	446.56
360.709	401.56
360.936	413.56
361.163	403.56
361.39	416.56
361.616	398.56
361.843	420.56
362.07	419.56
362.296	410.56
362.523	398.56
362.749	392.56
362.976	392.56
363.203	388.56
363.429	393.56
363.656	368.56
363.882	367.56
364.109	381.56
364.335	378.56
364.562	375.56
364.788	373.56
365.015	383.56
365.241	378.56
365.468	395.56
365.694	390.56
365.92	398.56
366.147	379.56
366.373	399.56
366.599	387.56
366.826	382.56
367.052	352.56
367.278	383.56
367.505	371.56
367.731	388.56
367.957	369.56
368.184	381.56
368.41	397.56
368.636	388.56
368.862	391.56
369.089	385.56
369.315	380.56
369.541	366.56
369.767	375.56
369.993	369.56
370.219	380.56
370.445	377.56
370.672	362.56
370.898	371.56
371.124	377.56
371.35	369.56
371.576	377.56
371.802	354.56
372.028	377.56
372.254	363.56
372.48	360.56
372.706	388.56
372.932	375.56
373.158	355.56
373.384	383.56
373.61	353.56
373.835	369.56
374.061	365.56
374.287	375.56
374.513	375.56
374.739	376.56
374.965	373.56
375.191	360.56
375.416	377.56
375.642	368.56
375.868	376.56
376.094	374.56
376.319	358.56
376.545	371.56
376.771	349.56
376.997	330.56
377.222	362.56
377.448	365.56
377.674	365.56
377.899	381.56
378.125	363.56
378.35	373.56
378.576	351.56
378.802	349.56
379.027	376.56
379.253	350.56
379.478	356.56
379.704	363.56
379.929	365.56
380.155	388.56
380.38	376.56
380.606	371.56
380.831	360.56
381.057	374.56
381.282	367.56
381.507	358.56
381.733	347.56
381.958	375.56
382.184	361.56
382.409	363.56
382.634	347.56
382.86	393.56
383.085	389.56
383.31	373.56
383.535	393.56
383.761	378.56
383.986	387.56
384.211	377.56
384.436	378.56
384.662	384.56
384.887	385.56
385.112	371.56
385.337	387.56
385.562	398.56
385.787	377.56
386.013	409.56
386.238	418.56
386.463	394.56
386.688	390.56
386.913	381.56
387.138	384.56
387.363	365.56
387.588	391.56
387.813	387.56
388.038	370.56
388.263	386.56
388.488	379.56
388.713	395.56
388.938	394.56
389.163	395.56
389.387	406.56
389.612	391.56
389.837	371.56
390.062	394.56
390.287	387.56
390.512	382.56
390.736	395.56
390.961	379.56
391.186	390.56
391.411	394.56
391.636	394.56
391.86	402.56
392.085	381.56
392.31	391.56
392.534	393.56
392.759	407.56
392.984	391.56
393.208	397.56
393.433	390.56
393.658	402.56
393.882	400.56
394.107	381.56
394.331	386.56
394.556	379.56
394.78	383.56
395.005	394.56
395.229	368.56
395.454	388.56
395.678	404.56
395.903	401.56
396.127	433.56
396.352	446.56
396.576	415.56
396.801	405.56
397.025	377.56
397.249	404.56
397.474	403.56
397.698	413.56
397.922	434.56
398.147	415.56
398.371	459.56
398.595	424.56
398.82	435.56
399.044	434.56
399.268	452.56
399.492	435.56
399.717	491.56
399.941	513.56
400.165	521.56
400.389	536.56
400.613	491.56
400.837	467.56
401.062	449.56
401.286	453.56
401.51	452.56
401.734	432.56
401.958	450.56
402.182	432.56
402.406	455.56
402.63	450.56
402.854	435.56
403.078	455.56
403.302	476.56
403.526	458.56
403.75	450.56
403.974	453.56
404.198	429.56
404.422	454.56
404.645	473.56
404.869	481.56
405.093	516.56
405.317	556.56
405.541	596.56
405.765	519.56
405.988	524.56
406.212	499.56
406.436	547.56
406.66	567.56
406.883	511.56
407.107	531.56
407.331	555.56
407.555	643.56
407.778	633.56
408.002	562.56
408.226	541.56
408.449	528.56
408.673	535.56
408.896	548.56
409.12	618.56
409.344	557.56
409.567	499.56
409.791	472.56
410.014	452.56
410.238	458.56
410.461	475.56
410.685	468.56
410.908	489.56
411.132	517.56
411.355	568.56
411.578	517.56
411.802	473.56
412.025	482.56
412.249	479.56
412.472	509.56
412.695	565.56
412.919	531.56
413.142	473.56
413.365	462.56
413.589	472.56
413.812	445.56
414.035	433.56
414.258	426.56
414.482	428.56
414.705	443.56
414.928	435.56
415.151	428.56
415.374	434.56
415.597	425.56
415.821	428.56
416.044	444.56
416.267	425.56
416.49	432.56
416.713	433.56
416.936	452.56
417.159	433.56
417.382	446.56
417.605	453.56
417.828	456.56
418.051	462.56
418.274	458.56
418.497	450.56
418.72	437.56
418.943	417.56
419.166	477.56
419.389	474.56
419.611	468.56
419.834	459.56
420.057	457.56
420.28	466.56
420.503	489.56
420.726	469.56
420.948	476.56
421.171	529.56
421.394	561.56
421.617	481.56
421.839	444.56
422.062	481.56
422.285	482.56
422.507	525.56
422.73	608.56
422.953	615.56
423.175	503.56
423.398	479.56
423.621	508.56
423.843	498.56
424.066	543.56
424.288	510.56
424.511	553.56
424.733	587.56
424.956	684.56
425.178	664.56
425.401	628.56
425.623	650.56
425.846	588.56
426.068	550.56
426.291	525.56
426.513	533.56
426.735	520.56
426.958	579.56
427.18	661.56
427.402	811.56
427.625	905.56
427.847	803.56
428.069	693.56
428.292	605.56
428.514	524.56
428.736	514.56
428.958	486.56
429.181	465.56
429.403	500.56
429.625	479.56
429.847	516.56
430.069	612.56
430.292	590.56
430.514	498.56
430.736	476.56
430.958	458.56
431.18	455.56
431.402	452.56
431.624	460.56
431.846	444.56
432.068	435.56
432.29	424.56
432.512	434.56
432.734	452.56
432.956	437.56
433.178	471.56
433.4	478.56
433.622	462.56
433.844	429.56
434.066	437.56
434.287	426.56
434.509	440.56
434.731	438.56
434.953	431.56
435.175	490.56
435.397	511.56
435.618	494.56
435.84	559.56
436.062	673.56
436.284	746.56
436.505	612.56
436.727	553.56
436.949	498.56
437.17	488.56
437.392	464.56
437.614	489.56
437.835	542.56
438.057	647.56
438.278	757.56
438.5	743.56
438.721	829.56
438.943	795.56
439.165	632.56
439.386	576.56
439.608	561.56
439.829	554.56
440.05	573.56
440.272	641.56
440.493	618.56
440.715	543.56
440.936	492.56
441.158	488.56
441.379	486.56
441.6	494.56
441.822	520.56
442.043	555.56
442.264	635.56
442.486	714.56
442.707	581.56
442.928	557.56
443.149	533.56
443.371	568.56
443.592	618.56
443.813	700.56
444.034	769.56
444.255	603.56
444.476	539.56
444.698	508.56
444.919	529.56
445.14	578.56
445.361	567.56
445.582	581.56
445.803	633.56
446.024	761.56
446.245	780.56
446.466	698.56
446.687	600.56
446.908	538.56
447.129	500.56
447.35	485.56
447.571	490.56
447.792	473.56
448.013	505.56
448.234	508.56
448.455	563.56
448.675	680.56
448.896	798.56
449.117	675.56
449.338	629.56
449.559	782.56
449.779	837.56
450	684.56
450.221	527.56
450.442	487.56
450.662	495.56
450.883	508.56
451.104	527.56
451.324	514.56
451.545	468.56
451.766	455.56
451.986	437.56
452.207	440.56
452.428	435.56
452.648	429.56
452.869	433.56
453.089	440.56
453.31	466.56
453.53	433.56
453.751	445.56
453.971	444.56
454.192	496.56
454.412	440.56
454.633	436.56
454.853	427.56
455.073	435.56
455.294	455.56
455.514	533.56
455.734	516.56
455.955	432.56
456.175	403.56
456.395	389.56
456.616	392.56
456.836	388.56
457.056	395.56
457.276	372.56
457.497	397.56
457.717	410.56
457.937	423.56
458.157	409.56
458.377	417.56
458.598	461.56
458.818	519.56
459.038	615.56
459.258	620.56
459.478	509.56
459.698	466.56
459.918	448.56
460.138	451.56
460.358	454.56
460.578	431.56
460.798	449.56
461.018	423.56
461.238	435.56
461.458	451.56
461.678	434.56
461.898	422.56
462.118	441.56
462.338	421.56
462.558	423.56
462.777	460.56
462.997	447.56
463.217	456.56
463.437	476.56
463.657	455.56
463.876	441.56
464.096	473.56
464.316	457.56
464.536	454.56
464.755	460.56
464.975	480.56
465.195	551.56
465.414	630.56
465.634	523.56
465.854	500.56
466.073	465.56
466.293	449.56
466.512	432.56
466.732	431.56
466.951	442.56
467.171	427.56
467.391	444.56
467.61	455.56
467.829	435.56
468.049	440.56
468.268	445.56
468.488	427.56
468.707	440.56
468.927	414.56
469.146	418.56
469.365	428.56
469.585	436.56
469.804	431.56
470.023	427.56
470.243	437.56
470.462	434.56
470.681	471.56
470.901	466.56
471.12	436.56
471.339	444.56
471.558	448.56
471.777	450.56
471.997	433.56
472.216	442.56
472.435	509.56
472.654	491.56
472.873	441.56
473.092	435.56
473.311	441.56
473.53	467.56
473.749	464.56
473.968	496.56
474.187	621.56
474.406	645.56
474.625	506.56
474.844	465.56
475.063	449.56
475.282	442.56
475.501	451.56
475.72	439.56
475.939	427.56
476.158	471.56
476.377	473.56
476.596	467.56
476.814	486.56
477.033	477.56
477.252	471.56
477.471	464.56
477.69	459.56
477.908	488.56
478.127	476.56
478.346	472.56
478.564	484.56
478.783	479.56
479.002	480.56
479.22	517.56
479.439	504.56
479.658	514.56
479.876	535.56
480.095	531.56
480.313	590.56
480.532	544.56
480.751	533.56
480.969	555.56
481.188	643.56
481.406	721.56
481.624	597.56
481.843	575.56
482.061	540.56
482.28	532.56
482.498	505.56
482.717	521.56
482.935	524.56
483.153	516.56
483.372	518.56
483.59	515.56
483.808	511.56
484.027	492.56
484.245	519.56
484.463	527.56
484.681	525.56
484.9	551.56
485.118	547.56
485.336	530.56
485.554	528.56
485.772	538.56
485.99	538.56
486.209	534.56
486.427	547.56
486.645	527.56
486.863	586.56
487.081	564.56
487.299	547.56
487.517	559.56
487.735	564.56
487.953	552.56
488.171	562.56
488.389	555.56
488.607	569.56
488.825	566.56
489.043	565.56
489.261	575.56
489.479	577.56
489.696	553.56
489.914	545.56
490.132	570.56
490.35	594.56
490.568	560.56
490.786	587.56
491.003	603.56
491.221	610.56
491.439	597.56
491.657	644.56
491.874	653.56
492.092	617.56
492.31	631.56
492.527	657.56
492.745	663.56
492.963	647.56
493.18	675.56
493.398	679.56
493.615	649.56
493.833	665.56
494.05	678.56
494.268	635.56
494.485	670.56
494.703	646.56
494.92	666.56
495.138	669.56
495.355	652.56
495.573	676.56
495.79	660.56
496.008	668.56
496.225	675.56
496.442	655.56
496.66	660.56
496.877	673.56
497.094	654.56
497.312	654.56
497.529	658.56
497.746	705.56
497.963	673.56
498.181	707.56
498.398	721.56
498.615	711.56
498.832	701.56
499.049	736.56
499.267	755.56
499.484	757.56
499.701	751.56
499.918	755.56
500.135	803.56
500.352	820.56
500.569	816.56
500.786	803.56
501.003	811.56
501.22	832.56
501.437	808.56
501.654	820.56
501.871	835.56
