Data from 1972.PennyLincolnUp.Lamp.En5.5.200Scan.071719.P1._HRD10591_15-29-17-844.txt Node
Date: Thu Jul 18 15:29:17 EDT 2019
User: cochatt
Spectrometer: HR+D1059
Trigger mode: 1
Integration Time (sec): 1.000000E-1
Scans to average: 1
Electric dark correction enabled: true
Nonlinearity correction enabled: false
Boxcar width: 0
XAxis mode: Wavelengths
Number of Pixels in Spectrum: 2048
>>>>>Begin Spectral Data<<<<<
223.165	-13.75
223.4	-13.75
223.635	-13.75
223.869	-15.75
224.104	-9.75
224.338	-12.75
224.573	-9.75
224.808	-11.75
225.042	-8.75
225.277	-8.75
225.511	3.25
225.746	-7.75
225.98	-0.75
226.215	19.25
226.449	4.25
226.683	20.25
226.918	25.25
227.152	27.25
227.387	24.25
227.621	44.25
227.856	51.25
228.09	50.25
228.324	55.25
228.559	50.25
228.793	64.25
229.027	92.25
229.262	105.25
229.496	124.25
229.73	148.25
229.964	166.25
230.199	146.25
230.433	112.25
230.667	112.25
230.901	114.25
231.136	109.25
231.37	125.25
231.604	115.25
231.838	109.25
232.072	120.25
232.306	116.25
232.541	115.25
232.775	127.25
233.009	112.25
233.243	119.25
233.477	127.25
233.711	123.25
233.945	127.25
234.179	117.25
234.413	121.25
234.647	115.25
234.881	127.25
235.115	128.25
235.349	122.25
235.583	122.25
235.817	127.25
236.051	151.25
236.285	127.25
236.519	140.25
236.753	132.25
236.987	155.25
237.221	215.25
237.455	278.25
237.689	202.25
237.922	154.25
238.156	142.25
238.39	154.25
238.624	125.25
238.858	124.25
239.091	128.25
239.325	120.25
239.559	134.25
239.793	142.25
240.027	151.25
240.26	157.25
240.494	168.25
240.728	170.25
240.961	173.25
241.195	162.25
241.429	138.25
241.662	146.25
241.896	142.25
242.13	134.25
242.363	142.25
242.597	139.25
242.83	140.25
243.064	145.25
243.298	158.25
243.531	157.25
243.765	146.25
243.998	151.25
244.232	153.25
244.465	148.25
244.699	138.25
244.932	152.25
245.166	157.25
245.399	146.25
245.633	144.25
245.866	150.25
246.099	147.25
246.333	158.25
246.566	141.25
246.8	164.25
247.033	162.25
247.266	164.25
247.5	152.25
247.733	171.25
247.966	178.25
248.2	170.25
248.433	190.25
248.666	194.25
248.899	187.25
249.133	229.25
249.366	229.25
249.599	220.25
249.832	184.25
250.066	206.25
250.299	197.25
250.532	215.25
250.765	227.25
250.998	214.25
251.231	239.25
251.465	214.25
251.698	204.25
251.931	216.25
252.164	203.25
252.397	208.25
252.63	192.25
252.863	219.25
253.096	229.25
253.329	226.25
253.562	239.25
253.795	230.25
254.028	238.25
254.261	234.25
254.494	251.25
254.727	284.25
254.96	314.25
255.193	301.25
255.426	278.25
255.659	264.25
255.892	265.25
256.124	271.25
256.357	279.25
256.59	249.25
256.823	231.25
257.056	242.25
257.289	230.25
257.521	234.25
257.754	232.25
257.987	228.25
258.22	215.25
258.452	204.25
258.685	217.25
258.918	232.25
259.151	231.25
259.383	229.25
259.616	243.25
259.849	248.25
260.081	256.25
260.314	278.25
260.547	279.25
260.779	265.25
261.012	242.25
261.244	261.25
261.477	232.25
261.71	242.25
261.942	264.25
262.175	256.25
262.407	258.25
262.64	254.25
262.872	232.25
263.105	214.25
263.337	224.25
263.57	228.25
263.802	202.25
264.035	219.25
264.267	216.25
264.499	218.25
264.732	239.25
264.964	241.25
265.197	223.25
265.429	212.25
265.661	202.25
265.894	224.25
266.126	222.25
266.358	212.25
266.591	242.25
266.823	234.25
267.055	236.25
267.287	245.25
267.52	243.25
267.752	240.25
267.984	223.25
268.216	236.25
268.448	238.25
268.681	263.25
268.913	255.25
269.145	285.25
269.377	298.25
269.609	301.25
269.841	301.25
270.073	292.25
270.306	307.25
270.538	355.25
270.77	346.25
271.002	348.25
271.234	308.25
271.466	322.25
271.698	349.25
271.93	353.25
272.162	364.25
272.394	340.25
272.626	313.25
272.858	322.25
273.09	309.25
273.322	323.25
273.553	297.25
273.785	278.25
274.017	292.25
274.249	279.25
274.481	288.25
274.713	283.25
274.945	298.25
275.176	294.25
275.408	275.25
275.64	274.25
275.872	274.25
276.104	287.25
276.335	282.25
276.567	282.25
276.799	295.25
277.031	307.25
277.262	346.25
277.494	324.25
277.726	326.25
277.957	315.25
278.189	316.25
278.421	306.25
278.652	291.25
278.884	291.25
279.115	283.25
279.347	298.25
279.579	270.25
279.81	279.25
280.042	270.25
280.273	281.25
280.505	280.25
280.736	278.25
280.968	272.25
281.199	272.25
281.431	277.25
281.662	270.25
281.894	279.25
282.125	290.25
282.356	311.25
282.588	320.25
282.819	347.25
283.051	291.25
283.282	291.25
283.513	264.25
283.745	266.25
283.976	287.25
284.207	301.25
284.439	297.25
284.67	278.25
284.901	278.25
285.132	295.25
285.364	300.25
285.595	270.25
285.826	282.25
286.057	288.25
286.288	279.25
286.52	276.25
286.751	274.25
286.982	289.25
287.213	280.25
287.444	296.25
287.675	283.25
287.906	298.25
288.138	309.25
288.369	323.25
288.6	304.25
288.831	284.25
289.062	285.25
289.293	301.25
289.524	290.25
289.755	287.25
289.986	282.25
290.217	288.25
290.448	295.25
290.679	296.25
290.91	304.25
291.141	286.25
291.371	288.25
291.602	287.25
291.833	297.25
292.064	305.25
292.295	272.25
292.526	301.25
292.757	296.25
292.987	288.25
293.218	282.25
293.449	300.25
293.68	290.25
293.91	274.25
294.141	317.25
294.372	296.25
294.603	310.25
294.833	285.25
295.064	278.25
295.295	282.25
295.525	296.25
295.756	297.25
295.987	306.25
296.217	330.25
296.448	329.25
296.679	312.25
296.909	299.25
297.14	294.25
297.37	295.25
297.601	294.25
297.831	315.25
298.062	310.25
298.292	303.25
298.523	324.25
298.753	309.25
298.984	306.25
299.214	303.25
299.445	317.25
299.675	299.25
299.905	301.25
300.136	327.25
300.366	311.25
300.597	316.25
300.827	325.25
301.057	333.25
301.288	330.25
301.518	324.25
301.748	326.25
301.979	323.25
302.209	315.25
302.439	324.25
302.669	322.25
302.9	327.25
303.13	336.25
303.36	317.25
303.59	314.25
303.82	318.25
304.051	338.25
304.281	319.25
304.511	328.25
304.741	319.25
304.971	318.25
305.201	319.25
305.431	331.25
305.661	318.25
305.891	330.25
306.121	324.25
306.352	345.25
306.582	347.25
306.812	333.25
307.042	329.25
307.272	342.25
307.502	324.25
307.731	344.25
307.961	341.25
308.191	315.25
308.421	319.25
308.651	325.25
308.881	350.25
309.111	358.25
309.341	345.25
309.571	374.25
309.8	362.25
310.03	376.25
310.26	406.25
310.49	392.25
310.72	404.25
310.949	420.25
311.179	415.25
311.409	389.25
311.639	391.25
311.868	395.25
312.098	414.25
312.328	396.25
312.557	440.25
312.787	452.25
313.017	439.25
313.246	415.25
313.476	390.25
313.706	375.25
313.935	403.25
314.165	401.25
314.394	408.25
314.624	429.25
314.853	392.25
315.083	373.25
315.312	387.25
315.542	378.25
315.771	383.25
316.001	380.25
316.23	384.25
316.46	360.25
316.689	386.25
316.919	399.25
317.148	397.25
317.377	415.25
317.607	398.25
317.836	399.25
318.065	378.25
318.295	385.25
318.524	390.25
318.753	372.25
318.983	355.25
319.212	392.25
319.441	399.25
319.67	417.25
319.9	391.25
320.129	378.25
320.358	388.25
320.587	392.25
320.816	422.25
321.046	431.25
321.275	414.25
321.504	420.25
321.733	419.25
321.962	439.25
322.191	442.25
322.42	463.25
322.649	459.25
322.878	501.25
323.108	489.25
323.337	532.25
323.566	595.25
323.795	633.25
324.024	675.25
324.253	870.25
324.482	1253.25
324.71	1991.25
324.939	2925.25
325.168	2540.25
325.397	1229.25
325.626	810.25
325.855	640.25
326.084	610.25
326.313	578.25
326.542	603.25
326.77	640.25
326.999	770.25
327.228	1088.25
327.457	1775.25
327.686	2167.25
327.914	1425.25
328.143	900.25
328.372	752.25
328.6	718.25
328.829	656.25
329.058	668.25
329.287	687.25
329.515	618.25
329.744	578.25
329.972	591.25
330.201	608.25
330.43	677.25
330.658	683.25
330.887	726.25
331.115	701.25
331.344	588.25
331.572	522.25
331.801	528.25
332.03	503.25
332.258	507.25
332.486	471.25
332.715	452.25
332.943	474.25
333.172	463.25
333.4	459.25
333.629	483.25
333.857	495.25
334.085	491.25
334.314	539.25
334.542	579.25
334.771	600.25
334.999	547.25
335.227	491.25
335.455	471.25
335.684	454.25
335.912	430.25
336.14	446.25
336.369	458.25
336.597	468.25
336.825	470.25
337.053	453.25
337.281	441.25
337.51	425.25
337.738	447.25
337.966	431.25
338.194	440.25
338.422	436.25
338.65	434.25
338.878	422.25
339.106	431.25
339.334	432.25
339.562	446.25
339.79	429.25
340.018	440.25
340.246	420.25
340.474	442.25
340.702	436.25
340.93	442.25
341.158	419.25
341.386	418.25
341.614	418.25
341.842	422.25
342.07	431.25
342.298	412.25
342.526	423.25
342.754	396.25
342.981	410.25
343.209	418.25
343.437	400.25
343.665	427.25
343.893	426.25
344.12	444.25
344.348	424.25
344.576	410.25
344.804	417.25
345.031	423.25
345.259	469.25
345.487	436.25
345.714	468.25
345.942	432.25
346.17	441.25
346.397	437.25
346.625	414.25
346.853	425.25
347.08	423.25
347.308	427.25
347.535	438.25
347.763	448.25
347.99	430.25
348.218	431.25
348.445	465.25
348.673	425.25
348.9	430.25
349.128	415.25
349.355	397.25
349.583	402.25
349.81	406.25
350.037	390.25
350.265	424.25
350.492	413.25
350.72	409.25
350.947	390.25
351.174	434.25
351.402	438.25
351.629	438.25
351.856	407.25
352.083	436.25
352.311	451.25
352.538	436.25
352.765	431.25
352.992	417.25
353.22	424.25
353.447	424.25
353.674	409.25
353.901	387.25
354.128	393.25
354.355	378.25
354.583	387.25
354.81	390.25
355.037	395.25
355.264	379.25
355.491	358.25
355.718	376.25
355.945	384.25
356.172	386.25
356.399	356.25
356.626	390.25
356.853	371.25
357.08	365.25
357.307	373.25
357.534	362.25
357.761	358.25
357.988	389.25
358.215	393.25
358.441	390.25
358.668	354.25
358.895	399.25
359.122	381.25
359.349	396.25
359.576	411.25
359.802	442.25
360.029	485.25
360.256	526.25
360.483	471.25
360.709	439.25
360.936	414.25
361.163	415.25
361.39	415.25
361.616	416.25
361.843	408.25
362.07	419.25
362.296	407.25
362.523	415.25
362.749	406.25
362.976	406.25
363.203	365.25
363.429	365.25
363.656	394.25
363.882	400.25
364.109	390.25
364.335	373.25
364.562	395.25
364.788	381.25
365.015	411.25
365.241	396.25
365.468	404.25
365.694	367.25
365.92	398.25
366.147	398.25
366.373	381.25
366.599	382.25
366.826	375.25
367.052	375.25
367.278	375.25
367.505	389.25
367.731	398.25
367.957	392.25
368.184	388.25
368.41	372.25
368.636	416.25
368.862	398.25
369.089	386.25
369.315	386.25
369.541	372.25
369.767	374.25
369.993	365.25
370.219	386.25
370.445	366.25
370.672	372.25
370.898	380.25
371.124	385.25
371.35	367.25
371.576	366.25
371.802	378.25
372.028	379.25
372.254	362.25
372.48	370.25
372.706	358.25
372.932	382.25
373.158	378.25
373.384	392.25
373.61	376.25
373.835	389.25
374.061	386.25
374.287	379.25
374.513	367.25
374.739	377.25
374.965	384.25
375.191	376.25
375.416	388.25
375.642	379.25
375.868	382.25
376.094	379.25
376.319	361.25
376.545	359.25
376.771	359.25
376.997	364.25
377.222	373.25
377.448	362.25
377.674	373.25
377.899	382.25
378.125	358.25
378.35	364.25
378.576	363.25
378.802	375.25
379.027	359.25
379.253	366.25
379.478	370.25
379.704	361.25
379.929	354.25
380.155	371.25
380.38	372.25
380.606	373.25
380.831	373.25
381.057	360.25
381.282	370.25
381.507	356.25
381.733	370.25
381.958	380.25
382.184	383.25
382.409	371.25
382.634	367.25
382.86	388.25
383.085	380.25
383.31	377.25
383.535	391.25
383.761	390.25
383.986	371.25
384.211	385.25
384.436	384.25
384.662	374.25
384.887	377.25
385.112	389.25
385.337	390.25
385.562	394.25
385.787	391.25
386.013	404.25
386.238	409.25
386.463	396.25
386.688	398.25
386.913	377.25
387.138	379.25
387.363	396.25
387.588	381.25
387.813	383.25
388.038	389.25
388.263	390.25
388.488	390.25
388.713	364.25
388.938	378.25
389.163	374.25
389.387	409.25
389.612	394.25
389.837	383.25
390.062	390.25
390.287	384.25
390.512	392.25
390.736	381.25
390.961	387.25
391.186	397.25
391.411	382.25
391.636	384.25
391.86	391.25
392.085	403.25
392.31	388.25
392.534	404.25
392.759	427.25
392.984	396.25
393.208	399.25
393.433	381.25
393.658	416.25
393.882	387.25
394.107	386.25
394.331	382.25
394.556	388.25
394.78	396.25
395.005	397.25
395.229	380.25
395.454	405.25
395.678	399.25
395.903	428.25
396.127	445.25
396.352	460.25
396.576	420.25
396.801	400.25
397.025	400.25
397.249	412.25
397.474	426.25
397.698	416.25
397.922	427.25
398.147	449.25
398.371	447.25
398.595	442.25
398.82	444.25
399.044	441.25
399.268	446.25
399.492	450.25
399.717	487.25
399.941	524.25
400.165	562.25
400.389	545.25
400.613	494.25
400.837	481.25
401.062	455.25
401.286	446.25
401.51	461.25
401.734	473.25
401.958	438.25
402.182	446.25
402.406	463.25
402.63	467.25
402.854	456.25
403.078	456.25
403.302	463.25
403.526	457.25
403.75	448.25
403.974	460.25
404.198	441.25
404.422	462.25
404.645	453.25
404.869	488.25
405.093	510.25
405.317	553.25
405.541	580.25
405.765	534.25
405.988	524.25
406.212	495.25
406.436	526.25
406.66	528.25
406.883	515.25
407.107	543.25
407.331	594.25
407.555	648.25
407.778	637.25
408.002	591.25
408.226	514.25
408.449	495.25
408.673	518.25
408.896	562.25
409.12	593.25
409.344	581.25
409.567	505.25
409.791	503.25
410.014	473.25
410.238	460.25
410.461	484.25
410.685	470.25
410.908	495.25
411.132	524.25
411.355	597.25
411.578	556.25
411.802	480.25
412.025	474.25
412.249	462.25
412.472	512.25
412.695	540.25
412.919	539.25
413.142	474.25
413.365	470.25
413.589	456.25
413.812	445.25
414.035	429.25
414.258	441.25
414.482	442.25
414.705	426.25
414.928	424.25
415.151	435.25
415.374	444.25
415.597	439.25
415.821	417.25
416.044	434.25
416.267	454.25
416.49	451.25
416.713	439.25
416.936	428.25
417.159	412.25
417.382	434.25
417.605	458.25
417.828	487.25
418.051	508.25
418.274	471.25
418.497	431.25
418.72	457.25
418.943	436.25
419.166	452.25
419.389	469.25
419.611	475.25
419.834	475.25
420.057	453.25
420.28	474.25
420.503	459.25
420.726	476.25
420.948	489.25
421.171	531.25
421.394	564.25
421.617	485.25
421.839	484.25
422.062	483.25
422.285	477.25
422.507	552.25
422.73	600.25
422.953	634.25
423.175	542.25
423.398	511.25
423.621	480.25
423.843	518.25
424.066	523.25
424.288	508.25
424.511	533.25
424.733	598.25
424.956	685.25
425.178	652.25
425.401	624.25
425.623	685.25
425.846	574.25
426.068	542.25
426.291	522.25
426.513	502.25
426.735	550.25
426.958	571.25
427.18	684.25
427.402	838.25
427.625	926.25
427.847	842.25
428.069	709.25
428.292	629.25
428.514	550.25
428.736	522.25
428.958	492.25
429.181	486.25
429.403	506.25
429.625	483.25
429.847	536.25
430.069	589.25
430.292	614.25
430.514	511.25
430.736	485.25
430.958	474.25
431.18	452.25
431.402	468.25
431.624	452.25
431.846	436.25
432.068	448.25
432.29	445.25
432.512	434.25
432.734	454.25
432.956	447.25
433.178	461.25
433.4	470.25
433.622	455.25
433.844	450.25
434.066	426.25
434.287	436.25
434.509	456.25
434.731	456.25
434.953	463.25
435.175	477.25
435.397	512.25
435.618	509.25
435.84	597.25
436.062	684.25
436.284	772.25
436.505	630.25
436.727	564.25
436.949	512.25
437.17	499.25
437.392	474.25
437.614	504.25
437.835	559.25
438.057	675.25
438.278	793.25
438.5	789.25
438.721	816.25
438.943	809.25
439.165	640.25
439.386	570.25
439.608	561.25
439.829	581.25
440.05	594.25
440.272	657.25
440.493	578.25
440.715	526.25
440.936	521.25
441.158	482.25
441.379	499.25
441.6	488.25
441.822	534.25
442.043	581.25
442.264	674.25
442.486	711.25
442.707	611.25
442.928	565.25
443.149	564.25
443.371	578.25
443.592	606.25
443.813	720.25
444.034	807.25
444.255	654.25
444.476	550.25
444.698	549.25
444.919	515.25
445.14	586.25
445.361	570.25
445.582	587.25
445.803	691.25
446.024	834.25
446.245	810.25
446.466	727.25
446.687	601.25
446.908	551.25
447.129	522.25
447.35	506.25
447.571	495.25
447.792	484.25
448.013	493.25
448.234	496.25
448.455	575.25
448.675	713.25
448.896	840.25
449.117	707.25
449.338	656.25
449.559	759.25
449.779	891.25
450	674.25
450.221	576.25
450.442	517.25
450.662	485.25
450.883	501.25
451.104	529.25
451.324	511.25
451.545	485.25
451.766	453.25
451.986	464.25
452.207	430.25
452.428	425.25
452.648	451.25
452.869	439.25
453.089	443.25
453.31	462.25
453.53	448.25
453.751	441.25
453.971	453.25
454.192	461.25
454.412	468.25
454.633	448.25
454.853	450.25
455.073	436.25
455.294	464.25
455.514	552.25
455.734	548.25
455.955	463.25
456.175	408.25
456.395	412.25
456.616	402.25
456.836	395.25
457.056	392.25
457.276	381.25
457.497	392.25
457.717	398.25
457.937	412.25
458.157	439.25
458.377	430.25
458.598	436.25
458.818	534.25
459.038	599.25
459.258	639.25
459.478	502.25
459.698	475.25
459.918	452.25
460.138	447.25
460.358	442.25
460.578	445.25
460.798	434.25
461.018	469.25
461.238	427.25
461.458	442.25
461.678	431.25
461.898	434.25
462.118	422.25
462.338	461.25
462.558	453.25
462.777	446.25
462.997	471.25
463.217	447.25
463.437	443.25
463.657	474.25
463.876	468.25
464.096	480.25
464.316	476.25
464.536	467.25
464.755	463.25
464.975	473.25
465.195	556.25
465.414	656.25
465.634	555.25
465.854	492.25
466.073	473.25
466.293	451.25
466.512	468.25
466.732	440.25
466.951	412.25
467.171	436.25
467.391	446.25
467.61	439.25
467.829	461.25
468.049	447.25
468.268	473.25
468.488	452.25
468.707	428.25
468.927	419.25
469.146	406.25
469.365	391.25
469.585	402.25
469.804	434.25
470.023	432.25
470.243	447.25
470.462	440.25
470.681	455.25
470.901	462.25
471.12	452.25
471.339	440.25
471.558	439.25
471.777	459.25
471.997	444.25
472.216	462.25
472.435	540.25
472.654	514.25
472.873	456.25
473.092	446.25
473.311	452.25
473.53	440.25
473.749	455.25
473.968	491.25
474.187	631.25
474.406	673.25
474.625	547.25
474.844	472.25
475.063	452.25
475.282	461.25
475.501	463.25
475.72	431.25
475.939	449.25
476.158	458.25
476.377	444.25
476.596	447.25
476.814	432.25
477.033	470.25
477.252	473.25
477.471	472.25
477.69	471.25
477.908	450.25
478.127	466.25
478.346	461.25
478.564	456.25
478.783	496.25
479.002	477.25
479.22	489.25
479.439	529.25
479.658	549.25
479.876	535.25
480.095	551.25
480.313	569.25
480.532	556.25
480.751	548.25
480.969	552.25
481.188	631.25
481.406	693.25
481.624	612.25
481.843	576.25
482.061	524.25
482.28	526.25
482.498	526.25
482.717	524.25
482.935	533.25
483.153	521.25
483.372	527.25
483.59	526.25
483.808	520.25
484.027	500.25
484.245	524.25
484.463	543.25
484.681	529.25
484.9	536.25
485.118	529.25
485.336	534.25
485.554	528.25
485.772	534.25
485.99	547.25
486.209	542.25
486.427	564.25
486.645	549.25
486.863	576.25
487.081	583.25
487.299	591.25
487.517	567.25
487.735	557.25
487.953	588.25
488.171	586.25
488.389	570.25
488.607	554.25
488.825	543.25
489.043	576.25
489.261	572.25
489.479	559.25
489.696	566.25
489.914	558.25
490.132	575.25
490.35	583.25
490.568	612.25
490.786	620.25
491.003	626.25
491.221	630.25
491.439	639.25
491.657	646.25
491.874	638.25
492.092	629.25
492.31	668.25
492.527	653.25
492.745	664.25
492.963	676.25
493.18	666.25
493.398	670.25
493.615	679.25
493.833	663.25
494.05	669.25
494.268	665.25
494.485	677.25
494.703	666.25
494.92	687.25
495.138	670.25
495.355	655.25
495.573	672.25
495.79	672.25
496.008	692.25
496.225	660.25
496.442	672.25
496.66	683.25
496.877	668.25
497.094	683.25
497.312	676.25
497.529	678.25
497.746	676.25
497.963	661.25
498.181	736.25
498.398	717.25
498.615	734.25
498.832	732.25
499.049	731.25
499.267	717.25
499.484	750.25
499.701	765.25
499.918	798.25
500.135	818.25
500.352	831.25
500.569	808.25
500.786	820.25
501.003	846.25
501.22	802.25
501.437	810.25
501.654	820.25
501.871	792.25
