Data from 1972.PennyLincolnUp.Lamp.En5.5.200Scan.071719.P1._HRD10591_15-28-13-843.txt Node
Date: Thu Jul 18 15:28:13 EDT 2019
User: cochatt
Spectrometer: HR+D1059
Trigger mode: 1
Integration Time (sec): 1.000000E-1
Scans to average: 1
Electric dark correction enabled: true
Nonlinearity correction enabled: false
Boxcar width: 0
XAxis mode: Wavelengths
Number of Pixels in Spectrum: 2048
>>>>>Begin Spectral Data<<<<<
223.165	-16.25
223.4	-16.25
223.635	-16.25
223.869	-23.25
224.104	-27.25
224.338	-11.25
224.573	-9.25
224.808	4.75
225.042	5.75
225.277	-4.25
225.511	-6.25
225.746	-0.25
225.98	5.75
226.215	9.75
226.449	10.75
226.683	6.75
226.918	29.75
227.152	24.75
227.387	28.75
227.621	19.75
227.856	34.75
228.09	29.75
228.324	63.75
228.559	53.75
228.793	66.75
229.027	101.75
229.262	117.75
229.496	118.75
229.73	153.75
229.964	175.75
230.199	131.75
230.433	92.75
230.667	107.75
230.901	115.75
231.136	104.75
231.37	105.75
231.604	118.75
231.838	115.75
232.072	119.75
232.306	102.75
232.541	115.75
232.775	111.75
233.009	123.75
233.243	107.75
233.477	120.75
233.711	105.75
233.945	114.75
234.179	99.75
234.413	116.75
234.647	125.75
234.881	104.75
235.115	109.75
235.349	129.75
235.583	123.75
235.817	115.75
236.051	131.75
236.285	130.75
236.519	137.75
236.753	143.75
236.987	147.75
237.221	190.75
237.455	248.75
237.689	213.75
237.922	156.75
238.156	132.75
238.39	133.75
238.624	124.75
238.858	131.75
239.091	113.75
239.325	129.75
239.559	117.75
239.793	116.75
240.027	141.75
240.26	159.75
240.494	157.75
240.728	149.75
240.961	159.75
241.195	162.75
241.429	142.75
241.662	145.75
241.896	133.75
242.13	129.75
242.363	133.75
242.597	127.75
242.83	152.75
243.064	138.75
243.298	133.75
243.531	135.75
243.765	147.75
243.998	140.75
244.232	139.75
244.465	145.75
244.699	144.75
244.932	140.75
245.166	140.75
245.399	124.75
245.633	150.75
245.866	127.75
246.099	146.75
246.333	137.75
246.566	139.75
246.8	137.75
247.033	155.75
247.266	145.75
247.5	150.75
247.733	151.75
247.966	169.75
248.2	169.75
248.433	174.75
248.666	157.75
248.899	186.75
249.133	193.75
249.366	219.75
249.599	208.75
249.832	182.75
250.066	193.75
250.299	184.75
250.532	184.75
250.765	218.75
250.998	232.75
251.231	234.75
251.465	217.75
251.698	199.75
251.931	199.75
252.164	201.75
252.397	212.75
252.63	207.75
252.863	229.75
253.096	201.75
253.329	235.75
253.562	243.75
253.795	230.75
254.028	236.75
254.261	245.75
254.494	240.75
254.727	259.75
254.96	299.75
255.193	292.75
255.426	263.75
255.659	216.75
255.892	247.75
256.124	232.75
256.357	253.75
256.59	240.75
256.823	234.75
257.056	215.75
257.289	218.75
257.521	217.75
257.754	217.75
257.987	221.75
258.22	222.75
258.452	217.75
258.685	239.75
258.918	219.75
259.151	218.75
259.383	221.75
259.616	223.75
259.849	229.75
260.081	235.75
260.314	259.75
260.547	260.75
260.779	260.75
261.012	224.75
261.244	247.75
261.477	249.75
261.71	233.75
261.942	244.75
262.175	230.75
262.407	243.75
262.64	232.75
262.872	217.75
263.105	211.75
263.337	204.75
263.57	203.75
263.802	213.75
264.035	213.75
264.267	207.75
264.499	220.75
264.732	222.75
264.964	215.75
265.197	206.75
265.429	219.75
265.661	196.75
265.894	219.75
266.126	232.75
266.358	226.75
266.591	233.75
266.823	239.75
267.055	239.75
267.287	220.75
267.52	219.75
267.752	244.75
267.984	231.75
268.216	241.75
268.448	233.75
268.681	241.75
268.913	259.75
269.145	255.75
269.377	278.75
269.609	277.75
269.841	278.75
270.073	279.75
270.306	305.75
270.538	328.75
270.77	313.75
271.002	312.75
271.234	308.75
271.466	294.75
271.698	329.75
271.93	340.75
272.162	333.75
272.394	330.75
272.626	321.75
272.858	296.75
273.09	284.75
273.322	288.75
273.553	291.75
273.785	269.75
274.017	274.75
274.249	257.75
274.481	257.75
274.713	260.75
274.945	299.75
275.176	263.75
275.408	269.75
275.64	261.75
275.872	270.75
276.104	281.75
276.335	275.75
276.567	287.75
276.799	276.75
277.031	315.75
277.262	339.75
277.494	339.75
277.726	306.75
277.957	280.75
278.189	273.75
278.421	265.75
278.652	266.75
278.884	266.75
279.115	272.75
279.347	273.75
279.579	275.75
279.81	275.75
280.042	274.75
280.273	280.75
280.505	278.75
280.736	258.75
280.968	261.75
281.199	277.75
281.431	244.75
281.662	280.75
281.894	267.75
282.125	275.75
282.356	293.75
282.588	322.75
282.819	323.75
283.051	296.75
283.282	266.75
283.513	277.75
283.745	268.75
283.976	291.75
284.207	265.75
284.439	268.75
284.67	266.75
284.901	299.75
285.132	269.75
285.364	267.75
285.595	279.75
285.826	281.75
286.057	262.75
286.288	278.75
286.52	275.75
286.751	274.75
286.982	287.75
287.213	265.75
287.444	291.75
287.675	288.75
287.906	285.75
288.138	301.75
288.369	290.75
288.6	305.75
288.831	295.75
289.062	286.75
289.293	275.75
289.524	297.75
289.755	285.75
289.986	300.75
290.217	282.75
290.448	282.75
290.679	271.75
290.91	294.75
291.141	271.75
291.371	285.75
291.602	298.75
291.833	280.75
292.064	269.75
292.295	296.75
292.526	274.75
292.757	291.75
292.987	293.75
293.218	278.75
293.449	289.75
293.68	279.75
293.91	283.75
294.141	263.75
294.372	279.75
294.603	293.75
294.833	294.75
295.064	284.75
295.295	275.75
295.525	293.75
295.756	294.75
295.987	325.75
296.217	322.75
296.448	364.75
296.679	314.75
296.909	281.75
297.14	286.75
297.37	303.75
297.601	285.75
297.831	303.75
298.062	278.75
298.292	291.75
298.523	296.75
298.753	297.75
298.984	297.75
299.214	299.75
299.445	293.75
299.675	314.75
299.905	288.75
300.136	315.75
300.366	309.75
300.597	286.75
300.827	299.75
301.057	310.75
301.288	333.75
301.518	311.75
301.748	311.75
301.979	332.75
302.209	315.75
302.439	336.75
302.669	333.75
302.9	295.75
303.13	314.75
303.36	332.75
303.59	309.75
303.82	332.75
304.051	319.75
304.281	313.75
304.511	301.75
304.741	325.75
304.971	321.75
305.201	309.75
305.431	306.75
305.661	303.75
305.891	338.75
306.121	280.75
306.352	311.75
306.582	338.75
306.812	330.75
307.042	336.75
307.272	334.75
307.502	331.75
307.731	321.75
307.961	321.75
308.191	319.75
308.421	320.75
308.651	338.75
308.881	337.75
309.111	332.75
309.341	323.75
309.571	358.75
309.8	352.75
310.03	376.75
310.26	383.75
310.49	378.75
310.72	392.75
310.949	401.75
311.179	409.75
311.409	380.75
311.639	377.75
311.868	382.75
312.098	386.75
312.328	398.75
312.557	423.75
312.787	435.75
313.017	420.75
313.246	407.75
313.476	377.75
313.706	368.75
313.935	370.75
314.165	380.75
314.394	403.75
314.624	416.75
314.853	388.75
315.083	378.75
315.312	376.75
315.542	363.75
315.771	358.75
316.001	375.75
316.23	376.75
316.46	375.75
316.689	358.75
316.919	377.75
317.148	395.75
317.377	407.75
317.607	379.75
317.836	399.75
318.065	381.75
318.295	381.75
318.524	359.75
318.753	369.75
318.983	373.75
319.212	367.75
319.441	387.75
319.67	394.75
319.9	374.75
320.129	381.75
320.358	397.75
320.587	378.75
320.816	397.75
321.046	406.75
321.275	401.75
321.504	400.75
321.733	399.75
321.962	402.75
322.191	444.75
322.42	443.75
322.649	456.75
322.878	472.75
323.108	480.75
323.337	515.75
323.566	553.75
323.795	586.75
324.024	651.75
324.253	807.75
324.482	1171.75
324.71	1888.75
324.939	2775.75
325.168	2405.75
325.397	1222.75
325.626	812.75
325.855	645.75
326.084	557.75
326.313	526.75
326.542	561.75
326.77	621.75
326.999	746.75
327.228	1047.75
327.457	1628.75
327.686	2055.75
327.914	1351.75
328.143	850.75
328.372	741.75
328.6	680.75
328.829	639.75
329.058	634.75
329.287	661.75
329.515	603.75
329.744	559.75
329.972	552.75
330.201	582.75
330.43	641.75
330.658	667.75
330.887	695.75
331.115	659.75
331.344	566.75
331.572	524.75
331.801	506.75
332.03	514.75
332.258	476.75
332.486	455.75
332.715	461.75
332.943	444.75
333.172	453.75
333.4	456.75
333.629	477.75
333.857	483.75
334.085	488.75
334.314	534.75
334.542	603.75
334.771	579.75
334.999	525.75
335.227	475.75
335.455	451.75
335.684	458.75
335.912	442.75
336.14	461.75
336.369	428.75
336.597	429.75
336.825	437.75
337.053	448.75
337.281	417.75
337.51	413.75
337.738	445.75
337.966	418.75
338.194	424.75
338.422	427.75
338.65	428.75
338.878	433.75
339.106	393.75
339.334	453.75
339.562	414.75
339.79	415.75
340.018	430.75
340.246	420.75
340.474	429.75
340.702	432.75
340.93	427.75
341.158	419.75
341.386	415.75
341.614	411.75
341.842	421.75
342.07	424.75
342.298	403.75
342.526	415.75
342.754	396.75
342.981	397.75
343.209	402.75
343.437	401.75
343.665	395.75
343.893	419.75
344.12	410.75
344.348	406.75
344.576	406.75
344.804	432.75
345.031	447.75
345.259	437.75
345.487	444.75
345.714	420.75
345.942	415.75
346.17	403.75
346.397	415.75
346.625	407.75
346.853	417.75
347.08	396.75
347.308	405.75
347.535	415.75
347.763	434.75
347.99	406.75
348.218	403.75
348.445	427.75
348.673	427.75
348.9	406.75
349.128	403.75
349.355	386.75
349.583	391.75
349.81	376.75
350.037	393.75
350.265	396.75
350.492	401.75
350.72	407.75
350.947	397.75
351.174	425.75
351.402	411.75
351.629	418.75
351.856	444.75
352.083	413.75
352.311	441.75
352.538	412.75
352.765	429.75
352.992	420.75
353.22	400.75
353.447	411.75
353.674	396.75
353.901	401.75
354.128	384.75
354.355	376.75
354.583	380.75
354.81	380.75
355.037	374.75
355.264	375.75
355.491	363.75
355.718	357.75
355.945	353.75
356.172	354.75
356.399	362.75
356.626	363.75
356.853	370.75
357.08	352.75
357.307	363.75
357.534	380.75
357.761	379.75
357.988	388.75
358.215	361.75
358.441	358.75
358.668	376.75
358.895	379.75
359.122	380.75
359.349	384.75
359.576	423.75
359.802	435.75
360.029	467.75
360.256	487.75
360.483	447.75
360.709	435.75
360.936	403.75
361.163	395.75
361.39	405.75
361.616	394.75
361.843	399.75
362.07	397.75
362.296	419.75
362.523	400.75
362.749	413.75
362.976	398.75
363.203	396.75
363.429	382.75
363.656	374.75
363.882	374.75
364.109	362.75
364.335	368.75
364.562	377.75
364.788	385.75
365.015	387.75
365.241	384.75
365.468	398.75
365.694	385.75
365.92	382.75
366.147	373.75
366.373	377.75
366.599	383.75
366.826	365.75
367.052	373.75
367.278	352.75
367.505	379.75
367.731	379.75
367.957	378.75
368.184	371.75
368.41	377.75
368.636	401.75
368.862	391.75
369.089	375.75
369.315	377.75
369.541	362.75
369.767	377.75
369.993	384.75
370.219	377.75
370.445	362.75
370.672	361.75
370.898	382.75
371.124	351.75
371.35	363.75
371.576	370.75
371.802	359.75
372.028	351.75
372.254	357.75
372.48	347.75
372.706	359.75
372.932	381.75
373.158	375.75
373.384	375.75
373.61	382.75
373.835	370.75
374.061	371.75
374.287	369.75
374.513	358.75
374.739	363.75
374.965	379.75
375.191	374.75
375.416	362.75
375.642	359.75
375.868	373.75
376.094	367.75
376.319	359.75
376.545	367.75
376.771	339.75
376.997	356.75
377.222	356.75
377.448	353.75
377.674	340.75
377.899	371.75
378.125	371.75
378.35	373.75
378.576	353.75
378.802	356.75
379.027	355.75
379.253	361.75
379.478	363.75
379.704	369.75
379.929	369.75
380.155	358.75
380.38	370.75
380.606	379.75
380.831	369.75
381.057	392.75
381.282	371.75
381.507	371.75
381.733	378.75
381.958	364.75
382.184	362.75
382.409	365.75
382.634	354.75
382.86	354.75
383.085	358.75
383.31	367.75
383.535	377.75
383.761	384.75
383.986	370.75
384.211	377.75
384.436	370.75
384.662	374.75
384.887	371.75
385.112	358.75
385.337	375.75
385.562	397.75
385.787	377.75
386.013	404.75
386.238	389.75
386.463	378.75
386.688	379.75
386.913	387.75
387.138	368.75
387.363	393.75
387.588	389.75
387.813	386.75
388.038	374.75
388.263	382.75
388.488	389.75
388.713	387.75
388.938	394.75
389.163	383.75
389.387	392.75
389.612	379.75
389.837	379.75
390.062	357.75
390.287	374.75
390.512	403.75
390.736	387.75
390.961	381.75
391.186	389.75
391.411	374.75
391.636	384.75
391.86	387.75
392.085	391.75
392.31	390.75
392.534	390.75
392.759	376.75
392.984	386.75
393.208	398.75
393.433	396.75
393.658	400.75
393.882	408.75
394.107	381.75
394.331	388.75
394.556	349.75
394.78	376.75
395.005	377.75
395.229	405.75
395.454	385.75
395.678	404.75
395.903	417.75
396.127	433.75
396.352	444.75
396.576	417.75
396.801	379.75
397.025	418.75
397.249	417.75
397.474	409.75
397.698	424.75
397.922	428.75
398.147	421.75
398.371	443.75
398.595	457.75
398.82	437.75
399.044	420.75
399.268	444.75
399.492	461.75
399.717	496.75
399.941	479.75
400.165	535.75
400.389	552.75
400.613	516.75
400.837	482.75
401.062	446.75
401.286	454.75
401.51	444.75
401.734	437.75
401.958	444.75
402.182	426.75
402.406	452.75
402.63	448.75
402.854	447.75
403.078	460.75
403.302	458.75
403.526	465.75
403.75	443.75
403.974	445.75
404.198	434.75
404.422	450.75
404.645	476.75
404.869	471.75
405.093	476.75
405.317	545.75
405.541	586.75
405.765	535.75
405.988	514.75
406.212	499.75
406.436	533.75
406.66	545.75
406.883	493.75
407.107	537.75
407.331	563.75
407.555	636.75
407.778	598.75
408.002	561.75
408.226	533.75
408.449	531.75
408.673	508.75
408.896	542.75
409.12	583.75
409.344	543.75
409.567	475.75
409.791	483.75
410.014	455.75
410.238	470.75
410.461	463.75
410.685	467.75
410.908	493.75
411.132	529.75
411.355	556.75
411.578	531.75
411.802	498.75
412.025	468.75
412.249	486.75
412.472	483.75
412.695	526.75
412.919	543.75
413.142	495.75
413.365	456.75
413.589	435.75
413.812	443.75
414.035	455.75
414.258	440.75
414.482	450.75
414.705	431.75
414.928	434.75
415.151	442.75
415.374	427.75
415.597	432.75
415.821	413.75
416.044	428.75
416.267	425.75
416.49	420.75
416.713	439.75
416.936	425.75
417.159	424.75
417.382	425.75
417.605	424.75
417.828	451.75
418.051	465.75
418.274	447.75
418.497	419.75
418.72	428.75
418.943	435.75
419.166	475.75
419.389	457.75
419.611	462.75
419.834	459.75
420.057	451.75
420.28	437.75
420.503	456.75
420.726	473.75
420.948	481.75
421.171	545.75
421.394	563.75
421.617	525.75
421.839	471.75
422.062	460.75
422.285	467.75
422.507	542.75
422.73	635.75
422.953	599.75
423.175	499.75
423.398	509.75
423.621	479.75
423.843	506.75
424.066	497.75
424.288	503.75
424.511	544.75
424.733	599.75
424.956	674.75
425.178	650.75
425.401	644.75
425.623	675.75
425.846	565.75
426.068	517.75
426.291	522.75
426.513	500.75
426.735	524.75
426.958	593.75
427.18	637.75
427.402	773.75
427.625	868.75
427.847	802.75
428.069	667.75
428.292	588.75
428.514	539.75
428.736	504.75
428.958	487.75
429.181	464.75
429.403	483.75
429.625	497.75
429.847	518.75
430.069	609.75
430.292	598.75
430.514	515.75
430.736	479.75
430.958	449.75
431.18	450.75
431.402	422.75
431.624	430.75
431.846	441.75
432.068	444.75
432.29	446.75
432.512	441.75
432.734	444.75
432.956	449.75
433.178	458.75
433.4	476.75
433.622	440.75
433.844	444.75
434.066	445.75
434.287	437.75
434.509	450.75
434.731	448.75
434.953	455.75
435.175	443.75
435.397	490.75
435.618	523.75
435.84	554.75
436.062	672.75
436.284	725.75
436.505	598.75
436.727	535.75
436.949	498.75
437.17	489.75
437.392	473.75
437.614	503.75
437.835	547.75
438.057	638.75
438.278	768.75
438.5	757.75
438.721	811.75
438.943	790.75
439.165	595.75
439.386	538.75
439.608	532.75
439.829	536.75
440.05	569.75
440.272	645.75
440.493	595.75
440.715	524.75
440.936	490.75
441.158	486.75
441.379	494.75
441.6	483.75
441.822	527.75
442.043	571.75
442.264	632.75
442.486	709.75
442.707	602.75
442.928	559.75
443.149	540.75
443.371	563.75
443.592	604.75
443.813	740.75
444.034	774.75
444.255	624.75
444.476	543.75
444.698	513.75
444.919	516.75
445.14	589.75
445.361	578.75
445.582	599.75
445.803	668.75
446.024	779.75
446.245	771.75
446.466	717.75
446.687	579.75
446.908	547.75
447.129	495.75
447.35	499.75
447.571	484.75
447.792	481.75
448.013	495.75
448.234	507.75
448.455	537.75
448.675	683.75
448.896	825.75
449.117	698.75
449.338	616.75
449.559	735.75
449.779	855.75
450	688.75
450.221	553.75
450.442	525.75
450.662	474.75
450.883	479.75
451.104	485.75
451.324	497.75
451.545	461.75
451.766	461.75
451.986	418.75
452.207	445.75
452.428	427.75
452.648	431.75
452.869	447.75
453.089	448.75
453.31	453.75
453.53	457.75
453.751	429.75
453.971	440.75
454.192	481.75
454.412	438.75
454.633	445.75
454.853	436.75
455.073	423.75
455.294	454.75
455.514	548.75
455.734	536.75
455.955	448.75
456.175	412.75
456.395	413.75
456.616	394.75
456.836	396.75
457.056	399.75
457.276	403.75
457.497	395.75
457.717	388.75
457.937	405.75
458.157	415.75
458.377	437.75
458.598	465.75
458.818	513.75
459.038	629.75
459.258	637.75
459.478	511.75
459.698	471.75
459.918	431.75
460.138	451.75
460.358	431.75
460.578	445.75
460.798	430.75
461.018	419.75
461.238	457.75
461.458	432.75
461.678	436.75
461.898	415.75
462.118	409.75
462.338	441.75
462.558	426.75
462.777	436.75
462.997	433.75
463.217	445.75
463.437	453.75
463.657	457.75
463.876	439.75
464.096	460.75
464.316	454.75
464.536	469.75
464.755	469.75
464.975	488.75
465.195	541.75
465.414	631.75
465.634	531.75
465.854	497.75
466.073	457.75
466.293	439.75
466.512	433.75
466.732	413.75
466.951	415.75
467.171	427.75
467.391	429.75
467.61	455.75
467.829	447.75
468.049	442.75
468.268	449.75
468.488	437.75
468.707	410.75
468.927	435.75
469.146	425.75
469.365	428.75
469.585	449.75
469.804	418.75
470.023	449.75
470.243	460.75
470.462	464.75
470.681	465.75
470.901	459.75
471.12	435.75
471.339	432.75
471.558	425.75
471.777	422.75
471.997	434.75
472.216	465.75
472.435	510.75
472.654	492.75
472.873	447.75
473.092	448.75
473.311	450.75
473.53	439.75
473.749	459.75
473.968	497.75
474.187	609.75
474.406	657.75
474.625	495.75
474.844	450.75
475.063	442.75
475.282	431.75
475.501	440.75
475.72	454.75
475.939	465.75
476.158	448.75
476.377	438.75
476.596	471.75
476.814	460.75
477.033	471.75
477.252	473.75
477.471	454.75
477.69	462.75
477.908	442.75
478.127	471.75
478.346	473.75
478.564	477.75
478.783	484.75
479.002	498.75
479.22	473.75
479.439	511.75
479.658	515.75
479.876	532.75
480.095	537.75
480.313	579.75
480.532	568.75
480.751	531.75
480.969	537.75
481.188	633.75
481.406	697.75
481.624	585.75
481.843	573.75
482.061	540.75
482.28	517.75
482.498	539.75
482.717	525.75
482.935	507.75
483.153	519.75
483.372	523.75
483.59	521.75
483.808	508.75
484.027	518.75
484.245	525.75
484.463	526.75
484.681	526.75
484.9	525.75
485.118	522.75
485.336	530.75
485.554	519.75
485.772	519.75
485.99	530.75
486.209	533.75
486.427	547.75
486.645	567.75
486.863	574.75
487.081	582.75
487.299	575.75
487.517	559.75
487.735	549.75
487.953	552.75
488.171	548.75
488.389	547.75
488.607	570.75
488.825	559.75
489.043	550.75
489.261	575.75
489.479	572.75
489.696	561.75
489.914	564.75
490.132	574.75
490.35	603.75
490.568	582.75
490.786	596.75
491.003	595.75
491.221	615.75
491.439	633.75
491.657	624.75
491.874	656.75
492.092	624.75
492.31	620.75
492.527	671.75
492.745	650.75
492.963	656.75
493.18	641.75
493.398	652.75
493.615	674.75
493.833	678.75
494.05	661.75
494.268	671.75
494.485	643.75
494.703	655.75
494.92	659.75
495.138	655.75
495.355	672.75
495.573	680.75
495.79	669.75
496.008	659.75
496.225	655.75
496.442	628.75
496.66	639.75
496.877	680.75
497.094	685.75
497.312	693.75
497.529	680.75
497.746	649.75
497.963	682.75
498.181	719.75
498.398	703.75
498.615	697.75
498.832	709.75
499.049	719.75
499.267	708.75
499.484	741.75
499.701	757.75
499.918	763.75
500.135	817.75
500.352	824.75
500.569	806.75
500.786	829.75
501.003	807.75
501.22	824.75
501.437	787.75
501.654	767.75
501.871	828.75
