Data from 1972.PennyLincolnUp.Lamp.En5.5.200Scan.071719.P1._HRD10591_15-29-53-845.txt Node
Date: Thu Jul 18 15:29:53 EDT 2019
User: cochatt
Spectrometer: HR+D1059
Trigger mode: 1
Integration Time (sec): 1.000000E-1
Scans to average: 1
Electric dark correction enabled: true
Nonlinearity correction enabled: false
Boxcar width: 0
XAxis mode: Wavelengths
Number of Pixels in Spectrum: 2048
>>>>>Begin Spectral Data<<<<<
223.165	-21.31
223.4	-21.31
223.635	-21.31
223.869	-12.31
224.104	-32.31
224.338	-15.31
224.573	-12.31
224.808	-10.31
225.042	-5.31
225.277	1.69
225.511	-4.31
225.746	-4.31
225.98	12.69
226.215	11.69
226.449	14.69
226.683	26.69
226.918	27.69
227.152	22.69
227.387	25.69
227.621	43.69
227.856	43.69
228.09	51.69
228.324	47.69
228.559	58.69
228.793	50.69
229.027	115.69
229.262	115.69
229.496	126.69
229.73	155.69
229.964	181.69
230.199	136.69
230.433	122.69
230.667	122.69
230.901	127.69
231.136	104.69
231.37	121.69
231.604	96.69
231.838	123.69
232.072	111.69
232.306	102.69
232.541	119.69
232.775	123.69
233.009	113.69
233.243	97.69
233.477	121.69
233.711	107.69
233.945	125.69
234.179	113.69
234.413	116.69
234.647	122.69
234.881	111.69
235.115	113.69
235.349	115.69
235.583	127.69
235.817	127.69
236.051	142.69
236.285	133.69
236.519	123.69
236.753	131.69
236.987	162.69
237.221	203.69
237.455	277.69
237.689	218.69
237.922	152.69
238.156	160.69
238.39	119.69
238.624	113.69
238.858	126.69
239.091	126.69
239.325	132.69
239.559	133.69
239.793	135.69
240.027	122.69
240.26	150.69
240.494	171.69
240.728	170.69
240.961	164.69
241.195	155.69
241.429	138.69
241.662	145.69
241.896	131.69
242.13	134.69
242.363	118.69
242.597	137.69
242.83	125.69
243.064	142.69
243.298	147.69
243.531	148.69
243.765	142.69
243.998	132.69
244.232	132.69
244.465	152.69
244.699	142.69
244.932	149.69
245.166	146.69
245.399	145.69
245.633	136.69
245.866	175.69
246.099	139.69
246.333	148.69
246.566	149.69
246.8	144.69
247.033	157.69
247.266	164.69
247.5	162.69
247.733	157.69
247.966	189.69
248.2	175.69
248.433	189.69
248.666	186.69
248.899	195.69
249.133	189.69
249.366	225.69
249.599	204.69
249.832	204.69
250.066	207.69
250.299	189.69
250.532	193.69
250.765	220.69
250.998	261.69
251.231	262.69
251.465	229.69
251.698	234.69
251.931	201.69
252.164	202.69
252.397	222.69
252.63	218.69
252.863	199.69
253.096	229.69
253.329	257.69
253.562	281.69
253.795	239.69
254.028	238.69
254.261	245.69
254.494	261.69
254.727	267.69
254.96	326.69
255.193	307.69
255.426	286.69
255.659	249.69
255.892	247.69
256.124	248.69
256.357	269.69
256.59	241.69
256.823	254.69
257.056	220.69
257.289	221.69
257.521	217.69
257.754	237.69
257.987	222.69
258.22	229.69
258.452	221.69
258.685	217.69
258.918	212.69
259.151	215.69
259.383	225.69
259.616	230.69
259.849	237.69
260.081	258.69
260.314	273.69
260.547	296.69
260.779	265.69
261.012	255.69
261.244	245.69
261.477	238.69
261.71	241.69
261.942	250.69
262.175	250.69
262.407	261.69
262.64	246.69
262.872	230.69
263.105	218.69
263.337	225.69
263.57	226.69
263.802	225.69
264.035	235.69
264.267	216.69
264.499	234.69
264.732	211.69
264.964	215.69
265.197	225.69
265.429	230.69
265.661	225.69
265.894	234.69
266.126	230.69
266.358	217.69
266.591	230.69
266.823	225.69
267.055	235.69
267.287	228.69
267.52	243.69
267.752	241.69
267.984	238.69
268.216	244.69
268.448	232.69
268.681	245.69
268.913	256.69
269.145	293.69
269.377	298.69
269.609	283.69
269.841	305.69
270.073	289.69
270.306	311.69
270.538	340.69
270.77	337.69
271.002	322.69
271.234	322.69
271.466	339.69
271.698	346.69
271.93	358.69
272.162	354.69
272.394	365.69
272.626	335.69
272.858	320.69
273.09	291.69
273.322	301.69
273.553	280.69
273.785	285.69
274.017	293.69
274.249	280.69
274.481	289.69
274.713	301.69
274.945	286.69
275.176	282.69
275.408	299.69
275.64	275.69
275.872	267.69
276.104	299.69
276.335	296.69
276.567	294.69
276.799	325.69
277.031	324.69
277.262	330.69
277.494	331.69
277.726	335.69
277.957	302.69
278.189	302.69
278.421	303.69
278.652	307.69
278.884	271.69
279.115	280.69
279.347	289.69
279.579	285.69
279.81	296.69
280.042	282.69
280.273	269.69
280.505	284.69
280.736	281.69
280.968	265.69
281.199	277.69
281.431	280.69
281.662	275.69
281.894	281.69
282.125	281.69
282.356	290.69
282.588	317.69
282.819	336.69
283.051	314.69
283.282	282.69
283.513	291.69
283.745	295.69
283.976	280.69
284.207	285.69
284.439	281.69
284.67	296.69
284.901	292.69
285.132	291.69
285.364	296.69
285.595	293.69
285.826	278.69
286.057	283.69
286.288	283.69
286.52	292.69
286.751	289.69
286.982	301.69
287.213	287.69
287.444	305.69
287.675	278.69
287.906	310.69
288.138	303.69
288.369	311.69
288.6	328.69
288.831	286.69
289.062	292.69
289.293	309.69
289.524	310.69
289.755	294.69
289.986	293.69
290.217	312.69
290.448	292.69
290.679	304.69
290.91	284.69
291.141	265.69
291.371	291.69
291.602	286.69
291.833	287.69
292.064	289.69
292.295	294.69
292.526	301.69
292.757	321.69
292.987	289.69
293.218	275.69
293.449	298.69
293.68	275.69
293.91	301.69
294.141	287.69
294.372	294.69
294.603	303.69
294.833	297.69
295.064	307.69
295.295	299.69
295.525	303.69
295.756	291.69
295.987	300.69
296.217	338.69
296.448	353.69
296.679	322.69
296.909	314.69
297.14	308.69
297.37	308.69
297.601	306.69
297.831	306.69
298.062	320.69
298.292	285.69
298.523	300.69
298.753	307.69
298.984	307.69
299.214	295.69
299.445	313.69
299.675	321.69
299.905	310.69
300.136	311.69
300.366	312.69
300.597	324.69
300.827	319.69
301.057	323.69
301.288	369.69
301.518	346.69
301.748	331.69
301.979	323.69
302.209	322.69
302.439	337.69
302.669	336.69
302.9	329.69
303.13	313.69
303.36	327.69
303.59	333.69
303.82	347.69
304.051	324.69
304.281	322.69
304.511	314.69
304.741	317.69
304.971	323.69
305.201	313.69
305.431	330.69
305.661	325.69
305.891	326.69
306.121	328.69
306.352	330.69
306.582	348.69
306.812	344.69
307.042	332.69
307.272	337.69
307.502	333.69
307.731	349.69
307.961	351.69
308.191	338.69
308.421	348.69
308.651	346.69
308.881	343.69
309.111	347.69
309.341	373.69
309.571	377.69
309.8	381.69
310.03	401.69
310.26	393.69
310.49	394.69
310.72	423.69
310.949	433.69
311.179	429.69
311.409	419.69
311.639	405.69
311.868	398.69
312.098	400.69
312.328	396.69
312.557	426.69
312.787	447.69
313.017	465.69
313.246	441.69
313.476	385.69
313.706	389.69
313.935	398.69
314.165	394.69
314.394	415.69
314.624	416.69
314.853	393.69
315.083	392.69
315.312	395.69
315.542	400.69
315.771	369.69
316.001	377.69
316.23	396.69
316.46	381.69
316.689	386.69
316.919	395.69
317.148	408.69
317.377	403.69
317.607	413.69
317.836	411.69
318.065	403.69
318.295	394.69
318.524	387.69
318.753	393.69
318.983	406.69
319.212	381.69
319.441	403.69
319.67	411.69
319.9	400.69
320.129	411.69
320.358	397.69
320.587	389.69
320.816	429.69
321.046	446.69
321.275	427.69
321.504	422.69
321.733	455.69
321.962	448.69
322.191	446.69
322.42	469.69
322.649	508.69
322.878	523.69
323.108	529.69
323.337	548.69
323.566	578.69
323.795	614.69
324.024	715.69
324.253	909.69
324.482	1300.69
324.71	2071.69
324.939	3033.69
325.168	2626.69
325.397	1324.69
325.626	844.69
325.855	676.69
326.084	590.69
326.313	603.69
326.542	585.69
326.77	653.69
326.999	821.69
327.228	1150.69
327.457	1801.69
327.686	2284.69
327.914	1491.69
328.143	957.69
328.372	803.69
328.6	737.69
328.829	682.69
329.058	702.69
329.287	714.69
329.515	684.69
329.744	586.69
329.972	607.69
330.201	625.69
330.43	691.69
330.658	737.69
330.887	747.69
331.115	723.69
331.344	597.69
331.572	553.69
331.801	554.69
332.03	556.69
332.258	534.69
332.486	482.69
332.715	467.69
332.943	466.69
333.172	473.69
333.4	482.69
333.629	489.69
333.857	506.69
334.085	520.69
334.314	531.69
334.542	611.69
334.771	626.69
334.999	557.69
335.227	509.69
335.455	471.69
335.684	457.69
335.912	454.69
336.14	435.69
336.369	438.69
336.597	476.69
336.825	462.69
337.053	452.69
337.281	446.69
337.51	463.69
337.738	466.69
337.966	449.69
338.194	476.69
338.422	447.69
338.65	438.69
338.878	438.69
339.106	421.69
339.334	431.69
339.562	429.69
339.79	428.69
340.018	461.69
340.246	458.69
340.474	449.69
340.702	457.69
340.93	459.69
341.158	427.69
341.386	447.69
341.614	451.69
341.842	446.69
342.07	425.69
342.298	411.69
342.526	419.69
342.754	421.69
342.981	387.69
343.209	428.69
343.437	412.69
343.665	438.69
343.893	430.69
344.12	439.69
344.348	419.69
344.576	415.69
344.804	431.69
345.031	463.69
345.259	475.69
345.487	457.69
345.714	444.69
345.942	429.69
346.17	419.69
346.397	411.69
346.625	428.69
346.853	437.69
347.08	427.69
347.308	454.69
347.535	441.69
347.763	445.69
347.99	435.69
348.218	419.69
348.445	456.69
348.673	446.69
348.9	434.69
349.128	436.69
349.355	422.69
349.583	401.69
349.81	414.69
350.037	414.69
350.265	410.69
350.492	437.69
350.72	429.69
350.947	424.69
351.174	431.69
351.402	446.69
351.629	430.69
351.856	439.69
352.083	442.69
352.311	447.69
352.538	450.69
352.765	450.69
352.992	428.69
353.22	420.69
353.447	406.69
353.674	396.69
353.901	392.69
354.128	391.69
354.355	381.69
354.583	393.69
354.81	381.69
355.037	386.69
355.264	370.69
355.491	378.69
355.718	382.69
355.945	379.69
356.172	383.69
356.399	359.69
356.626	372.69
356.853	383.69
357.08	381.69
357.307	379.69
357.534	367.69
357.761	365.69
357.988	366.69
358.215	372.69
358.441	367.69
358.668	386.69
358.895	402.69
359.122	398.69
359.349	411.69
359.576	437.69
359.802	446.69
360.029	505.69
360.256	500.69
360.483	499.69
360.709	464.69
360.936	441.69
361.163	413.69
361.39	425.69
361.616	444.69
361.843	425.69
362.07	421.69
362.296	431.69
362.523	403.69
362.749	418.69
362.976	414.69
363.203	417.69
363.429	398.69
363.656	379.69
363.882	390.69
364.109	380.69
364.335	392.69
364.562	388.69
364.788	405.69
365.015	392.69
365.241	405.69
365.468	414.69
365.694	410.69
365.92	421.69
366.147	413.69
366.373	400.69
366.599	391.69
366.826	389.69
367.052	376.69
367.278	384.69
367.505	388.69
367.731	403.69
367.957	385.69
368.184	395.69
368.41	397.69
368.636	397.69
368.862	419.69
369.089	400.69
369.315	384.69
369.541	412.69
369.767	424.69
369.993	389.69
370.219	376.69
370.445	376.69
370.672	385.69
370.898	371.69
371.124	375.69
371.35	388.69
371.576	393.69
371.802	373.69
372.028	372.69
372.254	385.69
372.48	366.69
372.706	376.69
372.932	377.69
373.158	369.69
373.384	377.69
373.61	394.69
373.835	393.69
374.061	373.69
374.287	379.69
374.513	386.69
374.739	369.69
374.965	393.69
375.191	381.69
375.416	392.69
375.642	380.69
375.868	395.69
376.094	384.69
376.319	374.69
376.545	373.69
376.771	373.69
376.997	365.69
377.222	356.69
377.448	358.69
377.674	362.69
377.899	369.69
378.125	343.69
378.35	369.69
378.576	366.69
378.802	367.69
379.027	378.69
379.253	379.69
379.478	339.69
379.704	369.69
379.929	383.69
380.155	393.69
380.38	381.69
380.606	375.69
380.831	386.69
381.057	385.69
381.282	374.69
381.507	361.69
381.733	364.69
381.958	377.69
382.184	361.69
382.409	372.69
382.634	401.69
382.86	378.69
383.085	372.69
383.31	383.69
383.535	373.69
383.761	374.69
383.986	385.69
384.211	391.69
384.436	383.69
384.662	385.69
384.887	372.69
385.112	393.69
385.337	394.69
385.562	395.69
385.787	391.69
386.013	394.69
386.238	398.69
386.463	407.69
386.688	393.69
386.913	403.69
387.138	388.69
387.363	397.69
387.588	381.69
387.813	389.69
388.038	395.69
388.263	380.69
388.488	364.69
388.713	399.69
388.938	405.69
389.163	397.69
389.387	388.69
389.612	389.69
389.837	399.69
390.062	382.69
390.287	385.69
390.512	395.69
390.736	398.69
390.961	388.69
391.186	390.69
391.411	395.69
391.636	407.69
391.86	385.69
392.085	406.69
392.31	401.69
392.534	390.69
392.759	395.69
392.984	403.69
393.208	417.69
393.433	395.69
393.658	407.69
393.882	391.69
394.107	402.69
394.331	378.69
394.556	383.69
394.78	373.69
395.005	379.69
395.229	395.69
395.454	396.69
395.678	409.69
395.903	418.69
396.127	434.69
396.352	437.69
396.576	425.69
396.801	426.69
397.025	405.69
397.249	425.69
397.474	423.69
397.698	427.69
397.922	426.69
398.147	454.69
398.371	454.69
398.595	443.69
398.82	440.69
399.044	435.69
399.268	469.69
399.492	479.69
399.717	500.69
399.941	519.69
400.165	561.69
400.389	553.69
400.613	524.69
400.837	481.69
401.062	464.69
401.286	458.69
401.51	449.69
401.734	441.69
401.958	446.69
402.182	462.69
402.406	471.69
402.63	481.69
402.854	468.69
403.078	467.69
403.302	471.69
403.526	488.69
403.75	489.69
403.974	460.69
404.198	438.69
404.422	470.69
404.645	490.69
404.869	498.69
405.093	517.69
405.317	555.69
405.541	603.69
405.765	551.69
405.988	536.69
406.212	511.69
406.436	516.69
406.66	544.69
406.883	534.69
407.107	556.69
407.331	591.69
407.555	695.69
407.778	665.69
408.002	583.69
408.226	561.69
408.449	530.69
408.673	522.69
408.896	581.69
409.12	593.69
409.344	585.69
409.567	517.69
409.791	504.69
410.014	487.69
410.238	474.69
410.461	455.69
410.685	483.69
410.908	492.69
411.132	511.69
411.355	582.69
411.578	561.69
411.802	503.69
412.025	474.69
412.249	499.69
412.472	503.69
412.695	575.69
412.919	537.69
413.142	514.69
413.365	494.69
413.589	472.69
413.812	448.69
414.035	444.69
414.258	450.69
414.482	435.69
414.705	410.69
414.928	417.69
415.151	433.69
415.374	437.69
415.597	446.69
415.821	437.69
416.044	451.69
416.267	459.69
416.49	428.69
416.713	442.69
416.936	443.69
417.159	460.69
417.382	460.69
417.605	447.69
417.828	460.69
418.051	477.69
418.274	459.69
418.497	454.69
418.72	442.69
418.943	446.69
419.166	459.69
419.389	461.69
419.611	454.69
419.834	463.69
420.057	475.69
420.28	486.69
420.503	474.69
420.726	479.69
420.948	502.69
421.171	535.69
421.394	591.69
421.617	505.69
421.839	469.69
422.062	482.69
422.285	492.69
422.507	550.69
422.73	640.69
422.953	633.69
423.175	531.69
423.398	488.69
423.621	484.69
423.843	540.69
424.066	531.69
424.288	518.69
424.511	561.69
424.733	614.69
424.956	725.69
425.178	669.69
425.401	673.69
425.623	717.69
425.846	575.69
426.068	543.69
426.291	516.69
426.513	527.69
426.735	537.69
426.958	587.69
427.18	693.69
427.402	813.69
427.625	945.69
427.847	835.69
428.069	726.69
428.292	633.69
428.514	561.69
428.736	529.69
428.958	515.69
429.181	490.69
429.403	492.69
429.625	520.69
429.847	544.69
430.069	624.69
430.292	629.69
430.514	527.69
430.736	499.69
430.958	481.69
431.18	463.69
431.402	457.69
431.624	448.69
431.846	453.69
432.068	479.69
432.29	465.69
432.512	490.69
432.734	470.69
432.956	460.69
433.178	477.69
433.4	473.69
433.622	458.69
433.844	461.69
434.066	443.69
434.287	431.69
434.509	438.69
434.731	463.69
434.953	493.69
435.175	479.69
435.397	490.69
435.618	519.69
435.84	617.69
436.062	714.69
436.284	785.69
436.505	634.69
436.727	573.69
436.949	532.69
437.17	502.69
437.392	486.69
437.614	504.69
437.835	565.69
438.057	666.69
438.278	805.69
438.5	763.69
438.721	858.69
438.943	828.69
439.165	653.69
439.386	563.69
439.608	558.69
439.829	570.69
440.05	625.69
440.272	678.69
440.493	631.69
440.715	561.69
440.936	527.69
441.158	510.69
441.379	507.69
441.6	521.69
441.822	545.69
442.043	574.69
442.264	687.69
442.486	735.69
442.707	594.69
442.928	568.69
443.149	580.69
443.371	610.69
443.592	636.69
443.813	735.69
444.034	773.69
444.255	657.69
444.476	575.69
444.698	523.69
444.919	524.69
445.14	606.69
445.361	606.69
445.582	595.69
445.803	677.69
446.024	821.69
446.245	822.69
446.466	739.69
446.687	639.69
446.908	597.69
447.129	533.69
447.35	493.69
447.571	513.69
447.792	484.69
448.013	512.69
448.234	527.69
448.455	614.69
448.675	723.69
448.896	851.69
449.117	714.69
449.338	683.69
449.559	789.69
449.779	904.69
450	699.69
450.221	563.69
450.442	523.69
450.662	501.69
450.883	526.69
451.104	556.69
451.324	520.69
451.545	497.69
451.766	464.69
451.986	458.69
452.207	447.69
452.428	437.69
452.648	437.69
452.869	448.69
453.089	472.69
453.31	485.69
453.53	468.69
453.751	449.69
453.971	446.69
454.192	495.69
454.412	481.69
454.633	468.69
454.853	446.69
455.073	457.69
455.294	489.69
455.514	555.69
455.734	545.69
455.955	458.69
456.175	418.69
456.395	441.69
456.616	419.69
456.836	397.69
457.056	397.69
457.276	420.69
457.497	420.69
457.717	422.69
457.937	418.69
458.157	426.69
458.377	439.69
458.598	462.69
458.818	520.69
459.038	637.69
459.258	666.69
459.478	541.69
459.698	466.69
459.918	485.69
460.138	431.69
460.358	429.69
460.578	455.69
460.798	446.69
461.018	452.69
461.238	447.69
461.458	426.69
461.678	452.69
461.898	450.69
462.118	449.69
462.338	447.69
462.558	454.69
462.777	445.69
462.997	465.69
463.217	482.69
463.437	464.69
463.657	471.69
463.876	473.69
464.096	474.69
464.316	451.69
464.536	481.69
464.755	477.69
464.975	479.69
465.195	562.69
465.414	682.69
465.634	603.69
465.854	508.69
466.073	458.69
466.293	450.69
466.512	442.69
466.732	443.69
466.951	437.69
467.171	434.69
467.391	414.69
467.61	457.69
467.829	471.69
468.049	461.69
468.268	467.69
468.488	443.69
468.707	441.69
468.927	434.69
469.146	423.69
469.365	417.69
469.585	417.69
469.804	442.69
470.023	473.69
470.243	449.69
470.462	474.69
470.681	488.69
470.901	466.69
471.12	470.69
471.339	440.69
471.558	463.69
471.777	455.69
471.997	436.69
472.216	466.69
472.435	519.69
472.654	521.69
472.873	458.69
473.092	460.69
473.311	468.69
473.53	471.69
473.749	458.69
473.968	522.69
474.187	655.69
474.406	661.69
474.625	557.69
474.844	485.69
475.063	461.69
475.282	455.69
475.501	484.69
475.72	475.69
475.939	463.69
476.158	463.69
476.377	458.69
476.596	452.69
476.814	463.69
477.033	477.69
477.252	490.69
477.471	466.69
477.69	474.69
477.908	491.69
478.127	494.69
478.346	481.69
478.564	484.69
478.783	480.69
479.002	511.69
479.22	515.69
479.439	517.69
479.658	568.69
479.876	548.69
480.095	566.69
480.313	587.69
480.532	567.69
480.751	578.69
480.969	579.69
481.188	677.69
481.406	747.69
481.624	634.69
481.843	585.69
482.061	573.69
482.28	550.69
482.498	536.69
482.717	528.69
482.935	538.69
483.153	523.69
483.372	543.69
483.59	539.69
483.808	532.69
484.027	528.69
484.245	521.69
484.463	529.69
484.681	543.69
484.9	530.69
485.118	539.69
485.336	518.69
485.554	544.69
485.772	574.69
485.99	557.69
486.209	546.69
486.427	562.69
486.645	563.69
486.863	600.69
487.081	588.69
487.299	589.69
487.517	573.69
487.735	566.69
487.953	579.69
488.171	588.69
488.389	578.69
488.607	553.69
488.825	571.69
489.043	574.69
489.261	572.69
489.479	571.69
489.696	606.69
489.914	590.69
490.132	582.69
490.35	629.69
490.568	589.69
490.786	616.69
491.003	635.69
491.221	639.69
491.439	662.69
491.657	653.69
491.874	677.69
492.092	679.69
492.31	667.69
492.527	673.69
492.745	661.69
492.963	673.69
493.18	695.69
493.398	682.69
493.615	683.69
493.833	704.69
494.05	683.69
494.268	673.69
494.485	671.69
494.703	695.69
494.92	697.69
495.138	670.69
495.355	687.69
495.573	689.69
495.79	678.69
496.008	684.69
496.225	675.69
496.442	691.69
496.66	679.69
496.877	647.69
497.094	688.69
497.312	716.69
497.529	714.69
497.746	702.69
497.963	705.69
498.181	736.69
498.398	739.69
498.615	733.69
498.832	727.69
499.049	755.69
499.267	747.69
499.484	748.69
499.701	764.69
499.918	815.69
500.135	804.69
500.352	811.69
500.569	850.69
500.786	842.69
501.003	843.69
501.22	810.69
501.437	829.69
501.654	851.69
501.871	833.69
