Data from 1972.PennyLincolnUp.Lamp.En5.5.200Scan.071719.P1._HRD10591_15-28-20-844.txt Node
Date: Thu Jul 18 15:28:20 EDT 2019
User: cochatt
Spectrometer: HR+D1059
Trigger mode: 1
Integration Time (sec): 1.000000E-1
Scans to average: 1
Electric dark correction enabled: true
Nonlinearity correction enabled: false
Boxcar width: 0
XAxis mode: Wavelengths
Number of Pixels in Spectrum: 2048
>>>>>Begin Spectral Data<<<<<
223.165	-11.25
223.4	-11.25
223.635	-11.25
223.869	-8.25
224.104	-22.25
224.338	-24.25
224.573	-8.25
224.808	-11.25
225.042	-19.25
225.277	-0.25
225.511	-4.25
225.746	-3.25
225.98	4.75
226.215	11.75
226.449	10.75
226.683	22.75
226.918	34.75
227.152	27.75
227.387	39.75
227.621	40.75
227.856	53.75
228.09	33.75
228.324	53.75
228.559	38.75
228.793	78.75
229.027	99.75
229.262	103.75
229.496	118.75
229.73	141.75
229.964	165.75
230.199	134.75
230.433	140.75
230.667	103.75
230.901	116.75
231.136	124.75
231.37	106.75
231.604	107.75
231.838	121.75
232.072	107.75
232.306	119.75
232.541	102.75
232.775	116.75
233.009	100.75
233.243	116.75
233.477	116.75
233.711	104.75
233.945	122.75
234.179	114.75
234.413	117.75
234.647	116.75
234.881	121.75
235.115	119.75
235.349	124.75
235.583	116.75
235.817	122.75
236.051	137.75
236.285	121.75
236.519	130.75
236.753	144.75
236.987	147.75
237.221	202.75
237.455	243.75
237.689	202.75
237.922	157.75
238.156	130.75
238.39	139.75
238.624	124.75
238.858	131.75
239.091	130.75
239.325	126.75
239.559	130.75
239.793	143.75
240.027	134.75
240.26	137.75
240.494	156.75
240.728	155.75
240.961	168.75
241.195	141.75
241.429	132.75
241.662	140.75
241.896	129.75
242.13	139.75
242.363	140.75
242.597	136.75
242.83	114.75
243.064	128.75
243.298	152.75
243.531	152.75
243.765	140.75
243.998	130.75
244.232	146.75
244.465	156.75
244.699	138.75
244.932	142.75
245.166	152.75
245.399	144.75
245.633	153.75
245.866	150.75
246.099	147.75
246.333	138.75
246.566	143.75
246.8	143.75
247.033	159.75
247.266	150.75
247.5	167.75
247.733	173.75
247.966	172.75
248.2	158.75
248.433	173.75
248.666	167.75
248.899	176.75
249.133	182.75
249.366	213.75
249.599	215.75
249.832	199.75
250.066	207.75
250.299	193.75
250.532	190.75
250.765	215.75
250.998	230.75
251.231	234.75
251.465	223.75
251.698	211.75
251.931	200.75
252.164	213.75
252.397	196.75
252.63	212.75
252.863	216.75
253.096	220.75
253.329	246.75
253.562	227.75
253.795	228.75
254.028	219.75
254.261	220.75
254.494	235.75
254.727	256.75
254.96	290.75
255.193	284.75
255.426	252.75
255.659	250.75
255.892	250.75
256.124	243.75
256.357	236.75
256.59	244.75
256.823	239.75
257.056	225.75
257.289	213.75
257.521	220.75
257.754	219.75
257.987	216.75
258.22	226.75
258.452	211.75
258.685	210.75
258.918	231.75
259.151	218.75
259.383	230.75
259.616	239.75
259.849	231.75
260.081	225.75
260.314	270.75
260.547	273.75
260.779	244.75
261.012	232.75
261.244	235.75
261.477	217.75
261.71	226.75
261.942	236.75
262.175	262.75
262.407	237.75
262.64	233.75
262.872	202.75
263.105	213.75
263.337	214.75
263.57	226.75
263.802	216.75
264.035	224.75
264.267	224.75
264.499	223.75
264.732	211.75
264.964	215.75
265.197	225.75
265.429	235.75
265.661	206.75
265.894	209.75
266.126	226.75
266.358	223.75
266.591	234.75
266.823	215.75
267.055	230.75
267.287	233.75
267.52	228.75
267.752	244.75
267.984	216.75
268.216	230.75
268.448	235.75
268.681	251.75
268.913	257.75
269.145	263.75
269.377	262.75
269.609	278.75
269.841	276.75
270.073	271.75
270.306	295.75
270.538	306.75
270.77	350.75
271.002	312.75
271.234	308.75
271.466	302.75
271.698	333.75
271.93	345.75
272.162	324.75
272.394	326.75
272.626	300.75
272.858	284.75
273.09	283.75
273.322	279.75
273.553	272.75
273.785	271.75
274.017	276.75
274.249	278.75
274.481	285.75
274.713	286.75
274.945	278.75
275.176	277.75
275.408	282.75
275.64	264.75
275.872	271.75
276.104	260.75
276.335	260.75
276.567	292.75
276.799	271.75
277.031	309.75
277.262	343.75
277.494	324.75
277.726	310.75
277.957	298.75
278.189	282.75
278.421	275.75
278.652	278.75
278.884	273.75
279.115	259.75
279.347	274.75
279.579	246.75
279.81	269.75
280.042	255.75
280.273	260.75
280.505	279.75
280.736	266.75
280.968	272.75
281.199	285.75
281.431	272.75
281.662	259.75
281.894	253.75
282.125	275.75
282.356	294.75
282.588	316.75
282.819	326.75
283.051	292.75
283.282	267.75
283.513	262.75
283.745	269.75
283.976	295.75
284.207	287.75
284.439	272.75
284.67	279.75
284.901	276.75
285.132	273.75
285.364	281.75
285.595	262.75
285.826	279.75
286.057	275.75
286.288	278.75
286.52	284.75
286.751	263.75
286.982	276.75
287.213	280.75
287.444	267.75
287.675	279.75
287.906	295.75
288.138	288.75
288.369	310.75
288.6	316.75
288.831	298.75
289.062	283.75
289.293	275.75
289.524	280.75
289.755	271.75
289.986	286.75
290.217	281.75
290.448	276.75
290.679	284.75
290.91	268.75
291.141	271.75
291.371	280.75
291.602	291.75
291.833	280.75
292.064	276.75
292.295	290.75
292.526	285.75
292.757	281.75
292.987	273.75
293.218	293.75
293.449	288.75
293.68	288.75
293.91	268.75
294.141	288.75
294.372	276.75
294.603	277.75
294.833	278.75
295.064	279.75
295.295	294.75
295.525	279.75
295.756	290.75
295.987	278.75
296.217	310.75
296.448	334.75
296.679	315.75
296.909	291.75
297.14	297.75
297.37	306.75
297.601	294.75
297.831	287.75
298.062	289.75
298.292	294.75
298.523	290.75
298.753	281.75
298.984	288.75
299.214	290.75
299.445	288.75
299.675	289.75
299.905	312.75
300.136	300.75
300.366	295.75
300.597	306.75
300.827	292.75
301.057	319.75
301.288	314.75
301.518	298.75
301.748	312.75
301.979	320.75
302.209	306.75
302.439	327.75
302.669	311.75
302.9	294.75
303.13	315.75
303.36	321.75
303.59	316.75
303.82	319.75
304.051	354.75
304.281	304.75
304.511	317.75
304.741	310.75
304.971	328.75
305.201	306.75
305.431	324.75
305.661	302.75
305.891	316.75
306.121	303.75
306.352	325.75
306.582	322.75
306.812	316.75
307.042	336.75
307.272	316.75
307.502	327.75
307.731	343.75
307.961	316.75
308.191	334.75
308.421	337.75
308.651	334.75
308.881	337.75
309.111	359.75
309.341	327.75
309.571	348.75
309.8	360.75
310.03	377.75
310.26	378.75
310.49	382.75
310.72	392.75
310.949	418.75
311.179	403.75
311.409	374.75
311.639	382.75
311.868	386.75
312.098	398.75
312.328	415.75
312.557	406.75
312.787	431.75
313.017	390.75
313.246	400.75
313.476	379.75
313.706	382.75
313.935	376.75
314.165	398.75
314.394	419.75
314.624	394.75
314.853	381.75
315.083	387.75
315.312	388.75
315.542	345.75
315.771	370.75
316.001	378.75
316.23	378.75
316.46	384.75
316.689	387.75
316.919	357.75
317.148	371.75
317.377	399.75
317.607	394.75
317.836	373.75
318.065	371.75
318.295	362.75
318.524	376.75
318.753	366.75
318.983	382.75
319.212	372.75
319.441	379.75
319.67	395.75
319.9	380.75
320.129	382.75
320.358	378.75
320.587	390.75
320.816	395.75
321.046	398.75
321.275	388.75
321.504	411.75
321.733	404.75
321.962	423.75
322.191	438.75
322.42	428.75
322.649	462.75
322.878	483.75
323.108	489.75
323.337	515.75
323.566	558.75
323.795	590.75
324.024	663.75
324.253	796.75
324.482	1159.75
324.71	1855.75
324.939	2734.75
325.168	2396.75
325.397	1198.75
325.626	782.75
325.855	638.75
326.084	572.75
326.313	556.75
326.542	552.75
326.77	617.75
326.999	733.75
327.228	1059.75
327.457	1675.75
327.686	2037.75
327.914	1351.75
328.143	852.75
328.372	734.75
328.6	664.75
328.829	616.75
329.058	653.75
329.287	670.75
329.515	622.75
329.744	564.75
329.972	564.75
330.201	596.75
330.43	606.75
330.658	682.75
330.887	669.75
331.115	656.75
331.344	547.75
331.572	504.75
331.801	508.75
332.03	503.75
332.258	480.75
332.486	477.75
332.715	466.75
332.943	446.75
333.172	469.75
333.4	448.75
333.629	471.75
333.857	472.75
334.085	506.75
334.314	515.75
334.542	547.75
334.771	588.75
334.999	526.75
335.227	489.75
335.455	449.75
335.684	444.75
335.912	454.75
336.14	423.75
336.369	434.75
336.597	454.75
336.825	451.75
337.053	427.75
337.281	437.75
337.51	424.75
337.738	428.75
337.966	444.75
338.194	461.75
338.422	444.75
338.65	428.75
338.878	426.75
339.106	408.75
339.334	419.75
339.562	405.75
339.79	408.75
340.018	427.75
340.246	407.75
340.474	436.75
340.702	411.75
340.93	396.75
341.158	412.75
341.386	413.75
341.614	437.75
341.842	400.75
342.07	425.75
342.298	410.75
342.526	395.75
342.754	387.75
342.981	420.75
343.209	390.75
343.437	393.75
343.665	387.75
343.893	401.75
344.12	424.75
344.348	398.75
344.576	421.75
344.804	427.75
345.031	441.75
345.259	415.75
345.487	438.75
345.714	415.75
345.942	431.75
346.17	432.75
346.397	415.75
346.625	398.75
346.853	410.75
347.08	400.75
347.308	386.75
347.535	413.75
347.763	422.75
347.99	423.75
348.218	391.75
348.445	430.75
348.673	423.75
348.9	416.75
349.128	422.75
349.355	407.75
349.583	397.75
349.81	409.75
350.037	372.75
350.265	374.75
350.492	382.75
350.72	387.75
350.947	388.75
351.174	402.75
351.402	420.75
351.629	412.75
351.856	417.75
352.083	412.75
352.311	432.75
352.538	429.75
352.765	403.75
352.992	390.75
353.22	409.75
353.447	414.75
353.674	393.75
353.901	384.75
354.128	384.75
354.355	379.75
354.583	378.75
354.81	368.75
355.037	367.75
355.264	385.75
355.491	364.75
355.718	353.75
355.945	356.75
356.172	363.75
356.399	358.75
356.626	367.75
356.853	367.75
357.08	351.75
357.307	349.75
357.534	372.75
357.761	378.75
357.988	372.75
358.215	373.75
358.441	360.75
358.668	381.75
358.895	356.75
359.122	382.75
359.349	370.75
359.576	404.75
359.802	419.75
360.029	474.75
360.256	496.75
360.483	435.75
360.709	411.75
360.936	418.75
361.163	390.75
361.39	408.75
361.616	409.75
361.843	394.75
362.07	390.75
362.296	404.75
362.523	407.75
362.749	401.75
362.976	391.75
363.203	386.75
363.429	367.75
363.656	394.75
363.882	382.75
364.109	381.75
364.335	367.75
364.562	371.75
364.788	388.75
365.015	378.75
365.241	373.75
365.468	396.75
365.694	389.75
365.92	396.75
366.147	370.75
366.373	392.75
366.599	387.75
366.826	375.75
367.052	374.75
367.278	368.75
367.505	384.75
367.731	374.75
367.957	371.75
368.184	369.75
368.41	369.75
368.636	397.75
368.862	408.75
369.089	380.75
369.315	379.75
369.541	376.75
369.767	353.75
369.993	370.75
370.219	392.75
370.445	363.75
370.672	370.75
370.898	367.75
371.124	358.75
371.35	371.75
371.576	354.75
371.802	359.75
372.028	359.75
372.254	367.75
372.48	350.75
372.706	359.75
372.932	376.75
373.158	364.75
373.384	373.75
373.61	370.75
373.835	370.75
374.061	363.75
374.287	371.75
374.513	360.75
374.739	382.75
374.965	364.75
375.191	376.75
375.416	384.75
375.642	377.75
375.868	376.75
376.094	360.75
376.319	351.75
376.545	362.75
376.771	366.75
376.997	358.75
377.222	359.75
377.448	352.75
377.674	356.75
377.899	364.75
378.125	365.75
378.35	369.75
378.576	343.75
378.802	354.75
379.027	360.75
379.253	363.75
379.478	358.75
379.704	366.75
379.929	349.75
380.155	358.75
380.38	356.75
380.606	345.75
380.831	360.75
381.057	361.75
381.282	350.75
381.507	351.75
381.733	367.75
381.958	375.75
382.184	359.75
382.409	359.75
382.634	365.75
382.86	368.75
383.085	352.75
383.31	364.75
383.535	382.75
383.761	357.75
383.986	353.75
384.211	343.75
384.436	363.75
384.662	384.75
384.887	378.75
385.112	351.75
385.337	348.75
385.562	379.75
385.787	380.75
386.013	389.75
386.238	404.75
386.463	392.75
386.688	388.75
386.913	378.75
387.138	374.75
387.363	381.75
387.588	375.75
387.813	384.75
388.038	381.75
388.263	366.75
388.488	378.75
388.713	394.75
388.938	388.75
389.163	373.75
389.387	377.75
389.612	362.75
389.837	370.75
390.062	380.75
390.287	381.75
390.512	385.75
390.736	388.75
390.961	386.75
391.186	372.75
391.411	388.75
391.636	378.75
391.86	378.75
392.085	383.75
392.31	380.75
392.534	403.75
392.759	367.75
392.984	376.75
393.208	386.75
393.433	392.75
393.658	380.75
393.882	377.75
394.107	388.75
394.331	385.75
394.556	393.75
394.78	388.75
395.005	366.75
395.229	368.75
395.454	386.75
395.678	383.75
395.903	409.75
396.127	426.75
396.352	430.75
396.576	416.75
396.801	399.75
397.025	414.75
397.249	402.75
397.474	407.75
397.698	408.75
397.922	410.75
398.147	405.75
398.371	445.75
398.595	438.75
398.82	404.75
399.044	427.75
399.268	426.75
399.492	439.75
399.717	486.75
399.941	493.75
400.165	523.75
400.389	527.75
400.613	491.75
400.837	454.75
401.062	442.75
401.286	460.75
401.51	451.75
401.734	437.75
401.958	435.75
402.182	438.75
402.406	444.75
402.63	446.75
402.854	452.75
403.078	460.75
403.302	462.75
403.526	445.75
403.75	441.75
403.974	449.75
404.198	439.75
404.422	466.75
404.645	476.75
404.869	481.75
405.093	487.75
405.317	546.75
405.541	567.75
405.765	527.75
405.988	493.75
406.212	509.75
406.436	529.75
406.66	536.75
406.883	512.75
407.107	505.75
407.331	555.75
407.555	602.75
407.778	652.75
408.002	548.75
408.226	514.75
408.449	498.75
408.673	503.75
408.896	543.75
409.12	568.75
409.344	538.75
409.567	486.75
409.791	476.75
410.014	454.75
410.238	475.75
410.461	458.75
410.685	467.75
410.908	471.75
411.132	511.75
411.355	557.75
411.578	519.75
411.802	449.75
412.025	465.75
412.249	472.75
412.472	486.75
412.695	524.75
412.919	536.75
413.142	492.75
413.365	458.75
413.589	456.75
413.812	452.75
414.035	430.75
414.258	412.75
414.482	421.75
414.705	422.75
414.928	419.75
415.151	413.75
415.374	421.75
415.597	442.75
415.821	432.75
416.044	422.75
416.267	425.75
416.49	449.75
416.713	437.75
416.936	421.75
417.159	426.75
417.382	434.75
417.605	440.75
417.828	472.75
418.051	485.75
418.274	450.75
418.497	430.75
418.72	418.75
418.943	429.75
419.166	458.75
419.389	461.75
419.611	451.75
419.834	448.75
420.057	460.75
420.28	450.75
420.503	466.75
420.726	465.75
420.948	493.75
421.171	529.75
421.394	545.75
421.617	474.75
421.839	474.75
422.062	462.75
422.285	480.75
422.507	543.75
422.73	618.75
422.953	587.75
423.175	509.75
423.398	494.75
423.621	483.75
423.843	502.75
424.066	516.75
424.288	502.75
424.511	518.75
424.733	573.75
424.956	657.75
425.178	625.75
425.401	629.75
425.623	667.75
425.846	540.75
426.068	501.75
426.291	526.75
426.513	504.75
426.735	518.75
426.958	563.75
427.18	652.75
427.402	794.75
427.625	878.75
427.847	789.75
428.069	674.75
428.292	586.75
428.514	542.75
428.736	518.75
428.958	507.75
429.181	479.75
429.403	471.75
429.625	494.75
429.847	521.75
430.069	593.75
430.292	592.75
430.514	488.75
430.736	473.75
430.958	471.75
431.18	448.75
431.402	438.75
431.624	448.75
431.846	429.75
432.068	421.75
432.29	429.75
432.512	430.75
432.734	438.75
432.956	453.75
433.178	467.75
433.4	468.75
433.622	454.75
433.844	443.75
434.066	422.75
434.287	423.75
434.509	448.75
434.731	446.75
434.953	443.75
435.175	465.75
435.397	497.75
435.618	479.75
435.84	532.75
436.062	675.75
436.284	741.75
436.505	581.75
436.727	521.75
436.949	507.75
437.17	483.75
437.392	494.75
437.614	499.75
437.835	541.75
438.057	652.75
438.278	737.75
438.5	756.75
438.721	829.75
438.943	760.75
439.165	615.75
439.386	556.75
439.608	550.75
439.829	534.75
440.05	590.75
440.272	606.75
440.493	599.75
440.715	534.75
440.936	504.75
441.158	482.75
441.379	490.75
441.6	493.75
441.822	490.75
442.043	562.75
442.264	645.75
442.486	703.75
442.707	580.75
442.928	523.75
443.149	546.75
443.371	580.75
443.592	627.75
443.813	708.75
444.034	742.75
444.255	617.75
444.476	540.75
444.698	508.75
444.919	509.75
445.14	601.75
445.361	551.75
445.582	570.75
445.803	636.75
446.024	780.75
446.245	757.75
446.466	677.75
446.687	594.75
446.908	520.75
447.129	500.75
447.35	474.75
447.571	484.75
447.792	467.75
448.013	512.75
448.234	503.75
448.455	560.75
448.675	681.75
448.896	808.75
449.117	694.75
449.338	640.75
449.559	758.75
449.779	829.75
450	691.75
450.221	560.75
450.442	514.75
450.662	477.75
450.883	486.75
451.104	491.75
451.324	494.75
451.545	454.75
451.766	438.75
451.986	431.75
452.207	431.75
452.428	425.75
452.648	445.75
452.869	428.75
453.089	445.75
453.31	442.75
453.53	434.75
453.751	431.75
453.971	433.75
454.192	491.75
454.412	469.75
454.633	438.75
454.853	423.75
455.073	430.75
455.294	471.75
455.514	523.75
455.734	537.75
455.955	425.75
456.175	412.75
456.395	396.75
456.616	396.75
456.836	374.75
457.056	388.75
457.276	391.75
457.497	372.75
457.717	391.75
457.937	404.75
458.157	388.75
458.377	411.75
458.598	448.75
458.818	532.75
459.038	632.75
459.258	629.75
459.478	516.75
459.698	462.75
459.918	441.75
460.138	425.75
460.358	427.75
460.578	429.75
460.798	444.75
461.018	434.75
461.238	440.75
461.458	431.75
461.678	422.75
461.898	414.75
462.118	421.75
462.338	427.75
462.558	437.75
462.777	432.75
462.997	442.75
463.217	448.75
463.437	458.75
463.657	429.75
463.876	454.75
464.096	443.75
464.316	450.75
464.536	450.75
464.755	457.75
464.975	482.75
465.195	554.75
465.414	642.75
465.634	529.75
465.854	478.75
466.073	446.75
466.293	428.75
466.512	447.75
466.732	424.75
466.951	420.75
467.171	439.75
467.391	433.75
467.61	450.75
467.829	467.75
468.049	462.75
468.268	433.75
468.488	421.75
468.707	421.75
468.927	400.75
469.146	404.75
469.365	411.75
469.585	418.75
469.804	422.75
470.023	443.75
470.243	442.75
470.462	438.75
470.681	458.75
470.901	458.75
471.12	439.75
471.339	430.75
471.558	442.75
471.777	438.75
471.997	441.75
472.216	440.75
472.435	490.75
472.654	461.75
472.873	453.75
473.092	435.75
473.311	455.75
473.53	434.75
473.749	434.75
473.968	502.75
474.187	608.75
474.406	646.75
474.625	523.75
474.844	462.75
475.063	442.75
475.282	430.75
475.501	442.75
475.72	431.75
475.939	430.75
476.158	442.75
476.377	458.75
476.596	448.75
476.814	436.75
477.033	436.75
477.252	457.75
477.471	467.75
477.69	457.75
477.908	467.75
478.127	448.75
478.346	464.75
478.564	451.75
478.783	460.75
479.002	486.75
479.22	476.75
479.439	478.75
479.658	537.75
479.876	555.75
480.095	551.75
480.313	563.75
480.532	540.75
480.751	525.75
480.969	559.75
481.188	630.75
481.406	684.75
481.624	596.75
481.843	560.75
482.061	557.75
482.28	520.75
482.498	516.75
482.717	517.75
482.935	508.75
483.153	514.75
483.372	514.75
483.59	502.75
483.808	513.75
484.027	502.75
484.245	516.75
484.463	528.75
484.681	530.75
484.9	520.75
485.118	514.75
485.336	511.75
485.554	525.75
485.772	519.75
485.99	540.75
486.209	535.75
486.427	517.75
486.645	570.75
486.863	546.75
487.081	572.75
487.299	551.75
487.517	564.75
487.735	548.75
487.953	554.75
488.171	544.75
488.389	548.75
488.607	559.75
488.825	542.75
489.043	544.75
489.261	552.75
489.479	562.75
489.696	526.75
489.914	559.75
490.132	540.75
490.35	566.75
490.568	575.75
490.786	579.75
491.003	601.75
491.221	612.75
491.439	617.75
491.657	631.75
491.874	632.75
492.092	631.75
492.31	636.75
492.527	611.75
492.745	634.75
492.963	649.75
493.18	650.75
493.398	635.75
493.615	642.75
493.833	644.75
494.05	652.75
494.268	659.75
494.485	633.75
494.703	645.75
494.92	662.75
495.138	677.75
495.355	653.75
495.573	660.75
495.79	664.75
496.008	644.75
496.225	642.75
496.442	640.75
496.66	667.75
496.877	632.75
497.094	647.75
497.312	663.75
497.529	660.75
497.746	667.75
497.963	669.75
498.181	701.75
498.398	726.75
498.615	696.75
498.832	720.75
499.049	732.75
499.267	733.75
499.484	731.75
499.701	729.75
499.918	780.75
500.135	772.75
500.352	816.75
500.569	817.75
500.786	806.75
501.003	823.75
501.22	796.75
501.437	777.75
501.654	772.75
501.871	805.75
