Data from 1972.PennyLincolnUp.Lamp.En5.5.200Scan.071719.P1._HRD10591_15-29-23-844.txt Node
Date: Thu Jul 18 15:29:23 EDT 2019
User: cochatt
Spectrometer: HR+D1059
Trigger mode: 1
Integration Time (sec): 1.000000E-1
Scans to average: 1
Electric dark correction enabled: true
Nonlinearity correction enabled: false
Boxcar width: 0
XAxis mode: Wavelengths
Number of Pixels in Spectrum: 2048
>>>>>Begin Spectral Data<<<<<
223.165	-18.38
223.4	-18.38
223.635	-18.38
223.869	-17.38
224.104	-11.38
224.338	-25.38
224.573	-19.38
224.808	7.62
225.042	-8.38
225.277	-0.38
225.511	3.62
225.746	0.62
225.98	6.62
226.215	15.62
226.449	16.62
226.683	10.62
226.918	15.62
227.152	23.62
227.387	31.62
227.621	35.62
227.856	31.62
228.09	54.62
228.324	47.62
228.559	52.62
228.793	70.62
229.027	100.62
229.262	120.62
229.496	126.62
229.73	159.62
229.964	173.62
230.199	140.62
230.433	134.62
230.667	109.62
230.901	114.62
231.136	105.62
231.37	115.62
231.604	108.62
231.838	95.62
232.072	121.62
232.306	122.62
232.541	97.62
232.775	120.62
233.009	126.62
233.243	122.62
233.477	117.62
233.711	119.62
233.945	131.62
234.179	119.62
234.413	133.62
234.647	117.62
234.881	115.62
235.115	112.62
235.349	134.62
235.583	112.62
235.817	138.62
236.051	140.62
236.285	135.62
236.519	142.62
236.753	134.62
236.987	154.62
237.221	186.62
237.455	269.62
237.689	207.62
237.922	143.62
238.156	147.62
238.39	132.62
238.624	134.62
238.858	131.62
239.091	101.62
239.325	126.62
239.559	122.62
239.793	116.62
240.027	135.62
240.26	165.62
240.494	148.62
240.728	162.62
240.961	158.62
241.195	155.62
241.429	147.62
241.662	143.62
241.896	127.62
242.13	127.62
242.363	126.62
242.597	126.62
242.83	136.62
243.064	125.62
243.298	132.62
243.531	146.62
243.765	136.62
243.998	141.62
244.232	143.62
244.465	127.62
244.699	135.62
244.932	138.62
245.166	153.62
245.399	147.62
245.633	153.62
245.866	139.62
246.099	171.62
246.333	144.62
246.566	151.62
246.8	162.62
247.033	153.62
247.266	171.62
247.5	156.62
247.733	165.62
247.966	182.62
248.2	162.62
248.433	181.62
248.666	175.62
248.899	188.62
249.133	213.62
249.366	223.62
249.599	224.62
249.832	194.62
250.066	190.62
250.299	182.62
250.532	205.62
250.765	220.62
250.998	226.62
251.231	239.62
251.465	213.62
251.698	205.62
251.931	200.62
252.164	207.62
252.397	220.62
252.63	207.62
252.863	232.62
253.096	228.62
253.329	229.62
253.562	237.62
253.795	224.62
254.028	230.62
254.261	218.62
254.494	234.62
254.727	268.62
254.96	306.62
255.193	284.62
255.426	272.62
255.659	251.62
255.892	248.62
256.124	258.62
256.357	258.62
256.59	253.62
256.823	220.62
257.056	238.62
257.289	222.62
257.521	247.62
257.754	211.62
257.987	216.62
258.22	214.62
258.452	214.62
258.685	230.62
258.918	203.62
259.151	214.62
259.383	237.62
259.616	218.62
259.849	247.62
260.081	240.62
260.314	251.62
260.547	265.62
260.779	265.62
261.012	250.62
261.244	227.62
261.477	258.62
261.71	228.62
261.942	235.62
262.175	251.62
262.407	255.62
262.64	229.62
262.872	235.62
263.105	232.62
263.337	237.62
263.57	220.62
263.802	223.62
264.035	210.62
264.267	219.62
264.499	225.62
264.732	225.62
264.964	217.62
265.197	218.62
265.429	223.62
265.661	209.62
265.894	227.62
266.126	214.62
266.358	198.62
266.591	225.62
266.823	224.62
267.055	230.62
267.287	248.62
267.52	225.62
267.752	226.62
267.984	229.62
268.216	234.62
268.448	251.62
268.681	230.62
268.913	247.62
269.145	265.62
269.377	288.62
269.609	291.62
269.841	273.62
270.073	294.62
270.306	296.62
270.538	326.62
270.77	333.62
271.002	328.62
271.234	291.62
271.466	300.62
271.698	331.62
271.93	346.62
272.162	347.62
272.394	318.62
272.626	339.62
272.858	306.62
273.09	286.62
273.322	282.62
273.553	282.62
273.785	288.62
274.017	271.62
274.249	278.62
274.481	260.62
274.713	266.62
274.945	277.62
275.176	282.62
275.408	265.62
275.64	265.62
275.872	266.62
276.104	265.62
276.335	268.62
276.567	280.62
276.799	285.62
277.031	332.62
277.262	330.62
277.494	315.62
277.726	316.62
277.957	295.62
278.189	284.62
278.421	266.62
278.652	278.62
278.884	280.62
279.115	278.62
279.347	276.62
279.579	257.62
279.81	278.62
280.042	264.62
280.273	279.62
280.505	258.62
280.736	268.62
280.968	268.62
281.199	262.62
281.431	255.62
281.662	273.62
281.894	285.62
282.125	278.62
282.356	293.62
282.588	316.62
282.819	332.62
283.051	270.62
283.282	261.62
283.513	268.62
283.745	273.62
283.976	269.62
284.207	298.62
284.439	284.62
284.67	269.62
284.901	290.62
285.132	276.62
285.364	278.62
285.595	251.62
285.826	266.62
286.057	264.62
286.288	275.62
286.52	303.62
286.751	266.62
286.982	272.62
287.213	276.62
287.444	284.62
287.675	273.62
287.906	308.62
288.138	302.62
288.369	310.62
288.6	302.62
288.831	295.62
289.062	276.62
289.293	280.62
289.524	290.62
289.755	267.62
289.986	279.62
290.217	292.62
290.448	292.62
290.679	284.62
290.91	272.62
291.141	274.62
291.371	291.62
291.602	301.62
291.833	261.62
292.064	282.62
292.295	288.62
292.526	282.62
292.757	273.62
292.987	273.62
293.218	281.62
293.449	272.62
293.68	275.62
293.91	283.62
294.141	284.62
294.372	282.62
294.603	282.62
294.833	302.62
295.064	271.62
295.295	276.62
295.525	269.62
295.756	296.62
295.987	302.62
296.217	330.62
296.448	313.62
296.679	308.62
296.909	295.62
297.14	295.62
297.37	295.62
297.601	286.62
297.831	290.62
298.062	290.62
298.292	298.62
298.523	306.62
298.753	296.62
298.984	309.62
299.214	294.62
299.445	298.62
299.675	289.62
299.905	302.62
300.136	309.62
300.366	318.62
300.597	302.62
300.827	294.62
301.057	321.62
301.288	320.62
301.518	326.62
301.748	330.62
301.979	317.62
302.209	304.62
302.439	314.62
302.669	340.62
302.9	304.62
303.13	317.62
303.36	310.62
303.59	326.62
303.82	317.62
304.051	335.62
304.281	306.62
304.511	308.62
304.741	318.62
304.971	303.62
305.201	312.62
305.431	322.62
305.661	297.62
305.891	331.62
306.121	316.62
306.352	315.62
306.582	314.62
306.812	323.62
307.042	336.62
307.272	312.62
307.502	331.62
307.731	333.62
307.961	323.62
308.191	338.62
308.421	338.62
308.651	331.62
308.881	318.62
309.111	330.62
309.341	320.62
309.571	344.62
309.8	378.62
310.03	374.62
310.26	401.62
310.49	377.62
310.72	390.62
310.949	434.62
311.179	411.62
311.409	394.62
311.639	382.62
311.868	389.62
312.098	396.62
312.328	381.62
312.557	413.62
312.787	424.62
313.017	426.62
313.246	381.62
313.476	378.62
313.706	377.62
313.935	396.62
314.165	405.62
314.394	406.62
314.624	422.62
314.853	402.62
315.083	390.62
315.312	370.62
315.542	390.62
315.771	366.62
316.001	386.62
316.23	379.62
316.46	364.62
316.689	390.62
316.919	388.62
317.148	405.62
317.377	404.62
317.607	398.62
317.836	384.62
318.065	378.62
318.295	370.62
318.524	375.62
318.753	365.62
318.983	386.62
319.212	392.62
319.441	395.62
319.67	413.62
319.9	399.62
320.129	381.62
320.358	387.62
320.587	395.62
320.816	395.62
321.046	409.62
321.275	401.62
321.504	397.62
321.733	427.62
321.962	416.62
322.191	442.62
322.42	445.62
322.649	470.62
322.878	483.62
323.108	494.62
323.337	540.62
323.566	562.62
323.795	593.62
324.024	666.62
324.253	814.62
324.482	1205.62
324.71	1890.62
324.939	2791.62
325.168	2420.62
325.397	1233.62
325.626	806.62
325.855	632.62
326.084	594.62
326.313	557.62
326.542	584.62
326.77	639.62
326.999	750.62
327.228	1026.62
327.457	1670.62
327.686	2052.62
327.914	1383.62
328.143	902.62
328.372	760.62
328.6	694.62
328.829	646.62
329.058	654.62
329.287	687.62
329.515	630.62
329.744	554.62
329.972	557.62
330.201	591.62
330.43	655.62
330.658	656.62
330.887	698.62
331.115	658.62
331.344	578.62
331.572	524.62
331.801	525.62
332.03	503.62
332.258	504.62
332.486	451.62
332.715	470.62
332.943	466.62
333.172	459.62
333.4	469.62
333.629	455.62
333.857	491.62
334.085	500.62
334.314	532.62
334.542	586.62
334.771	580.62
334.999	497.62
335.227	491.62
335.455	462.62
335.684	442.62
335.912	437.62
336.14	446.62
336.369	440.62
336.597	437.62
336.825	442.62
337.053	426.62
337.281	403.62
337.51	440.62
337.738	423.62
337.966	435.62
338.194	455.62
338.422	444.62
338.65	418.62
338.878	407.62
339.106	426.62
339.334	407.62
339.562	427.62
339.79	399.62
340.018	415.62
340.246	425.62
340.474	422.62
340.702	418.62
340.93	419.62
341.158	414.62
341.386	430.62
341.614	412.62
341.842	440.62
342.07	417.62
342.298	418.62
342.526	425.62
342.754	413.62
342.981	426.62
343.209	395.62
343.437	402.62
343.665	396.62
343.893	397.62
344.12	376.62
344.348	394.62
344.576	416.62
344.804	420.62
345.031	430.62
345.259	439.62
345.487	450.62
345.714	436.62
345.942	412.62
346.17	408.62
346.397	412.62
346.625	411.62
346.853	420.62
347.08	393.62
347.308	402.62
347.535	424.62
347.763	413.62
347.99	412.62
348.218	425.62
348.445	429.62
348.673	424.62
348.9	408.62
349.128	404.62
349.355	386.62
349.583	396.62
349.81	390.62
350.037	383.62
350.265	382.62
350.492	384.62
350.72	383.62
350.947	411.62
351.174	424.62
351.402	411.62
351.629	411.62
351.856	424.62
352.083	419.62
352.311	438.62
352.538	434.62
352.765	418.62
352.992	419.62
353.22	399.62
353.447	407.62
353.674	394.62
353.901	384.62
354.128	373.62
354.355	377.62
354.583	342.62
354.81	365.62
355.037	371.62
355.264	366.62
355.491	365.62
355.718	357.62
355.945	335.62
356.172	347.62
356.399	370.62
356.626	355.62
356.853	350.62
357.08	362.62
357.307	357.62
357.534	363.62
357.761	356.62
357.988	364.62
358.215	382.62
358.441	363.62
358.668	368.62
358.895	362.62
359.122	370.62
359.349	363.62
359.576	402.62
359.802	416.62
360.029	461.62
360.256	482.62
360.483	450.62
360.709	415.62
360.936	406.62
361.163	398.62
361.39	407.62
361.616	414.62
361.843	396.62
362.07	416.62
362.296	408.62
362.523	414.62
362.749	406.62
362.976	390.62
363.203	385.62
363.429	378.62
363.656	379.62
363.882	369.62
364.109	383.62
364.335	380.62
364.562	378.62
364.788	385.62
365.015	398.62
365.241	377.62
365.468	382.62
365.694	388.62
365.92	395.62
366.147	371.62
366.373	354.62
366.599	365.62
366.826	364.62
367.052	378.62
367.278	378.62
367.505	361.62
367.731	362.62
367.957	366.62
368.184	364.62
368.41	376.62
368.636	393.62
368.862	390.62
369.089	382.62
369.315	373.62
369.541	383.62
369.767	367.62
369.993	362.62
370.219	366.62
370.445	368.62
370.672	372.62
370.898	353.62
371.124	363.62
371.35	367.62
371.576	345.62
371.802	349.62
372.028	366.62
372.254	350.62
372.48	380.62
372.706	356.62
372.932	349.62
373.158	356.62
373.384	380.62
373.61	372.62
373.835	357.62
374.061	356.62
374.287	371.62
374.513	380.62
374.739	383.62
374.965	354.62
375.191	360.62
375.416	356.62
375.642	362.62
375.868	366.62
376.094	384.62
376.319	361.62
376.545	366.62
376.771	355.62
376.997	339.62
377.222	340.62
377.448	366.62
377.674	340.62
377.899	337.62
378.125	351.62
378.35	363.62
378.576	351.62
378.802	362.62
379.027	366.62
379.253	374.62
379.478	363.62
379.704	362.62
379.929	367.62
380.155	348.62
380.38	369.62
380.606	351.62
380.831	377.62
381.057	380.62
381.282	374.62
381.507	362.62
381.733	365.62
381.958	374.62
382.184	333.62
382.409	362.62
382.634	360.62
382.86	349.62
383.085	346.62
383.31	359.62
383.535	366.62
383.761	363.62
383.986	347.62
384.211	358.62
384.436	364.62
384.662	368.62
384.887	389.62
385.112	388.62
385.337	381.62
385.562	372.62
385.787	371.62
386.013	383.62
386.238	398.62
386.463	380.62
386.688	379.62
386.913	388.62
387.138	363.62
387.363	365.62
387.588	370.62
387.813	380.62
388.038	396.62
388.263	378.62
388.488	396.62
388.713	378.62
388.938	371.62
389.163	374.62
389.387	377.62
389.612	368.62
389.837	390.62
390.062	374.62
390.287	382.62
390.512	388.62
390.736	382.62
390.961	364.62
391.186	358.62
391.411	361.62
391.636	377.62
391.86	376.62
392.085	398.62
392.31	386.62
392.534	372.62
392.759	392.62
392.984	388.62
393.208	374.62
393.433	387.62
393.658	374.62
393.882	388.62
394.107	377.62
394.331	364.62
394.556	389.62
394.78	368.62
395.005	376.62
395.229	360.62
395.454	392.62
395.678	396.62
395.903	409.62
396.127	440.62
396.352	428.62
396.576	383.62
396.801	401.62
397.025	420.62
397.249	388.62
397.474	399.62
397.698	412.62
397.922	415.62
398.147	408.62
398.371	437.62
398.595	431.62
398.82	420.62
399.044	416.62
399.268	458.62
399.492	432.62
399.717	464.62
399.941	477.62
400.165	526.62
400.389	539.62
400.613	487.62
400.837	449.62
401.062	446.62
401.286	437.62
401.51	440.62
401.734	438.62
401.958	421.62
402.182	458.62
402.406	466.62
402.63	448.62
402.854	446.62
403.078	453.62
403.302	426.62
403.526	470.62
403.75	440.62
403.974	461.62
404.198	413.62
404.422	456.62
404.645	464.62
404.869	450.62
405.093	485.62
405.317	540.62
405.541	570.62
405.765	503.62
405.988	471.62
406.212	484.62
406.436	523.62
406.66	521.62
406.883	491.62
407.107	521.62
407.331	558.62
407.555	615.62
407.778	621.62
408.002	563.62
408.226	519.62
408.449	498.62
408.673	511.62
408.896	542.62
409.12	572.62
409.344	536.62
409.567	469.62
409.791	474.62
410.014	471.62
410.238	456.62
410.461	445.62
410.685	478.62
410.908	487.62
411.132	512.62
411.355	548.62
411.578	504.62
411.802	460.62
412.025	458.62
412.249	452.62
412.472	490.62
412.695	520.62
412.919	518.62
413.142	462.62
413.365	437.62
413.589	456.62
413.812	414.62
414.035	441.62
414.258	424.62
414.482	442.62
414.705	431.62
414.928	431.62
415.151	416.62
415.374	423.62
415.597	415.62
415.821	426.62
416.044	428.62
416.267	430.62
416.49	424.62
416.713	432.62
416.936	429.62
417.159	403.62
417.382	430.62
417.605	450.62
417.828	437.62
418.051	455.62
418.274	446.62
418.497	434.62
418.72	418.62
418.943	422.62
419.166	430.62
419.389	447.62
419.611	429.62
419.834	447.62
420.057	451.62
420.28	457.62
420.503	460.62
420.726	453.62
420.948	476.62
421.171	522.62
421.394	541.62
421.617	467.62
421.839	465.62
422.062	451.62
422.285	467.62
422.507	537.62
422.73	620.62
422.953	590.62
423.175	516.62
423.398	467.62
423.621	499.62
423.843	484.62
424.066	498.62
424.288	503.62
424.511	534.62
424.733	593.62
424.956	683.62
425.178	634.62
425.401	632.62
425.623	667.62
425.846	560.62
426.068	510.62
426.291	507.62
426.513	522.62
426.735	524.62
426.958	568.62
427.18	676.62
427.402	806.62
427.625	892.62
427.847	792.62
428.069	657.62
428.292	582.62
428.514	521.62
428.736	494.62
428.958	495.62
429.181	460.62
429.403	463.62
429.625	488.62
429.847	534.62
430.069	576.62
430.292	593.62
430.514	501.62
430.736	469.62
430.958	478.62
431.18	441.62
431.402	418.62
431.624	409.62
431.846	427.62
432.068	426.62
432.29	422.62
432.512	436.62
432.734	421.62
432.956	448.62
433.178	466.62
433.4	476.62
433.622	448.62
433.844	422.62
434.066	446.62
434.287	444.62
434.509	444.62
434.731	436.62
434.953	451.62
435.175	444.62
435.397	493.62
435.618	498.62
435.84	547.62
436.062	664.62
436.284	728.62
436.505	612.62
436.727	551.62
436.949	481.62
437.17	476.62
437.392	471.62
437.614	493.62
437.835	536.62
438.057	659.62
438.278	765.62
438.5	730.62
438.721	822.62
438.943	758.62
439.165	599.62
439.386	540.62
439.608	542.62
439.829	534.62
440.05	573.62
440.272	636.62
440.493	598.62
440.715	536.62
440.936	494.62
441.158	494.62
441.379	476.62
441.6	486.62
441.822	524.62
442.043	556.62
442.264	639.62
442.486	706.62
442.707	591.62
442.928	550.62
443.149	541.62
443.371	574.62
443.592	597.62
443.813	699.62
444.034	752.62
444.255	606.62
444.476	539.62
444.698	515.62
444.919	516.62
445.14	590.62
445.361	563.62
445.582	581.62
445.803	645.62
446.024	767.62
446.245	749.62
446.466	694.62
446.687	571.62
446.908	517.62
447.129	500.62
447.35	479.62
447.571	474.62
447.792	484.62
448.013	482.62
448.234	494.62
448.455	573.62
448.675	669.62
448.896	780.62
449.117	664.62
449.338	619.62
449.559	719.62
449.779	859.62
450	679.62
450.221	542.62
450.442	504.62
450.662	484.62
450.883	483.62
451.104	531.62
451.324	500.62
451.545	468.62
451.766	455.62
451.986	452.62
452.207	420.62
452.428	404.62
452.648	426.62
452.869	450.62
453.089	431.62
453.31	456.62
453.53	436.62
453.751	425.62
453.971	452.62
454.192	468.62
454.412	452.62
454.633	412.62
454.853	427.62
455.073	421.62
455.294	461.62
455.514	535.62
455.734	511.62
455.955	430.62
456.175	402.62
456.395	407.62
456.616	390.62
456.836	380.62
457.056	393.62
457.276	397.62
457.497	398.62
457.717	373.62
457.937	394.62
458.157	401.62
458.377	422.62
458.598	444.62
458.818	508.62
459.038	592.62
459.258	626.62
459.478	505.62
459.698	465.62
459.918	429.62
460.138	440.62
460.358	445.62
460.578	426.62
460.798	429.62
461.018	434.62
461.238	416.62
461.458	426.62
461.678	421.62
461.898	414.62
462.118	420.62
462.338	431.62
462.558	434.62
462.777	431.62
462.997	457.62
463.217	445.62
463.437	431.62
463.657	426.62
463.876	452.62
464.096	451.62
464.316	448.62
464.536	472.62
464.755	462.62
464.975	478.62
465.195	539.62
465.414	621.62
465.634	531.62
465.854	478.62
466.073	456.62
466.293	439.62
466.512	416.62
466.732	420.62
466.951	442.62
467.171	433.62
467.391	434.62
467.61	440.62
467.829	455.62
468.049	452.62
468.268	431.62
468.488	419.62
468.707	420.62
468.927	421.62
469.146	404.62
469.365	410.62
469.585	424.62
469.804	408.62
470.023	426.62
470.243	440.62
470.462	436.62
470.681	456.62
470.901	459.62
471.12	418.62
471.339	426.62
471.558	441.62
471.777	454.62
471.997	431.62
472.216	427.62
472.435	494.62
472.654	498.62
472.873	444.62
473.092	422.62
473.311	436.62
473.53	442.62
473.749	449.62
473.968	486.62
474.187	632.62
474.406	630.62
474.625	511.62
474.844	460.62
475.063	422.62
475.282	440.62
475.501	431.62
475.72	436.62
475.939	428.62
476.158	453.62
476.377	429.62
476.596	427.62
476.814	452.62
477.033	461.62
477.252	446.62
477.471	441.62
477.69	481.62
477.908	468.62
478.127	450.62
478.346	459.62
478.564	484.62
478.783	444.62
479.002	467.62
479.22	493.62
479.439	515.62
479.658	515.62
479.876	501.62
480.095	495.62
480.313	544.62
480.532	520.62
480.751	514.62
480.969	542.62
481.188	621.62
481.406	686.62
481.624	586.62
481.843	553.62
482.061	543.62
482.28	535.62
482.498	511.62
482.717	483.62
482.935	512.62
483.153	527.62
483.372	521.62
483.59	515.62
483.808	496.62
484.027	507.62
484.245	518.62
484.463	515.62
484.681	503.62
484.9	524.62
485.118	532.62
485.336	531.62
485.554	486.62
485.772	502.62
485.99	527.62
486.209	527.62
486.427	541.62
486.645	563.62
486.863	572.62
487.081	563.62
487.299	559.62
487.517	530.62
487.735	566.62
487.953	559.62
488.171	547.62
488.389	568.62
488.607	555.62
488.825	572.62
489.043	539.62
489.261	545.62
489.479	566.62
489.696	566.62
489.914	540.62
490.132	577.62
490.35	559.62
490.568	573.62
490.786	558.62
491.003	602.62
491.221	601.62
491.439	608.62
491.657	614.62
491.874	653.62
492.092	612.62
492.31	628.62
492.527	631.62
492.745	640.62
492.963	651.62
493.18	660.62
493.398	620.62
493.615	629.62
493.833	654.62
494.05	662.62
494.268	652.62
494.485	636.62
494.703	649.62
494.92	642.62
495.138	643.62
495.355	628.62
495.573	651.62
495.79	638.62
496.008	663.62
496.225	641.62
496.442	637.62
496.66	648.62
496.877	639.62
497.094	632.62
497.312	658.62
497.529	664.62
497.746	700.62
497.963	697.62
498.181	694.62
498.398	701.62
498.615	703.62
498.832	710.62
499.049	690.62
499.267	722.62
499.484	729.62
499.701	731.62
499.918	746.62
500.135	760.62
500.352	801.62
500.569	784.62
500.786	820.62
501.003	794.62
501.22	792.62
501.437	767.62
501.654	775.62
501.871	767.62
