Data from 1972.PennyLincolnUp.Lamp.En5.5.200Scan.071719.P1._HRD10591_15-27-51-843.txt Node
Date: Thu Jul 18 15:27:51 EDT 2019
User: cochatt
Spectrometer: HR+D1059
Trigger mode: 1
Integration Time (sec): 1.000000E-1
Scans to average: 1
Electric dark correction enabled: true
Nonlinearity correction enabled: false
Boxcar width: 0
XAxis mode: Wavelengths
Number of Pixels in Spectrum: 2048
>>>>>Begin Spectral Data<<<<<
223.165	-18.06
223.4	-18.06
223.635	-18.06
223.869	-20.06
224.104	-13.06
224.338	-13.06
224.573	-15.06
224.808	-17.06
225.042	-8.06
225.277	-6.06
225.511	3.94
225.746	-1.06
225.98	11.94
226.215	6.94
226.449	11.94
226.683	19.94
226.918	28.94
227.152	27.94
227.387	24.94
227.621	35.94
227.856	35.94
228.09	50.94
228.324	43.94
228.559	56.94
228.793	64.94
229.027	83.94
229.262	101.94
229.496	105.94
229.73	137.94
229.964	152.94
230.199	137.94
230.433	118.94
230.667	94.94
230.901	120.94
231.136	104.94
231.37	119.94
231.604	119.94
231.838	111.94
232.072	115.94
232.306	118.94
232.541	113.94
232.775	101.94
233.009	100.94
233.243	104.94
233.477	108.94
233.711	97.94
233.945	103.94
234.179	105.94
234.413	111.94
234.647	101.94
234.881	117.94
235.115	100.94
235.349	114.94
235.583	119.94
235.817	105.94
236.051	120.94
236.285	126.94
236.519	135.94
236.753	122.94
236.987	147.94
237.221	186.94
237.455	232.94
237.689	177.94
237.922	152.94
238.156	150.94
238.39	140.94
238.624	132.94
238.858	135.94
239.091	126.94
239.325	130.94
239.559	127.94
239.793	127.94
240.027	130.94
240.26	128.94
240.494	151.94
240.728	140.94
240.961	160.94
241.195	148.94
241.429	146.94
241.662	138.94
241.896	131.94
242.13	121.94
242.363	124.94
242.597	136.94
242.83	156.94
243.064	137.94
243.298	136.94
243.531	134.94
243.765	137.94
243.998	126.94
244.232	123.94
244.465	140.94
244.699	143.94
244.932	128.94
245.166	138.94
245.399	146.94
245.633	140.94
245.866	170.94
246.099	131.94
246.333	130.94
246.566	143.94
246.8	140.94
247.033	150.94
247.266	154.94
247.5	161.94
247.733	166.94
247.966	164.94
248.2	172.94
248.433	165.94
248.666	158.94
248.899	176.94
249.133	218.94
249.366	204.94
249.599	191.94
249.832	185.94
250.066	176.94
250.299	190.94
250.532	194.94
250.765	185.94
250.998	226.94
251.231	227.94
251.465	207.94
251.698	202.94
251.931	194.94
252.164	190.94
252.397	198.94
252.63	214.94
252.863	217.94
253.096	216.94
253.329	228.94
253.562	212.94
253.795	210.94
254.028	222.94
254.261	223.94
254.494	224.94
254.727	273.94
254.96	276.94
255.193	290.94
255.426	264.94
255.659	246.94
255.892	252.94
256.124	240.94
256.357	243.94
256.59	235.94
256.823	226.94
257.056	206.94
257.289	208.94
257.521	206.94
257.754	209.94
257.987	215.94
258.22	198.94
258.452	195.94
258.685	209.94
258.918	194.94
259.151	214.94
259.383	209.94
259.616	209.94
259.849	220.94
260.081	235.94
260.314	253.94
260.547	264.94
260.779	246.94
261.012	246.94
261.244	209.94
261.477	219.94
261.71	206.94
261.942	230.94
262.175	243.94
262.407	244.94
262.64	232.94
262.872	208.94
263.105	223.94
263.337	219.94
263.57	217.94
263.802	220.94
264.035	215.94
264.267	211.94
264.499	198.94
264.732	223.94
264.964	213.94
265.197	211.94
265.429	207.94
265.661	219.94
265.894	191.94
266.126	203.94
266.358	219.94
266.591	217.94
266.823	212.94
267.055	222.94
267.287	221.94
267.52	202.94
267.752	213.94
267.984	212.94
268.216	212.94
268.448	243.94
268.681	245.94
268.913	229.94
269.145	275.94
269.377	269.94
269.609	270.94
269.841	267.94
270.073	257.94
270.306	277.94
270.538	305.94
270.77	306.94
271.002	315.94
271.234	292.94
271.466	315.94
271.698	306.94
271.93	320.94
272.162	320.94
272.394	332.94
272.626	318.94
272.858	303.94
273.09	277.94
273.322	280.94
273.553	270.94
273.785	262.94
274.017	254.94
274.249	272.94
274.481	267.94
274.713	259.94
274.945	273.94
275.176	262.94
275.408	260.94
275.64	266.94
275.872	258.94
276.104	270.94
276.335	281.94
276.567	265.94
276.799	293.94
277.031	313.94
277.262	302.94
277.494	316.94
277.726	308.94
277.957	287.94
278.189	269.94
278.421	282.94
278.652	272.94
278.884	283.94
279.115	267.94
279.347	254.94
279.579	266.94
279.81	244.94
280.042	262.94
280.273	246.94
280.505	272.94
280.736	246.94
280.968	232.94
281.199	249.94
281.431	258.94
281.662	266.94
281.894	258.94
282.125	265.94
282.356	280.94
282.588	304.94
282.819	294.94
283.051	263.94
283.282	254.94
283.513	260.94
283.745	266.94
283.976	268.94
284.207	268.94
284.439	281.94
284.67	264.94
284.901	262.94
285.132	250.94
285.364	250.94
285.595	255.94
285.826	266.94
286.057	247.94
286.288	271.94
286.52	230.94
286.751	252.94
286.982	258.94
287.213	255.94
287.444	254.94
287.675	282.94
287.906	277.94
288.138	277.94
288.369	303.94
288.6	289.94
288.831	281.94
289.062	293.94
289.293	266.94
289.524	260.94
289.755	268.94
289.986	297.94
290.217	277.94
290.448	276.94
290.679	287.94
290.91	266.94
291.141	265.94
291.371	268.94
291.602	278.94
291.833	275.94
292.064	279.94
292.295	280.94
292.526	273.94
292.757	252.94
292.987	266.94
293.218	269.94
293.449	274.94
293.68	278.94
293.91	268.94
294.141	269.94
294.372	276.94
294.603	288.94
294.833	263.94
295.064	280.94
295.295	256.94
295.525	287.94
295.756	299.94
295.987	285.94
296.217	283.94
296.448	312.94
296.679	288.94
296.909	272.94
297.14	302.94
297.37	261.94
297.601	281.94
297.831	277.94
298.062	264.94
298.292	275.94
298.523	294.94
298.753	288.94
298.984	281.94
299.214	271.94
299.445	261.94
299.675	292.94
299.905	312.94
300.136	312.94
300.366	296.94
300.597	294.94
300.827	282.94
301.057	299.94
301.288	312.94
301.518	304.94
301.748	309.94
301.979	288.94
302.209	298.94
302.439	287.94
302.669	312.94
302.9	308.94
303.13	306.94
303.36	305.94
303.59	313.94
303.82	327.94
304.051	307.94
304.281	298.94
304.511	300.94
304.741	314.94
304.971	308.94
305.201	302.94
305.431	316.94
305.661	304.94
305.891	298.94
306.121	318.94
306.352	311.94
306.582	296.94
306.812	325.94
307.042	295.94
307.272	315.94
307.502	315.94
307.731	326.94
307.961	314.94
308.191	315.94
308.421	302.94
308.651	318.94
308.881	315.94
309.111	329.94
309.341	319.94
309.571	331.94
309.8	357.94
310.03	362.94
310.26	355.94
310.49	337.94
310.72	360.94
310.949	391.94
311.179	376.94
311.409	371.94
311.639	352.94
311.868	368.94
312.098	359.94
312.328	373.94
312.557	376.94
312.787	425.94
313.017	402.94
313.246	360.94
313.476	359.94
313.706	368.94
313.935	356.94
314.165	365.94
314.394	368.94
314.624	386.94
314.853	385.94
315.083	366.94
315.312	359.94
315.542	358.94
315.771	350.94
316.001	353.94
316.23	334.94
316.46	354.94
316.689	365.94
316.919	363.94
317.148	371.94
317.377	376.94
317.607	378.94
317.836	378.94
318.065	342.94
318.295	358.94
318.524	361.94
318.753	370.94
318.983	349.94
319.212	357.94
319.441	374.94
319.67	370.94
319.9	371.94
320.129	359.94
320.358	374.94
320.587	358.94
320.816	385.94
321.046	394.94
321.275	376.94
321.504	405.94
321.733	390.94
321.962	418.94
322.191	404.94
322.42	436.94
322.649	443.94
322.878	461.94
323.108	470.94
323.337	501.94
323.566	515.94
323.795	570.94
324.024	613.94
324.253	778.94
324.482	1107.94
324.71	1723.94
324.939	2568.94
325.168	2281.94
325.397	1127.94
325.626	717.94
325.855	584.94
326.084	549.94
326.313	517.94
326.542	534.94
326.77	563.94
326.999	684.94
327.228	987.94
327.457	1577.94
327.686	1880.94
327.914	1264.94
328.143	811.94
328.372	665.94
328.6	633.94
328.829	587.94
329.058	628.94
329.287	595.94
329.515	574.94
329.744	536.94
329.972	529.94
330.201	512.94
330.43	618.94
330.658	616.94
330.887	652.94
331.115	635.94
331.344	527.94
331.572	488.94
331.801	489.94
332.03	468.94
332.258	459.94
332.486	435.94
332.715	426.94
332.943	422.94
333.172	430.94
333.4	434.94
333.629	438.94
333.857	449.94
334.085	474.94
334.314	478.94
334.542	516.94
334.771	543.94
334.999	488.94
335.227	455.94
335.455	425.94
335.684	413.94
335.912	406.94
336.14	403.94
336.369	421.94
336.597	436.94
336.825	417.94
337.053	407.94
337.281	402.94
337.51	415.94
337.738	407.94
337.966	403.94
338.194	418.94
338.422	415.94
338.65	417.94
338.878	403.94
339.106	406.94
339.334	401.94
339.562	408.94
339.79	405.94
340.018	401.94
340.246	400.94
340.474	419.94
340.702	395.94
340.93	411.94
341.158	398.94
341.386	394.94
341.614	392.94
341.842	391.94
342.07	422.94
342.298	392.94
342.526	374.94
342.754	384.94
342.981	373.94
343.209	375.94
343.437	375.94
343.665	378.94
343.893	385.94
344.12	394.94
344.348	386.94
344.576	405.94
344.804	402.94
345.031	411.94
345.259	415.94
345.487	400.94
345.714	396.94
345.942	396.94
346.17	385.94
346.397	383.94
346.625	361.94
346.853	394.94
347.08	386.94
347.308	402.94
347.535	407.94
347.763	418.94
347.99	408.94
348.218	387.94
348.445	417.94
348.673	402.94
348.9	400.94
349.128	377.94
349.355	361.94
349.583	370.94
349.81	365.94
350.037	377.94
350.265	374.94
350.492	367.94
350.72	369.94
350.947	385.94
351.174	394.94
351.402	412.94
351.629	387.94
351.856	401.94
352.083	401.94
352.311	390.94
352.538	422.94
352.765	407.94
352.992	411.94
353.22	374.94
353.447	385.94
353.674	381.94
353.901	384.94
354.128	383.94
354.355	358.94
354.583	368.94
354.81	355.94
355.037	352.94
355.264	357.94
355.491	367.94
355.718	354.94
355.945	357.94
356.172	326.94
356.399	349.94
356.626	351.94
356.853	353.94
357.08	358.94
357.307	343.94
357.534	353.94
357.761	353.94
357.988	359.94
358.215	355.94
358.441	350.94
358.668	353.94
358.895	345.94
359.122	352.94
359.349	373.94
359.576	394.94
359.802	414.94
360.029	434.94
360.256	479.94
360.483	429.94
360.709	408.94
360.936	386.94
361.163	360.94
361.39	387.94
361.616	394.94
361.843	383.94
362.07	390.94
362.296	386.94
362.523	390.94
362.749	383.94
362.976	362.94
363.203	392.94
363.429	356.94
363.656	362.94
363.882	384.94
364.109	364.94
364.335	377.94
364.562	361.94
364.788	360.94
365.015	372.94
365.241	361.94
365.468	350.94
365.694	377.94
365.92	390.94
366.147	378.94
366.373	367.94
366.599	372.94
366.826	366.94
367.052	366.94
367.278	352.94
367.505	360.94
367.731	350.94
367.957	349.94
368.184	370.94
368.41	374.94
368.636	376.94
368.862	379.94
369.089	375.94
369.315	347.94
369.541	366.94
369.767	370.94
369.993	364.94
370.219	388.94
370.445	337.94
370.672	355.94
370.898	350.94
371.124	353.94
371.35	352.94
371.576	336.94
371.802	365.94
372.028	343.94
372.254	336.94
372.48	334.94
372.706	347.94
372.932	363.94
373.158	352.94
373.384	363.94
373.61	357.94
373.835	361.94
374.061	335.94
374.287	357.94
374.513	362.94
374.739	353.94
374.965	360.94
375.191	347.94
375.416	346.94
375.642	347.94
375.868	361.94
376.094	354.94
376.319	364.94
376.545	333.94
376.771	357.94
376.997	368.94
377.222	343.94
377.448	356.94
377.674	349.94
377.899	344.94
378.125	336.94
378.35	361.94
378.576	344.94
378.802	338.94
379.027	356.94
379.253	351.94
379.478	340.94
379.704	351.94
379.929	340.94
380.155	360.94
380.38	358.94
380.606	358.94
380.831	357.94
381.057	356.94
381.282	350.94
381.507	356.94
381.733	347.94
381.958	338.94
382.184	368.94
382.409	359.94
382.634	366.94
382.86	356.94
383.085	345.94
383.31	355.94
383.535	352.94
383.761	332.94
383.986	359.94
384.211	357.94
384.436	355.94
384.662	359.94
384.887	358.94
385.112	357.94
385.337	384.94
385.562	356.94
385.787	361.94
386.013	379.94
386.238	392.94
386.463	382.94
386.688	395.94
386.913	378.94
387.138	355.94
387.363	369.94
387.588	368.94
387.813	379.94
388.038	354.94
388.263	376.94
388.488	370.94
388.713	384.94
388.938	384.94
389.163	373.94
389.387	362.94
389.612	376.94
389.837	362.94
390.062	376.94
390.287	359.94
390.512	345.94
390.736	364.94
390.961	369.94
391.186	356.94
391.411	373.94
391.636	374.94
391.86	376.94
392.085	382.94
392.31	373.94
392.534	359.94
392.759	382.94
392.984	385.94
393.208	395.94
393.433	371.94
393.658	374.94
393.882	362.94
394.107	362.94
394.331	385.94
394.556	369.94
394.78	354.94
395.005	381.94
395.229	380.94
395.454	373.94
395.678	402.94
395.903	373.94
396.127	410.94
396.352	420.94
396.576	401.94
396.801	401.94
397.025	410.94
397.249	387.94
397.474	390.94
397.698	392.94
397.922	425.94
398.147	428.94
398.371	418.94
398.595	396.94
398.82	400.94
399.044	423.94
399.268	414.94
399.492	440.94
399.717	461.94
399.941	473.94
400.165	520.94
400.389	545.94
400.613	494.94
400.837	442.94
401.062	423.94
401.286	442.94
401.51	418.94
401.734	410.94
401.958	454.94
402.182	442.94
402.406	435.94
402.63	442.94
402.854	441.94
403.078	426.94
403.302	416.94
403.526	433.94
403.75	448.94
403.974	417.94
404.198	433.94
404.422	443.94
404.645	449.94
404.869	451.94
405.093	460.94
405.317	511.94
405.541	569.94
405.765	524.94
405.988	468.94
406.212	488.94
406.436	520.94
406.66	532.94
406.883	481.94
407.107	500.94
407.331	547.94
407.555	604.94
407.778	617.94
408.002	553.94
408.226	495.94
408.449	505.94
408.673	501.94
408.896	533.94
409.12	568.94
409.344	535.94
409.567	474.94
409.791	467.94
410.014	449.94
410.238	430.94
410.461	440.94
410.685	437.94
410.908	458.94
411.132	510.94
411.355	534.94
411.578	503.94
411.802	463.94
412.025	426.94
412.249	454.94
412.472	493.94
412.695	520.94
412.919	519.94
413.142	437.94
413.365	452.94
413.589	432.94
413.812	427.94
414.035	440.94
414.258	417.94
414.482	406.94
414.705	404.94
414.928	415.94
415.151	408.94
415.374	418.94
415.597	403.94
415.821	418.94
416.044	407.94
416.267	438.94
416.49	406.94
416.713	433.94
416.936	400.94
417.159	427.94
417.382	418.94
417.605	425.94
417.828	442.94
418.051	449.94
418.274	442.94
418.497	404.94
418.72	418.94
418.943	415.94
419.166	424.94
419.389	446.94
419.611	453.94
419.834	434.94
420.057	451.94
420.28	462.94
420.503	462.94
420.726	438.94
420.948	459.94
421.171	508.94
421.394	548.94
421.617	482.94
421.839	452.94
422.062	454.94
422.285	473.94
422.507	514.94
422.73	569.94
422.953	555.94
423.175	496.94
423.398	464.94
423.621	492.94
423.843	473.94
424.066	500.94
424.288	495.94
424.511	514.94
424.733	567.94
424.956	640.94
425.178	612.94
425.401	599.94
425.623	638.94
425.846	528.94
426.068	512.94
426.291	510.94
426.513	491.94
426.735	507.94
426.958	549.94
427.18	626.94
427.402	751.94
427.625	846.94
427.847	754.94
428.069	630.94
428.292	574.94
428.514	521.94
428.736	488.94
428.958	484.94
429.181	471.94
429.403	447.94
429.625	479.94
429.847	494.94
430.069	577.94
430.292	551.94
430.514	467.94
430.736	462.94
430.958	447.94
431.18	408.94
431.402	424.94
431.624	410.94
431.846	424.94
432.068	416.94
432.29	419.94
432.512	412.94
432.734	436.94
432.956	411.94
433.178	451.94
433.4	437.94
433.622	411.94
433.844	423.94
434.066	419.94
434.287	397.94
434.509	404.94
434.731	433.94
434.953	408.94
435.175	447.94
435.397	481.94
435.618	486.94
435.84	550.94
436.062	631.94
436.284	706.94
436.505	576.94
436.727	517.94
436.949	476.94
437.17	459.94
437.392	456.94
437.614	463.94
437.835	513.94
438.057	621.94
438.278	750.94
438.5	720.94
438.721	800.94
438.943	734.94
439.165	591.94
439.386	521.94
439.608	532.94
439.829	502.94
440.05	556.94
440.272	585.94
440.493	541.94
440.715	496.94
440.936	486.94
441.158	442.94
441.379	449.94
441.6	482.94
441.822	517.94
442.043	521.94
442.264	606.94
442.486	655.94
442.707	559.94
442.928	515.94
443.149	522.94
443.371	531.94
443.592	585.94
443.813	670.94
444.034	724.94
444.255	615.94
444.476	526.94
444.698	482.94
444.919	482.94
445.14	587.94
445.361	554.94
445.582	547.94
445.803	608.94
446.024	734.94
446.245	738.94
446.466	663.94
446.687	576.94
446.908	514.94
447.129	494.94
447.35	476.94
447.571	459.94
447.792	457.94
448.013	459.94
448.234	515.94
448.455	545.94
448.675	640.94
448.896	763.94
449.117	625.94
449.338	571.94
449.559	699.94
449.779	796.94
450	646.94
450.221	542.94
450.442	483.94
450.662	462.94
450.883	478.94
451.104	500.94
451.324	476.94
451.545	434.94
451.766	432.94
451.986	408.94
452.207	436.94
452.428	410.94
452.648	421.94
452.869	407.94
453.089	425.94
453.31	441.94
453.53	421.94
453.751	400.94
453.971	407.94
454.192	440.94
454.412	433.94
454.633	423.94
454.853	409.94
455.073	403.94
455.294	449.94
455.514	526.94
455.734	496.94
455.955	422.94
456.175	397.94
456.395	373.94
456.616	388.94
456.836	390.94
457.056	375.94
457.276	378.94
457.497	359.94
457.717	362.94
457.937	386.94
458.157	399.94
458.377	386.94
458.598	430.94
458.818	482.94
459.038	569.94
459.258	610.94
459.478	469.94
459.698	451.94
459.918	426.94
460.138	407.94
460.358	418.94
460.578	426.94
460.798	408.94
461.018	416.94
461.238	440.94
461.458	432.94
461.678	408.94
461.898	438.94
462.118	420.94
462.338	417.94
462.558	418.94
462.777	422.94
462.997	442.94
463.217	433.94
463.437	438.94
463.657	442.94
463.876	435.94
464.096	442.94
464.316	426.94
464.536	437.94
464.755	454.94
464.975	450.94
465.195	506.94
465.414	610.94
465.634	516.94
465.854	490.94
466.073	440.94
466.293	441.94
466.512	440.94
466.732	402.94
466.951	409.94
467.171	407.94
467.391	421.94
467.61	424.94
467.829	439.94
468.049	432.94
468.268	426.94
468.488	384.94
468.707	406.94
468.927	404.94
469.146	390.94
469.365	390.94
469.585	385.94
469.804	417.94
470.023	443.94
470.243	436.94
470.462	424.94
470.681	446.94
470.901	430.94
471.12	416.94
471.339	412.94
471.558	447.94
471.777	428.94
471.997	410.94
472.216	417.94
472.435	479.94
472.654	463.94
472.873	431.94
473.092	418.94
473.311	422.94
473.53	421.94
473.749	445.94
473.968	476.94
474.187	602.94
474.406	638.94
474.625	498.94
474.844	440.94
475.063	435.94
475.282	426.94
475.501	432.94
475.72	431.94
475.939	441.94
476.158	418.94
476.377	416.94
476.596	417.94
476.814	444.94
477.033	438.94
477.252	455.94
477.471	446.94
477.69	435.94
477.908	463.94
478.127	462.94
478.346	459.94
478.564	472.94
478.783	444.94
479.002	466.94
479.22	478.94
479.439	488.94
479.658	501.94
479.876	511.94
480.095	521.94
480.313	524.94
480.532	520.94
480.751	510.94
480.969	527.94
481.188	608.94
481.406	642.94
481.624	572.94
481.843	515.94
482.061	485.94
482.28	491.94
482.498	508.94
482.717	481.94
482.935	482.94
483.153	500.94
483.372	502.94
483.59	503.94
483.808	494.94
484.027	490.94
484.245	479.94
484.463	516.94
484.681	518.94
484.9	488.94
485.118	499.94
485.336	501.94
485.554	492.94
485.772	528.94
485.99	514.94
486.209	508.94
486.427	497.94
486.645	528.94
486.863	545.94
487.081	537.94
487.299	538.94
487.517	527.94
487.735	531.94
487.953	535.94
488.171	530.94
488.389	536.94
488.607	518.94
488.825	537.94
489.043	532.94
489.261	536.94
489.479	534.94
489.696	537.94
489.914	528.94
490.132	567.94
490.35	529.94
490.568	532.94
490.786	560.94
491.003	594.94
491.221	583.94
491.439	599.94
491.657	579.94
491.874	604.94
492.092	610.94
492.31	611.94
492.527	629.94
492.745	611.94
492.963	631.94
493.18	640.94
493.398	613.94
493.615	632.94
493.833	630.94
494.05	643.94
494.268	636.94
494.485	645.94
494.703	635.94
494.92	611.94
495.138	629.94
495.355	630.94
495.573	621.94
495.79	635.94
496.008	608.94
496.225	635.94
496.442	638.94
496.66	636.94
496.877	634.94
497.094	603.94
497.312	643.94
497.529	667.94
497.746	648.94
497.963	669.94
498.181	686.94
498.398	694.94
498.615	688.94
498.832	691.94
499.049	682.94
499.267	708.94
499.484	728.94
499.701	738.94
499.918	742.94
500.135	744.94
500.352	776.94
500.569	795.94
500.786	782.94
501.003	796.94
501.22	805.94
501.437	776.94
501.654	772.94
501.871	790.94
