Data from 1972.PennyLincolnUp.Lamp.En5.5.200Scan.071719.P1._HRD10591_15-29-03-844.txt Node
Date: Thu Jul 18 15:29:03 EDT 2019
User: cochatt
Spectrometer: HR+D1059
Trigger mode: 1
Integration Time (sec): 1.000000E-1
Scans to average: 1
Electric dark correction enabled: true
Nonlinearity correction enabled: false
Boxcar width: 0
XAxis mode: Wavelengths
Number of Pixels in Spectrum: 2048
>>>>>Begin Spectral Data<<<<<
223.165	-29.75
223.4	-29.75
223.635	-29.75
223.869	-21.75
224.104	-10.75
224.338	-7.75
224.573	-20.75
224.808	-7.75
225.042	-15.75
225.277	-12.75
225.511	4.25
225.746	7.25
225.98	10.25
226.215	21.25
226.449	7.25
226.683	22.25
226.918	30.25
227.152	24.25
227.387	37.25
227.621	36.25
227.856	43.25
228.09	41.25
228.324	55.25
228.559	60.25
228.793	51.25
229.027	97.25
229.262	111.25
229.496	118.25
229.73	133.25
229.964	168.25
230.199	135.25
230.433	116.25
230.667	106.25
230.901	118.25
231.136	93.25
231.37	112.25
231.604	112.25
231.838	113.25
232.072	107.25
232.306	122.25
232.541	124.25
232.775	120.25
233.009	116.25
233.243	102.25
233.477	114.25
233.711	115.25
233.945	91.25
234.179	117.25
234.413	98.25
234.647	118.25
234.881	118.25
235.115	129.25
235.349	105.25
235.583	122.25
235.817	120.25
236.051	128.25
236.285	128.25
236.519	125.25
236.753	126.25
236.987	149.25
237.221	189.25
237.455	266.25
237.689	214.25
237.922	154.25
238.156	141.25
238.39	137.25
238.624	125.25
238.858	124.25
239.091	132.25
239.325	128.25
239.559	122.25
239.793	116.25
240.027	129.25
240.26	137.25
240.494	169.25
240.728	147.25
240.961	148.25
241.195	145.25
241.429	136.25
241.662	126.25
241.896	132.25
242.13	121.25
242.363	134.25
242.597	136.25
242.83	142.25
243.064	128.25
243.298	135.25
243.531	139.25
243.765	116.25
243.998	129.25
244.232	123.25
244.465	152.25
244.699	141.25
244.932	142.25
245.166	131.25
245.399	131.25
245.633	149.25
245.866	148.25
246.099	143.25
246.333	146.25
246.566	152.25
246.8	149.25
247.033	154.25
247.266	165.25
247.5	163.25
247.733	163.25
247.966	172.25
248.2	175.25
248.433	179.25
248.666	185.25
248.899	178.25
249.133	201.25
249.366	221.25
249.599	218.25
249.832	181.25
250.066	185.25
250.299	196.25
250.532	176.25
250.765	211.25
250.998	243.25
251.231	231.25
251.465	232.25
251.698	212.25
251.931	207.25
252.164	200.25
252.397	215.25
252.63	202.25
252.863	210.25
253.096	230.25
253.329	236.25
253.562	240.25
253.795	221.25
254.028	213.25
254.261	221.25
254.494	216.25
254.727	270.25
254.96	289.25
255.193	279.25
255.426	265.25
255.659	247.25
255.892	220.25
256.124	259.25
256.357	242.25
256.59	245.25
256.823	224.25
257.056	220.25
257.289	202.25
257.521	212.25
257.754	217.25
257.987	216.25
258.22	217.25
258.452	217.25
258.685	209.25
258.918	210.25
259.151	212.25
259.383	210.25
259.616	235.25
259.849	221.25
260.081	249.25
260.314	257.25
260.547	258.25
260.779	264.25
261.012	233.25
261.244	217.25
261.477	236.25
261.71	244.25
261.942	230.25
262.175	226.25
262.407	234.25
262.64	204.25
262.872	237.25
263.105	236.25
263.337	225.25
263.57	218.25
263.802	219.25
264.035	219.25
264.267	206.25
264.499	212.25
264.732	224.25
264.964	224.25
265.197	225.25
265.429	205.25
265.661	210.25
265.894	229.25
266.126	209.25
266.358	203.25
266.591	209.25
266.823	225.25
267.055	224.25
267.287	211.25
267.52	228.25
267.752	233.25
267.984	221.25
268.216	218.25
268.448	241.25
268.681	228.25
268.913	233.25
269.145	249.25
269.377	276.25
269.609	273.25
269.841	267.25
270.073	296.25
270.306	313.25
270.538	315.25
270.77	326.25
271.002	325.25
271.234	297.25
271.466	310.25
271.698	332.25
271.93	321.25
272.162	336.25
272.394	320.25
272.626	324.25
272.858	287.25
273.09	278.25
273.322	290.25
273.553	264.25
273.785	249.25
274.017	266.25
274.249	260.25
274.481	261.25
274.713	258.25
274.945	258.25
275.176	280.25
275.408	276.25
275.64	273.25
275.872	247.25
276.104	275.25
276.335	264.25
276.567	284.25
276.799	300.25
277.031	314.25
277.262	314.25
277.494	331.25
277.726	288.25
277.957	300.25
278.189	290.25
278.421	290.25
278.652	279.25
278.884	266.25
279.115	272.25
279.347	262.25
279.579	260.25
279.81	223.25
280.042	256.25
280.273	277.25
280.505	261.25
280.736	268.25
280.968	261.25
281.199	251.25
281.431	262.25
281.662	263.25
281.894	260.25
282.125	284.25
282.356	298.25
282.588	298.25
282.819	287.25
283.051	272.25
283.282	262.25
283.513	258.25
283.745	269.25
283.976	264.25
284.207	262.25
284.439	249.25
284.67	256.25
284.901	268.25
285.132	289.25
285.364	265.25
285.595	278.25
285.826	269.25
286.057	288.25
286.288	271.25
286.52	277.25
286.751	279.25
286.982	268.25
287.213	264.25
287.444	261.25
287.675	296.25
287.906	291.25
288.138	299.25
288.369	302.25
288.6	283.25
288.831	288.25
289.062	302.25
289.293	282.25
289.524	275.25
289.755	292.25
289.986	269.25
290.217	287.25
290.448	283.25
290.679	283.25
290.91	278.25
291.141	260.25
291.371	277.25
291.602	273.25
291.833	274.25
292.064	267.25
292.295	278.25
292.526	264.25
292.757	291.25
292.987	276.25
293.218	275.25
293.449	286.25
293.68	281.25
293.91	288.25
294.141	275.25
294.372	276.25
294.603	271.25
294.833	258.25
295.064	274.25
295.295	274.25
295.525	283.25
295.756	284.25
295.987	298.25
296.217	313.25
296.448	309.25
296.679	282.25
296.909	295.25
297.14	282.25
297.37	280.25
297.601	275.25
297.831	295.25
298.062	278.25
298.292	291.25
298.523	298.25
298.753	301.25
298.984	280.25
299.214	289.25
299.445	289.25
299.675	295.25
299.905	287.25
300.136	328.25
300.366	280.25
300.597	290.25
300.827	299.25
301.057	300.25
301.288	306.25
301.518	309.25
301.748	298.25
301.979	329.25
302.209	313.25
302.439	309.25
302.669	313.25
302.9	298.25
303.13	289.25
303.36	307.25
303.59	316.25
303.82	328.25
304.051	325.25
304.281	326.25
304.511	299.25
304.741	302.25
304.971	297.25
305.201	288.25
305.431	304.25
305.661	293.25
305.891	301.25
306.121	315.25
306.352	320.25
306.582	321.25
306.812	317.25
307.042	291.25
307.272	315.25
307.502	305.25
307.731	311.25
307.961	310.25
308.191	324.25
308.421	323.25
308.651	318.25
308.881	318.25
309.111	321.25
309.341	328.25
309.571	341.25
309.8	345.25
310.03	333.25
310.26	351.25
310.49	372.25
310.72	374.25
310.949	401.25
311.179	411.25
311.409	374.25
311.639	358.25
311.868	368.25
312.098	356.25
312.328	361.25
312.557	409.25
312.787	409.25
313.017	418.25
313.246	408.25
313.476	365.25
313.706	378.25
313.935	380.25
314.165	395.25
314.394	393.25
314.624	401.25
314.853	370.25
315.083	367.25
315.312	354.25
315.542	352.25
315.771	348.25
316.001	350.25
316.23	363.25
316.46	355.25
316.689	379.25
316.919	351.25
317.148	374.25
317.377	388.25
317.607	364.25
317.836	360.25
318.065	377.25
318.295	348.25
318.524	350.25
318.753	354.25
318.983	375.25
319.212	374.25
319.441	378.25
319.67	371.25
319.9	384.25
320.129	368.25
320.358	382.25
320.587	379.25
320.816	385.25
321.046	406.25
321.275	400.25
321.504	370.25
321.733	413.25
321.962	404.25
322.191	415.25
322.42	450.25
322.649	442.25
322.878	471.25
323.108	481.25
323.337	501.25
323.566	517.25
323.795	593.25
324.024	620.25
324.253	772.25
324.482	1140.25
324.71	1875.25
324.939	2770.25
325.168	2371.25
325.397	1183.25
325.626	772.25
325.855	616.25
326.084	544.25
326.313	538.25
326.542	542.25
326.77	605.25
326.999	731.25
327.228	1029.25
327.457	1590.25
327.686	2041.25
327.914	1337.25
328.143	835.25
328.372	716.25
328.6	664.25
328.829	631.25
329.058	638.25
329.287	660.25
329.515	594.25
329.744	557.25
329.972	550.25
330.201	582.25
330.43	619.25
330.658	664.25
330.887	708.25
331.115	669.25
331.344	560.25
331.572	512.25
331.801	502.25
332.03	504.25
332.258	483.25
332.486	446.25
332.715	448.25
332.943	433.25
333.172	452.25
333.4	436.25
333.629	458.25
333.857	463.25
334.085	487.25
334.314	486.25
334.542	539.25
334.771	595.25
334.999	503.25
335.227	460.25
335.455	434.25
335.684	432.25
335.912	425.25
336.14	398.25
336.369	438.25
336.597	428.25
336.825	432.25
337.053	426.25
337.281	401.25
337.51	413.25
337.738	416.25
337.966	418.25
338.194	437.25
338.422	431.25
338.65	404.25
338.878	413.25
339.106	390.25
339.334	402.25
339.562	395.25
339.79	408.25
340.018	414.25
340.246	385.25
340.474	417.25
340.702	411.25
340.93	410.25
341.158	400.25
341.386	407.25
341.614	410.25
341.842	386.25
342.07	408.25
342.298	392.25
342.526	389.25
342.754	401.25
342.981	393.25
343.209	382.25
343.437	389.25
343.665	394.25
343.893	391.25
344.12	402.25
344.348	376.25
344.576	399.25
344.804	411.25
345.031	429.25
345.259	426.25
345.487	451.25
345.714	406.25
345.942	411.25
346.17	399.25
346.397	384.25
346.625	406.25
346.853	365.25
347.08	386.25
347.308	423.25
347.535	410.25
347.763	429.25
347.99	412.25
348.218	407.25
348.445	405.25
348.673	407.25
348.9	433.25
349.128	384.25
349.355	387.25
349.583	373.25
349.81	385.25
350.037	392.25
350.265	376.25
350.492	391.25
350.72	373.25
350.947	378.25
351.174	401.25
351.402	392.25
351.629	400.25
351.856	400.25
352.083	401.25
352.311	417.25
352.538	429.25
352.765	433.25
352.992	424.25
353.22	395.25
353.447	409.25
353.674	411.25
353.901	363.25
354.128	370.25
354.355	372.25
354.583	364.25
354.81	376.25
355.037	362.25
355.264	379.25
355.491	340.25
355.718	368.25
355.945	350.25
356.172	368.25
356.399	356.25
356.626	352.25
356.853	346.25
357.08	342.25
357.307	352.25
357.534	376.25
357.761	344.25
357.988	364.25
358.215	332.25
358.441	354.25
358.668	360.25
358.895	350.25
359.122	376.25
359.349	372.25
359.576	392.25
359.802	424.25
360.029	461.25
360.256	476.25
360.483	454.25
360.709	405.25
360.936	393.25
361.163	396.25
361.39	397.25
361.616	397.25
361.843	410.25
362.07	413.25
362.296	397.25
362.523	398.25
362.749	401.25
362.976	393.25
363.203	385.25
363.429	368.25
363.656	372.25
363.882	394.25
364.109	361.25
364.335	386.25
364.562	382.25
364.788	363.25
365.015	356.25
365.241	377.25
365.468	368.25
365.694	384.25
365.92	385.25
366.147	373.25
366.373	353.25
366.599	344.25
366.826	349.25
367.052	357.25
367.278	363.25
367.505	344.25
367.731	373.25
367.957	396.25
368.184	352.25
368.41	372.25
368.636	380.25
368.862	371.25
369.089	366.25
369.315	360.25
369.541	370.25
369.767	347.25
369.993	374.25
370.219	363.25
370.445	345.25
370.672	335.25
370.898	344.25
371.124	342.25
371.35	351.25
371.576	344.25
371.802	362.25
372.028	354.25
372.254	345.25
372.48	353.25
372.706	343.25
372.932	359.25
373.158	338.25
373.384	376.25
373.61	369.25
373.835	358.25
374.061	346.25
374.287	364.25
374.513	359.25
374.739	359.25
374.965	369.25
375.191	332.25
375.416	354.25
375.642	362.25
375.868	361.25
376.094	368.25
376.319	373.25
376.545	364.25
376.771	355.25
376.997	354.25
377.222	340.25
377.448	366.25
377.674	364.25
377.899	363.25
378.125	337.25
378.35	320.25
378.576	347.25
378.802	340.25
379.027	345.25
379.253	354.25
379.478	360.25
379.704	354.25
379.929	351.25
380.155	348.25
380.38	340.25
380.606	359.25
380.831	357.25
381.057	361.25
381.282	367.25
381.507	364.25
381.733	360.25
381.958	343.25
382.184	325.25
382.409	357.25
382.634	346.25
382.86	347.25
383.085	356.25
383.31	360.25
383.535	341.25
383.761	377.25
383.986	353.25
384.211	360.25
384.436	365.25
384.662	362.25
384.887	366.25
385.112	364.25
385.337	358.25
385.562	376.25
385.787	378.25
386.013	389.25
386.238	403.25
386.463	393.25
386.688	374.25
386.913	362.25
387.138	374.25
387.363	362.25
387.588	362.25
387.813	379.25
388.038	379.25
388.263	379.25
388.488	348.25
388.713	392.25
388.938	362.25
389.163	370.25
389.387	386.25
389.612	386.25
389.837	369.25
390.062	358.25
390.287	352.25
390.512	371.25
390.736	378.25
390.961	360.25
391.186	361.25
391.411	373.25
391.636	380.25
391.86	387.25
392.085	382.25
392.31	376.25
392.534	388.25
392.759	388.25
392.984	363.25
393.208	393.25
393.433	390.25
393.658	384.25
393.882	376.25
394.107	369.25
394.331	352.25
394.556	373.25
394.78	395.25
395.005	367.25
395.229	374.25
395.454	374.25
395.678	380.25
395.903	413.25
396.127	408.25
396.352	409.25
396.576	384.25
396.801	417.25
397.025	392.25
397.249	389.25
397.474	386.25
397.698	380.25
397.922	408.25
398.147	424.25
398.371	406.25
398.595	401.25
398.82	387.25
399.044	405.25
399.268	428.25
399.492	453.25
399.717	456.25
399.941	475.25
400.165	492.25
400.389	523.25
400.613	484.25
400.837	458.25
401.062	449.25
401.286	439.25
401.51	413.25
401.734	416.25
401.958	421.25
402.182	421.25
402.406	436.25
402.63	446.25
402.854	433.25
403.078	420.25
403.302	427.25
403.526	449.25
403.75	437.25
403.974	440.25
404.198	430.25
404.422	440.25
404.645	443.25
404.869	456.25
405.093	460.25
405.317	514.25
405.541	555.25
405.765	508.25
405.988	477.25
406.212	504.25
406.436	502.25
406.66	507.25
406.883	484.25
407.107	508.25
407.331	543.25
407.555	630.25
407.778	621.25
408.002	545.25
408.226	510.25
408.449	490.25
408.673	462.25
408.896	525.25
409.12	554.25
409.344	523.25
409.567	467.25
409.791	474.25
410.014	449.25
410.238	455.25
410.461	430.25
410.685	445.25
410.908	471.25
411.132	498.25
411.355	548.25
411.578	504.25
411.802	469.25
412.025	445.25
412.249	441.25
412.472	486.25
412.695	517.25
412.919	515.25
413.142	442.25
413.365	446.25
413.589	467.25
413.812	422.25
414.035	402.25
414.258	412.25
414.482	401.25
414.705	395.25
414.928	416.25
415.151	419.25
415.374	416.25
415.597	402.25
415.821	417.25
416.044	420.25
416.267	410.25
416.49	397.25
416.713	403.25
416.936	411.25
417.159	406.25
417.382	444.25
417.605	432.25
417.828	440.25
418.051	463.25
418.274	444.25
418.497	421.25
418.72	404.25
418.943	421.25
419.166	432.25
419.389	459.25
419.611	451.25
419.834	461.25
420.057	448.25
420.28	463.25
420.503	465.25
420.726	445.25
420.948	477.25
421.171	522.25
421.394	568.25
421.617	482.25
421.839	450.25
422.062	432.25
422.285	470.25
422.507	522.25
422.73	618.25
422.953	594.25
423.175	502.25
423.398	478.25
423.621	477.25
423.843	486.25
424.066	501.25
424.288	480.25
424.511	489.25
424.733	588.25
424.956	666.25
425.178	630.25
425.401	612.25
425.623	650.25
425.846	550.25
426.068	512.25
426.291	480.25
426.513	494.25
426.735	509.25
426.958	547.25
427.18	637.25
427.402	767.25
427.625	868.25
427.847	794.25
428.069	674.25
428.292	590.25
428.514	518.25
428.736	496.25
428.958	468.25
429.181	458.25
429.403	465.25
429.625	464.25
429.847	501.25
430.069	598.25
430.292	595.25
430.514	510.25
430.736	470.25
430.958	452.25
431.18	428.25
431.402	416.25
431.624	411.25
431.846	426.25
432.068	414.25
432.29	436.25
432.512	433.25
432.734	430.25
432.956	407.25
433.178	442.25
433.4	434.25
433.622	437.25
433.844	428.25
434.066	416.25
434.287	430.25
434.509	413.25
434.731	436.25
434.953	426.25
435.175	456.25
435.397	505.25
435.618	480.25
435.84	563.25
436.062	644.25
436.284	683.25
436.505	625.25
436.727	533.25
436.949	506.25
437.17	468.25
437.392	476.25
437.614	490.25
437.835	526.25
438.057	617.25
438.278	737.25
438.5	720.25
438.721	789.25
438.943	753.25
439.165	591.25
439.386	562.25
439.608	523.25
439.829	533.25
440.05	556.25
440.272	634.25
440.493	578.25
440.715	498.25
440.936	490.25
441.158	481.25
441.379	460.25
441.6	481.25
441.822	502.25
442.043	556.25
442.264	635.25
442.486	664.25
442.707	555.25
442.928	537.25
443.149	541.25
443.371	557.25
443.592	582.25
443.813	696.25
444.034	744.25
444.255	610.25
444.476	550.25
444.698	501.25
444.919	499.25
445.14	579.25
445.361	550.25
445.582	543.25
445.803	640.25
446.024	757.25
446.245	747.25
446.466	682.25
446.687	584.25
446.908	517.25
447.129	489.25
447.35	469.25
447.571	476.25
447.792	469.25
448.013	478.25
448.234	510.25
448.455	542.25
448.675	668.25
448.896	781.25
449.117	641.25
449.338	612.25
449.559	699.25
449.779	817.25
450	672.25
450.221	544.25
450.442	489.25
450.662	481.25
450.883	469.25
451.104	492.25
451.324	472.25
451.545	460.25
451.766	440.25
451.986	433.25
452.207	400.25
452.428	438.25
452.648	440.25
452.869	418.25
453.089	423.25
453.31	445.25
453.53	440.25
453.751	418.25
453.971	439.25
454.192	458.25
454.412	452.25
454.633	407.25
454.853	419.25
455.073	397.25
455.294	433.25
455.514	509.25
455.734	499.25
455.955	416.25
456.175	412.25
456.395	412.25
456.616	407.25
456.836	383.25
457.056	382.25
457.276	370.25
457.497	403.25
457.717	393.25
457.937	405.25
458.157	396.25
458.377	394.25
458.598	435.25
458.818	502.25
459.038	603.25
459.258	617.25
459.478	508.25
459.698	442.25
459.918	430.25
460.138	434.25
460.358	407.25
460.578	410.25
460.798	418.25
461.018	449.25
461.238	425.25
461.458	417.25
461.678	399.25
461.898	409.25
462.118	424.25
462.338	434.25
462.558	413.25
462.777	407.25
462.997	440.25
463.217	434.25
463.437	428.25
463.657	437.25
463.876	427.25
464.096	439.25
464.316	446.25
464.536	456.25
464.755	451.25
464.975	440.25
465.195	508.25
465.414	621.25
465.634	540.25
465.854	464.25
466.073	433.25
466.293	432.25
466.512	433.25
466.732	421.25
466.951	407.25
467.171	432.25
467.391	417.25
467.61	448.25
467.829	442.25
468.049	440.25
468.268	431.25
468.488	433.25
468.707	410.25
468.927	396.25
469.146	395.25
469.365	411.25
469.585	404.25
469.804	419.25
470.023	445.25
470.243	438.25
470.462	408.25
470.681	448.25
470.901	461.25
471.12	429.25
471.339	421.25
471.558	426.25
471.777	434.25
471.997	428.25
472.216	440.25
472.435	482.25
472.654	462.25
472.873	432.25
473.092	411.25
473.311	426.25
473.53	438.25
473.749	435.25
473.968	493.25
474.187	615.25
474.406	652.25
474.625	492.25
474.844	438.25
475.063	444.25
475.282	424.25
475.501	422.25
475.72	432.25
475.939	440.25
476.158	434.25
476.377	438.25
476.596	449.25
476.814	455.25
477.033	460.25
477.252	445.25
477.471	458.25
477.69	458.25
477.908	440.25
478.127	462.25
478.346	474.25
478.564	443.25
478.783	462.25
479.002	472.25
479.22	462.25
479.439	478.25
479.658	498.25
479.876	510.25
480.095	511.25
480.313	554.25
480.532	499.25
480.751	499.25
480.969	538.25
481.188	611.25
481.406	664.25
481.624	590.25
481.843	540.25
482.061	516.25
482.28	509.25
482.498	516.25
482.717	488.25
482.935	499.25
483.153	493.25
483.372	518.25
483.59	513.25
483.808	492.25
484.027	487.25
484.245	517.25
484.463	480.25
484.681	526.25
484.9	504.25
485.118	486.25
485.336	503.25
485.554	530.25
485.772	519.25
485.99	521.25
486.209	513.25
486.427	519.25
486.645	522.25
486.863	546.25
487.081	564.25
487.299	542.25
487.517	520.25
487.735	529.25
487.953	540.25
488.171	541.25
488.389	532.25
488.607	521.25
488.825	529.25
489.043	514.25
489.261	523.25
489.479	547.25
489.696	536.25
489.914	565.25
490.132	537.25
490.35	535.25
490.568	545.25
490.786	567.25
491.003	565.25
491.221	594.25
491.439	596.25
491.657	606.25
491.874	605.25
492.092	619.25
492.31	616.25
492.527	627.25
492.745	634.25
492.963	652.25
493.18	634.25
493.398	621.25
493.615	634.25
493.833	650.25
494.05	650.25
494.268	637.25
494.485	646.25
494.703	637.25
494.92	647.25
495.138	630.25
495.355	632.25
495.573	627.25
495.79	634.25
496.008	640.25
496.225	632.25
496.442	619.25
496.66	656.25
496.877	630.25
497.094	642.25
497.312	643.25
497.529	633.25
497.746	660.25
497.963	653.25
498.181	707.25
498.398	698.25
498.615	669.25
498.832	701.25
499.049	710.25
499.267	688.25
499.484	698.25
499.701	726.25
499.918	741.25
500.135	735.25
500.352	789.25
500.569	781.25
500.786	776.25
501.003	783.25
501.22	759.25
501.437	747.25
501.654	774.25
501.871	758.25
