Data from 1972.PennyLincolnUp.Lamp.En5.5.200Scan.071719.P1._HRD10591_15-29-05-844.txt Node
Date: Thu Jul 18 15:29:05 EDT 2019
User: cochatt
Spectrometer: HR+D1059
Trigger mode: 1
Integration Time (sec): 1.000000E-1
Scans to average: 1
Electric dark correction enabled: true
Nonlinearity correction enabled: false
Boxcar width: 0
XAxis mode: Wavelengths
Number of Pixels in Spectrum: 2048
>>>>>Begin Spectral Data<<<<<
223.165	-22.88
223.4	-22.88
223.635	-22.88
223.869	-17.88
224.104	-32.88
224.338	5.12
224.573	-4.88
224.808	-18.88
225.042	-12.88
225.277	3.12
225.511	-0.88
225.746	-0.88
225.98	7.12
226.215	17.12
226.449	9.12
226.683	19.12
226.918	27.12
227.152	24.12
227.387	43.12
227.621	35.12
227.856	27.12
228.09	49.12
228.324	46.12
228.559	53.12
228.793	73.12
229.027	106.12
229.262	94.12
229.496	110.12
229.73	143.12
229.964	188.12
230.199	137.12
230.433	129.12
230.667	122.12
230.901	130.12
231.136	114.12
231.37	117.12
231.604	121.12
231.838	115.12
232.072	117.12
232.306	106.12
232.541	108.12
232.775	114.12
233.009	112.12
233.243	113.12
233.477	116.12
233.711	128.12
233.945	115.12
234.179	117.12
234.413	98.12
234.647	128.12
234.881	108.12
235.115	127.12
235.349	135.12
235.583	122.12
235.817	120.12
236.051	127.12
236.285	128.12
236.519	128.12
236.753	138.12
236.987	158.12
237.221	212.12
237.455	263.12
237.689	199.12
237.922	159.12
238.156	143.12
238.39	143.12
238.624	136.12
238.858	139.12
239.091	141.12
239.325	135.12
239.559	129.12
239.793	138.12
240.027	136.12
240.26	160.12
240.494	169.12
240.728	173.12
240.961	149.12
241.195	145.12
241.429	139.12
241.662	145.12
241.896	144.12
242.13	134.12
242.363	127.12
242.597	139.12
242.83	143.12
243.064	137.12
243.298	151.12
243.531	141.12
243.765	139.12
243.998	134.12
244.232	129.12
244.465	137.12
244.699	144.12
244.932	160.12
245.166	145.12
245.399	139.12
245.633	118.12
245.866	153.12
246.099	152.12
246.333	152.12
246.566	151.12
246.8	151.12
247.033	156.12
247.266	155.12
247.5	170.12
247.733	150.12
247.966	174.12
248.2	187.12
248.433	189.12
248.666	179.12
248.899	190.12
249.133	221.12
249.366	228.12
249.599	221.12
249.832	194.12
250.066	200.12
250.299	184.12
250.532	191.12
250.765	215.12
250.998	239.12
251.231	247.12
251.465	240.12
251.698	200.12
251.931	213.12
252.164	192.12
252.397	201.12
252.63	216.12
252.863	218.12
253.096	230.12
253.329	246.12
253.562	239.12
253.795	247.12
254.028	251.12
254.261	231.12
254.494	242.12
254.727	269.12
254.96	313.12
255.193	294.12
255.426	281.12
255.659	244.12
255.892	257.12
256.124	250.12
256.357	265.12
256.59	244.12
256.823	232.12
257.056	228.12
257.289	215.12
257.521	233.12
257.754	212.12
257.987	215.12
258.22	221.12
258.452	218.12
258.685	212.12
258.918	211.12
259.151	222.12
259.383	223.12
259.616	232.12
259.849	235.12
260.081	250.12
260.314	282.12
260.547	276.12
260.779	291.12
261.012	245.12
261.244	231.12
261.477	246.12
261.71	243.12
261.942	235.12
262.175	256.12
262.407	248.12
262.64	232.12
262.872	223.12
263.105	248.12
263.337	230.12
263.57	223.12
263.802	230.12
264.035	223.12
264.267	218.12
264.499	217.12
264.732	235.12
264.964	220.12
265.197	223.12
265.429	224.12
265.661	219.12
265.894	216.12
266.126	219.12
266.358	204.12
266.591	221.12
266.823	229.12
267.055	243.12
267.287	238.12
267.52	252.12
267.752	248.12
267.984	234.12
268.216	232.12
268.448	249.12
268.681	249.12
268.913	242.12
269.145	257.12
269.377	273.12
269.609	301.12
269.841	279.12
270.073	264.12
270.306	296.12
270.538	330.12
270.77	343.12
271.002	319.12
271.234	322.12
271.466	318.12
271.698	337.12
271.93	354.12
272.162	357.12
272.394	340.12
272.626	319.12
272.858	316.12
273.09	308.12
273.322	287.12
273.553	275.12
273.785	280.12
274.017	287.12
274.249	296.12
274.481	271.12
274.713	283.12
274.945	275.12
275.176	280.12
275.408	273.12
275.64	267.12
275.872	257.12
276.104	273.12
276.335	273.12
276.567	304.12
276.799	306.12
277.031	334.12
277.262	347.12
277.494	340.12
277.726	335.12
277.957	311.12
278.189	307.12
278.421	296.12
278.652	275.12
278.884	299.12
279.115	279.12
279.347	262.12
279.579	271.12
279.81	278.12
280.042	273.12
280.273	269.12
280.505	282.12
280.736	279.12
280.968	278.12
281.199	263.12
281.431	275.12
281.662	273.12
281.894	289.12
282.125	293.12
282.356	313.12
282.588	324.12
282.819	321.12
283.051	288.12
283.282	294.12
283.513	276.12
283.745	276.12
283.976	294.12
284.207	295.12
284.439	286.12
284.67	278.12
284.901	296.12
285.132	277.12
285.364	309.12
285.595	282.12
285.826	266.12
286.057	294.12
286.288	295.12
286.52	285.12
286.751	288.12
286.982	279.12
287.213	279.12
287.444	285.12
287.675	282.12
287.906	291.12
288.138	315.12
288.369	322.12
288.6	314.12
288.831	305.12
289.062	299.12
289.293	290.12
289.524	297.12
289.755	279.12
289.986	276.12
290.217	285.12
290.448	292.12
290.679	275.12
290.91	289.12
291.141	292.12
291.371	292.12
291.602	285.12
291.833	287.12
292.064	304.12
292.295	289.12
292.526	283.12
292.757	297.12
292.987	277.12
293.218	283.12
293.449	300.12
293.68	301.12
293.91	296.12
294.141	275.12
294.372	290.12
294.603	297.12
294.833	291.12
295.064	281.12
295.295	307.12
295.525	280.12
295.756	301.12
295.987	310.12
296.217	327.12
296.448	328.12
296.679	328.12
296.909	283.12
297.14	294.12
297.37	296.12
297.601	303.12
297.831	288.12
298.062	299.12
298.292	297.12
298.523	320.12
298.753	312.12
298.984	308.12
299.214	301.12
299.445	308.12
299.675	303.12
299.905	311.12
300.136	317.12
300.366	274.12
300.597	295.12
300.827	316.12
301.057	315.12
301.288	320.12
301.518	326.12
301.748	325.12
301.979	308.12
302.209	324.12
302.439	336.12
302.669	329.12
302.9	332.12
303.13	315.12
303.36	326.12
303.59	333.12
303.82	336.12
304.051	324.12
304.281	327.12
304.511	315.12
304.741	308.12
304.971	316.12
305.201	328.12
305.431	330.12
305.661	297.12
305.891	311.12
306.121	313.12
306.352	324.12
306.582	338.12
306.812	327.12
307.042	325.12
307.272	337.12
307.502	329.12
307.731	330.12
307.961	324.12
308.191	336.12
308.421	330.12
308.651	337.12
308.881	359.12
309.111	352.12
309.341	356.12
309.571	363.12
309.8	362.12
310.03	377.12
310.26	371.12
310.49	376.12
310.72	404.12
310.949	419.12
311.179	429.12
311.409	404.12
311.639	393.12
311.868	391.12
312.098	395.12
312.328	404.12
312.557	436.12
312.787	433.12
313.017	448.12
313.246	414.12
313.476	387.12
313.706	401.12
313.935	393.12
314.165	423.12
314.394	408.12
314.624	415.12
314.853	405.12
315.083	394.12
315.312	401.12
315.542	399.12
315.771	382.12
316.001	381.12
316.23	371.12
316.46	397.12
316.689	367.12
316.919	393.12
317.148	394.12
317.377	410.12
317.607	375.12
317.836	407.12
318.065	375.12
318.295	400.12
318.524	384.12
318.753	397.12
318.983	399.12
319.212	394.12
319.441	389.12
319.67	404.12
319.9	391.12
320.129	399.12
320.358	398.12
320.587	411.12
320.816	386.12
321.046	430.12
321.275	423.12
321.504	397.12
321.733	425.12
321.962	428.12
322.191	435.12
322.42	464.12
322.649	493.12
322.878	494.12
323.108	519.12
323.337	513.12
323.566	584.12
323.795	614.12
324.024	666.12
324.253	845.12
324.482	1255.12
324.71	1971.12
324.939	2897.12
325.168	2485.12
325.397	1257.12
325.626	801.12
325.855	640.12
326.084	604.12
326.313	578.12
326.542	563.12
326.77	642.12
326.999	791.12
327.228	1093.12
327.457	1741.12
327.686	2163.12
327.914	1408.12
328.143	868.12
328.372	753.12
328.6	688.12
328.829	661.12
329.058	692.12
329.287	666.12
329.515	648.12
329.744	575.12
329.972	571.12
330.201	598.12
330.43	688.12
330.658	681.12
330.887	718.12
331.115	699.12
331.344	573.12
331.572	565.12
331.801	550.12
332.03	537.12
332.258	495.12
332.486	495.12
332.715	440.12
332.943	462.12
333.172	442.12
333.4	469.12
333.629	479.12
333.857	504.12
334.085	528.12
334.314	528.12
334.542	584.12
334.771	625.12
334.999	540.12
335.227	469.12
335.455	468.12
335.684	485.12
335.912	451.12
336.14	453.12
336.369	439.12
336.597	467.12
336.825	453.12
337.053	452.12
337.281	453.12
337.51	431.12
337.738	447.12
337.966	453.12
338.194	435.12
338.422	441.12
338.65	451.12
338.878	441.12
339.106	432.12
339.334	412.12
339.562	437.12
339.79	437.12
340.018	423.12
340.246	440.12
340.474	463.12
340.702	439.12
340.93	430.12
341.158	421.12
341.386	403.12
341.614	440.12
341.842	424.12
342.07	421.12
342.298	423.12
342.526	441.12
342.754	411.12
342.981	395.12
343.209	386.12
343.437	413.12
343.665	425.12
343.893	427.12
344.12	437.12
344.348	397.12
344.576	412.12
344.804	427.12
345.031	467.12
345.259	470.12
345.487	453.12
345.714	430.12
345.942	438.12
346.17	428.12
346.397	423.12
346.625	430.12
346.853	422.12
347.08	410.12
347.308	417.12
347.535	440.12
347.763	423.12
347.99	454.12
348.218	426.12
348.445	443.12
348.673	452.12
348.9	416.12
349.128	433.12
349.355	401.12
349.583	401.12
349.81	404.12
350.037	390.12
350.265	407.12
350.492	399.12
350.72	415.12
350.947	398.12
351.174	432.12
351.402	435.12
351.629	416.12
351.856	426.12
352.083	435.12
352.311	443.12
352.538	455.12
352.765	432.12
352.992	445.12
353.22	433.12
353.447	436.12
353.674	406.12
353.901	405.12
354.128	376.12
354.355	400.12
354.583	379.12
354.81	372.12
355.037	378.12
355.264	383.12
355.491	361.12
355.718	363.12
355.945	367.12
356.172	376.12
356.399	389.12
356.626	359.12
356.853	385.12
357.08	366.12
357.307	393.12
357.534	379.12
357.761	382.12
357.988	358.12
358.215	391.12
358.441	382.12
358.668	378.12
358.895	384.12
359.122	380.12
359.349	412.12
359.576	403.12
359.802	455.12
360.029	490.12
360.256	496.12
360.483	470.12
360.709	426.12
360.936	417.12
361.163	451.12
361.39	427.12
361.616	432.12
361.843	421.12
362.07	414.12
362.296	419.12
362.523	417.12
362.749	418.12
362.976	393.12
363.203	402.12
363.429	387.12
363.656	402.12
363.882	397.12
364.109	392.12
364.335	381.12
364.562	383.12
364.788	388.12
365.015	411.12
365.241	395.12
365.468	405.12
365.694	400.12
365.92	399.12
366.147	387.12
366.373	403.12
366.599	395.12
366.826	383.12
367.052	372.12
367.278	393.12
367.505	390.12
367.731	365.12
367.957	387.12
368.184	351.12
368.41	394.12
368.636	404.12
368.862	389.12
369.089	385.12
369.315	393.12
369.541	390.12
369.767	381.12
369.993	367.12
370.219	381.12
370.445	389.12
370.672	372.12
370.898	386.12
371.124	381.12
371.35	376.12
371.576	379.12
371.802	371.12
372.028	361.12
372.254	379.12
372.48	371.12
372.706	379.12
372.932	356.12
373.158	399.12
373.384	384.12
373.61	379.12
373.835	376.12
374.061	381.12
374.287	378.12
374.513	382.12
374.739	366.12
374.965	367.12
375.191	388.12
375.416	361.12
375.642	381.12
375.868	368.12
376.094	371.12
376.319	377.12
376.545	357.12
376.771	371.12
376.997	379.12
377.222	383.12
377.448	371.12
377.674	375.12
377.899	371.12
378.125	365.12
378.35	376.12
378.576	349.12
378.802	360.12
379.027	361.12
379.253	375.12
379.478	376.12
379.704	368.12
379.929	358.12
380.155	366.12
380.38	378.12
380.606	378.12
380.831	380.12
381.057	388.12
381.282	364.12
381.507	377.12
381.733	359.12
381.958	376.12
382.184	383.12
382.409	387.12
382.634	372.12
382.86	392.12
383.085	387.12
383.31	372.12
383.535	385.12
383.761	387.12
383.986	385.12
384.211	389.12
384.436	385.12
384.662	368.12
384.887	381.12
385.112	379.12
385.337	389.12
385.562	392.12
385.787	386.12
386.013	421.12
386.238	415.12
386.463	408.12
386.688	382.12
386.913	389.12
387.138	405.12
387.363	404.12
387.588	380.12
387.813	385.12
388.038	391.12
388.263	400.12
388.488	385.12
388.713	397.12
388.938	397.12
389.163	412.12
389.387	402.12
389.612	391.12
389.837	397.12
390.062	390.12
390.287	391.12
390.512	378.12
390.736	385.12
390.961	394.12
391.186	399.12
391.411	408.12
391.636	397.12
391.86	399.12
392.085	395.12
392.31	384.12
392.534	391.12
392.759	397.12
392.984	423.12
393.208	398.12
393.433	411.12
393.658	412.12
393.882	409.12
394.107	400.12
394.331	400.12
394.556	403.12
394.78	375.12
395.005	401.12
395.229	381.12
395.454	408.12
395.678	427.12
395.903	420.12
396.127	425.12
396.352	454.12
396.576	424.12
396.801	407.12
397.025	444.12
397.249	407.12
397.474	428.12
397.698	437.12
397.922	443.12
398.147	441.12
398.371	455.12
398.595	446.12
398.82	437.12
399.044	468.12
399.268	454.12
399.492	468.12
399.717	492.12
399.941	501.12
400.165	577.12
400.389	552.12
400.613	501.12
400.837	479.12
401.062	463.12
401.286	463.12
401.51	458.12
401.734	431.12
401.958	453.12
402.182	459.12
402.406	488.12
402.63	457.12
402.854	465.12
403.078	438.12
403.302	474.12
403.526	465.12
403.75	467.12
403.974	464.12
404.198	447.12
404.422	480.12
404.645	479.12
404.869	491.12
405.093	529.12
405.317	584.12
405.541	612.12
405.765	553.12
405.988	506.12
406.212	517.12
406.436	533.12
406.66	538.12
406.883	512.12
407.107	518.12
407.331	596.12
407.555	637.12
407.778	651.12
408.002	596.12
408.226	554.12
408.449	514.12
408.673	536.12
408.896	558.12
409.12	591.12
409.344	560.12
409.567	487.12
409.791	483.12
410.014	478.12
410.238	469.12
410.461	476.12
410.685	499.12
410.908	494.12
411.132	539.12
411.355	577.12
411.578	551.12
411.802	508.12
412.025	496.12
412.249	499.12
412.472	509.12
412.695	571.12
412.919	564.12
413.142	494.12
413.365	456.12
413.589	445.12
413.812	466.12
414.035	435.12
414.258	434.12
414.482	440.12
414.705	430.12
414.928	451.12
415.151	439.12
415.374	439.12
415.597	444.12
415.821	448.12
416.044	429.12
416.267	439.12
416.49	458.12
416.713	424.12
416.936	463.12
417.159	432.12
417.382	455.12
417.605	464.12
417.828	473.12
418.051	487.12
418.274	458.12
418.497	467.12
418.72	424.12
418.943	428.12
419.166	454.12
419.389	468.12
419.611	486.12
419.834	476.12
420.057	499.12
420.28	491.12
420.503	470.12
420.726	492.12
420.948	503.12
421.171	543.12
421.394	589.12
421.617	488.12
421.839	492.12
422.062	471.12
422.285	488.12
422.507	570.12
422.73	639.12
422.953	633.12
423.175	535.12
423.398	523.12
423.621	494.12
423.843	529.12
424.066	549.12
424.288	529.12
424.511	525.12
424.733	603.12
424.956	697.12
425.178	663.12
425.401	667.12
425.623	700.12
425.846	582.12
426.068	543.12
426.291	540.12
426.513	535.12
426.735	540.12
426.958	571.12
427.18	691.12
427.402	810.12
427.625	935.12
427.847	837.12
428.069	725.12
428.292	606.12
428.514	542.12
428.736	496.12
428.958	513.12
429.181	499.12
429.403	489.12
429.625	485.12
429.847	546.12
430.069	619.12
430.292	628.12
430.514	533.12
430.736	481.12
430.958	483.12
431.18	461.12
431.402	446.12
431.624	435.12
431.846	450.12
432.068	448.12
432.29	413.12
432.512	465.12
432.734	457.12
432.956	468.12
433.178	472.12
433.4	490.12
433.622	458.12
433.844	446.12
434.066	456.12
434.287	444.12
434.509	451.12
434.731	461.12
434.953	460.12
435.175	493.12
435.397	527.12
435.618	530.12
435.84	577.12
436.062	677.12
436.284	744.12
436.505	623.12
436.727	563.12
436.949	519.12
437.17	501.12
437.392	511.12
437.614	515.12
437.835	564.12
438.057	665.12
438.278	805.12
438.5	764.12
438.721	827.12
438.943	797.12
439.165	623.12
439.386	564.12
439.608	585.12
439.829	563.12
440.05	586.12
440.272	678.12
440.493	591.12
440.715	541.12
440.936	504.12
441.158	485.12
441.379	492.12
441.6	501.12
441.822	513.12
442.043	593.12
442.264	645.12
442.486	755.12
442.707	573.12
442.928	546.12
443.149	582.12
443.371	587.12
443.592	624.12
443.813	704.12
444.034	794.12
444.255	636.12
444.476	558.12
444.698	511.12
444.919	511.12
445.14	602.12
445.361	591.12
445.582	598.12
445.803	656.12
446.024	767.12
446.245	798.12
446.466	710.12
446.687	607.12
446.908	550.12
447.129	525.12
447.35	484.12
447.571	500.12
447.792	493.12
448.013	506.12
448.234	542.12
448.455	565.12
448.675	691.12
448.896	827.12
449.117	701.12
449.338	635.12
449.559	782.12
449.779	869.12
450	692.12
450.221	534.12
450.442	549.12
450.662	535.12
450.883	521.12
451.104	527.12
451.324	530.12
451.545	495.12
451.766	464.12
451.986	461.12
452.207	429.12
452.428	441.12
452.648	441.12
452.869	426.12
453.089	457.12
453.31	461.12
453.53	452.12
453.751	455.12
453.971	465.12
454.192	455.12
454.412	452.12
454.633	435.12
454.853	444.12
455.073	435.12
455.294	457.12
455.514	557.12
455.734	557.12
455.955	445.12
456.175	413.12
456.395	433.12
456.616	401.12
456.836	424.12
457.056	428.12
457.276	409.12
457.497	379.12
457.717	397.12
457.937	404.12
458.157	406.12
458.377	420.12
458.598	461.12
458.818	531.12
459.038	615.12
459.258	647.12
459.478	501.12
459.698	465.12
459.918	449.12
460.138	442.12
460.358	454.12
460.578	441.12
460.798	442.12
461.018	457.12
461.238	455.12
461.458	447.12
461.678	445.12
461.898	450.12
462.118	446.12
462.338	462.12
462.558	451.12
462.777	453.12
462.997	457.12
463.217	447.12
463.437	483.12
463.657	451.12
463.876	462.12
464.096	462.12
464.316	466.12
464.536	492.12
464.755	489.12
464.975	499.12
465.195	551.12
465.414	652.12
465.634	578.12
465.854	515.12
466.073	476.12
466.293	484.12
466.512	456.12
466.732	460.12
466.951	442.12
467.171	456.12
467.391	447.12
467.61	458.12
467.829	453.12
468.049	460.12
468.268	449.12
468.488	440.12
468.707	432.12
468.927	432.12
469.146	443.12
469.365	431.12
469.585	424.12
469.804	439.12
470.023	484.12
470.243	450.12
470.462	461.12
470.681	478.12
470.901	483.12
471.12	459.12
471.339	427.12
471.558	447.12
471.777	453.12
471.997	437.12
472.216	461.12
472.435	525.12
472.654	495.12
472.873	466.12
473.092	451.12
473.311	431.12
473.53	460.12
473.749	480.12
473.968	518.12
474.187	630.12
474.406	665.12
474.625	493.12
474.844	468.12
475.063	460.12
475.282	456.12
475.501	468.12
475.72	465.12
475.939	463.12
476.158	451.12
476.377	461.12
476.596	472.12
476.814	484.12
477.033	463.12
477.252	474.12
477.471	476.12
477.69	481.12
477.908	471.12
478.127	489.12
478.346	496.12
478.564	511.12
478.783	499.12
479.002	503.12
479.22	518.12
479.439	527.12
479.658	561.12
479.876	543.12
480.095	558.12
480.313	573.12
480.532	558.12
480.751	551.12
480.969	569.12
481.188	654.12
481.406	715.12
481.624	612.12
481.843	549.12
482.061	559.12
482.28	548.12
482.498	543.12
482.717	557.12
482.935	536.12
483.153	544.12
483.372	527.12
483.59	525.12
483.808	543.12
484.027	525.12
484.245	535.12
484.463	531.12
484.681	557.12
484.9	550.12
485.118	531.12
485.336	547.12
485.554	530.12
485.772	552.12
485.99	565.12
486.209	574.12
486.427	552.12
486.645	590.12
486.863	591.12
487.081	613.12
487.299	581.12
487.517	565.12
487.735	540.12
487.953	552.12
488.171	571.12
488.389	558.12
488.607	558.12
488.825	582.12
489.043	568.12
489.261	587.12
489.479	564.12
489.696	572.12
489.914	594.12
490.132	577.12
490.35	575.12
490.568	600.12
490.786	605.12
491.003	616.12
491.221	619.12
491.439	617.12
491.657	640.12
491.874	645.12
492.092	642.12
492.31	656.12
492.527	677.12
492.745	653.12
492.963	648.12
493.18	669.12
493.398	667.12
493.615	704.12
493.833	658.12
494.05	658.12
494.268	679.12
494.485	683.12
494.703	700.12
494.92	653.12
495.138	680.12
495.355	692.12
495.573	667.12
495.79	645.12
496.008	671.12
496.225	675.12
496.442	684.12
496.66	694.12
496.877	697.12
497.094	685.12
497.312	697.12
497.529	679.12
497.746	701.12
497.963	710.12
498.181	730.12
498.398	736.12
498.615	709.12
498.832	747.12
499.049	727.12
499.267	730.12
499.484	754.12
499.701	770.12
499.918	783.12
500.135	800.12
500.352	823.12
500.569	841.12
500.786	854.12
501.003	868.12
501.22	817.12
501.437	806.12
501.654	819.12
501.871	839.12
