Data from 1972.PennyLincolnUp.Lamp.En5.5.200Scan.071719.P1._HRD10591_15-26-59-844.txt Node
Date: Thu Jul 18 15:26:59 EDT 2019
User: cochatt
Spectrometer: HR+D1059
Trigger mode: 1
Integration Time (sec): 1.000000E-1
Scans to average: 1
Electric dark correction enabled: true
Nonlinearity correction enabled: false
Boxcar width: 0
XAxis mode: Wavelengths
Number of Pixels in Spectrum: 2048
>>>>>Begin Spectral Data<<<<<
223.165	-4.5
223.4	-4.5
223.635	-4.5
223.869	-12.5
224.104	-10.5
224.338	-22.5
224.573	-14.5
224.808	-11.5
225.042	-5.5
225.277	13.5
225.511	-9.5
225.746	1.5
225.98	-3.5
226.215	9.5
226.449	13.5
226.683	12.5
226.918	11.5
227.152	32.5
227.387	27.5
227.621	33.5
227.856	39.5
228.09	48.5
228.324	38.5
228.559	41.5
228.793	67.5
229.027	90.5
229.262	108.5
229.496	99.5
229.73	108.5
229.964	151.5
230.199	124.5
230.433	107.5
230.667	117.5
230.901	108.5
231.136	111.5
231.37	110.5
231.604	100.5
231.838	115.5
232.072	101.5
232.306	105.5
232.541	108.5
232.775	103.5
233.009	108.5
233.243	104.5
233.477	94.5
233.711	78.5
233.945	98.5
234.179	112.5
234.413	99.5
234.647	105.5
234.881	113.5
235.115	105.5
235.349	104.5
235.583	111.5
235.817	106.5
236.051	118.5
236.285	123.5
236.519	119.5
236.753	139.5
236.987	129.5
237.221	155.5
237.455	212.5
237.689	164.5
237.922	142.5
238.156	116.5
238.39	119.5
238.624	125.5
238.858	120.5
239.091	125.5
239.325	101.5
239.559	115.5
239.793	111.5
240.027	107.5
240.26	126.5
240.494	138.5
240.728	141.5
240.961	149.5
241.195	135.5
241.429	128.5
241.662	118.5
241.896	124.5
242.13	129.5
242.363	117.5
242.597	111.5
242.83	137.5
243.064	137.5
243.298	139.5
243.531	125.5
243.765	132.5
243.998	135.5
244.232	131.5
244.465	120.5
244.699	149.5
244.932	126.5
245.166	125.5
245.399	141.5
245.633	120.5
245.866	135.5
246.099	128.5
246.333	141.5
246.566	125.5
246.8	137.5
247.033	140.5
247.266	144.5
247.5	133.5
247.733	144.5
247.966	172.5
248.2	167.5
248.433	145.5
248.666	164.5
248.899	145.5
249.133	187.5
249.366	174.5
249.599	170.5
249.832	158.5
250.066	155.5
250.299	156.5
250.532	174.5
250.765	171.5
250.998	185.5
251.231	196.5
251.465	189.5
251.698	195.5
251.931	181.5
252.164	171.5
252.397	176.5
252.63	174.5
252.863	185.5
253.096	190.5
253.329	197.5
253.562	205.5
253.795	199.5
254.028	185.5
254.261	186.5
254.494	188.5
254.727	214.5
254.96	238.5
255.193	246.5
255.426	218.5
255.659	196.5
255.892	213.5
256.124	213.5
256.357	207.5
256.59	191.5
256.823	196.5
257.056	197.5
257.289	194.5
257.521	195.5
257.754	181.5
257.987	180.5
258.22	187.5
258.452	183.5
258.685	191.5
258.918	189.5
259.151	181.5
259.383	210.5
259.616	186.5
259.849	199.5
260.081	197.5
260.314	208.5
260.547	191.5
260.779	219.5
261.012	198.5
261.244	212.5
261.477	197.5
261.71	192.5
261.942	208.5
262.175	220.5
262.407	201.5
262.64	203.5
262.872	176.5
263.105	190.5
263.337	195.5
263.57	183.5
263.802	188.5
264.035	187.5
264.267	199.5
264.499	176.5
264.732	187.5
264.964	174.5
265.197	187.5
265.429	197.5
265.661	195.5
265.894	177.5
266.126	179.5
266.358	187.5
266.591	195.5
266.823	199.5
267.055	204.5
267.287	193.5
267.52	197.5
267.752	192.5
267.984	188.5
268.216	192.5
268.448	202.5
268.681	204.5
268.913	199.5
269.145	205.5
269.377	229.5
269.609	240.5
269.841	222.5
270.073	235.5
270.306	259.5
270.538	249.5
270.77	263.5
271.002	233.5
271.234	251.5
271.466	257.5
271.698	259.5
271.93	277.5
272.162	276.5
272.394	261.5
272.626	240.5
272.858	246.5
273.09	220.5
273.322	236.5
273.553	227.5
273.785	243.5
274.017	230.5
274.249	225.5
274.481	213.5
274.713	224.5
274.945	222.5
275.176	221.5
275.408	225.5
275.64	227.5
275.872	237.5
276.104	223.5
276.335	215.5
276.567	214.5
276.799	237.5
277.031	249.5
277.262	255.5
277.494	263.5
277.726	247.5
277.957	214.5
278.189	247.5
278.421	231.5
278.652	229.5
278.884	232.5
279.115	225.5
279.347	222.5
279.579	235.5
279.81	228.5
280.042	229.5
280.273	207.5
280.505	230.5
280.736	220.5
280.968	215.5
281.199	215.5
281.431	228.5
281.662	230.5
281.894	219.5
282.125	226.5
282.356	232.5
282.588	261.5
282.819	245.5
283.051	231.5
283.282	217.5
283.513	237.5
283.745	236.5
283.976	224.5
284.207	241.5
284.439	235.5
284.67	239.5
284.901	225.5
285.132	231.5
285.364	239.5
285.595	228.5
285.826	234.5
286.057	218.5
286.288	232.5
286.52	235.5
286.751	246.5
286.982	232.5
287.213	211.5
287.444	256.5
287.675	231.5
287.906	247.5
288.138	240.5
288.369	251.5
288.6	247.5
288.831	252.5
289.062	247.5
289.293	238.5
289.524	228.5
289.755	232.5
289.986	247.5
290.217	216.5
290.448	232.5
290.679	236.5
290.91	254.5
291.141	214.5
291.371	222.5
291.602	231.5
291.833	238.5
292.064	240.5
292.295	239.5
292.526	237.5
292.757	243.5
292.987	249.5
293.218	227.5
293.449	237.5
293.68	231.5
293.91	237.5
294.141	248.5
294.372	227.5
294.603	230.5
294.833	225.5
295.064	236.5
295.295	236.5
295.525	246.5
295.756	229.5
295.987	243.5
296.217	247.5
296.448	259.5
296.679	242.5
296.909	239.5
297.14	233.5
297.37	243.5
297.601	251.5
297.831	223.5
298.062	257.5
298.292	258.5
298.523	249.5
298.753	251.5
298.984	244.5
299.214	260.5
299.445	244.5
299.675	259.5
299.905	259.5
300.136	261.5
300.366	242.5
300.597	260.5
300.827	264.5
301.057	262.5
301.288	269.5
301.518	260.5
301.748	250.5
301.979	269.5
302.209	271.5
302.439	248.5
302.669	265.5
302.9	250.5
303.13	266.5
303.36	272.5
303.59	275.5
303.82	255.5
304.051	277.5
304.281	267.5
304.511	250.5
304.741	266.5
304.971	268.5
305.201	273.5
305.431	251.5
305.661	270.5
305.891	259.5
306.121	264.5
306.352	271.5
306.582	267.5
306.812	284.5
307.042	265.5
307.272	267.5
307.502	275.5
307.731	258.5
307.961	278.5
308.191	269.5
308.421	269.5
308.651	283.5
308.881	283.5
309.111	280.5
309.341	274.5
309.571	277.5
309.8	291.5
310.03	303.5
310.26	316.5
310.49	301.5
310.72	304.5
310.949	315.5
311.179	327.5
311.409	286.5
311.639	282.5
311.868	332.5
312.098	299.5
312.328	307.5
312.557	325.5
312.787	304.5
313.017	329.5
313.246	305.5
313.476	302.5
313.706	313.5
313.935	329.5
314.165	323.5
314.394	334.5
314.624	309.5
314.853	297.5
315.083	311.5
315.312	297.5
315.542	311.5
315.771	289.5
316.001	297.5
316.23	298.5
316.46	301.5
316.689	319.5
316.919	315.5
317.148	321.5
317.377	323.5
317.607	305.5
317.836	319.5
318.065	316.5
318.295	312.5
318.524	296.5
318.753	325.5
318.983	302.5
319.212	301.5
319.441	305.5
319.67	313.5
319.9	319.5
320.129	313.5
320.358	291.5
320.587	304.5
320.816	307.5
321.046	313.5
321.275	315.5
321.504	310.5
321.733	313.5
321.962	315.5
322.191	335.5
322.42	354.5
322.649	353.5
322.878	357.5
323.108	350.5
323.337	375.5
323.566	411.5
323.795	435.5
324.024	454.5
324.253	533.5
324.482	759.5
324.71	1191.5
324.939	1731.5
325.168	1531.5
325.397	779.5
325.626	534.5
325.855	454.5
326.084	413.5
326.313	398.5
326.542	397.5
326.77	430.5
326.999	524.5
327.228	704.5
327.457	1014.5
327.686	1316.5
327.914	911.5
328.143	589.5
328.372	500.5
328.6	465.5
328.829	439.5
329.058	477.5
329.287	472.5
329.515	450.5
329.744	411.5
329.972	414.5
330.201	406.5
330.43	469.5
330.658	443.5
330.887	478.5
331.115	476.5
331.344	409.5
331.572	404.5
331.801	382.5
332.03	384.5
332.258	380.5
332.486	365.5
332.715	336.5
332.943	354.5
333.172	365.5
333.4	348.5
333.629	369.5
333.857	366.5
334.085	374.5
334.314	411.5
334.542	424.5
334.771	416.5
334.999	413.5
335.227	376.5
335.455	380.5
335.684	368.5
335.912	367.5
336.14	350.5
336.369	336.5
336.597	332.5
336.825	337.5
337.053	374.5
337.281	346.5
337.51	350.5
337.738	355.5
337.966	346.5
338.194	356.5
338.422	335.5
338.65	361.5
338.878	333.5
339.106	313.5
339.334	348.5
339.562	324.5
339.79	330.5
340.018	341.5
340.246	349.5
340.474	353.5
340.702	349.5
340.93	335.5
341.158	331.5
341.386	328.5
341.614	333.5
341.842	332.5
342.07	350.5
342.298	337.5
342.526	346.5
342.754	339.5
342.981	319.5
343.209	336.5
343.437	333.5
343.665	331.5
343.893	343.5
344.12	329.5
344.348	336.5
344.576	344.5
344.804	348.5
345.031	343.5
345.259	350.5
345.487	346.5
345.714	341.5
345.942	337.5
346.17	351.5
346.397	334.5
346.625	334.5
346.853	332.5
347.08	329.5
347.308	337.5
347.535	341.5
347.763	343.5
347.99	337.5
348.218	339.5
348.445	330.5
348.673	341.5
348.9	329.5
349.128	328.5
349.355	342.5
349.583	324.5
349.81	307.5
350.037	320.5
350.265	328.5
350.492	343.5
350.72	310.5
350.947	327.5
351.174	353.5
351.402	321.5
351.629	336.5
351.856	330.5
352.083	336.5
352.311	321.5
352.538	357.5
352.765	327.5
352.992	342.5
353.22	341.5
353.447	335.5
353.674	349.5
353.901	335.5
354.128	326.5
354.355	298.5
354.583	326.5
354.81	307.5
355.037	313.5
355.264	317.5
355.491	318.5
355.718	301.5
355.945	333.5
356.172	311.5
356.399	287.5
356.626	320.5
356.853	311.5
357.08	306.5
357.307	298.5
357.534	299.5
357.761	307.5
357.988	315.5
358.215	313.5
358.441	313.5
358.668	303.5
358.895	309.5
359.122	312.5
359.349	302.5
359.576	309.5
359.802	333.5
360.029	362.5
360.256	372.5
360.483	375.5
360.709	329.5
360.936	335.5
361.163	319.5
361.39	319.5
361.616	321.5
361.843	323.5
362.07	329.5
362.296	320.5
362.523	318.5
362.749	324.5
362.976	337.5
363.203	322.5
363.429	310.5
363.656	320.5
363.882	317.5
364.109	311.5
364.335	323.5
364.562	299.5
364.788	332.5
365.015	304.5
365.241	311.5
365.468	324.5
365.694	311.5
365.92	288.5
366.147	314.5
366.373	302.5
366.599	309.5
366.826	303.5
367.052	314.5
367.278	323.5
367.505	317.5
367.731	311.5
367.957	322.5
368.184	329.5
368.41	324.5
368.636	337.5
368.862	331.5
369.089	307.5
369.315	330.5
369.541	315.5
369.767	307.5
369.993	316.5
370.219	320.5
370.445	311.5
370.672	302.5
370.898	321.5
371.124	311.5
371.35	298.5
371.576	331.5
371.802	317.5
372.028	298.5
372.254	325.5
372.48	331.5
372.706	315.5
372.932	312.5
373.158	331.5
373.384	320.5
373.61	310.5
373.835	305.5
374.061	302.5
374.287	329.5
374.513	308.5
374.739	330.5
374.965	330.5
375.191	325.5
375.416	304.5
375.642	332.5
375.868	307.5
376.094	331.5
376.319	304.5
376.545	311.5
376.771	309.5
376.997	310.5
377.222	313.5
377.448	313.5
377.674	298.5
377.899	313.5
378.125	321.5
378.35	313.5
378.576	319.5
378.802	316.5
379.027	311.5
379.253	312.5
379.478	307.5
379.704	314.5
379.929	314.5
380.155	305.5
380.38	298.5
380.606	316.5
380.831	303.5
381.057	309.5
381.282	324.5
381.507	317.5
381.733	307.5
381.958	299.5
382.184	333.5
382.409	316.5
382.634	322.5
382.86	323.5
383.085	328.5
383.31	335.5
383.535	331.5
383.761	317.5
383.986	316.5
384.211	319.5
384.436	339.5
384.662	329.5
384.887	336.5
385.112	335.5
385.337	339.5
385.562	312.5
385.787	309.5
386.013	339.5
386.238	365.5
386.463	340.5
386.688	347.5
386.913	334.5
387.138	340.5
387.363	343.5
387.588	336.5
387.813	327.5
388.038	313.5
388.263	343.5
388.488	329.5
388.713	330.5
388.938	321.5
389.163	325.5
389.387	333.5
389.612	335.5
389.837	332.5
390.062	345.5
390.287	332.5
390.512	324.5
390.736	333.5
390.961	340.5
391.186	328.5
391.411	345.5
391.636	335.5
391.86	340.5
392.085	330.5
392.31	351.5
392.534	341.5
392.759	351.5
392.984	345.5
393.208	366.5
393.433	373.5
393.658	377.5
393.882	346.5
394.107	348.5
394.331	337.5
394.556	345.5
394.78	339.5
395.005	337.5
395.229	336.5
395.454	345.5
395.678	337.5
395.903	358.5
396.127	346.5
396.352	359.5
396.576	368.5
396.801	359.5
397.025	362.5
397.249	358.5
397.474	357.5
397.698	348.5
397.922	368.5
398.147	360.5
398.371	380.5
398.595	365.5
398.82	383.5
399.044	383.5
399.268	390.5
399.492	393.5
399.717	413.5
399.941	427.5
400.165	437.5
400.389	468.5
400.613	433.5
400.837	412.5
401.062	380.5
401.286	403.5
401.51	384.5
401.734	375.5
401.958	380.5
402.182	385.5
402.406	393.5
402.63	371.5
402.854	364.5
403.078	387.5
403.302	361.5
403.526	355.5
403.75	368.5
403.974	379.5
404.198	404.5
404.422	392.5
404.645	390.5
404.869	371.5
405.093	424.5
405.317	454.5
405.541	490.5
405.765	412.5
405.988	401.5
406.212	423.5
406.436	434.5
406.66	443.5
406.883	422.5
407.107	426.5
407.331	472.5
407.555	520.5
407.778	525.5
408.002	470.5
408.226	440.5
408.449	442.5
408.673	441.5
408.896	475.5
409.12	493.5
409.344	480.5
409.567	404.5
409.791	382.5
410.014	386.5
410.238	380.5
410.461	388.5
410.685	411.5
410.908	412.5
411.132	429.5
411.355	445.5
411.578	442.5
411.802	417.5
412.025	405.5
412.249	421.5
412.472	420.5
412.695	449.5
412.919	456.5
413.142	390.5
413.365	391.5
413.589	379.5
413.812	368.5
414.035	366.5
414.258	358.5
414.482	365.5
414.705	376.5
414.928	362.5
415.151	362.5
415.374	361.5
415.597	371.5
415.821	371.5
416.044	372.5
416.267	381.5
416.49	365.5
416.713	359.5
416.936	368.5
417.159	369.5
417.382	371.5
417.605	372.5
417.828	381.5
418.051	392.5
418.274	397.5
418.497	388.5
418.72	392.5
418.943	364.5
419.166	384.5
419.389	394.5
419.611	408.5
419.834	393.5
420.057	381.5
420.28	389.5
420.503	394.5
420.726	398.5
420.948	388.5
421.171	429.5
421.394	448.5
421.617	401.5
421.839	375.5
422.062	383.5
422.285	403.5
422.507	469.5
422.73	504.5
422.953	474.5
423.175	415.5
423.398	384.5
423.621	395.5
423.843	418.5
424.066	415.5
424.288	410.5
424.511	434.5
424.733	498.5
424.956	548.5
425.178	533.5
425.401	516.5
425.623	530.5
425.846	461.5
426.068	449.5
426.291	407.5
426.513	397.5
426.735	435.5
426.958	472.5
427.18	531.5
427.402	634.5
427.625	668.5
427.847	606.5
428.069	516.5
428.292	463.5
428.514	428.5
428.736	404.5
428.958	404.5
429.181	379.5
429.403	381.5
429.625	392.5
429.847	428.5
430.069	483.5
430.292	475.5
430.514	424.5
430.736	397.5
430.958	374.5
431.18	383.5
431.402	361.5
431.624	371.5
431.846	360.5
432.068	368.5
432.29	366.5
432.512	379.5
432.734	379.5
432.956	359.5
433.178	379.5
433.4	387.5
433.622	381.5
433.844	376.5
434.066	368.5
434.287	366.5
434.509	391.5
434.731	375.5
434.953	374.5
435.175	398.5
435.397	420.5
435.618	402.5
435.84	446.5
436.062	524.5
436.284	593.5
436.505	489.5
436.727	446.5
436.949	400.5
437.17	407.5
437.392	384.5
437.614	425.5
437.835	440.5
438.057	507.5
438.278	575.5
438.5	611.5
438.721	648.5
438.943	615.5
439.165	512.5
439.386	424.5
439.608	461.5
439.829	455.5
440.05	480.5
440.272	499.5
440.493	474.5
440.715	418.5
440.936	406.5
441.158	396.5
441.379	407.5
441.6	413.5
441.822	400.5
442.043	457.5
442.264	512.5
442.486	556.5
442.707	476.5
442.928	446.5
443.149	444.5
443.371	453.5
443.592	489.5
443.813	548.5
444.034	634.5
444.255	488.5
444.476	446.5
444.698	416.5
444.919	429.5
445.14	500.5
445.361	491.5
445.582	461.5
445.803	521.5
446.024	588.5
446.245	604.5
446.466	553.5
446.687	465.5
446.908	435.5
447.129	426.5
447.35	423.5
447.571	397.5
447.792	404.5
448.013	407.5
448.234	416.5
448.455	435.5
448.675	560.5
448.896	634.5
449.117	557.5
449.338	513.5
449.559	606.5
449.779	667.5
450	531.5
450.221	460.5
450.442	412.5
450.662	394.5
450.883	384.5
451.104	386.5
451.324	388.5
451.545	376.5
451.766	364.5
451.986	351.5
452.207	347.5
452.428	359.5
452.648	370.5
452.869	366.5
453.089	350.5
453.31	364.5
453.53	362.5
453.751	357.5
453.971	369.5
454.192	367.5
454.412	349.5
454.633	357.5
454.853	354.5
455.073	369.5
455.294	394.5
455.514	441.5
455.734	404.5
455.955	372.5
456.175	331.5
456.395	350.5
456.616	343.5
456.836	339.5
457.056	326.5
457.276	344.5
457.497	351.5
457.717	325.5
457.937	324.5
458.157	329.5
458.377	336.5
458.598	366.5
458.818	401.5
459.038	461.5
459.258	488.5
459.478	412.5
459.698	405.5
459.918	380.5
460.138	373.5
460.358	353.5
460.578	375.5
460.798	362.5
461.018	375.5
461.238	373.5
461.458	366.5
461.678	381.5
461.898	378.5
462.118	367.5
462.338	379.5
462.558	386.5
462.777	382.5
462.997	392.5
463.217	393.5
463.437	390.5
463.657	395.5
463.876	399.5
464.096	389.5
464.316	375.5
464.536	389.5
464.755	368.5
464.975	415.5
465.195	405.5
465.414	468.5
465.634	431.5
465.854	395.5
466.073	380.5
466.293	383.5
466.512	362.5
466.732	363.5
466.951	351.5
467.171	343.5
467.391	361.5
467.61	356.5
467.829	368.5
468.049	369.5
468.268	370.5
468.488	355.5
468.707	359.5
468.927	365.5
469.146	332.5
469.365	354.5
469.585	345.5
469.804	365.5
470.023	358.5
470.243	355.5
470.462	367.5
470.681	374.5
470.901	373.5
471.12	363.5
471.339	360.5
471.558	357.5
471.777	345.5
471.997	376.5
472.216	356.5
472.435	413.5
472.654	385.5
472.873	373.5
473.092	375.5
473.311	372.5
473.53	389.5
473.749	367.5
473.968	399.5
474.187	502.5
474.406	519.5
474.625	431.5
474.844	380.5
475.063	364.5
475.282	392.5
475.501	378.5
475.72	359.5
475.939	365.5
476.158	378.5
476.377	371.5
476.596	397.5
476.814	408.5
477.033	415.5
477.252	385.5
477.471	407.5
477.69	424.5
477.908	388.5
478.127	393.5
478.346	391.5
478.564	410.5
478.783	387.5
479.002	418.5
479.22	405.5
479.439	421.5
479.658	432.5
479.876	426.5
480.095	455.5
480.313	458.5
480.532	453.5
480.751	447.5
480.969	442.5
481.188	490.5
481.406	534.5
481.624	484.5
481.843	466.5
482.061	424.5
482.28	422.5
482.498	450.5
482.717	420.5
482.935	438.5
483.153	445.5
483.372	423.5
483.59	429.5
483.808	417.5
484.027	390.5
484.245	444.5
484.463	429.5
484.681	458.5
484.9	423.5
485.118	445.5
485.336	448.5
485.554	448.5
485.772	451.5
485.99	446.5
486.209	461.5
486.427	456.5
486.645	461.5
486.863	474.5
487.081	441.5
487.299	463.5
487.517	459.5
487.735	470.5
487.953	455.5
488.171	457.5
488.389	453.5
488.607	478.5
488.825	462.5
489.043	476.5
489.261	472.5
489.479	487.5
489.696	463.5
489.914	472.5
490.132	472.5
490.35	475.5
490.568	493.5
490.786	502.5
491.003	501.5
491.221	496.5
491.439	504.5
491.657	525.5
491.874	533.5
492.092	488.5
492.31	526.5
492.527	542.5
492.745	530.5
492.963	526.5
493.18	520.5
493.398	503.5
493.615	524.5
493.833	526.5
494.05	537.5
494.268	522.5
494.485	523.5
494.703	530.5
494.92	527.5
495.138	556.5
495.355	543.5
495.573	551.5
495.79	565.5
496.008	557.5
496.225	536.5
496.442	527.5
496.66	536.5
496.877	530.5
497.094	565.5
497.312	531.5
497.529	552.5
497.746	569.5
497.963	579.5
498.181	587.5
498.398	584.5
498.615	597.5
498.832	606.5
499.049	597.5
499.267	603.5
499.484	621.5
499.701	638.5
499.918	656.5
500.135	680.5
500.352	697.5
500.569	708.5
500.786	710.5
501.003	706.5
501.22	680.5
501.437	665.5
501.654	660.5
501.871	664.5
502.088	650.5
502.305	622.5
502.522	627.5
502.739	603.5
502.956	594.5
503.172	566.5
503.389	581.5
503.606	579.5
503.823	557.5
504.04	563.5
504.256	545.5
504.473	564.5
504.69	530.5
504.907	519.5
505.123	541.5
505.34	535.5
505.557	533.5
505.773	536.5
505.99	533.5
506.207	527.5
506.423	503.5
506.64	512.5
506.856	523.5
507.073	515.5
507.289	491.5
507.506	502.5
507.722	525.5
507.939	533.5
508.155	497.5
508.372	503.5
508.588	513.5
508.805	511.5
509.021	511.5
509.238	530.5
509.454	515.5
509.67	515.5
509.887	511.5
510.103	519.5
510.319	500.5
510.536	596.5
510.752	964.5
510.968	778.5
511.184	524.5
511.401	494.5
511.617	501.5
511.833	482.5
512.049	469.5
512.265	491.5
512.481	462.5
512.698	482.5
512.914	513.5
513.13	485.5
513.346	461.5
513.562	476.5
513.778	465.5
513.994	488.5
514.21	513.5
514.426	521.5
514.642	528.5
514.858	573.5
515.074	569.5
515.29	672.5
515.506	1014.5
515.721	819.5
515.937	595.5
516.153	528.5
516.369	509.5
516.585	487.5
516.801	491.5
517.016	468.5
517.232	492.5
517.448	488.5
517.664	480.5
517.879	489.5
518.095	511.5
518.311	470.5
518.527	485.5
518.742	469.5
518.958	452.5
519.173	484.5
519.389	496.5
519.605	476.5
519.82	475.5
520.036	493.5
