Data from 1972.PennyLincolnUp.Lamp.En5.5.200Scan.071719.P1._HRD10591_15-29-19-844.txt Node
Date: Thu Jul 18 15:29:19 EDT 2019
User: cochatt
Spectrometer: HR+D1059
Trigger mode: 1
Integration Time (sec): 1.000000E-1
Scans to average: 1
Electric dark correction enabled: true
Nonlinearity correction enabled: false
Boxcar width: 0
XAxis mode: Wavelengths
Number of Pixels in Spectrum: 2048
>>>>>Begin Spectral Data<<<<<
223.165	-32.25
223.4	-32.25
223.635	-32.25
223.869	-10.25
224.104	-14.25
224.338	-18.25
224.573	-6.25
224.808	-18.25
225.042	-15.25
225.277	-15.25
225.511	-5.25
225.746	5.75
225.98	19.75
226.215	19.75
226.449	0.75
226.683	38.75
226.918	27.75
227.152	22.75
227.387	38.75
227.621	27.75
227.856	40.75
228.09	34.75
228.324	45.75
228.559	46.75
228.793	54.75
229.027	102.75
229.262	104.75
229.496	135.75
229.73	136.75
229.964	179.75
230.199	144.75
230.433	130.75
230.667	122.75
230.901	115.75
231.136	115.75
231.37	112.75
231.604	105.75
231.838	106.75
232.072	120.75
232.306	112.75
232.541	129.75
232.775	108.75
233.009	116.75
233.243	117.75
233.477	114.75
233.711	126.75
233.945	112.75
234.179	124.75
234.413	113.75
234.647	113.75
234.881	125.75
235.115	119.75
235.349	122.75
235.583	116.75
235.817	117.75
236.051	124.75
236.285	138.75
236.519	126.75
236.753	135.75
236.987	162.75
237.221	213.75
237.455	273.75
237.689	215.75
237.922	161.75
238.156	161.75
238.39	143.75
238.624	129.75
238.858	131.75
239.091	137.75
239.325	124.75
239.559	118.75
239.793	135.75
240.027	128.75
240.26	156.75
240.494	163.75
240.728	151.75
240.961	155.75
241.195	159.75
241.429	152.75
241.662	134.75
241.896	136.75
242.13	125.75
242.363	134.75
242.597	144.75
242.83	125.75
243.064	142.75
243.298	146.75
243.531	149.75
243.765	124.75
243.998	141.75
244.232	132.75
244.465	149.75
244.699	155.75
244.932	143.75
245.166	147.75
245.399	153.75
245.633	138.75
245.866	162.75
246.099	161.75
246.333	136.75
246.566	143.75
246.8	149.75
247.033	167.75
247.266	160.75
247.5	161.75
247.733	155.75
247.966	183.75
248.2	179.75
248.433	185.75
248.666	183.75
248.899	179.75
249.133	221.75
249.366	248.75
249.599	220.75
249.832	190.75
250.066	199.75
250.299	188.75
250.532	200.75
250.765	220.75
250.998	252.75
251.231	239.75
251.465	242.75
251.698	212.75
251.931	203.75
252.164	214.75
252.397	220.75
252.63	207.75
252.863	212.75
253.096	218.75
253.329	242.75
253.562	238.75
253.795	247.75
254.028	221.75
254.261	244.75
254.494	243.75
254.727	285.75
254.96	324.75
255.193	296.75
255.426	284.75
255.659	252.75
255.892	265.75
256.124	257.75
256.357	267.75
256.59	259.75
256.823	246.75
257.056	221.75
257.289	217.75
257.521	215.75
257.754	234.75
257.987	226.75
258.22	244.75
258.452	218.75
258.685	228.75
258.918	225.75
259.151	229.75
259.383	241.75
259.616	228.75
259.849	250.75
260.081	258.75
260.314	274.75
260.547	280.75
260.779	275.75
261.012	246.75
261.244	233.75
261.477	227.75
261.71	239.75
261.942	231.75
262.175	260.75
262.407	240.75
262.64	246.75
262.872	232.75
263.105	237.75
263.337	232.75
263.57	221.75
263.802	227.75
264.035	224.75
264.267	249.75
264.499	228.75
264.732	234.75
264.964	228.75
265.197	225.75
265.429	212.75
265.661	217.75
265.894	216.75
266.126	226.75
266.358	217.75
266.591	228.75
266.823	233.75
267.055	239.75
267.287	251.75
267.52	241.75
267.752	240.75
267.984	249.75
268.216	247.75
268.448	247.75
268.681	243.75
268.913	266.75
269.145	258.75
269.377	300.75
269.609	308.75
269.841	289.75
270.073	289.75
270.306	323.75
270.538	339.75
270.77	356.75
271.002	327.75
271.234	340.75
271.466	325.75
271.698	339.75
271.93	350.75
272.162	373.75
272.394	356.75
272.626	346.75
272.858	321.75
273.09	320.75
273.322	271.75
273.553	284.75
273.785	308.75
274.017	280.75
274.249	282.75
274.481	270.75
274.713	292.75
274.945	310.75
275.176	310.75
275.408	292.75
275.64	277.75
275.872	282.75
276.104	283.75
276.335	296.75
276.567	309.75
276.799	318.75
277.031	348.75
277.262	342.75
277.494	340.75
277.726	328.75
277.957	310.75
278.189	287.75
278.421	289.75
278.652	289.75
278.884	296.75
279.115	278.75
279.347	283.75
279.579	297.75
279.81	287.75
280.042	284.75
280.273	271.75
280.505	288.75
280.736	268.75
280.968	285.75
281.199	287.75
281.431	282.75
281.662	282.75
281.894	285.75
282.125	284.75
282.356	313.75
282.588	326.75
282.819	347.75
283.051	295.75
283.282	269.75
283.513	279.75
283.745	290.75
283.976	277.75
284.207	300.75
284.439	305.75
284.67	287.75
284.901	287.75
285.132	293.75
285.364	281.75
285.595	291.75
285.826	279.75
286.057	301.75
286.288	292.75
286.52	282.75
286.751	278.75
286.982	296.75
287.213	301.75
287.444	284.75
287.675	310.75
287.906	309.75
288.138	312.75
288.369	318.75
288.6	312.75
288.831	310.75
289.062	309.75
289.293	302.75
289.524	296.75
289.755	302.75
289.986	293.75
290.217	288.75
290.448	299.75
290.679	306.75
290.91	297.75
291.141	314.75
291.371	298.75
291.602	281.75
291.833	296.75
292.064	295.75
292.295	293.75
292.526	292.75
292.757	294.75
292.987	305.75
293.218	305.75
293.449	297.75
293.68	308.75
293.91	306.75
294.141	289.75
294.372	294.75
294.603	304.75
294.833	301.75
295.064	298.75
295.295	290.75
295.525	300.75
295.756	310.75
295.987	326.75
296.217	351.75
296.448	360.75
296.679	328.75
296.909	295.75
297.14	313.75
297.37	312.75
297.601	313.75
297.831	311.75
298.062	308.75
298.292	311.75
298.523	298.75
298.753	340.75
298.984	318.75
299.214	326.75
299.445	308.75
299.675	321.75
299.905	328.75
300.136	315.75
300.366	329.75
300.597	319.75
300.827	317.75
301.057	355.75
301.288	317.75
301.518	346.75
301.748	337.75
301.979	330.75
302.209	345.75
302.439	350.75
302.669	332.75
302.9	350.75
303.13	330.75
303.36	330.75
303.59	336.75
303.82	346.75
304.051	329.75
304.281	338.75
304.511	312.75
304.741	326.75
304.971	330.75
305.201	329.75
305.431	342.75
305.661	345.75
305.891	343.75
306.121	326.75
306.352	337.75
306.582	342.75
306.812	346.75
307.042	340.75
307.272	338.75
307.502	335.75
307.731	339.75
307.961	343.75
308.191	349.75
308.421	350.75
308.651	349.75
308.881	333.75
309.111	356.75
309.341	349.75
309.571	380.75
309.8	377.75
310.03	385.75
310.26	403.75
310.49	400.75
310.72	405.75
310.949	429.75
311.179	433.75
311.409	432.75
311.639	398.75
311.868	397.75
312.098	405.75
312.328	403.75
312.557	436.75
312.787	437.75
313.017	454.75
313.246	430.75
313.476	425.75
313.706	402.75
313.935	408.75
314.165	421.75
314.394	433.75
314.624	439.75
314.853	426.75
315.083	429.75
315.312	397.75
315.542	409.75
315.771	395.75
316.001	406.75
316.23	385.75
316.46	393.75
316.689	377.75
316.919	405.75
317.148	424.75
317.377	402.75
317.607	397.75
317.836	406.75
318.065	386.75
318.295	404.75
318.524	401.75
318.753	400.75
318.983	383.75
319.212	402.75
319.441	404.75
319.67	436.75
319.9	407.75
320.129	384.75
320.358	416.75
320.587	413.75
320.816	430.75
321.046	445.75
321.275	432.75
321.504	426.75
321.733	441.75
321.962	452.75
322.191	472.75
322.42	478.75
322.649	485.75
322.878	507.75
323.108	529.75
323.337	548.75
323.566	571.75
323.795	628.75
324.024	718.75
324.253	889.75
324.482	1298.75
324.71	2060.75
324.939	2954.75
325.168	2601.75
325.397	1318.75
325.626	836.75
325.855	651.75
326.084	612.75
326.313	596.75
326.542	594.75
326.77	656.75
326.999	796.75
327.228	1148.75
327.457	1766.75
327.686	2215.75
327.914	1451.75
328.143	930.75
328.372	795.75
328.6	710.75
328.829	670.75
329.058	694.75
329.287	688.75
329.515	642.75
329.744	592.75
329.972	594.75
330.201	630.75
330.43	685.75
330.658	700.75
330.887	727.75
331.115	733.75
331.344	613.75
331.572	572.75
331.801	571.75
332.03	553.75
332.258	530.75
332.486	488.75
332.715	488.75
332.943	472.75
333.172	478.75
333.4	493.75
333.629	484.75
333.857	502.75
334.085	514.75
334.314	560.75
334.542	596.75
334.771	623.75
334.999	555.75
335.227	508.75
335.455	499.75
335.684	467.75
335.912	451.75
336.14	470.75
336.369	471.75
336.597	462.75
336.825	446.75
337.053	474.75
337.281	448.75
337.51	450.75
337.738	437.75
337.966	456.75
338.194	458.75
338.422	470.75
338.65	444.75
338.878	455.75
339.106	423.75
339.334	445.75
339.562	436.75
339.79	441.75
340.018	450.75
340.246	451.75
340.474	444.75
340.702	463.75
340.93	439.75
341.158	440.75
341.386	423.75
341.614	457.75
341.842	440.75
342.07	432.75
342.298	432.75
342.526	411.75
342.754	408.75
342.981	421.75
343.209	418.75
343.437	407.75
343.665	440.75
343.893	426.75
344.12	448.75
344.348	420.75
344.576	438.75
344.804	468.75
345.031	449.75
345.259	470.75
345.487	477.75
345.714	436.75
345.942	433.75
346.17	431.75
346.397	411.75
346.625	419.75
346.853	438.75
347.08	430.75
347.308	435.75
347.535	456.75
347.763	437.75
347.99	452.75
348.218	440.75
348.445	435.75
348.673	436.75
348.9	425.75
349.128	412.75
349.355	412.75
349.583	402.75
349.81	410.75
350.037	401.75
350.265	421.75
350.492	393.75
350.72	380.75
350.947	432.75
351.174	425.75
351.402	435.75
351.629	462.75
351.856	430.75
352.083	463.75
352.311	457.75
352.538	471.75
352.765	474.75
352.992	435.75
353.22	466.75
353.447	424.75
353.674	433.75
353.901	408.75
354.128	405.75
354.355	395.75
354.583	402.75
354.81	407.75
355.037	386.75
355.264	381.75
355.491	379.75
355.718	394.75
355.945	390.75
356.172	396.75
356.399	387.75
356.626	406.75
356.853	393.75
357.08	371.75
357.307	396.75
357.534	388.75
357.761	380.75
357.988	401.75
358.215	372.75
358.441	374.75
358.668	378.75
358.895	394.75
359.122	398.75
359.349	417.75
359.576	436.75
359.802	460.75
360.029	482.75
360.256	512.75
360.483	472.75
360.709	435.75
360.936	425.75
361.163	421.75
361.39	419.75
361.616	438.75
361.843	435.75
362.07	412.75
362.296	438.75
362.523	420.75
362.749	408.75
362.976	408.75
363.203	417.75
363.429	408.75
363.656	392.75
363.882	403.75
364.109	408.75
364.335	394.75
364.562	405.75
364.788	410.75
365.015	392.75
365.241	398.75
365.468	394.75
365.694	411.75
365.92	394.75
366.147	398.75
366.373	403.75
366.599	398.75
366.826	375.75
367.052	380.75
367.278	384.75
367.505	382.75
367.731	382.75
367.957	389.75
368.184	404.75
368.41	409.75
368.636	404.75
368.862	424.75
369.089	383.75
369.315	390.75
369.541	411.75
369.767	397.75
369.993	387.75
370.219	397.75
370.445	406.75
370.672	405.75
370.898	380.75
371.124	390.75
371.35	385.75
371.576	382.75
371.802	387.75
372.028	380.75
372.254	382.75
372.48	377.75
372.706	368.75
372.932	374.75
373.158	385.75
373.384	380.75
373.61	380.75
373.835	399.75
374.061	396.75
374.287	379.75
374.513	396.75
374.739	394.75
374.965	395.75
375.191	393.75
375.416	384.75
375.642	384.75
375.868	390.75
376.094	391.75
376.319	380.75
376.545	373.75
376.771	378.75
376.997	370.75
377.222	368.75
377.448	390.75
377.674	372.75
377.899	365.75
378.125	381.75
378.35	376.75
378.576	380.75
378.802	362.75
379.027	375.75
379.253	382.75
379.478	383.75
379.704	382.75
379.929	375.75
380.155	383.75
380.38	374.75
380.606	381.75
380.831	383.75
381.057	385.75
381.282	382.75
381.507	379.75
381.733	386.75
381.958	366.75
382.184	389.75
382.409	374.75
382.634	374.75
382.86	393.75
383.085	380.75
383.31	401.75
383.535	390.75
383.761	388.75
383.986	399.75
384.211	369.75
384.436	393.75
384.662	419.75
384.887	390.75
385.112	382.75
385.337	391.75
385.562	408.75
385.787	412.75
386.013	404.75
386.238	410.75
386.463	412.75
386.688	418.75
386.913	404.75
387.138	408.75
387.363	402.75
387.588	384.75
387.813	401.75
388.038	392.75
388.263	386.75
388.488	384.75
388.713	403.75
388.938	405.75
389.163	412.75
389.387	422.75
389.612	397.75
389.837	393.75
390.062	412.75
390.287	394.75
390.512	391.75
390.736	408.75
390.961	401.75
391.186	398.75
391.411	412.75
391.636	409.75
391.86	401.75
392.085	408.75
392.31	423.75
392.534	411.75
392.759	412.75
392.984	393.75
393.208	388.75
393.433	379.75
393.658	393.75
393.882	411.75
394.107	415.75
394.331	398.75
394.556	391.75
394.78	399.75
395.005	413.75
395.229	403.75
395.454	415.75
395.678	412.75
395.903	432.75
396.127	460.75
396.352	466.75
396.576	405.75
396.801	409.75
397.025	412.75
397.249	429.75
397.474	420.75
397.698	445.75
397.922	442.75
398.147	455.75
398.371	471.75
398.595	451.75
398.82	453.75
399.044	470.75
399.268	453.75
399.492	470.75
399.717	505.75
399.941	522.75
400.165	550.75
400.389	565.75
400.613	533.75
400.837	490.75
401.062	477.75
401.286	472.75
401.51	460.75
401.734	451.75
401.958	458.75
402.182	460.75
402.406	484.75
402.63	477.75
402.854	462.75
403.078	471.75
403.302	490.75
403.526	470.75
403.75	482.75
403.974	469.75
404.198	465.75
404.422	475.75
404.645	484.75
404.869	496.75
405.093	525.75
405.317	566.75
405.541	620.75
405.765	540.75
405.988	508.75
406.212	512.75
406.436	553.75
406.66	550.75
406.883	553.75
407.107	541.75
407.331	586.75
407.555	648.75
407.778	657.75
408.002	631.75
408.226	567.75
408.449	544.75
408.673	555.75
408.896	575.75
409.12	622.75
409.344	582.75
409.567	517.75
409.791	494.75
410.014	486.75
410.238	470.75
410.461	474.75
410.685	486.75
410.908	489.75
411.132	537.75
411.355	583.75
411.578	548.75
411.802	506.75
412.025	500.75
412.249	516.75
412.472	520.75
412.695	563.75
412.919	579.75
413.142	522.75
413.365	470.75
413.589	462.75
413.812	475.75
414.035	450.75
414.258	435.75
414.482	436.75
414.705	439.75
414.928	451.75
415.151	454.75
415.374	429.75
415.597	440.75
415.821	430.75
416.044	436.75
416.267	473.75
416.49	472.75
416.713	430.75
416.936	460.75
417.159	447.75
417.382	459.75
417.605	466.75
417.828	460.75
418.051	472.75
418.274	481.75
418.497	449.75
418.72	470.75
418.943	445.75
419.166	459.75
419.389	470.75
419.611	473.75
419.834	515.75
420.057	489.75
420.28	489.75
420.503	491.75
420.726	493.75
420.948	498.75
421.171	548.75
421.394	581.75
421.617	511.75
421.839	475.75
422.062	480.75
422.285	499.75
422.507	573.75
422.73	654.75
422.953	629.75
423.175	561.75
423.398	533.75
423.621	528.75
423.843	546.75
424.066	558.75
424.288	536.75
424.511	573.75
424.733	604.75
424.956	714.75
425.178	692.75
425.401	669.75
425.623	689.75
425.846	574.75
426.068	547.75
426.291	537.75
426.513	526.75
426.735	555.75
426.958	576.75
427.18	694.75
427.402	831.75
427.625	922.75
427.847	839.75
428.069	738.75
428.292	616.75
428.514	549.75
428.736	516.75
428.958	526.75
429.181	510.75
429.403	500.75
429.625	518.75
429.847	546.75
430.069	606.75
430.292	626.75
430.514	516.75
430.736	512.75
430.958	501.75
431.18	472.75
431.402	462.75
431.624	446.75
431.846	452.75
432.068	442.75
432.29	479.75
432.512	466.75
432.734	473.75
432.956	473.75
433.178	474.75
433.4	463.75
433.622	482.75
433.844	478.75
434.066	443.75
434.287	461.75
434.509	465.75
434.731	460.75
434.953	488.75
435.175	507.75
435.397	538.75
435.618	545.75
435.84	588.75
436.062	708.75
436.284	783.75
436.505	674.75
436.727	575.75
436.949	542.75
437.17	514.75
437.392	520.75
437.614	518.75
437.835	556.75
438.057	676.75
438.278	829.75
438.5	779.75
438.721	863.75
438.943	836.75
439.165	652.75
439.386	615.75
439.608	580.75
439.829	559.75
440.05	573.75
440.272	654.75
440.493	642.75
440.715	585.75
440.936	538.75
441.158	505.75
441.379	499.75
441.6	557.75
441.822	573.75
442.043	619.75
442.264	669.75
442.486	723.75
442.707	610.75
442.928	583.75
443.149	586.75
443.371	606.75
443.592	660.75
443.813	752.75
444.034	808.75
444.255	643.75
444.476	550.75
444.698	551.75
444.919	505.75
445.14	589.75
445.361	595.75
445.582	601.75
445.803	673.75
446.024	814.75
446.245	828.75
446.466	750.75
446.687	616.75
446.908	578.75
447.129	526.75
447.35	514.75
447.571	497.75
447.792	498.75
448.013	505.75
448.234	532.75
448.455	580.75
448.675	732.75
448.896	851.75
449.117	704.75
449.338	668.75
449.559	779.75
449.779	902.75
450	698.75
450.221	588.75
450.442	538.75
450.662	498.75
450.883	532.75
451.104	513.75
451.324	512.75
451.545	478.75
451.766	458.75
451.986	462.75
452.207	442.75
452.428	450.75
452.648	463.75
452.869	444.75
453.089	467.75
453.31	481.75
453.53	452.75
453.751	439.75
453.971	456.75
454.192	497.75
454.412	468.75
454.633	456.75
454.853	448.75
455.073	458.75
455.294	459.75
455.514	563.75
455.734	577.75
455.955	455.75
456.175	431.75
456.395	420.75
456.616	418.75
456.836	416.75
457.056	419.75
457.276	426.75
457.497	409.75
457.717	409.75
457.937	421.75
458.157	427.75
458.377	418.75
458.598	446.75
458.818	523.75
459.038	636.75
459.258	652.75
459.478	533.75
459.698	474.75
459.918	446.75
460.138	454.75
460.358	440.75
460.578	466.75
460.798	465.75
461.018	487.75
461.238	457.75
461.458	435.75
461.678	445.75
461.898	449.75
462.118	455.75
462.338	468.75
462.558	451.75
462.777	471.75
462.997	436.75
463.217	472.75
463.437	479.75
463.657	469.75
463.876	469.75
464.096	477.75
464.316	481.75
464.536	474.75
464.755	506.75
464.975	500.75
465.195	581.75
465.414	664.75
465.634	578.75
465.854	518.75
466.073	485.75
466.293	466.75
466.512	452.75
466.732	467.75
466.951	456.75
467.171	425.75
467.391	451.75
467.61	462.75
467.829	475.75
468.049	476.75
468.268	462.75
468.488	478.75
468.707	441.75
468.927	437.75
469.146	452.75
469.365	436.75
469.585	440.75
469.804	442.75
470.023	452.75
470.243	465.75
470.462	457.75
470.681	465.75
470.901	461.75
471.12	472.75
471.339	460.75
471.558	478.75
471.777	451.75
471.997	468.75
472.216	468.75
472.435	523.75
472.654	503.75
472.873	477.75
473.092	466.75
473.311	445.75
473.53	466.75
473.749	452.75
473.968	525.75
474.187	658.75
474.406	676.75
474.625	543.75
474.844	473.75
475.063	466.75
475.282	446.75
475.501	443.75
475.72	466.75
475.939	472.75
476.158	468.75
476.377	468.75
476.596	459.75
476.814	488.75
477.033	488.75
477.252	477.75
477.471	479.75
477.69	492.75
477.908	480.75
478.127	478.75
478.346	513.75
478.564	505.75
478.783	490.75
479.002	488.75
479.22	476.75
479.439	538.75
479.658	544.75
479.876	568.75
480.095	570.75
480.313	590.75
480.532	571.75
480.751	549.75
480.969	581.75
481.188	676.75
481.406	745.75
481.624	628.75
481.843	582.75
482.061	574.75
482.28	547.75
482.498	557.75
482.717	553.75
482.935	556.75
483.153	548.75
483.372	535.75
483.59	523.75
483.808	532.75
484.027	544.75
484.245	554.75
484.463	568.75
484.681	555.75
484.9	542.75
485.118	557.75
485.336	558.75
485.554	557.75
485.772	557.75
485.99	549.75
486.209	553.75
486.427	576.75
486.645	590.75
486.863	588.75
487.081	584.75
487.299	595.75
487.517	570.75
487.735	566.75
487.953	574.75
488.171	579.75
488.389	562.75
488.607	593.75
488.825	562.75
489.043	579.75
489.261	585.75
489.479	580.75
489.696	597.75
489.914	587.75
490.132	596.75
490.35	621.75
490.568	629.75
490.786	618.75
491.003	644.75
491.221	634.75
491.439	658.75
491.657	666.75
491.874	680.75
492.092	663.75
492.31	652.75
492.527	667.75
492.745	701.75
492.963	716.75
493.18	680.75
493.398	686.75
493.615	700.75
493.833	674.75
494.05	703.75
494.268	682.75
494.485	682.75
494.703	693.75
494.92	672.75
495.138	710.75
495.355	679.75
495.573	690.75
495.79	710.75
496.008	698.75
496.225	670.75
496.442	679.75
496.66	686.75
496.877	660.75
497.094	674.75
497.312	698.75
497.529	710.75
497.746	709.75
497.963	706.75
498.181	745.75
498.398	722.75
498.615	736.75
498.832	747.75
499.049	759.75
499.267	748.75
499.484	790.75
499.701	813.75
499.918	788.75
500.135	833.75
500.352	835.75
500.569	871.75
500.786	857.75
501.003	851.75
501.22	863.75
501.437	858.75
501.654	852.75
501.871	824.75
