Data from 1972.PennyLincolnUp.Lamp.En5.5.200Scan.071719.P1._HRD10591_15-29-31-844.txt Node
Date: Thu Jul 18 15:29:31 EDT 2019
User: cochatt
Spectrometer: HR+D1059
Trigger mode: 1
Integration Time (sec): 1.000000E-1
Scans to average: 1
Electric dark correction enabled: true
Nonlinearity correction enabled: false
Boxcar width: 0
XAxis mode: Wavelengths
Number of Pixels in Spectrum: 2048
>>>>>Begin Spectral Data<<<<<
223.165	-17.12
223.4	-17.12
223.635	-17.12
223.869	-20.12
224.104	-26.12
224.338	-5.12
224.573	-10.12
224.808	-14.12
225.042	-9.12
225.277	-17.12
225.511	2.88
225.746	-0.12
225.98	-2.12
226.215	13.88
226.449	21.88
226.683	21.88
226.918	30.88
227.152	29.88
227.387	24.88
227.621	25.88
227.856	43.88
228.09	36.88
228.324	33.88
228.559	52.88
228.793	62.88
229.027	108.88
229.262	115.88
229.496	120.88
229.73	148.88
229.964	191.88
230.199	141.88
230.433	111.88
230.667	107.88
230.901	113.88
231.136	116.88
231.37	120.88
231.604	119.88
231.838	129.88
232.072	110.88
232.306	110.88
232.541	111.88
232.775	116.88
233.009	116.88
233.243	109.88
233.477	107.88
233.711	117.88
233.945	119.88
234.179	126.88
234.413	115.88
234.647	110.88
234.881	124.88
235.115	108.88
235.349	114.88
235.583	127.88
235.817	119.88
236.051	125.88
236.285	131.88
236.519	134.88
236.753	130.88
236.987	151.88
237.221	206.88
237.455	269.88
237.689	215.88
237.922	153.88
238.156	131.88
238.39	133.88
238.624	134.88
238.858	133.88
239.091	125.88
239.325	143.88
239.559	128.88
239.793	131.88
240.027	126.88
240.26	146.88
240.494	161.88
240.728	157.88
240.961	153.88
241.195	147.88
241.429	146.88
241.662	132.88
241.896	132.88
242.13	129.88
242.363	140.88
242.597	131.88
242.83	133.88
243.064	120.88
243.298	151.88
243.531	150.88
243.765	136.88
243.998	161.88
244.232	150.88
244.465	143.88
244.699	147.88
244.932	147.88
245.166	138.88
245.399	147.88
245.633	165.88
245.866	155.88
246.099	151.88
246.333	154.88
246.566	150.88
246.8	163.88
247.033	177.88
247.266	161.88
247.5	169.88
247.733	171.88
247.966	173.88
248.2	177.88
248.433	173.88
248.666	196.88
248.899	199.88
249.133	220.88
249.366	215.88
249.599	223.88
249.832	196.88
250.066	180.88
250.299	199.88
250.532	204.88
250.765	222.88
250.998	240.88
251.231	221.88
251.465	245.88
251.698	216.88
251.931	198.88
252.164	215.88
252.397	204.88
252.63	228.88
252.863	220.88
253.096	208.88
253.329	237.88
253.562	230.88
253.795	234.88
254.028	235.88
254.261	245.88
254.494	253.88
254.727	283.88
254.96	295.88
255.193	300.88
255.426	283.88
255.659	261.88
255.892	275.88
256.124	269.88
256.357	269.88
256.59	244.88
256.823	253.88
257.056	233.88
257.289	237.88
257.521	250.88
257.754	219.88
257.987	229.88
258.22	227.88
258.452	222.88
258.685	203.88
258.918	224.88
259.151	233.88
259.383	236.88
259.616	248.88
259.849	247.88
260.081	249.88
260.314	282.88
260.547	272.88
260.779	275.88
261.012	251.88
261.244	231.88
261.477	234.88
261.71	235.88
261.942	255.88
262.175	275.88
262.407	263.88
262.64	229.88
262.872	241.88
263.105	225.88
263.337	234.88
263.57	236.88
263.802	220.88
264.035	235.88
264.267	218.88
264.499	218.88
264.732	217.88
264.964	228.88
265.197	213.88
265.429	227.88
265.661	213.88
265.894	206.88
266.126	221.88
266.358	227.88
266.591	224.88
266.823	233.88
267.055	242.88
267.287	237.88
267.52	237.88
267.752	232.88
267.984	243.88
268.216	241.88
268.448	241.88
268.681	235.88
268.913	254.88
269.145	275.88
269.377	313.88
269.609	309.88
269.841	292.88
270.073	289.88
270.306	314.88
270.538	334.88
270.77	335.88
271.002	329.88
271.234	313.88
271.466	338.88
271.698	335.88
271.93	345.88
272.162	342.88
272.394	355.88
272.626	342.88
272.858	316.88
273.09	302.88
273.322	269.88
273.553	299.88
273.785	276.88
274.017	281.88
274.249	285.88
274.481	268.88
274.713	297.88
274.945	283.88
275.176	292.88
275.408	281.88
275.64	289.88
275.872	285.88
276.104	277.88
276.335	293.88
276.567	287.88
276.799	300.88
277.031	329.88
277.262	357.88
277.494	363.88
277.726	328.88
277.957	311.88
278.189	305.88
278.421	293.88
278.652	279.88
278.884	298.88
279.115	292.88
279.347	272.88
279.579	270.88
279.81	269.88
280.042	276.88
280.273	271.88
280.505	279.88
280.736	277.88
280.968	274.88
281.199	289.88
281.431	273.88
281.662	267.88
281.894	269.88
282.125	287.88
282.356	307.88
282.588	328.88
282.819	335.88
283.051	290.88
283.282	294.88
283.513	285.88
283.745	288.88
283.976	290.88
284.207	275.88
284.439	293.88
284.67	275.88
284.901	278.88
285.132	292.88
285.364	278.88
285.595	290.88
285.826	301.88
286.057	287.88
286.288	278.88
286.52	274.88
286.751	279.88
286.982	293.88
287.213	287.88
287.444	280.88
287.675	302.88
287.906	307.88
288.138	317.88
288.369	308.88
288.6	326.88
288.831	307.88
289.062	310.88
289.293	303.88
289.524	297.88
289.755	302.88
289.986	294.88
290.217	301.88
290.448	303.88
290.679	307.88
290.91	294.88
291.141	279.88
291.371	302.88
291.602	316.88
291.833	297.88
292.064	303.88
292.295	286.88
292.526	302.88
292.757	281.88
292.987	292.88
293.218	299.88
293.449	300.88
293.68	294.88
293.91	285.88
294.141	293.88
294.372	294.88
294.603	305.88
294.833	261.88
295.064	301.88
295.295	296.88
295.525	304.88
295.756	292.88
295.987	307.88
296.217	322.88
296.448	342.88
296.679	317.88
296.909	311.88
297.14	289.88
297.37	282.88
297.601	302.88
297.831	311.88
298.062	306.88
298.292	289.88
298.523	299.88
298.753	320.88
298.984	309.88
299.214	301.88
299.445	314.88
299.675	311.88
299.905	297.88
300.136	317.88
300.366	308.88
300.597	318.88
300.827	327.88
301.057	323.88
301.288	326.88
301.518	331.88
301.748	315.88
301.979	319.88
302.209	337.88
302.439	317.88
302.669	344.88
302.9	330.88
303.13	317.88
303.36	327.88
303.59	329.88
303.82	349.88
304.051	335.88
304.281	341.88
304.511	329.88
304.741	319.88
304.971	334.88
305.201	346.88
305.431	330.88
305.661	336.88
305.891	341.88
306.121	347.88
306.352	342.88
306.582	340.88
306.812	334.88
307.042	332.88
307.272	334.88
307.502	324.88
307.731	338.88
307.961	347.88
308.191	341.88
308.421	327.88
308.651	338.88
308.881	353.88
309.111	336.88
309.341	340.88
309.571	371.88
309.8	394.88
310.03	389.88
310.26	405.88
310.49	398.88
310.72	394.88
310.949	434.88
311.179	425.88
311.409	411.88
311.639	370.88
311.868	402.88
312.098	396.88
312.328	413.88
312.557	413.88
312.787	459.88
313.017	438.88
313.246	416.88
313.476	387.88
313.706	410.88
313.935	413.88
314.165	419.88
314.394	436.88
314.624	424.88
314.853	399.88
315.083	400.88
315.312	395.88
315.542	378.88
315.771	398.88
316.001	394.88
316.23	385.88
316.46	379.88
316.689	398.88
316.919	403.88
317.148	404.88
317.377	404.88
317.607	386.88
317.836	387.88
318.065	392.88
318.295	400.88
318.524	379.88
318.753	365.88
318.983	400.88
319.212	401.88
319.441	413.88
319.67	415.88
319.9	393.88
320.129	380.88
320.358	389.88
320.587	404.88
320.816	406.88
321.046	425.88
321.275	429.88
321.504	402.88
321.733	413.88
321.962	433.88
322.191	446.88
322.42	448.88
322.649	470.88
322.878	506.88
323.108	499.88
323.337	555.88
323.566	593.88
323.795	606.88
324.024	694.88
324.253	854.88
324.482	1270.88
324.71	2004.88
324.939	2982.88
325.168	2524.88
325.397	1290.88
325.626	807.88
325.855	681.88
326.084	589.88
326.313	586.88
326.542	580.88
326.77	648.88
326.999	777.88
327.228	1130.88
327.457	1740.88
327.686	2175.88
327.914	1445.88
328.143	921.88
328.372	787.88
328.6	732.88
328.829	663.88
329.058	699.88
329.287	689.88
329.515	645.88
329.744	591.88
329.972	558.88
330.201	616.88
330.43	655.88
330.658	719.88
330.887	744.88
331.115	717.88
331.344	590.88
331.572	562.88
331.801	550.88
332.03	544.88
332.258	511.88
332.486	496.88
332.715	467.88
332.943	462.88
333.172	473.88
333.4	472.88
333.629	487.88
333.857	514.88
334.085	499.88
334.314	549.88
334.542	590.88
334.771	601.88
334.999	554.88
335.227	501.88
335.455	491.88
335.684	481.88
335.912	474.88
336.14	451.88
336.369	461.88
336.597	467.88
336.825	449.88
337.053	473.88
337.281	450.88
337.51	434.88
337.738	449.88
337.966	446.88
338.194	473.88
338.422	446.88
338.65	454.88
338.878	441.88
339.106	437.88
339.334	428.88
339.562	422.88
339.79	409.88
340.018	428.88
340.246	443.88
340.474	446.88
340.702	427.88
340.93	458.88
341.158	429.88
341.386	423.88
341.614	430.88
341.842	431.88
342.07	431.88
342.298	447.88
342.526	439.88
342.754	399.88
342.981	411.88
343.209	415.88
343.437	424.88
343.665	404.88
343.893	413.88
344.12	439.88
344.348	440.88
344.576	434.88
344.804	440.88
345.031	451.88
345.259	465.88
345.487	464.88
345.714	446.88
345.942	435.88
346.17	418.88
346.397	419.88
346.625	413.88
346.853	422.88
347.08	419.88
347.308	428.88
347.535	420.88
347.763	447.88
347.99	431.88
348.218	435.88
348.445	437.88
348.673	437.88
348.9	407.88
349.128	411.88
349.355	397.88
349.583	389.88
349.81	391.88
350.037	408.88
350.265	411.88
350.492	393.88
350.72	413.88
350.947	409.88
351.174	433.88
351.402	445.88
351.629	444.88
351.856	422.88
352.083	431.88
352.311	437.88
352.538	455.88
352.765	462.88
352.992	455.88
353.22	429.88
353.447	415.88
353.674	439.88
353.901	396.88
354.128	397.88
354.355	383.88
354.583	398.88
354.81	389.88
355.037	397.88
355.264	386.88
355.491	373.88
355.718	375.88
355.945	394.88
356.172	379.88
356.399	391.88
356.626	375.88
356.853	367.88
357.08	379.88
357.307	372.88
357.534	375.88
357.761	391.88
357.988	406.88
358.215	379.88
358.441	381.88
358.668	394.88
358.895	364.88
359.122	377.88
359.349	391.88
359.576	411.88
359.802	463.88
360.029	495.88
360.256	520.88
360.483	483.88
360.709	434.88
360.936	434.88
361.163	413.88
361.39	433.88
361.616	415.88
361.843	418.88
362.07	403.88
362.296	438.88
362.523	413.88
362.749	418.88
362.976	422.88
363.203	390.88
363.429	386.88
363.656	395.88
363.882	405.88
364.109	405.88
364.335	402.88
364.562	399.88
364.788	393.88
365.015	381.88
365.241	408.88
365.468	415.88
365.694	409.88
365.92	397.88
366.147	404.88
366.373	398.88
366.599	397.88
366.826	388.88
367.052	404.88
367.278	399.88
367.505	383.88
367.731	392.88
367.957	375.88
368.184	359.88
368.41	408.88
368.636	411.88
368.862	422.88
369.089	385.88
369.315	381.88
369.541	382.88
369.767	397.88
369.993	389.88
370.219	390.88
370.445	363.88
370.672	384.88
370.898	399.88
371.124	385.88
371.35	378.88
371.576	369.88
371.802	376.88
372.028	367.88
372.254	365.88
372.48	367.88
372.706	372.88
372.932	360.88
373.158	385.88
373.384	375.88
373.61	378.88
373.835	379.88
374.061	371.88
374.287	393.88
374.513	371.88
374.739	387.88
374.965	382.88
375.191	377.88
375.416	372.88
375.642	356.88
375.868	396.88
376.094	385.88
376.319	374.88
376.545	371.88
376.771	354.88
376.997	373.88
377.222	366.88
377.448	353.88
377.674	371.88
377.899	375.88
378.125	362.88
378.35	349.88
378.576	352.88
378.802	351.88
379.027	358.88
379.253	380.88
379.478	363.88
379.704	370.88
379.929	398.88
380.155	366.88
380.38	387.88
380.606	370.88
380.831	375.88
381.057	364.88
381.282	381.88
381.507	377.88
381.733	378.88
381.958	391.88
382.184	391.88
382.409	351.88
382.634	360.88
382.86	378.88
383.085	375.88
383.31	360.88
383.535	368.88
383.761	389.88
383.986	386.88
384.211	383.88
384.436	396.88
384.662	377.88
384.887	381.88
385.112	406.88
385.337	396.88
385.562	377.88
385.787	394.88
386.013	429.88
386.238	412.88
386.463	411.88
386.688	407.88
386.913	402.88
387.138	402.88
387.363	412.88
387.588	388.88
387.813	396.88
388.038	394.88
388.263	397.88
388.488	396.88
388.713	398.88
388.938	387.88
389.163	386.88
389.387	412.88
389.612	398.88
389.837	389.88
390.062	407.88
390.287	381.88
390.512	395.88
390.736	400.88
390.961	393.88
391.186	403.88
391.411	405.88
391.636	397.88
391.86	394.88
392.085	393.88
392.31	406.88
392.534	409.88
392.759	387.88
392.984	419.88
393.208	387.88
393.433	408.88
393.658	398.88
393.882	393.88
394.107	402.88
394.331	406.88
394.556	389.88
394.78	399.88
395.005	381.88
395.229	397.88
395.454	411.88
395.678	399.88
395.903	421.88
396.127	459.88
396.352	433.88
396.576	417.88
396.801	406.88
397.025	413.88
397.249	438.88
397.474	401.88
397.698	430.88
397.922	436.88
398.147	466.88
398.371	463.88
398.595	439.88
398.82	439.88
399.044	453.88
399.268	460.88
399.492	454.88
399.717	477.88
399.941	517.88
400.165	566.88
400.389	561.88
400.613	505.88
400.837	475.88
401.062	462.88
401.286	462.88
401.51	436.88
401.734	438.88
401.958	458.88
402.182	467.88
402.406	472.88
402.63	470.88
402.854	471.88
403.078	454.88
403.302	449.88
403.526	469.88
403.75	499.88
403.974	444.88
404.198	480.88
404.422	479.88
404.645	485.88
404.869	481.88
405.093	535.88
405.317	583.88
405.541	591.88
405.765	534.88
405.988	498.88
406.212	497.88
406.436	539.88
406.66	560.88
406.883	523.88
407.107	561.88
407.331	588.88
407.555	674.88
407.778	662.88
408.002	582.88
408.226	522.88
408.449	526.88
408.673	510.88
408.896	577.88
409.12	625.88
409.344	598.88
409.567	533.88
409.791	489.88
410.014	470.88
410.238	473.88
410.461	449.88
410.685	481.88
410.908	509.88
411.132	535.88
411.355	570.88
411.578	565.88
411.802	516.88
412.025	471.88
412.249	476.88
412.472	522.88
412.695	555.88
412.919	575.88
413.142	498.88
413.365	477.88
413.589	458.88
413.812	442.88
414.035	459.88
414.258	461.88
414.482	442.88
414.705	457.88
414.928	446.88
415.151	458.88
415.374	441.88
415.597	422.88
415.821	421.88
416.044	441.88
416.267	469.88
416.49	453.88
416.713	452.88
416.936	433.88
417.159	459.88
417.382	453.88
417.605	468.88
417.828	460.88
418.051	490.88
418.274	485.88
418.497	472.88
418.72	443.88
418.943	440.88
419.166	455.88
419.389	459.88
419.611	470.88
419.834	475.88
420.057	474.88
420.28	488.88
420.503	475.88
420.726	474.88
420.948	517.88
421.171	563.88
421.394	593.88
421.617	492.88
421.839	472.88
422.062	496.88
422.285	520.88
422.507	563.88
422.73	655.88
422.953	626.88
423.175	551.88
423.398	495.88
423.621	503.88
423.843	541.88
424.066	546.88
424.288	535.88
424.511	533.88
424.733	614.88
424.956	719.88
425.178	687.88
425.401	654.88
425.623	678.88
425.846	579.88
426.068	556.88
426.291	544.88
426.513	530.88
426.735	552.88
426.958	577.88
427.18	675.88
427.402	836.88
427.625	924.88
427.847	817.88
428.069	709.88
428.292	620.88
428.514	563.88
428.736	519.88
428.958	507.88
429.181	492.88
429.403	474.88
429.625	515.88
429.847	549.88
430.069	621.88
430.292	600.88
430.514	511.88
430.736	498.88
430.958	484.88
431.18	492.88
431.402	452.88
431.624	444.88
431.846	442.88
432.068	437.88
432.29	442.88
432.512	468.88
432.734	472.88
432.956	477.88
433.178	482.88
433.4	466.88
433.622	460.88
433.844	455.88
434.066	434.88
434.287	463.88
434.509	439.88
434.731	457.88
434.953	462.88
435.175	490.88
435.397	529.88
435.618	525.88
435.84	583.88
436.062	718.88
436.284	793.88
436.505	618.88
436.727	574.88
436.949	535.88
437.17	515.88
437.392	517.88
437.614	533.88
437.835	565.88
438.057	667.88
438.278	824.88
438.5	775.88
438.721	849.88
438.943	815.88
439.165	639.88
439.386	558.88
439.608	576.88
439.829	557.88
440.05	628.88
440.272	679.88
440.493	605.88
440.715	561.88
440.936	498.88
441.158	492.88
441.379	499.88
441.6	527.88
441.822	538.88
442.043	583.88
442.264	689.88
442.486	762.88
442.707	630.88
442.928	576.88
443.149	583.88
443.371	622.88
443.592	626.88
443.813	729.88
444.034	790.88
444.255	657.88
444.476	552.88
444.698	539.88
444.919	509.88
445.14	609.88
445.361	596.88
445.582	570.88
445.803	667.88
446.024	773.88
446.245	789.88
446.466	728.88
446.687	618.88
446.908	541.88
447.129	524.88
447.35	506.88
447.571	491.88
447.792	493.88
448.013	492.88
448.234	525.88
448.455	588.88
448.675	713.88
448.896	835.88
449.117	698.88
449.338	649.88
449.559	778.88
449.779	903.88
450	684.88
450.221	589.88
450.442	547.88
450.662	493.88
450.883	509.88
451.104	524.88
451.324	514.88
451.545	499.88
451.766	492.88
451.986	453.88
452.207	439.88
452.428	442.88
452.648	439.88
452.869	437.88
453.089	462.88
453.31	452.88
453.53	470.88
453.751	435.88
453.971	433.88
454.192	491.88
454.412	485.88
454.633	452.88
454.853	429.88
455.073	429.88
455.294	485.88
455.514	551.88
455.734	558.88
455.955	442.88
456.175	437.88
456.395	397.88
456.616	417.88
456.836	398.88
457.056	397.88
457.276	414.88
457.497	421.88
457.717	405.88
457.937	435.88
458.157	431.88
458.377	415.88
458.598	447.88
458.818	552.88
459.038	629.88
459.258	649.88
459.478	546.88
459.698	473.88
459.918	445.88
460.138	428.88
460.358	461.88
460.578	455.88
460.798	452.88
461.018	460.88
461.238	454.88
461.458	444.88
461.678	426.88
461.898	442.88
462.118	441.88
462.338	447.88
462.558	427.88
462.777	453.88
462.997	451.88
463.217	472.88
463.437	455.88
463.657	461.88
463.876	464.88
464.096	459.88
464.316	474.88
464.536	469.88
464.755	477.88
464.975	480.88
465.195	561.88
465.414	653.88
465.634	567.88
465.854	508.88
466.073	475.88
466.293	461.88
466.512	457.88
466.732	442.88
466.951	438.88
467.171	426.88
467.391	440.88
467.61	452.88
467.829	469.88
468.049	465.88
468.268	457.88
468.488	433.88
468.707	435.88
468.927	439.88
469.146	427.88
469.365	427.88
469.585	396.88
469.804	441.88
470.023	474.88
470.243	445.88
470.462	473.88
470.681	489.88
470.901	473.88
471.12	444.88
471.339	462.88
471.558	455.88
471.777	436.88
471.997	441.88
472.216	470.88
472.435	517.88
472.654	494.88
472.873	427.88
473.092	450.88
473.311	460.88
473.53	441.88
473.749	454.88
473.968	518.88
474.187	636.88
474.406	661.88
474.625	542.88
474.844	474.88
475.063	467.88
475.282	453.88
475.501	476.88
475.72	452.88
475.939	438.88
476.158	464.88
476.377	462.88
476.596	481.88
476.814	479.88
477.033	465.88
477.252	489.88
477.471	481.88
477.69	478.88
477.908	474.88
478.127	458.88
478.346	487.88
478.564	492.88
478.783	482.88
479.002	484.88
479.22	507.88
479.439	541.88
479.658	557.88
479.876	548.88
480.095	545.88
480.313	570.88
480.532	548.88
480.751	554.88
480.969	594.88
481.188	675.88
481.406	708.88
481.624	615.88
481.843	568.88
482.061	565.88
482.28	557.88
482.498	545.88
482.717	526.88
482.935	509.88
483.153	527.88
483.372	516.88
483.59	528.88
483.808	535.88
484.027	531.88
484.245	524.88
484.463	533.88
484.681	530.88
484.9	528.88
485.118	538.88
485.336	527.88
485.554	539.88
485.772	553.88
485.99	543.88
486.209	558.88
486.427	548.88
486.645	564.88
486.863	582.88
487.081	592.88
487.299	584.88
487.517	568.88
487.735	553.88
487.953	568.88
488.171	573.88
488.389	573.88
488.607	579.88
488.825	572.88
489.043	565.88
489.261	577.88
489.479	574.88
489.696	584.88
489.914	621.88
490.132	605.88
490.35	622.88
490.568	595.88
490.786	615.88
491.003	626.88
491.221	641.88
491.439	630.88
491.657	673.88
491.874	665.88
492.092	663.88
492.31	671.88
492.527	670.88
492.745	653.88
492.963	662.88
493.18	662.88
493.398	654.88
493.615	666.88
493.833	706.88
494.05	684.88
494.268	667.88
494.485	672.88
494.703	690.88
494.92	677.88
495.138	668.88
495.355	698.88
495.573	712.88
495.79	684.88
496.008	683.88
496.225	663.88
496.442	663.88
496.66	666.88
496.877	647.88
497.094	707.88
497.312	678.88
497.529	685.88
497.746	700.88
497.963	705.88
498.181	765.88
498.398	725.88
498.615	742.88
498.832	749.88
499.049	740.88
499.267	748.88
499.484	793.88
499.701	793.88
499.918	788.88
500.135	819.88
500.352	819.88
500.569	839.88
500.786	853.88
501.003	865.88
501.22	844.88
501.437	843.88
501.654	827.88
501.871	827.88
