Data from 1972.PennyLincolnUp.Lamp.En5.5.200Scan.071719.P1._HRD10591_15-28-02-844.txt Node
Date: Thu Jul 18 15:28:02 EDT 2019
User: cochatt
Spectrometer: HR+D1059
Trigger mode: 1
Integration Time (sec): 1.000000E-1
Scans to average: 1
Electric dark correction enabled: true
Nonlinearity correction enabled: false
Boxcar width: 0
XAxis mode: Wavelengths
Number of Pixels in Spectrum: 2048
>>>>>Begin Spectral Data<<<<<
223.165	-20.81
223.4	-20.81
223.635	-20.81
223.869	-12.81
224.104	-3.81
224.338	-11.81
224.573	-23.81
224.808	-9.81
225.042	1.19
225.277	-6.81
225.511	-5.81
225.746	4.19
225.98	-0.81
226.215	10.19
226.449	18.19
226.683	20.19
226.918	20.19
227.152	22.19
227.387	34.19
227.621	30.19
227.856	53.19
228.09	43.19
228.324	39.19
228.559	50.19
228.793	64.19
229.027	93.19
229.262	110.19
229.496	119.19
229.73	145.19
229.964	159.19
230.199	132.19
230.433	115.19
230.667	122.19
230.901	128.19
231.136	102.19
231.37	115.19
231.604	100.19
231.838	124.19
232.072	108.19
232.306	108.19
232.541	118.19
232.775	89.19
233.009	113.19
233.243	95.19
233.477	110.19
233.711	110.19
233.945	114.19
234.179	101.19
234.413	121.19
234.647	117.19
234.881	111.19
235.115	110.19
235.349	130.19
235.583	108.19
235.817	147.19
236.051	133.19
236.285	134.19
236.519	146.19
236.753	130.19
236.987	140.19
237.221	193.19
237.455	237.19
237.689	210.19
237.922	151.19
238.156	134.19
238.39	136.19
238.624	123.19
238.858	125.19
239.091	127.19
239.325	134.19
239.559	139.19
239.793	126.19
240.027	133.19
240.26	143.19
240.494	164.19
240.728	135.19
240.961	132.19
241.195	127.19
241.429	157.19
241.662	127.19
241.896	136.19
242.13	122.19
242.363	133.19
242.597	127.19
242.83	143.19
243.064	135.19
243.298	126.19
243.531	137.19
243.765	139.19
243.998	137.19
244.232	132.19
244.465	147.19
244.699	129.19
244.932	137.19
245.166	162.19
245.399	139.19
245.633	139.19
245.866	141.19
246.099	153.19
246.333	138.19
246.566	153.19
246.8	151.19
247.033	158.19
247.266	162.19
247.5	161.19
247.733	168.19
247.966	183.19
248.2	164.19
248.433	157.19
248.666	187.19
248.899	181.19
249.133	189.19
249.366	224.19
249.599	213.19
249.832	167.19
250.066	195.19
250.299	186.19
250.532	204.19
250.765	215.19
250.998	242.19
251.231	226.19
251.465	231.19
251.698	206.19
251.931	214.19
252.164	203.19
252.397	210.19
252.63	200.19
252.863	201.19
253.096	206.19
253.329	234.19
253.562	220.19
253.795	204.19
254.028	228.19
254.261	233.19
254.494	241.19
254.727	268.19
254.96	278.19
255.193	288.19
255.426	261.19
255.659	229.19
255.892	236.19
256.124	235.19
256.357	234.19
256.59	217.19
256.823	218.19
257.056	216.19
257.289	225.19
257.521	223.19
257.754	227.19
257.987	228.19
258.22	215.19
258.452	199.19
258.685	225.19
258.918	198.19
259.151	214.19
259.383	214.19
259.616	231.19
259.849	225.19
260.081	247.19
260.314	267.19
260.547	275.19
260.779	254.19
261.012	241.19
261.244	238.19
261.477	234.19
261.71	226.19
261.942	244.19
262.175	230.19
262.407	240.19
262.64	236.19
262.872	203.19
263.105	217.19
263.337	216.19
263.57	204.19
263.802	218.19
264.035	219.19
264.267	215.19
264.499	218.19
264.732	215.19
264.964	204.19
265.197	197.19
265.429	207.19
265.661	218.19
265.894	213.19
266.126	212.19
266.358	221.19
266.591	218.19
266.823	221.19
267.055	232.19
267.287	222.19
267.52	227.19
267.752	225.19
267.984	225.19
268.216	236.19
268.448	236.19
268.681	232.19
268.913	234.19
269.145	259.19
269.377	271.19
269.609	270.19
269.841	277.19
270.073	284.19
270.306	298.19
270.538	321.19
270.77	311.19
271.002	308.19
271.234	293.19
271.466	289.19
271.698	342.19
271.93	317.19
272.162	348.19
272.394	315.19
272.626	331.19
272.858	293.19
273.09	290.19
273.322	291.19
273.553	267.19
273.785	267.19
274.017	252.19
274.249	270.19
274.481	275.19
274.713	274.19
274.945	263.19
275.176	283.19
275.408	261.19
275.64	267.19
275.872	267.19
276.104	258.19
276.335	249.19
276.567	279.19
276.799	285.19
277.031	304.19
277.262	297.19
277.494	330.19
277.726	305.19
277.957	300.19
278.189	282.19
278.421	274.19
278.652	275.19
278.884	274.19
279.115	259.19
279.347	282.19
279.579	273.19
279.81	250.19
280.042	264.19
280.273	256.19
280.505	262.19
280.736	261.19
280.968	281.19
281.199	252.19
281.431	250.19
281.662	268.19
281.894	265.19
282.125	269.19
282.356	282.19
282.588	292.19
282.819	312.19
283.051	273.19
283.282	261.19
283.513	276.19
283.745	270.19
283.976	275.19
284.207	279.19
284.439	263.19
284.67	283.19
284.901	256.19
285.132	291.19
285.364	257.19
285.595	269.19
285.826	262.19
286.057	259.19
286.288	266.19
286.52	275.19
286.751	268.19
286.982	261.19
287.213	278.19
287.444	292.19
287.675	267.19
287.906	282.19
288.138	307.19
288.369	311.19
288.6	290.19
288.831	281.19
289.062	303.19
289.293	276.19
289.524	278.19
289.755	273.19
289.986	269.19
290.217	295.19
290.448	267.19
290.679	283.19
290.91	269.19
291.141	264.19
291.371	286.19
291.602	267.19
291.833	265.19
292.064	275.19
292.295	253.19
292.526	291.19
292.757	268.19
292.987	270.19
293.218	277.19
293.449	291.19
293.68	272.19
293.91	286.19
294.141	275.19
294.372	275.19
294.603	282.19
294.833	262.19
295.064	278.19
295.295	279.19
295.525	280.19
295.756	298.19
295.987	301.19
296.217	324.19
296.448	326.19
296.679	304.19
296.909	272.19
297.14	295.19
297.37	270.19
297.601	289.19
297.831	309.19
298.062	281.19
298.292	275.19
298.523	284.19
298.753	301.19
298.984	290.19
299.214	284.19
299.445	287.19
299.675	276.19
299.905	300.19
300.136	307.19
300.366	293.19
300.597	306.19
300.827	290.19
301.057	311.19
301.288	322.19
301.518	298.19
301.748	310.19
301.979	313.19
302.209	314.19
302.439	302.19
302.669	318.19
302.9	301.19
303.13	310.19
303.36	321.19
303.59	330.19
303.82	335.19
304.051	326.19
304.281	315.19
304.511	315.19
304.741	292.19
304.971	321.19
305.201	316.19
305.431	307.19
305.661	305.19
305.891	314.19
306.121	320.19
306.352	326.19
306.582	338.19
306.812	321.19
307.042	336.19
307.272	310.19
307.502	319.19
307.731	339.19
307.961	323.19
308.191	302.19
308.421	323.19
308.651	316.19
308.881	308.19
309.111	339.19
309.341	330.19
309.571	327.19
309.8	356.19
310.03	359.19
310.26	385.19
310.49	378.19
310.72	385.19
310.949	384.19
311.179	422.19
311.409	389.19
311.639	386.19
311.868	396.19
312.098	383.19
312.328	394.19
312.557	387.19
312.787	436.19
313.017	387.19
313.246	373.19
313.476	373.19
313.706	378.19
313.935	362.19
314.165	385.19
314.394	384.19
314.624	407.19
314.853	402.19
315.083	382.19
315.312	353.19
315.542	355.19
315.771	371.19
316.001	371.19
316.23	370.19
316.46	345.19
316.689	373.19
316.919	380.19
317.148	374.19
317.377	380.19
317.607	375.19
317.836	362.19
318.065	363.19
318.295	372.19
318.524	348.19
318.753	366.19
318.983	360.19
319.212	349.19
319.441	380.19
319.67	376.19
319.9	376.19
320.129	378.19
320.358	367.19
320.587	389.19
320.816	401.19
321.046	396.19
321.275	396.19
321.504	402.19
321.733	408.19
321.962	407.19
322.191	409.19
322.42	428.19
322.649	434.19
322.878	478.19
323.108	466.19
323.337	499.19
323.566	528.19
323.795	567.19
324.024	648.19
324.253	764.19
324.482	1139.19
324.71	1817.19
324.939	2620.19
325.168	2291.19
325.397	1162.19
325.626	740.19
325.855	611.19
326.084	542.19
326.313	517.19
326.542	533.19
326.77	600.19
326.999	701.19
327.228	988.19
327.457	1577.19
327.686	1946.19
327.914	1328.19
328.143	851.19
328.372	678.19
328.6	665.19
328.829	603.19
329.058	611.19
329.287	635.19
329.515	582.19
329.744	549.19
329.972	536.19
330.201	562.19
330.43	625.19
330.658	632.19
330.887	691.19
331.115	637.19
331.344	550.19
331.572	521.19
331.801	509.19
332.03	494.19
332.258	483.19
332.486	444.19
332.715	444.19
332.943	439.19
333.172	423.19
333.4	434.19
333.629	456.19
333.857	473.19
334.085	478.19
334.314	495.19
334.542	562.19
334.771	583.19
334.999	492.19
335.227	456.19
335.455	424.19
335.684	424.19
335.912	430.19
336.14	439.19
336.369	411.19
336.597	432.19
336.825	452.19
337.053	420.19
337.281	438.19
337.51	409.19
337.738	422.19
337.966	395.19
338.194	427.19
338.422	425.19
338.65	404.19
338.878	393.19
339.106	395.19
339.334	404.19
339.562	411.19
339.79	401.19
340.018	374.19
340.246	416.19
340.474	425.19
340.702	418.19
340.93	408.19
341.158	396.19
341.386	405.19
341.614	419.19
341.842	425.19
342.07	407.19
342.298	380.19
342.526	391.19
342.754	403.19
342.981	391.19
343.209	401.19
343.437	406.19
343.665	403.19
343.893	396.19
344.12	397.19
344.348	407.19
344.576	405.19
344.804	414.19
345.031	455.19
345.259	431.19
345.487	425.19
345.714	418.19
345.942	406.19
346.17	396.19
346.397	414.19
346.625	397.19
346.853	393.19
347.08	400.19
347.308	410.19
347.535	403.19
347.763	417.19
347.99	406.19
348.218	406.19
348.445	404.19
348.673	423.19
348.9	383.19
349.128	364.19
349.355	377.19
349.583	376.19
349.81	376.19
350.037	367.19
350.265	386.19
350.492	392.19
350.72	385.19
350.947	378.19
351.174	407.19
351.402	420.19
351.629	408.19
351.856	382.19
352.083	399.19
352.311	430.19
352.538	410.19
352.765	419.19
352.992	416.19
353.22	422.19
353.447	421.19
353.674	382.19
353.901	375.19
354.128	370.19
354.355	386.19
354.583	374.19
354.81	371.19
355.037	376.19
355.264	359.19
355.491	349.19
355.718	349.19
355.945	358.19
356.172	344.19
356.399	357.19
356.626	356.19
356.853	349.19
357.08	353.19
357.307	350.19
357.534	355.19
357.761	356.19
357.988	359.19
358.215	367.19
358.441	359.19
358.668	362.19
358.895	382.19
359.122	396.19
359.349	383.19
359.576	404.19
359.802	427.19
360.029	439.19
360.256	481.19
360.483	463.19
360.709	420.19
360.936	403.19
361.163	383.19
361.39	394.19
361.616	413.19
361.843	407.19
362.07	400.19
362.296	395.19
362.523	370.19
362.749	378.19
362.976	395.19
363.203	392.19
363.429	373.19
363.656	363.19
363.882	366.19
364.109	364.19
364.335	376.19
364.562	374.19
364.788	361.19
365.015	371.19
365.241	375.19
365.468	383.19
365.694	364.19
365.92	381.19
366.147	386.19
366.373	353.19
366.599	358.19
366.826	358.19
367.052	379.19
367.278	371.19
367.505	379.19
367.731	374.19
367.957	378.19
368.184	378.19
368.41	350.19
368.636	379.19
368.862	387.19
369.089	377.19
369.315	363.19
369.541	375.19
369.767	358.19
369.993	366.19
370.219	370.19
370.445	354.19
370.672	364.19
370.898	369.19
371.124	385.19
371.35	356.19
371.576	348.19
371.802	367.19
372.028	349.19
372.254	354.19
372.48	357.19
372.706	365.19
372.932	366.19
373.158	355.19
373.384	367.19
373.61	376.19
373.835	363.19
374.061	354.19
374.287	362.19
374.513	342.19
374.739	351.19
374.965	376.19
375.191	366.19
375.416	356.19
375.642	378.19
375.868	373.19
376.094	356.19
376.319	366.19
376.545	356.19
376.771	370.19
376.997	361.19
377.222	362.19
377.448	353.19
377.674	341.19
377.899	353.19
378.125	357.19
378.35	346.19
378.576	353.19
378.802	347.19
379.027	344.19
379.253	342.19
379.478	351.19
379.704	350.19
379.929	364.19
380.155	357.19
380.38	358.19
380.606	363.19
380.831	366.19
381.057	353.19
381.282	339.19
381.507	365.19
381.733	361.19
381.958	356.19
382.184	359.19
382.409	363.19
382.634	360.19
382.86	384.19
383.085	362.19
383.31	360.19
383.535	356.19
383.761	358.19
383.986	348.19
384.211	375.19
384.436	379.19
384.662	371.19
384.887	354.19
385.112	362.19
385.337	371.19
385.562	373.19
385.787	371.19
386.013	390.19
386.238	388.19
386.463	389.19
386.688	387.19
386.913	375.19
387.138	374.19
387.363	391.19
387.588	386.19
387.813	369.19
388.038	367.19
388.263	381.19
388.488	353.19
388.713	389.19
388.938	387.19
389.163	381.19
389.387	375.19
389.612	367.19
389.837	383.19
390.062	378.19
390.287	375.19
390.512	372.19
390.736	365.19
390.961	369.19
391.186	390.19
391.411	373.19
391.636	378.19
391.86	384.19
392.085	378.19
392.31	390.19
392.534	389.19
392.759	366.19
392.984	388.19
393.208	385.19
393.433	388.19
393.658	402.19
393.882	393.19
394.107	356.19
394.331	393.19
394.556	373.19
394.78	351.19
395.005	380.19
395.229	381.19
395.454	380.19
395.678	387.19
395.903	389.19
396.127	426.19
396.352	437.19
396.576	389.19
396.801	402.19
397.025	405.19
397.249	393.19
397.474	396.19
397.698	392.19
397.922	392.19
398.147	403.19
398.371	422.19
398.595	412.19
398.82	419.19
399.044	437.19
399.268	437.19
399.492	448.19
399.717	462.19
399.941	466.19
400.165	523.19
400.389	553.19
400.613	481.19
400.837	477.19
401.062	428.19
401.286	441.19
401.51	420.19
401.734	413.19
401.958	435.19
402.182	452.19
402.406	436.19
402.63	449.19
402.854	442.19
403.078	422.19
403.302	441.19
403.526	462.19
403.75	449.19
403.974	462.19
404.198	436.19
404.422	460.19
404.645	469.19
404.869	454.19
405.093	477.19
405.317	551.19
405.541	579.19
405.765	513.19
405.988	490.19
406.212	484.19
406.436	510.19
406.66	540.19
406.883	519.19
407.107	522.19
407.331	573.19
407.555	597.19
407.778	594.19
408.002	531.19
408.226	517.19
408.449	487.19
408.673	510.19
408.896	519.19
409.12	579.19
409.344	559.19
409.567	485.19
409.791	483.19
410.014	435.19
410.238	461.19
410.461	446.19
410.685	455.19
410.908	476.19
411.132	502.19
411.355	519.19
411.578	522.19
411.802	470.19
412.025	449.19
412.249	469.19
412.472	464.19
412.695	538.19
412.919	519.19
413.142	474.19
413.365	437.19
413.589	449.19
413.812	430.19
414.035	430.19
414.258	428.19
414.482	426.19
414.705	407.19
414.928	441.19
415.151	431.19
415.374	443.19
415.597	420.19
415.821	397.19
416.044	404.19
416.267	417.19
416.49	418.19
416.713	404.19
416.936	427.19
417.159	421.19
417.382	433.19
417.605	425.19
417.828	461.19
418.051	439.19
418.274	462.19
418.497	435.19
418.72	455.19
418.943	446.19
419.166	415.19
419.389	457.19
419.611	441.19
419.834	471.19
420.057	461.19
420.28	488.19
420.503	442.19
420.726	449.19
420.948	471.19
421.171	515.19
421.394	542.19
421.617	469.19
421.839	473.19
422.062	455.19
422.285	469.19
422.507	522.19
422.73	606.19
422.953	583.19
423.175	514.19
423.398	499.19
423.621	467.19
423.843	498.19
424.066	485.19
424.288	483.19
424.511	518.19
424.733	555.19
424.956	641.19
425.178	593.19
425.401	613.19
425.623	646.19
425.846	538.19
426.068	489.19
426.291	500.19
426.513	480.19
426.735	522.19
426.958	588.19
427.18	619.19
427.402	761.19
427.625	873.19
427.847	786.19
428.069	655.19
428.292	574.19
428.514	523.19
428.736	489.19
428.958	468.19
429.181	463.19
429.403	459.19
429.625	456.19
429.847	511.19
430.069	592.19
430.292	581.19
430.514	488.19
430.736	465.19
430.958	456.19
431.18	441.19
431.402	451.19
431.624	431.19
431.846	435.19
432.068	429.19
432.29	435.19
432.512	449.19
432.734	432.19
432.956	419.19
433.178	449.19
433.4	445.19
433.622	413.19
433.844	442.19
434.066	404.19
434.287	418.19
434.509	441.19
434.731	438.19
434.953	427.19
435.175	454.19
435.397	477.19
435.618	485.19
435.84	558.19
436.062	649.19
436.284	720.19
436.505	603.19
436.727	514.19
436.949	490.19
437.17	454.19
437.392	459.19
437.614	477.19
437.835	534.19
438.057	636.19
438.278	719.19
438.5	715.19
438.721	804.19
438.943	771.19
439.165	576.19
439.386	543.19
439.608	519.19
439.829	543.19
440.05	567.19
440.272	622.19
440.493	601.19
440.715	513.19
440.936	491.19
441.158	470.19
441.379	477.19
441.6	502.19
441.822	516.19
442.043	563.19
442.264	633.19
442.486	647.19
442.707	570.19
442.928	517.19
443.149	510.19
443.371	565.19
443.592	606.19
443.813	697.19
444.034	741.19
444.255	625.19
444.476	519.19
444.698	525.19
444.919	487.19
445.14	603.19
445.361	557.19
445.582	545.19
445.803	600.19
446.024	742.19
446.245	761.19
446.466	691.19
446.687	582.19
446.908	531.19
447.129	467.19
447.35	480.19
447.571	471.19
447.792	483.19
448.013	472.19
448.234	515.19
448.455	531.19
448.675	642.19
448.896	769.19
449.117	671.19
449.338	623.19
449.559	751.19
449.779	795.19
450	648.19
450.221	548.19
450.442	498.19
450.662	478.19
450.883	499.19
451.104	489.19
451.324	479.19
451.545	457.19
451.766	437.19
451.986	425.19
452.207	437.19
452.428	417.19
452.648	409.19
452.869	434.19
453.089	435.19
453.31	449.19
453.53	422.19
453.751	422.19
453.971	412.19
454.192	458.19
454.412	463.19
454.633	438.19
454.853	421.19
455.073	433.19
455.294	418.19
455.514	526.19
455.734	494.19
455.955	445.19
456.175	409.19
456.395	397.19
456.616	371.19
456.836	382.19
457.056	403.19
457.276	383.19
457.497	380.19
457.717	407.19
457.937	409.19
458.157	399.19
458.377	379.19
458.598	426.19
458.818	485.19
459.038	600.19
459.258	604.19
459.478	517.19
459.698	455.19
459.918	436.19
460.138	428.19
460.358	427.19
460.578	426.19
460.798	442.19
461.018	431.19
461.238	420.19
461.458	401.19
461.678	408.19
461.898	430.19
462.118	405.19
462.338	435.19
462.558	443.19
462.777	426.19
462.997	437.19
463.217	451.19
463.437	446.19
463.657	430.19
463.876	442.19
464.096	443.19
464.316	447.19
464.536	453.19
464.755	470.19
464.975	456.19
465.195	526.19
465.414	607.19
465.634	527.19
465.854	480.19
466.073	441.19
466.293	429.19
466.512	418.19
466.732	426.19
466.951	419.19
467.171	397.19
467.391	425.19
467.61	440.19
467.829	438.19
468.049	436.19
468.268	442.19
468.488	415.19
468.707	417.19
468.927	412.19
469.146	414.19
469.365	422.19
469.585	416.19
469.804	406.19
470.023	426.19
470.243	434.19
470.462	447.19
470.681	445.19
470.901	451.19
471.12	441.19
471.339	428.19
471.558	428.19
471.777	434.19
471.997	443.19
472.216	439.19
472.435	497.19
472.654	475.19
472.873	452.19
473.092	419.19
473.311	433.19
473.53	414.19
473.749	454.19
473.968	487.19
474.187	616.19
474.406	635.19
474.625	492.19
474.844	460.19
475.063	435.19
475.282	449.19
475.501	426.19
475.72	450.19
475.939	429.19
476.158	431.19
476.377	430.19
476.596	458.19
476.814	441.19
477.033	437.19
477.252	454.19
477.471	458.19
477.69	467.19
477.908	451.19
478.127	467.19
478.346	446.19
478.564	461.19
478.783	449.19
479.002	468.19
479.22	489.19
479.439	491.19
479.658	527.19
479.876	527.19
480.095	519.19
480.313	568.19
480.532	541.19
480.751	498.19
480.969	538.19
481.188	618.19
481.406	655.19
481.624	575.19
481.843	529.19
482.061	493.19
482.28	507.19
482.498	503.19
482.717	492.19
482.935	525.19
483.153	521.19
483.372	497.19
483.59	511.19
483.808	513.19
484.027	504.19
484.245	497.19
484.463	503.19
484.681	530.19
484.9	516.19
485.118	518.19
485.336	534.19
485.554	525.19
485.772	513.19
485.99	526.19
486.209	503.19
486.427	535.19
486.645	527.19
486.863	547.19
487.081	564.19
487.299	560.19
487.517	573.19
487.735	530.19
487.953	535.19
488.171	543.19
488.389	554.19
488.607	535.19
488.825	537.19
489.043	561.19
489.261	517.19
489.479	546.19
489.696	547.19
489.914	542.19
490.132	551.19
490.35	547.19
490.568	571.19
490.786	601.19
491.003	604.19
491.221	587.19
491.439	610.19
491.657	595.19
491.874	630.19
492.092	634.19
492.31	631.19
492.527	643.19
492.745	642.19
492.963	630.19
493.18	622.19
493.398	614.19
493.615	651.19
493.833	643.19
494.05	640.19
494.268	619.19
494.485	663.19
494.703	630.19
494.92	642.19
495.138	639.19
495.355	648.19
495.573	647.19
495.79	643.19
496.008	674.19
496.225	660.19
496.442	638.19
496.66	644.19
496.877	640.19
497.094	645.19
497.312	666.19
497.529	655.19
497.746	682.19
497.963	676.19
498.181	687.19
498.398	715.19
498.615	706.19
498.832	710.19
499.049	692.19
499.267	748.19
499.484	753.19
499.701	756.19
499.918	741.19
500.135	754.19
500.352	797.19
500.569	812.19
500.786	823.19
501.003	821.19
501.22	795.19
501.437	747.19
501.654	771.19
501.871	782.19
