Data from 1972.PennyLincolnUp.Lamp.En5.5.200Scan.071719.P1._HRD10591_15-27-15-844.txt Node
Date: Thu Jul 18 15:27:15 EDT 2019
User: cochatt
Spectrometer: HR+D1059
Trigger mode: 1
Integration Time (sec): 1.000000E-1
Scans to average: 1
Electric dark correction enabled: true
Nonlinearity correction enabled: false
Boxcar width: 0
XAxis mode: Wavelengths
Number of Pixels in Spectrum: 2048
>>>>>Begin Spectral Data<<<<<
223.165	-13.88
223.4	-13.88
223.635	-13.88
223.869	-24.88
224.104	-16.88
224.338	-11.88
224.573	-6.88
224.808	-12.88
225.042	-7.88
225.277	-1.88
225.511	1.12
225.746	5.12
225.98	4.12
226.215	3.12
226.449	18.12
226.683	15.12
226.918	25.12
227.152	25.12
227.387	32.12
227.621	36.12
227.856	42.12
228.09	49.12
228.324	47.12
228.559	57.12
228.793	67.12
229.027	119.12
229.262	102.12
229.496	107.12
229.73	130.12
229.964	144.12
230.199	133.12
230.433	110.12
230.667	111.12
230.901	107.12
231.136	102.12
231.37	103.12
231.604	107.12
231.838	98.12
232.072	112.12
232.306	102.12
232.541	115.12
232.775	112.12
233.009	105.12
233.243	113.12
233.477	100.12
233.711	107.12
233.945	111.12
234.179	102.12
234.413	110.12
234.647	123.12
234.881	108.12
235.115	112.12
235.349	118.12
235.583	104.12
235.817	112.12
236.051	110.12
236.285	107.12
236.519	122.12
236.753	123.12
236.987	135.12
237.221	161.12
237.455	237.12
237.689	184.12
237.922	117.12
238.156	119.12
238.39	125.12
238.624	110.12
238.858	119.12
239.091	119.12
239.325	126.12
239.559	116.12
239.793	133.12
240.027	137.12
240.26	137.12
240.494	153.12
240.728	136.12
240.961	126.12
241.195	136.12
241.429	140.12
241.662	115.12
241.896	116.12
242.13	122.12
242.363	138.12
242.597	113.12
242.83	116.12
243.064	131.12
243.298	128.12
243.531	126.12
243.765	121.12
243.998	101.12
244.232	138.12
244.465	122.12
244.699	152.12
244.932	124.12
245.166	138.12
245.399	144.12
245.633	136.12
245.866	139.12
246.099	130.12
246.333	139.12
246.566	138.12
246.8	139.12
247.033	152.12
247.266	158.12
247.5	140.12
247.733	165.12
247.966	163.12
248.2	169.12
248.433	151.12
248.666	165.12
248.899	162.12
249.133	178.12
249.366	192.12
249.599	193.12
249.832	161.12
250.066	172.12
250.299	180.12
250.532	186.12
250.765	181.12
250.998	201.12
251.231	215.12
251.465	193.12
251.698	182.12
251.931	191.12
252.164	178.12
252.397	184.12
252.63	195.12
252.863	193.12
253.096	206.12
253.329	207.12
253.562	199.12
253.795	184.12
254.028	182.12
254.261	202.12
254.494	200.12
254.727	224.12
254.96	259.12
255.193	240.12
255.426	235.12
255.659	214.12
255.892	203.12
256.124	198.12
256.357	214.12
256.59	204.12
256.823	208.12
257.056	193.12
257.289	214.12
257.521	198.12
257.754	195.12
257.987	210.12
258.22	192.12
258.452	192.12
258.685	190.12
258.918	200.12
259.151	196.12
259.383	201.12
259.616	203.12
259.849	206.12
260.081	218.12
260.314	245.12
260.547	229.12
260.779	238.12
261.012	214.12
261.244	211.12
261.477	208.12
261.71	218.12
261.942	218.12
262.175	231.12
262.407	210.12
262.64	178.12
262.872	202.12
263.105	201.12
263.337	192.12
263.57	201.12
263.802	178.12
264.035	194.12
264.267	178.12
264.499	198.12
264.732	191.12
264.964	174.12
265.197	199.12
265.429	193.12
265.661	195.12
265.894	206.12
266.126	204.12
266.358	190.12
266.591	203.12
266.823	203.12
267.055	207.12
267.287	200.12
267.52	200.12
267.752	201.12
267.984	213.12
268.216	215.12
268.448	207.12
268.681	226.12
268.913	215.12
269.145	237.12
269.377	260.12
269.609	249.12
269.841	224.12
270.073	246.12
270.306	254.12
270.538	297.12
270.77	299.12
271.002	288.12
271.234	265.12
271.466	275.12
271.698	262.12
271.93	280.12
272.162	289.12
272.394	286.12
272.626	281.12
272.858	271.12
273.09	252.12
273.322	260.12
273.553	254.12
273.785	265.12
274.017	253.12
274.249	241.12
274.481	239.12
274.713	245.12
274.945	223.12
275.176	252.12
275.408	250.12
275.64	251.12
275.872	227.12
276.104	221.12
276.335	242.12
276.567	256.12
276.799	255.12
277.031	274.12
277.262	286.12
277.494	297.12
277.726	277.12
277.957	261.12
278.189	248.12
278.421	263.12
278.652	250.12
278.884	254.12
279.115	254.12
279.347	239.12
279.579	241.12
279.81	248.12
280.042	223.12
280.273	244.12
280.505	240.12
280.736	234.12
280.968	247.12
281.199	254.12
281.431	234.12
281.662	231.12
281.894	242.12
282.125	238.12
282.356	239.12
282.588	286.12
282.819	286.12
283.051	247.12
283.282	259.12
283.513	249.12
283.745	236.12
283.976	258.12
284.207	256.12
284.439	255.12
284.67	238.12
284.901	240.12
285.132	241.12
285.364	264.12
285.595	252.12
285.826	236.12
286.057	262.12
286.288	256.12
286.52	251.12
286.751	257.12
286.982	248.12
287.213	265.12
287.444	256.12
287.675	262.12
287.906	266.12
288.138	266.12
288.369	265.12
288.6	266.12
288.831	281.12
289.062	267.12
289.293	268.12
289.524	266.12
289.755	258.12
289.986	257.12
290.217	257.12
290.448	267.12
290.679	251.12
290.91	266.12
291.141	251.12
291.371	274.12
291.602	248.12
291.833	247.12
292.064	250.12
292.295	280.12
292.526	266.12
292.757	244.12
292.987	241.12
293.218	254.12
293.449	227.12
293.68	263.12
293.91	250.12
294.141	246.12
294.372	260.12
294.603	266.12
294.833	241.12
295.064	258.12
295.295	250.12
295.525	261.12
295.756	274.12
295.987	277.12
296.217	289.12
296.448	293.12
296.679	271.12
296.909	271.12
297.14	247.12
297.37	267.12
297.601	266.12
297.831	254.12
298.062	247.12
298.292	257.12
298.523	266.12
298.753	278.12
298.984	280.12
299.214	279.12
299.445	272.12
299.675	282.12
299.905	281.12
300.136	284.12
300.366	267.12
300.597	272.12
300.827	281.12
301.057	273.12
301.288	304.12
301.518	283.12
301.748	281.12
301.979	287.12
302.209	280.12
302.439	278.12
302.669	282.12
302.9	287.12
303.13	297.12
303.36	281.12
303.59	291.12
303.82	302.12
304.051	306.12
304.281	294.12
304.511	286.12
304.741	284.12
304.971	281.12
305.201	278.12
305.431	291.12
305.661	307.12
305.891	286.12
306.121	313.12
306.352	317.12
306.582	294.12
306.812	311.12
307.042	277.12
307.272	295.12
307.502	295.12
307.731	311.12
307.961	303.12
308.191	302.12
308.421	296.12
308.651	296.12
308.881	316.12
309.111	296.12
309.341	306.12
309.571	315.12
309.8	333.12
310.03	317.12
310.26	318.12
310.49	320.12
310.72	345.12
310.949	352.12
311.179	368.12
311.409	320.12
311.639	337.12
311.868	320.12
312.098	337.12
312.328	337.12
312.557	367.12
312.787	371.12
313.017	360.12
313.246	344.12
313.476	341.12
313.706	338.12
313.935	349.12
314.165	351.12
314.394	355.12
314.624	375.12
314.853	332.12
315.083	351.12
315.312	349.12
315.542	332.12
315.771	330.12
316.001	345.12
316.23	333.12
316.46	304.12
316.689	306.12
316.919	339.12
317.148	335.12
317.377	343.12
317.607	346.12
317.836	352.12
318.065	347.12
318.295	321.12
318.524	328.12
318.753	320.12
318.983	333.12
319.212	343.12
319.441	366.12
319.67	356.12
319.9	342.12
320.129	345.12
320.358	330.12
320.587	343.12
320.816	344.12
321.046	358.12
321.275	362.12
321.504	359.12
321.733	354.12
321.962	350.12
322.191	376.12
322.42	389.12
322.649	398.12
322.878	405.12
323.108	416.12
323.337	440.12
323.566	464.12
323.795	514.12
324.024	546.12
324.253	655.12
324.482	909.12
324.71	1429.12
324.939	2082.12
325.168	1828.12
325.397	930.12
325.626	620.12
325.855	494.12
326.084	467.12
326.313	454.12
326.542	466.12
326.77	505.12
326.999	608.12
327.228	829.12
327.457	1282.12
327.686	1534.12
327.914	1026.12
328.143	683.12
328.372	585.12
328.6	536.12
328.829	526.12
329.058	535.12
329.287	533.12
329.515	506.12
329.744	468.12
329.972	455.12
330.201	495.12
330.43	513.12
330.658	537.12
330.887	565.12
331.115	554.12
331.344	483.12
331.572	447.12
331.801	443.12
332.03	432.12
332.258	425.12
332.486	395.12
332.715	387.12
332.943	403.12
333.172	386.12
333.4	405.12
333.629	434.12
333.857	409.12
334.085	430.12
334.314	440.12
334.542	468.12
334.771	489.12
334.999	440.12
335.227	403.12
335.455	416.12
335.684	387.12
335.912	373.12
336.14	371.12
336.369	376.12
336.597	388.12
336.825	388.12
337.053	401.12
337.281	385.12
337.51	376.12
337.738	378.12
337.966	403.12
338.194	409.12
338.422	396.12
338.65	398.12
338.878	384.12
339.106	382.12
339.334	389.12
339.562	371.12
339.79	374.12
340.018	384.12
340.246	379.12
340.474	385.12
340.702	377.12
340.93	366.12
341.158	357.12
341.386	376.12
341.614	392.12
341.842	385.12
342.07	356.12
342.298	359.12
342.526	370.12
342.754	360.12
342.981	351.12
343.209	370.12
343.437	362.12
343.665	358.12
343.893	362.12
344.12	368.12
344.348	392.12
344.576	388.12
344.804	377.12
345.031	397.12
345.259	407.12
345.487	388.12
345.714	376.12
345.942	391.12
346.17	378.12
346.397	362.12
346.625	369.12
346.853	386.12
347.08	344.12
347.308	352.12
347.535	374.12
347.763	384.12
347.99	395.12
348.218	387.12
348.445	385.12
348.673	387.12
348.9	386.12
349.128	374.12
349.355	355.12
349.583	360.12
349.81	363.12
350.037	349.12
350.265	341.12
350.492	356.12
350.72	362.12
350.947	359.12
351.174	343.12
351.402	366.12
351.629	370.12
351.856	354.12
352.083	369.12
352.311	389.12
352.538	387.12
352.765	395.12
352.992	366.12
353.22	369.12
353.447	361.12
353.674	368.12
353.901	370.12
354.128	337.12
354.355	334.12
354.583	332.12
354.81	350.12
355.037	354.12
355.264	348.12
355.491	343.12
355.718	336.12
355.945	332.12
356.172	328.12
356.399	345.12
356.626	308.12
356.853	330.12
357.08	320.12
357.307	314.12
357.534	327.12
357.761	332.12
357.988	332.12
358.215	345.12
358.441	336.12
358.668	331.12
358.895	327.12
359.122	340.12
359.349	353.12
359.576	357.12
359.802	376.12
360.029	414.12
360.256	444.12
360.483	394.12
360.709	371.12
360.936	379.12
361.163	370.12
361.39	366.12
361.616	360.12
361.843	373.12
362.07	375.12
362.296	353.12
362.523	358.12
362.749	363.12
362.976	355.12
363.203	367.12
363.429	350.12
363.656	364.12
363.882	350.12
364.109	346.12
364.335	337.12
364.562	343.12
364.788	363.12
365.015	343.12
365.241	345.12
365.468	355.12
365.694	356.12
365.92	363.12
366.147	362.12
366.373	352.12
366.599	345.12
366.826	348.12
367.052	347.12
367.278	339.12
367.505	355.12
367.731	348.12
367.957	332.12
368.184	335.12
368.41	352.12
368.636	342.12
368.862	359.12
369.089	345.12
369.315	339.12
369.541	345.12
369.767	350.12
369.993	342.12
370.219	342.12
370.445	338.12
370.672	342.12
370.898	346.12
371.124	338.12
371.35	347.12
371.576	322.12
371.802	325.12
372.028	341.12
372.254	345.12
372.48	330.12
372.706	330.12
372.932	361.12
373.158	355.12
373.384	346.12
373.61	330.12
373.835	345.12
374.061	335.12
374.287	339.12
374.513	346.12
374.739	349.12
374.965	356.12
375.191	346.12
375.416	348.12
375.642	324.12
375.868	345.12
376.094	328.12
376.319	346.12
376.545	322.12
376.771	329.12
376.997	338.12
377.222	342.12
377.448	339.12
377.674	332.12
377.899	346.12
378.125	324.12
378.35	353.12
378.576	334.12
378.802	336.12
379.027	328.12
379.253	323.12
379.478	314.12
379.704	336.12
379.929	332.12
380.155	337.12
380.38	324.12
380.606	329.12
380.831	341.12
381.057	354.12
381.282	323.12
381.507	336.12
381.733	323.12
381.958	326.12
382.184	336.12
382.409	334.12
382.634	343.12
382.86	326.12
383.085	354.12
383.31	313.12
383.535	347.12
383.761	342.12
383.986	350.12
384.211	338.12
384.436	336.12
384.662	354.12
384.887	337.12
385.112	367.12
385.337	363.12
385.562	352.12
385.787	370.12
386.013	369.12
386.238	369.12
386.463	367.12
386.688	359.12
386.913	344.12
387.138	340.12
387.363	366.12
387.588	364.12
387.813	368.12
388.038	367.12
388.263	351.12
388.488	367.12
388.713	379.12
388.938	358.12
389.163	355.12
389.387	368.12
389.612	368.12
389.837	354.12
390.062	375.12
390.287	366.12
390.512	363.12
390.736	366.12
390.961	356.12
391.186	374.12
391.411	380.12
391.636	354.12
391.86	359.12
392.085	368.12
392.31	358.12
392.534	363.12
392.759	361.12
392.984	372.12
393.208	376.12
393.433	364.12
393.658	386.12
393.882	360.12
394.107	372.12
394.331	358.12
394.556	359.12
394.78	379.12
395.005	378.12
395.229	362.12
395.454	369.12
395.678	390.12
395.903	388.12
396.127	404.12
396.352	392.12
396.576	373.12
396.801	359.12
397.025	371.12
397.249	369.12
397.474	376.12
397.698	401.12
397.922	386.12
398.147	405.12
398.371	434.12
398.595	413.12
398.82	418.12
399.044	394.12
399.268	397.12
399.492	435.12
399.717	441.12
399.941	467.12
400.165	491.12
400.389	518.12
400.613	479.12
400.837	436.12
401.062	416.12
401.286	411.12
401.51	420.12
401.734	406.12
401.958	424.12
402.182	392.12
402.406	438.12
402.63	418.12
402.854	435.12
403.078	415.12
403.302	410.12
403.526	407.12
403.75	415.12
403.974	425.12
404.198	430.12
404.422	422.12
404.645	427.12
404.869	443.12
405.093	458.12
405.317	526.12
405.541	508.12
405.765	480.12
405.988	450.12
406.212	462.12
406.436	459.12
406.66	479.12
406.883	446.12
407.107	497.12
407.331	540.12
407.555	558.12
407.778	571.12
408.002	522.12
408.226	494.12
408.449	473.12
408.673	474.12
408.896	515.12
409.12	541.12
409.344	508.12
409.567	433.12
409.791	447.12
410.014	438.12
410.238	420.12
410.461	450.12
410.685	433.12
410.908	437.12
411.132	451.12
411.355	502.12
411.578	487.12
411.802	440.12
412.025	422.12
412.249	454.12
412.472	475.12
412.695	498.12
412.919	473.12
413.142	410.12
413.365	425.12
413.589	428.12
413.812	406.12
414.035	405.12
414.258	393.12
414.482	399.12
414.705	407.12
414.928	410.12
415.151	386.12
415.374	405.12
415.597	420.12
415.821	389.12
416.044	394.12
416.267	388.12
416.49	399.12
416.713	396.12
416.936	404.12
417.159	403.12
417.382	401.12
417.605	412.12
417.828	412.12
418.051	419.12
418.274	408.12
418.497	403.12
418.72	404.12
418.943	401.12
419.166	426.12
419.389	431.12
419.611	436.12
419.834	413.12
420.057	436.12
420.28	438.12
420.503	411.12
420.726	417.12
420.948	432.12
421.171	460.12
421.394	507.12
421.617	465.12
421.839	425.12
422.062	435.12
422.285	442.12
422.507	483.12
422.73	567.12
422.953	537.12
423.175	463.12
423.398	464.12
423.621	448.12
423.843	451.12
424.066	474.12
424.288	460.12
424.511	471.12
424.733	527.12
424.956	619.12
425.178	570.12
425.401	576.12
425.623	594.12
425.846	499.12
426.068	478.12
426.291	465.12
426.513	460.12
426.735	476.12
426.958	506.12
427.18	576.12
427.402	722.12
427.625	793.12
427.847	679.12
428.069	597.12
428.292	528.12
428.514	473.12
428.736	448.12
428.958	463.12
429.181	430.12
429.403	429.12
429.625	449.12
429.847	488.12
430.069	538.12
430.292	535.12
430.514	452.12
430.736	440.12
430.958	416.12
431.18	397.12
431.402	412.12
431.624	394.12
431.846	404.12
432.068	407.12
432.29	404.12
432.512	404.12
432.734	385.12
432.956	402.12
433.178	414.12
433.4	420.12
433.622	400.12
433.844	408.12
434.066	406.12
434.287	375.12
434.509	390.12
434.731	407.12
434.953	402.12
435.175	430.12
435.397	470.12
435.618	456.12
435.84	530.12
436.062	586.12
436.284	657.12
436.505	547.12
436.727	485.12
436.949	462.12
437.17	440.12
437.392	438.12
437.614	455.12
437.835	484.12
438.057	564.12
438.278	672.12
438.5	642.12
438.721	739.12
438.943	711.12
439.165	540.12
439.386	483.12
439.608	496.12
439.829	481.12
440.05	518.12
440.272	558.12
440.493	525.12
440.715	465.12
440.936	441.12
441.158	437.12
441.379	439.12
441.6	460.12
441.822	464.12
442.043	520.12
442.264	566.12
442.486	618.12
442.707	538.12
442.928	483.12
443.149	470.12
443.371	506.12
443.592	550.12
443.813	609.12
444.034	657.12
444.255	566.12
444.476	500.12
444.698	479.12
444.919	466.12
445.14	554.12
445.361	524.12
445.582	497.12
445.803	556.12
446.024	656.12
446.245	676.12
446.466	640.12
446.687	515.12
446.908	487.12
447.129	451.12
447.35	432.12
447.571	450.12
447.792	420.12
448.013	431.12
448.234	454.12
448.455	488.12
448.675	597.12
448.896	704.12
449.117	616.12
449.338	565.12
449.559	652.12
449.779	752.12
450	615.12
450.221	479.12
450.442	458.12
450.662	426.12
450.883	418.12
451.104	436.12
451.324	432.12
451.545	418.12
451.766	375.12
451.986	382.12
452.207	367.12
452.428	386.12
452.648	388.12
452.869	396.12
453.089	405.12
453.31	406.12
453.53	396.12
453.751	400.12
453.971	399.12
454.192	421.12
454.412	408.12
454.633	386.12
454.853	387.12
455.073	383.12
455.294	401.12
455.514	466.12
455.734	491.12
455.955	378.12
456.175	376.12
456.395	367.12
456.616	363.12
456.836	373.12
457.056	364.12
457.276	358.12
457.497	376.12
457.717	359.12
457.937	364.12
458.157	392.12
458.377	375.12
458.598	386.12
458.818	432.12
459.038	511.12
459.258	537.12
459.478	443.12
459.698	406.12
459.918	416.12
460.138	412.12
460.358	395.12
460.578	388.12
460.798	440.12
461.018	422.12
461.238	424.12
461.458	422.12
461.678	396.12
461.898	412.12
462.118	401.12
462.338	401.12
462.558	419.12
462.777	411.12
462.997	410.12
463.217	414.12
463.437	426.12
463.657	426.12
463.876	451.12
464.096	425.12
464.316	421.12
464.536	439.12
464.755	407.12
464.975	433.12
465.195	480.12
465.414	551.12
465.634	473.12
465.854	444.12
466.073	432.12
466.293	423.12
466.512	405.12
466.732	399.12
466.951	371.12
467.171	382.12
467.391	406.12
467.61	416.12
467.829	405.12
468.049	396.12
468.268	386.12
468.488	371.12
468.707	373.12
468.927	391.12
469.146	399.12
469.365	396.12
469.585	376.12
469.804	400.12
470.023	394.12
470.243	404.12
470.462	402.12
470.681	430.12
470.901	416.12
471.12	408.12
471.339	394.12
471.558	411.12
471.777	406.12
471.997	401.12
472.216	400.12
472.435	441.12
472.654	445.12
472.873	415.12
473.092	416.12
473.311	400.12
473.53	402.12
473.749	400.12
473.968	448.12
474.187	533.12
474.406	560.12
474.625	457.12
474.844	426.12
475.063	404.12
475.282	398.12
475.501	394.12
475.72	414.12
475.939	408.12
476.158	416.12
476.377	415.12
476.596	413.12
476.814	406.12
477.033	420.12
477.252	444.12
477.471	418.12
477.69	430.12
477.908	458.12
478.127	421.12
478.346	429.12
478.564	449.12
478.783	441.12
479.002	462.12
479.22	467.12
479.439	457.12
479.658	478.12
479.876	475.12
480.095	496.12
480.313	510.12
480.532	487.12
480.751	487.12
480.969	494.12
481.188	558.12
481.406	593.12
481.624	522.12
481.843	481.12
482.061	471.12
482.28	462.12
482.498	470.12
482.717	472.12
482.935	479.12
483.153	463.12
483.372	469.12
483.59	475.12
483.808	454.12
484.027	487.12
484.245	451.12
484.463	479.12
484.681	479.12
484.9	460.12
485.118	491.12
485.336	488.12
485.554	507.12
485.772	472.12
485.99	488.12
486.209	495.12
486.427	485.12
486.645	499.12
486.863	523.12
487.081	509.12
487.299	508.12
487.517	499.12
487.735	503.12
487.953	523.12
488.171	499.12
488.389	502.12
488.607	503.12
488.825	516.12
489.043	501.12
489.261	516.12
489.479	526.12
489.696	518.12
489.914	512.12
490.132	511.12
490.35	530.12
490.568	538.12
490.786	543.12
491.003	554.12
491.221	542.12
491.439	570.12
491.657	554.12
491.874	558.12
492.092	578.12
492.31	574.12
492.527	568.12
492.745	600.12
492.963	599.12
493.18	588.12
493.398	599.12
493.615	577.12
493.833	592.12
494.05	595.12
494.268	577.12
494.485	595.12
494.703	575.12
494.92	603.12
495.138	600.12
495.355	596.12
495.573	586.12
495.79	596.12
496.008	620.12
496.225	588.12
496.442	594.12
496.66	584.12
496.877	594.12
497.094	611.12
497.312	599.12
497.529	604.12
497.746	610.12
497.963	618.12
498.181	633.12
498.398	628.12
498.615	637.12
498.832	668.12
499.049	689.12
499.267	681.12
499.484	702.12
499.701	706.12
499.918	728.12
500.135	743.12
500.352	747.12
500.569	768.12
500.786	764.12
501.003	765.12
501.22	772.12
501.437	735.12
501.654	751.12
501.871	742.12
