Data from 1972.PennyLincolnUp.Lamp.En5.5.200Scan.071719.P1._HRD10591_15-26-49-843.txt Node
Date: Thu Jul 18 15:26:49 EDT 2019
User: cochatt
Spectrometer: HR+D1059
Trigger mode: 1
Integration Time (sec): 1.000000E-1
Scans to average: 1
Electric dark correction enabled: true
Nonlinearity correction enabled: false
Boxcar width: 0
XAxis mode: Wavelengths
Number of Pixels in Spectrum: 2048
>>>>>Begin Spectral Data<<<<<
223.165	-7.44
223.4	-7.44
223.635	-7.44
223.869	-26.44
224.104	-22.44
224.338	-14.44
224.573	-4.44
224.808	-19.44
225.042	-8.44
225.277	-11.44
225.511	11.56
225.746	3.56
225.98	3.56
226.215	5.56
226.449	8.56
226.683	13.56
226.918	43.56
227.152	24.56
227.387	31.56
227.621	40.56
227.856	52.56
228.09	37.56
228.324	48.56
228.559	40.56
228.793	68.56
229.027	71.56
229.262	93.56
229.496	112.56
229.73	108.56
229.964	137.56
230.199	110.56
230.433	106.56
230.667	99.56
230.901	78.56
231.136	95.56
231.37	94.56
231.604	105.56
231.838	97.56
232.072	109.56
232.306	109.56
232.541	96.56
232.775	104.56
233.009	98.56
233.243	102.56
233.477	102.56
233.711	115.56
233.945	104.56
234.179	118.56
234.413	103.56
234.647	104.56
234.881	99.56
235.115	108.56
235.349	119.56
235.583	104.56
235.817	100.56
236.051	119.56
236.285	114.56
236.519	110.56
236.753	114.56
236.987	116.56
237.221	159.56
237.455	188.56
237.689	139.56
237.922	130.56
238.156	100.56
238.39	107.56
238.624	111.56
238.858	104.56
239.091	100.56
239.325	100.56
239.559	100.56
239.793	102.56
240.027	119.56
240.26	122.56
240.494	136.56
240.728	135.56
240.961	122.56
241.195	112.56
241.429	130.56
241.662	122.56
241.896	126.56
242.13	99.56
242.363	103.56
242.597	127.56
242.83	116.56
243.064	120.56
243.298	124.56
243.531	114.56
243.765	121.56
243.998	122.56
244.232	126.56
244.465	125.56
244.699	116.56
244.932	136.56
245.166	128.56
245.399	130.56
245.633	135.56
245.866	126.56
246.099	138.56
246.333	140.56
246.566	133.56
246.8	134.56
247.033	141.56
247.266	131.56
247.5	111.56
247.733	147.56
247.966	148.56
248.2	150.56
248.433	138.56
248.666	160.56
248.899	153.56
249.133	156.56
249.366	169.56
249.599	162.56
249.832	145.56
250.066	162.56
250.299	152.56
250.532	156.56
250.765	163.56
250.998	175.56
251.231	191.56
251.465	171.56
251.698	180.56
251.931	176.56
252.164	175.56
252.397	174.56
252.63	173.56
252.863	173.56
253.096	172.56
253.329	191.56
253.562	174.56
253.795	189.56
254.028	186.56
254.261	166.56
254.494	187.56
254.727	197.56
254.96	205.56
255.193	217.56
255.426	213.56
255.659	195.56
255.892	201.56
256.124	187.56
256.357	184.56
256.59	173.56
256.823	176.56
257.056	174.56
257.289	173.56
257.521	178.56
257.754	178.56
257.987	184.56
258.22	174.56
258.452	185.56
258.685	170.56
258.918	174.56
259.151	176.56
259.383	172.56
259.616	178.56
259.849	197.56
260.081	199.56
260.314	187.56
260.547	207.56
260.779	205.56
261.012	198.56
261.244	182.56
261.477	178.56
261.71	175.56
261.942	199.56
262.175	192.56
262.407	191.56
262.64	191.56
262.872	186.56
263.105	178.56
263.337	182.56
263.57	192.56
263.802	185.56
264.035	173.56
264.267	190.56
264.499	182.56
264.732	180.56
264.964	165.56
265.197	173.56
265.429	183.56
265.661	190.56
265.894	175.56
266.126	166.56
266.358	175.56
266.591	183.56
266.823	180.56
267.055	172.56
267.287	192.56
267.52	186.56
267.752	192.56
267.984	191.56
268.216	184.56
268.448	197.56
268.681	176.56
268.913	193.56
269.145	214.56
269.377	229.56
269.609	216.56
269.841	218.56
270.073	210.56
270.306	215.56
270.538	221.56
270.77	242.56
271.002	241.56
271.234	227.56
271.466	209.56
271.698	250.56
271.93	253.56
272.162	246.56
272.394	247.56
272.626	228.56
272.858	242.56
273.09	230.56
273.322	214.56
273.553	202.56
273.785	211.56
274.017	225.56
274.249	208.56
274.481	219.56
274.713	235.56
274.945	213.56
275.176	217.56
275.408	221.56
275.64	214.56
275.872	215.56
276.104	237.56
276.335	212.56
276.567	233.56
276.799	227.56
277.031	248.56
277.262	253.56
277.494	243.56
277.726	215.56
277.957	237.56
278.189	222.56
278.421	218.56
278.652	212.56
278.884	219.56
279.115	225.56
279.347	218.56
279.579	206.56
279.81	224.56
280.042	227.56
280.273	204.56
280.505	220.56
280.736	208.56
280.968	200.56
281.199	222.56
281.431	224.56
281.662	208.56
281.894	226.56
282.125	204.56
282.356	230.56
282.588	244.56
282.819	233.56
283.051	211.56
283.282	213.56
283.513	204.56
283.745	214.56
283.976	224.56
284.207	215.56
284.439	215.56
284.67	215.56
284.901	220.56
285.132	206.56
285.364	229.56
285.595	222.56
285.826	219.56
286.057	224.56
286.288	212.56
286.52	221.56
286.751	221.56
286.982	236.56
287.213	222.56
287.444	216.56
287.675	242.56
287.906	219.56
288.138	223.56
288.369	229.56
288.6	223.56
288.831	240.56
289.062	239.56
289.293	231.56
289.524	220.56
289.755	214.56
289.986	235.56
290.217	214.56
290.448	218.56
290.679	242.56
290.91	206.56
291.141	227.56
291.371	220.56
291.602	226.56
291.833	236.56
292.064	231.56
292.295	250.56
292.526	231.56
292.757	218.56
292.987	229.56
293.218	213.56
293.449	238.56
293.68	223.56
293.91	233.56
294.141	241.56
294.372	247.56
294.603	223.56
294.833	238.56
295.064	239.56
295.295	232.56
295.525	236.56
295.756	211.56
295.987	231.56
296.217	247.56
296.448	246.56
296.679	236.56
296.909	238.56
297.14	239.56
297.37	249.56
297.601	224.56
297.831	229.56
298.062	237.56
298.292	215.56
298.523	245.56
298.753	229.56
298.984	231.56
299.214	255.56
299.445	232.56
299.675	242.56
299.905	248.56
300.136	232.56
300.366	245.56
300.597	244.56
300.827	261.56
301.057	260.56
301.288	269.56
301.518	241.56
301.748	245.56
301.979	239.56
302.209	230.56
302.439	237.56
302.669	233.56
302.9	227.56
303.13	257.56
303.36	250.56
303.59	255.56
303.82	268.56
304.051	254.56
304.281	238.56
304.511	254.56
304.741	246.56
304.971	254.56
305.201	246.56
305.431	258.56
305.661	246.56
305.891	250.56
306.121	243.56
306.352	260.56
306.582	254.56
306.812	271.56
307.042	247.56
307.272	274.56
307.502	268.56
307.731	252.56
307.961	263.56
308.191	263.56
308.421	244.56
308.651	254.56
308.881	259.56
309.111	276.56
309.341	242.56
309.571	276.56
309.8	282.56
310.03	280.56
310.26	285.56
310.49	278.56
310.72	278.56
310.949	280.56
311.179	307.56
311.409	280.56
311.639	286.56
311.868	286.56
312.098	276.56
312.328	292.56
312.557	306.56
312.787	302.56
313.017	312.56
313.246	303.56
313.476	292.56
313.706	278.56
313.935	270.56
314.165	296.56
314.394	304.56
314.624	297.56
314.853	288.56
315.083	296.56
315.312	293.56
315.542	293.56
315.771	293.56
316.001	292.56
316.23	310.56
316.46	283.56
316.689	298.56
316.919	294.56
317.148	315.56
317.377	308.56
317.607	301.56
317.836	292.56
318.065	292.56
318.295	289.56
318.524	283.56
318.753	278.56
318.983	285.56
319.212	290.56
319.441	283.56
319.67	293.56
319.9	306.56
320.129	302.56
320.358	273.56
320.587	283.56
320.816	297.56
321.046	310.56
321.275	300.56
321.504	318.56
321.733	300.56
321.962	303.56
322.191	316.56
322.42	324.56
322.649	312.56
322.878	322.56
323.108	318.56
323.337	347.56
323.566	376.56
323.795	362.56
324.024	408.56
324.253	455.56
324.482	663.56
324.71	1012.56
324.939	1511.56
325.168	1317.56
325.397	666.56
325.626	454.56
325.855	422.56
326.084	368.56
326.313	360.56
326.542	362.56
326.77	391.56
326.999	450.56
327.228	615.56
327.457	935.56
327.686	1146.56
327.914	762.56
328.143	492.56
328.372	441.56
328.6	411.56
328.829	409.56
329.058	418.56
329.287	423.56
329.515	400.56
329.744	378.56
329.972	349.56
330.201	363.56
330.43	403.56
330.658	434.56
330.887	443.56
331.115	424.56
331.344	366.56
331.572	363.56
331.801	346.56
332.03	353.56
332.258	355.56
332.486	309.56
332.715	316.56
332.943	312.56
333.172	330.56
333.4	351.56
333.629	343.56
333.857	368.56
334.085	347.56
334.314	362.56
334.542	378.56
334.771	364.56
334.999	344.56
335.227	357.56
335.455	333.56
335.684	346.56
335.912	321.56
336.14	331.56
336.369	324.56
336.597	350.56
336.825	340.56
337.053	341.56
337.281	324.56
337.51	312.56
337.738	340.56
337.966	347.56
338.194	319.56
338.422	324.56
338.65	317.56
338.878	314.56
339.106	325.56
339.334	302.56
339.562	338.56
339.79	335.56
340.018	314.56
340.246	313.56
340.474	342.56
340.702	335.56
340.93	345.56
341.158	326.56
341.386	318.56
341.614	337.56
341.842	324.56
342.07	316.56
342.298	334.56
342.526	342.56
342.754	309.56
342.981	310.56
343.209	316.56
343.437	324.56
343.665	310.56
343.893	325.56
344.12	320.56
344.348	345.56
344.576	325.56
344.804	344.56
345.031	338.56
345.259	335.56
345.487	335.56
345.714	339.56
345.942	334.56
346.17	313.56
346.397	314.56
346.625	329.56
346.853	307.56
347.08	331.56
347.308	312.56
347.535	334.56
347.763	326.56
347.99	292.56
348.218	323.56
348.445	320.56
348.673	312.56
348.9	311.56
349.128	327.56
349.355	305.56
349.583	312.56
349.81	279.56
350.037	311.56
350.265	312.56
350.492	307.56
350.72	310.56
350.947	312.56
351.174	323.56
351.402	318.56
351.629	317.56
351.856	322.56
352.083	329.56
352.311	317.56
352.538	310.56
352.765	334.56
352.992	300.56
353.22	304.56
353.447	311.56
353.674	310.56
353.901	306.56
354.128	303.56
354.355	318.56
354.583	296.56
354.81	294.56
355.037	281.56
355.264	303.56
355.491	302.56
355.718	293.56
355.945	289.56
356.172	303.56
356.399	261.56
356.626	306.56
356.853	303.56
357.08	300.56
357.307	295.56
357.534	282.56
357.761	310.56
357.988	302.56
358.215	301.56
358.441	319.56
358.668	300.56
358.895	303.56
359.122	316.56
359.349	302.56
359.576	329.56
359.802	327.56
360.029	343.56
360.256	359.56
360.483	339.56
360.709	349.56
360.936	317.56
361.163	316.56
361.39	315.56
361.616	304.56
361.843	322.56
362.07	316.56
362.296	315.56
362.523	322.56
362.749	312.56
362.976	302.56
363.203	296.56
363.429	279.56
363.656	305.56
363.882	304.56
364.109	305.56
364.335	299.56
364.562	302.56
364.788	298.56
365.015	303.56
365.241	286.56
365.468	309.56
365.694	314.56
365.92	310.56
366.147	291.56
366.373	295.56
366.599	293.56
366.826	311.56
367.052	298.56
367.278	278.56
367.505	306.56
367.731	291.56
367.957	310.56
368.184	301.56
368.41	311.56
368.636	303.56
368.862	315.56
369.089	285.56
369.315	303.56
369.541	291.56
369.767	312.56
369.993	307.56
370.219	313.56
370.445	304.56
370.672	313.56
370.898	314.56
371.124	310.56
371.35	317.56
371.576	314.56
371.802	303.56
372.028	306.56
372.254	314.56
372.48	305.56
372.706	283.56
372.932	291.56
373.158	317.56
373.384	315.56
373.61	310.56
373.835	316.56
374.061	333.56
374.287	312.56
374.513	310.56
374.739	298.56
374.965	318.56
375.191	318.56
375.416	303.56
375.642	306.56
375.868	316.56
376.094	302.56
376.319	295.56
376.545	294.56
376.771	319.56
376.997	287.56
377.222	308.56
377.448	310.56
377.674	310.56
377.899	303.56
378.125	287.56
378.35	318.56
378.576	317.56
378.802	303.56
379.027	304.56
379.253	300.56
379.478	286.56
379.704	312.56
379.929	303.56
380.155	297.56
380.38	319.56
380.606	316.56
380.831	329.56
381.057	329.56
381.282	298.56
381.507	314.56
381.733	299.56
381.958	331.56
382.184	291.56
382.409	316.56
382.634	318.56
382.86	325.56
383.085	319.56
383.31	313.56
383.535	329.56
383.761	314.56
383.986	343.56
384.211	338.56
384.436	300.56
384.662	318.56
384.887	308.56
385.112	336.56
385.337	334.56
385.562	321.56
385.787	327.56
386.013	340.56
386.238	343.56
386.463	340.56
386.688	331.56
386.913	325.56
387.138	332.56
387.363	340.56
387.588	338.56
387.813	329.56
388.038	333.56
388.263	322.56
388.488	318.56
388.713	335.56
388.938	338.56
389.163	332.56
389.387	324.56
389.612	319.56
389.837	320.56
390.062	325.56
390.287	310.56
390.512	326.56
390.736	319.56
390.961	317.56
391.186	311.56
391.411	332.56
391.636	333.56
391.86	334.56
392.085	345.56
392.31	332.56
392.534	336.56
392.759	370.56
392.984	346.56
393.208	344.56
393.433	382.56
393.658	373.56
393.882	334.56
394.107	327.56
394.331	331.56
394.556	339.56
394.78	314.56
395.005	323.56
395.229	325.56
395.454	333.56
395.678	324.56
395.903	344.56
396.127	349.56
396.352	381.56
396.576	342.56
396.801	336.56
397.025	380.56
397.249	338.56
397.474	359.56
397.698	355.56
397.922	357.56
398.147	374.56
398.371	373.56
398.595	359.56
398.82	348.56
399.044	365.56
399.268	360.56
399.492	393.56
399.717	381.56
399.941	410.56
400.165	433.56
400.389	452.56
400.613	405.56
400.837	386.56
401.062	375.56
401.286	380.56
401.51	364.56
401.734	386.56
401.958	361.56
402.182	361.56
402.406	384.56
402.63	378.56
402.854	364.56
403.078	362.56
403.302	370.56
403.526	350.56
403.75	379.56
403.974	370.56
404.198	366.56
404.422	378.56
404.645	386.56
404.869	383.56
405.093	390.56
405.317	422.56
405.541	470.56
405.765	412.56
405.988	387.56
406.212	394.56
406.436	416.56
406.66	435.56
406.883	406.56
407.107	390.56
407.331	458.56
407.555	491.56
407.778	528.56
408.002	458.56
408.226	425.56
408.449	414.56
408.673	422.56
408.896	454.56
409.12	476.56
409.344	432.56
409.567	388.56
409.791	398.56
410.014	386.56
410.238	382.56
410.461	380.56
410.685	388.56
410.908	415.56
411.132	418.56
411.355	456.56
411.578	428.56
411.802	405.56
412.025	381.56
412.249	402.56
412.472	404.56
412.695	428.56
412.919	430.56
413.142	382.56
413.365	388.56
413.589	377.56
413.812	370.56
414.035	374.56
414.258	367.56
414.482	365.56
414.705	355.56
414.928	362.56
415.151	348.56
415.374	334.56
415.597	354.56
415.821	366.56
416.044	360.56
416.267	370.56
416.49	346.56
416.713	360.56
416.936	370.56
417.159	372.56
417.382	357.56
417.605	354.56
417.828	362.56
418.051	385.56
418.274	378.56
418.497	356.56
418.72	364.56
418.943	363.56
419.166	359.56
419.389	404.56
419.611	388.56
419.834	388.56
420.057	384.56
420.28	372.56
420.503	383.56
420.726	388.56
420.948	384.56
421.171	402.56
421.394	436.56
421.617	420.56
421.839	374.56
422.062	393.56
422.285	406.56
422.507	423.56
422.73	510.56
422.953	468.56
423.175	396.56
423.398	406.56
423.621	390.56
423.843	405.56
424.066	395.56
424.288	391.56
424.511	418.56
424.733	469.56
424.956	552.56
425.178	514.56
425.401	498.56
425.623	493.56
425.846	426.56
426.068	400.56
426.291	400.56
426.513	400.56
426.735	422.56
426.958	432.56
427.18	524.56
427.402	602.56
427.625	640.56
427.847	562.56
428.069	508.56
428.292	448.56
428.514	411.56
428.736	379.56
428.958	392.56
429.181	363.56
429.403	344.56
429.625	412.56
429.847	405.56
430.069	462.56
430.292	481.56
430.514	406.56
430.736	389.56
430.958	374.56
431.18	366.56
431.402	353.56
431.624	342.56
431.846	362.56
432.068	359.56
432.29	345.56
432.512	371.56
432.734	371.56
432.956	370.56
433.178	375.56
433.4	389.56
433.622	371.56
433.844	359.56
434.066	363.56
434.287	351.56
434.509	372.56
434.731	358.56
434.953	374.56
435.175	384.56
435.397	410.56
435.618	404.56
435.84	455.56
436.062	511.56
436.284	568.56
436.505	466.56
436.727	417.56
436.949	401.56
437.17	413.56
437.392	383.56
437.614	371.56
437.835	394.56
438.057	482.56
438.278	570.56
438.5	565.56
438.721	644.56
438.943	592.56
439.165	470.56
439.386	444.56
439.608	417.56
439.829	431.56
440.05	416.56
440.272	473.56
440.493	442.56
440.715	396.56
440.936	388.56
441.158	382.56
441.379	383.56
441.6	396.56
441.822	399.56
442.043	431.56
442.264	492.56
442.486	529.56
442.707	454.56
442.928	438.56
443.149	415.56
443.371	436.56
443.592	465.56
443.813	530.56
444.034	588.56
444.255	476.56
444.476	436.56
444.698	414.56
444.919	418.56
445.14	498.56
445.361	463.56
445.582	449.56
445.803	478.56
446.024	574.56
446.245	572.56
446.466	512.56
446.687	441.56
446.908	400.56
447.129	390.56
447.35	379.56
447.571	372.56
447.792	384.56
448.013	377.56
448.234	392.56
448.455	449.56
448.675	523.56
448.896	623.56
449.117	512.56
449.338	500.56
449.559	567.56
449.779	664.56
450	533.56
450.221	426.56
450.442	387.56
450.662	358.56
450.883	378.56
451.104	383.56
451.324	373.56
451.545	365.56
451.766	352.56
451.986	346.56
452.207	345.56
452.428	334.56
452.648	343.56
452.869	326.56
453.089	346.56
453.31	351.56
453.53	351.56
453.751	324.56
453.971	330.56
454.192	354.56
454.412	346.56
454.633	340.56
454.853	354.56
455.073	319.56
455.294	368.56
455.514	407.56
455.734	400.56
455.955	361.56
456.175	329.56
456.395	342.56
456.616	336.56
456.836	323.56
457.056	299.56
457.276	317.56
457.497	330.56
457.717	326.56
457.937	322.56
458.157	325.56
458.377	333.56
458.598	335.56
458.818	364.56
459.038	434.56
459.258	470.56
459.478	400.56
459.698	362.56
459.918	355.56
460.138	378.56
460.358	366.56
460.578	348.56
460.798	359.56
461.018	358.56
461.238	357.56
461.458	381.56
461.678	346.56
461.898	374.56
462.118	365.56
462.338	341.56
462.558	376.56
462.777	365.56
462.997	380.56
463.217	373.56
463.437	390.56
463.657	373.56
463.876	375.56
464.096	405.56
464.316	383.56
464.536	390.56
464.755	362.56
464.975	375.56
465.195	412.56
465.414	455.56
465.634	418.56
465.854	371.56
466.073	354.56
466.293	349.56
466.512	370.56
466.732	358.56
466.951	342.56
467.171	348.56
467.391	357.56
467.61	352.56
467.829	326.56
468.049	355.56
468.268	338.56
468.488	332.56
468.707	337.56
468.927	352.56
469.146	321.56
469.365	360.56
469.585	336.56
469.804	350.56
470.023	335.56
470.243	362.56
470.462	363.56
470.681	362.56
470.901	352.56
471.12	351.56
471.339	342.56
471.558	347.56
471.777	328.56
471.997	342.56
472.216	359.56
472.435	375.56
472.654	365.56
472.873	363.56
473.092	368.56
473.311	365.56
473.53	355.56
473.749	379.56
473.968	376.56
474.187	447.56
474.406	475.56
474.625	408.56
474.844	370.56
475.063	354.56
475.282	349.56
475.501	379.56
475.72	354.56
475.939	351.56
476.158	347.56
476.377	348.56
476.596	359.56
476.814	380.56
477.033	354.56
477.252	376.56
477.471	366.56
477.69	379.56
477.908	382.56
478.127	382.56
478.346	381.56
478.564	372.56
478.783	408.56
479.002	398.56
479.22	403.56
479.439	416.56
479.658	416.56
479.876	427.56
480.095	420.56
480.313	431.56
480.532	425.56
480.751	429.56
480.969	430.56
481.188	437.56
481.406	501.56
481.624	422.56
481.843	431.56
482.061	442.56
482.28	445.56
482.498	415.56
482.717	396.56
482.935	409.56
483.153	412.56
483.372	429.56
483.59	415.56
483.808	411.56
484.027	447.56
484.245	401.56
484.463	415.56
484.681	408.56
484.9	404.56
485.118	427.56
485.336	423.56
485.554	427.56
485.772	425.56
485.99	437.56
486.209	422.56
486.427	425.56
486.645	450.56
486.863	442.56
487.081	424.56
487.299	440.56
487.517	452.56
487.735	441.56
487.953	433.56
488.171	440.56
488.389	431.56
488.607	444.56
488.825	459.56
489.043	455.56
489.261	454.56
489.479	450.56
489.696	446.56
489.914	443.56
490.132	454.56
490.35	472.56
490.568	453.56
490.786	463.56
491.003	476.56
491.221	470.56
491.439	506.56
491.657	474.56
491.874	502.56
492.092	500.56
492.31	500.56
492.527	503.56
492.745	510.56
492.963	533.56
493.18	507.56
493.398	492.56
493.615	482.56
493.833	534.56
494.05	502.56
494.268	524.56
494.485	502.56
494.703	510.56
494.92	521.56
495.138	528.56
495.355	527.56
495.573	527.56
495.79	510.56
496.008	538.56
496.225	522.56
496.442	542.56
496.66	529.56
496.877	527.56
497.094	545.56
497.312	528.56
497.529	510.56
497.746	542.56
497.963	547.56
498.181	551.56
498.398	568.56
498.615	592.56
498.832	572.56
499.049	590.56
499.267	588.56
499.484	603.56
499.701	622.56
499.918	638.56
500.135	664.56
500.352	686.56
500.569	693.56
500.786	694.56
501.003	703.56
501.22	689.56
501.437	662.56
501.654	654.56
501.871	648.56
502.088	632.56
