Data from 1972.PennyLincolnUp.Lamp.En5.5.200Scan.071719.P1._HRD10591_15-26-57-843.txt Node
Date: Thu Jul 18 15:26:57 EDT 2019
User: cochatt
Spectrometer: HR+D1059
Trigger mode: 1
Integration Time (sec): 1.000000E-1
Scans to average: 1
Electric dark correction enabled: true
Nonlinearity correction enabled: false
Boxcar width: 0
XAxis mode: Wavelengths
Number of Pixels in Spectrum: 2048
>>>>>Begin Spectral Data<<<<<
223.165	-7.06
223.4	-7.06
223.635	-7.06
223.869	-20.06
224.104	-14.06
224.338	-5.06
224.573	-18.06
224.808	-15.06
225.042	-3.06
225.277	-17.06
225.511	-4.06
225.746	5.94
225.98	10.94
226.215	6.94
226.449	6.94
226.683	25.94
226.918	16.94
227.152	29.94
227.387	54.94
227.621	58.94
227.856	52.94
228.09	49.94
228.324	40.94
228.559	43.94
228.793	64.94
229.027	86.94
229.262	104.94
229.496	96.94
229.73	118.94
229.964	156.94
230.199	125.94
230.433	111.94
230.667	112.94
230.901	104.94
231.136	105.94
231.37	98.94
231.604	106.94
231.838	117.94
232.072	108.94
232.306	97.94
232.541	102.94
232.775	97.94
233.009	108.94
233.243	97.94
233.477	104.94
233.711	112.94
233.945	114.94
234.179	97.94
234.413	111.94
234.647	120.94
234.881	107.94
235.115	112.94
235.349	109.94
235.583	98.94
235.817	107.94
236.051	116.94
236.285	108.94
236.519	95.94
236.753	126.94
236.987	132.94
237.221	165.94
237.455	188.94
237.689	162.94
237.922	130.94
238.156	117.94
238.39	110.94
238.624	102.94
238.858	108.94
239.091	104.94
239.325	113.94
239.559	111.94
239.793	114.94
240.027	124.94
240.26	118.94
240.494	140.94
240.728	134.94
240.961	132.94
241.195	125.94
241.429	132.94
241.662	134.94
241.896	129.94
242.13	98.94
242.363	136.94
242.597	113.94
242.83	137.94
243.064	119.94
243.298	118.94
243.531	119.94
243.765	123.94
243.998	133.94
244.232	140.94
244.465	134.94
244.699	131.94
244.932	130.94
245.166	126.94
245.399	122.94
245.633	135.94
245.866	142.94
246.099	125.94
246.333	137.94
246.566	139.94
246.8	142.94
247.033	131.94
247.266	151.94
247.5	136.94
247.733	144.94
247.966	142.94
248.2	150.94
248.433	151.94
248.666	145.94
248.899	155.94
249.133	196.94
249.366	185.94
249.599	171.94
249.832	160.94
250.066	163.94
250.299	164.94
250.532	181.94
250.765	178.94
250.998	190.94
251.231	198.94
251.465	199.94
251.698	171.94
251.931	177.94
252.164	179.94
252.397	172.94
252.63	188.94
252.863	186.94
253.096	204.94
253.329	200.94
253.562	200.94
253.795	214.94
254.028	193.94
254.261	180.94
254.494	204.94
254.727	222.94
254.96	226.94
255.193	232.94
255.426	234.94
255.659	193.94
255.892	198.94
256.124	213.94
256.357	208.94
256.59	186.94
256.823	193.94
257.056	188.94
257.289	169.94
257.521	177.94
257.754	191.94
257.987	185.94
258.22	168.94
258.452	176.94
258.685	189.94
258.918	187.94
259.151	204.94
259.383	181.94
259.616	202.94
259.849	184.94
260.081	201.94
260.314	216.94
260.547	211.94
260.779	211.94
261.012	198.94
261.244	191.94
261.477	214.94
261.71	180.94
261.942	207.94
262.175	205.94
262.407	197.94
262.64	200.94
262.872	182.94
263.105	192.94
263.337	192.94
263.57	164.94
263.802	196.94
264.035	172.94
264.267	189.94
264.499	199.94
264.732	179.94
264.964	174.94
265.197	186.94
265.429	185.94
265.661	177.94
265.894	180.94
266.126	193.94
266.358	190.94
266.591	212.94
266.823	209.94
267.055	208.94
267.287	192.94
267.52	185.94
267.752	195.94
267.984	183.94
268.216	204.94
268.448	194.94
268.681	190.94
268.913	216.94
269.145	216.94
269.377	227.94
269.609	228.94
269.841	224.94
270.073	220.94
270.306	238.94
270.538	260.94
270.77	239.94
271.002	252.94
271.234	256.94
271.466	247.94
271.698	269.94
271.93	247.94
272.162	248.94
272.394	271.94
272.626	264.94
272.858	222.94
273.09	235.94
273.322	220.94
273.553	215.94
273.785	215.94
274.017	224.94
274.249	218.94
274.481	233.94
274.713	232.94
274.945	215.94
275.176	211.94
275.408	209.94
275.64	206.94
275.872	231.94
276.104	213.94
276.335	222.94
276.567	217.94
276.799	241.94
277.031	252.94
277.262	244.94
277.494	252.94
277.726	251.94
277.957	237.94
278.189	224.94
278.421	216.94
278.652	232.94
278.884	221.94
279.115	225.94
279.347	221.94
279.579	233.94
279.81	220.94
280.042	205.94
280.273	229.94
280.505	224.94
280.736	208.94
280.968	229.94
281.199	215.94
281.431	219.94
281.662	224.94
281.894	213.94
282.125	204.94
282.356	246.94
282.588	261.94
282.819	240.94
283.051	228.94
283.282	213.94
283.513	219.94
283.745	237.94
283.976	222.94
284.207	234.94
284.439	214.94
284.67	225.94
284.901	238.94
285.132	245.94
285.364	216.94
285.595	223.94
285.826	241.94
286.057	228.94
286.288	235.94
286.52	244.94
286.751	255.94
286.982	233.94
287.213	233.94
287.444	225.94
287.675	246.94
287.906	251.94
288.138	249.94
288.369	253.94
288.6	238.94
288.831	245.94
289.062	247.94
289.293	244.94
289.524	235.94
289.755	236.94
289.986	235.94
290.217	229.94
290.448	223.94
290.679	226.94
290.91	246.94
291.141	233.94
291.371	224.94
291.602	222.94
291.833	238.94
292.064	247.94
292.295	244.94
292.526	245.94
292.757	236.94
292.987	247.94
293.218	234.94
293.449	236.94
293.68	248.94
293.91	225.94
294.141	250.94
294.372	238.94
294.603	232.94
294.833	226.94
295.064	235.94
295.295	233.94
295.525	250.94
295.756	258.94
295.987	248.94
296.217	249.94
296.448	264.94
296.679	248.94
296.909	251.94
297.14	245.94
297.37	256.94
297.601	239.94
297.831	244.94
298.062	235.94
298.292	245.94
298.523	251.94
298.753	231.94
298.984	230.94
299.214	247.94
299.445	229.94
299.675	250.94
299.905	264.94
300.136	252.94
300.366	254.94
300.597	240.94
300.827	275.94
301.057	256.94
301.288	278.94
301.518	252.94
301.748	282.94
301.979	245.94
302.209	276.94
302.439	263.94
302.669	267.94
302.9	258.94
303.13	269.94
303.36	258.94
303.59	249.94
303.82	282.94
304.051	269.94
304.281	273.94
304.511	265.94
304.741	271.94
304.971	260.94
305.201	273.94
305.431	257.94
305.661	289.94
305.891	264.94
306.121	254.94
306.352	278.94
306.582	273.94
306.812	250.94
307.042	271.94
307.272	257.94
307.502	275.94
307.731	267.94
307.961	262.94
308.191	271.94
308.421	270.94
308.651	261.94
308.881	275.94
309.111	275.94
309.341	275.94
309.571	303.94
309.8	313.94
310.03	293.94
310.26	295.94
310.49	292.94
310.72	311.94
310.949	294.94
311.179	301.94
311.409	319.94
311.639	310.94
311.868	294.94
312.098	305.94
312.328	313.94
312.557	302.94
312.787	332.94
313.017	321.94
313.246	308.94
313.476	289.94
313.706	300.94
313.935	305.94
314.165	296.94
314.394	321.94
314.624	320.94
314.853	316.94
315.083	313.94
315.312	295.94
315.542	312.94
315.771	303.94
316.001	310.94
316.23	305.94
316.46	288.94
316.689	298.94
316.919	321.94
317.148	308.94
317.377	311.94
317.607	319.94
317.836	316.94
318.065	299.94
318.295	312.94
318.524	299.94
318.753	308.94
318.983	304.94
319.212	299.94
319.441	294.94
319.67	322.94
319.9	318.94
320.129	305.94
320.358	298.94
320.587	309.94
320.816	309.94
321.046	302.94
321.275	335.94
321.504	326.94
321.733	337.94
321.962	332.94
322.191	334.94
322.42	363.94
322.649	338.94
322.878	368.94
323.108	378.94
323.337	390.94
323.566	382.94
323.795	405.94
324.024	429.94
324.253	508.94
324.482	726.94
324.71	1116.94
324.939	1641.94
325.168	1490.94
325.397	734.94
325.626	488.94
325.855	416.94
326.084	404.94
326.313	402.94
326.542	406.94
326.77	442.94
326.999	500.94
327.228	689.94
327.457	1007.94
327.686	1255.94
327.914	844.94
328.143	540.94
328.372	475.94
328.6	464.94
328.829	428.94
329.058	436.94
329.287	456.94
329.515	431.94
329.744	397.94
329.972	394.94
330.201	409.94
330.43	433.94
330.658	446.94
330.887	484.94
331.115	453.94
331.344	408.94
331.572	396.94
331.801	361.94
332.03	390.94
332.258	360.94
332.486	347.94
332.715	342.94
332.943	366.94
333.172	359.94
333.4	349.94
333.629	377.94
333.857	372.94
334.085	370.94
334.314	396.94
334.542	390.94
334.771	428.94
334.999	381.94
335.227	376.94
335.455	356.94
335.684	351.94
335.912	353.94
336.14	357.94
336.369	344.94
336.597	357.94
336.825	372.94
337.053	361.94
337.281	321.94
337.51	350.94
337.738	359.94
337.966	356.94
338.194	347.94
338.422	351.94
338.65	345.94
338.878	337.94
339.106	321.94
339.334	332.94
339.562	330.94
339.79	345.94
340.018	315.94
340.246	320.94
340.474	346.94
340.702	350.94
340.93	332.94
341.158	332.94
341.386	330.94
341.614	340.94
341.842	347.94
342.07	329.94
342.298	335.94
342.526	331.94
342.754	327.94
342.981	327.94
343.209	327.94
343.437	335.94
343.665	325.94
343.893	325.94
344.12	349.94
344.348	337.94
344.576	344.94
344.804	348.94
345.031	348.94
345.259	347.94
345.487	340.94
345.714	327.94
345.942	334.94
346.17	337.94
346.397	327.94
346.625	337.94
346.853	345.94
347.08	335.94
347.308	338.94
347.535	345.94
347.763	342.94
347.99	331.94
348.218	319.94
348.445	327.94
348.673	341.94
348.9	327.94
349.128	336.94
349.355	328.94
349.583	333.94
349.81	318.94
350.037	313.94
350.265	322.94
350.492	339.94
350.72	312.94
350.947	330.94
351.174	328.94
351.402	334.94
351.629	320.94
351.856	316.94
352.083	353.94
352.311	336.94
352.538	341.94
352.765	326.94
352.992	347.94
353.22	330.94
353.447	321.94
353.674	332.94
353.901	313.94
354.128	305.94
354.355	308.94
354.583	285.94
354.81	312.94
355.037	299.94
355.264	314.94
355.491	288.94
355.718	306.94
355.945	306.94
356.172	300.94
356.399	300.94
356.626	316.94
356.853	282.94
357.08	305.94
357.307	292.94
357.534	290.94
357.761	304.94
357.988	327.94
358.215	311.94
358.441	314.94
358.668	300.94
358.895	302.94
359.122	310.94
359.349	303.94
359.576	316.94
359.802	325.94
360.029	347.94
360.256	345.94
360.483	353.94
360.709	313.94
360.936	340.94
361.163	333.94
361.39	338.94
361.616	337.94
361.843	329.94
362.07	318.94
362.296	308.94
362.523	343.94
362.749	331.94
362.976	326.94
363.203	322.94
363.429	320.94
363.656	317.94
363.882	325.94
364.109	308.94
364.335	309.94
364.562	310.94
364.788	313.94
365.015	308.94
365.241	312.94
365.468	309.94
365.694	320.94
365.92	318.94
366.147	318.94
366.373	331.94
366.599	334.94
366.826	306.94
367.052	306.94
367.278	310.94
367.505	319.94
367.731	320.94
367.957	297.94
368.184	320.94
368.41	328.94
368.636	330.94
368.862	322.94
369.089	317.94
369.315	320.94
369.541	319.94
369.767	305.94
369.993	332.94
370.219	316.94
370.445	329.94
370.672	310.94
370.898	296.94
371.124	301.94
371.35	317.94
371.576	297.94
371.802	303.94
372.028	314.94
372.254	326.94
372.48	292.94
372.706	305.94
372.932	335.94
373.158	330.94
373.384	333.94
373.61	325.94
373.835	330.94
374.061	314.94
374.287	314.94
374.513	333.94
374.739	322.94
374.965	317.94
375.191	314.94
375.416	325.94
375.642	316.94
375.868	324.94
376.094	324.94
376.319	311.94
376.545	313.94
376.771	308.94
376.997	314.94
377.222	300.94
377.448	321.94
377.674	316.94
377.899	334.94
378.125	313.94
378.35	316.94
378.576	315.94
378.802	306.94
379.027	302.94
379.253	320.94
379.478	320.94
379.704	310.94
379.929	328.94
380.155	302.94
380.38	300.94
380.606	320.94
380.831	326.94
381.057	303.94
381.282	322.94
381.507	323.94
381.733	312.94
381.958	321.94
382.184	312.94
382.409	324.94
382.634	318.94
382.86	324.94
383.085	312.94
383.31	322.94
383.535	316.94
383.761	322.94
383.986	322.94
384.211	311.94
384.436	312.94
384.662	338.94
384.887	334.94
385.112	348.94
385.337	339.94
385.562	336.94
385.787	337.94
386.013	342.94
386.238	353.94
386.463	333.94
386.688	349.94
386.913	333.94
387.138	332.94
387.363	343.94
387.588	318.94
387.813	339.94
388.038	358.94
388.263	340.94
388.488	346.94
388.713	341.94
388.938	334.94
389.163	338.94
389.387	341.94
389.612	337.94
389.837	351.94
390.062	344.94
390.287	327.94
390.512	337.94
390.736	360.94
390.961	337.94
391.186	342.94
391.411	314.94
391.636	341.94
391.86	343.94
392.085	328.94
392.31	336.94
392.534	348.94
392.759	349.94
392.984	337.94
393.208	362.94
393.433	367.94
393.658	380.94
393.882	369.94
394.107	328.94
394.331	337.94
394.556	342.94
394.78	353.94
395.005	330.94
395.229	338.94
395.454	361.94
395.678	349.94
395.903	352.94
396.127	376.94
396.352	369.94
396.576	379.94
396.801	366.94
397.025	376.94
397.249	366.94
397.474	366.94
397.698	355.94
397.922	379.94
398.147	385.94
398.371	387.94
398.595	361.94
398.82	374.94
399.044	372.94
399.268	406.94
399.492	389.94
399.717	419.94
399.941	436.94
400.165	459.94
400.389	456.94
400.613	437.94
400.837	420.94
401.062	400.94
401.286	393.94
401.51	388.94
401.734	382.94
401.958	387.94
402.182	403.94
402.406	373.94
402.63	402.94
402.854	383.94
403.078	384.94
403.302	397.94
403.526	394.94
403.75	394.94
403.974	388.94
404.198	389.94
404.422	386.94
404.645	417.94
404.869	397.94
405.093	412.94
405.317	450.94
405.541	455.94
405.765	420.94
405.988	417.94
406.212	404.94
406.436	432.94
406.66	437.94
406.883	426.94
407.107	431.94
407.331	453.94
407.555	522.94
407.778	500.94
408.002	475.94
408.226	437.94
408.449	421.94
408.673	418.94
408.896	476.94
409.12	475.94
409.344	466.94
409.567	422.94
409.791	398.94
410.014	414.94
410.238	383.94
410.461	391.94
410.685	373.94
410.908	394.94
411.132	448.94
411.355	456.94
411.578	441.94
411.802	396.94
412.025	388.94
412.249	411.94
412.472	423.94
412.695	452.94
412.919	444.94
413.142	409.94
413.365	400.94
413.589	378.94
413.812	372.94
414.035	370.94
414.258	374.94
414.482	358.94
414.705	380.94
414.928	380.94
415.151	357.94
415.374	356.94
415.597	349.94
415.821	364.94
416.044	358.94
416.267	383.94
416.49	382.94
416.713	353.94
416.936	384.94
417.159	378.94
417.382	378.94
417.605	377.94
417.828	376.94
418.051	389.94
418.274	380.94
418.497	377.94
418.72	363.94
418.943	365.94
419.166	398.94
419.389	417.94
419.611	396.94
419.834	380.94
420.057	369.94
420.28	400.94
420.503	396.94
420.726	397.94
420.948	389.94
421.171	419.94
421.394	458.94
421.617	392.94
421.839	380.94
422.062	389.94
422.285	399.94
422.507	454.94
422.73	512.94
422.953	480.94
423.175	452.94
423.398	403.94
423.621	408.94
423.843	400.94
424.066	438.94
424.288	438.94
424.511	418.94
424.733	492.94
424.956	564.94
425.178	518.94
425.401	513.94
425.623	525.94
425.846	453.94
426.068	421.94
426.291	430.94
426.513	422.94
426.735	413.94
426.958	472.94
427.18	518.94
427.402	625.94
427.625	696.94
427.847	632.94
428.069	531.94
428.292	453.94
428.514	426.94
428.736	421.94
428.958	423.94
429.181	403.94
429.403	404.94
429.625	401.94
429.847	449.94
430.069	493.94
430.292	493.94
430.514	400.94
430.736	413.94
430.958	392.94
431.18	364.94
431.402	384.94
431.624	378.94
431.846	352.94
432.068	375.94
432.29	364.94
432.512	385.94
432.734	366.94
432.956	377.94
433.178	382.94
433.4	384.94
433.622	399.94
433.844	384.94
434.066	367.94
434.287	382.94
434.509	384.94
434.731	392.94
434.953	382.94
435.175	388.94
435.397	392.94
435.618	413.94
435.84	472.94
436.062	538.94
436.284	610.94
436.505	504.94
436.727	440.94
436.949	414.94
437.17	393.94
437.392	420.94
437.614	412.94
437.835	433.94
438.057	481.94
438.278	612.94
438.5	591.94
438.721	645.94
438.943	618.94
439.165	503.94
439.386	423.94
439.608	469.94
439.829	440.94
440.05	442.94
440.272	492.94
440.493	430.94
440.715	424.94
440.936	409.94
441.158	395.94
441.379	398.94
441.6	410.94
441.822	416.94
442.043	456.94
442.264	538.94
442.486	562.94
442.707	471.94
442.928	450.94
443.149	439.94
443.371	454.94
443.592	493.94
443.813	580.94
444.034	618.94
444.255	525.94
444.476	445.94
444.698	419.94
444.919	438.94
445.14	528.94
445.361	466.94
445.582	458.94
445.803	504.94
446.024	592.94
446.245	601.94
446.466	542.94
446.687	475.94
446.908	452.94
447.129	418.94
447.35	398.94
447.571	403.94
447.792	397.94
448.013	400.94
448.234	412.94
448.455	452.94
448.675	530.94
448.896	632.94
449.117	541.94
449.338	516.94
449.559	606.94
449.779	690.94
450	547.94
450.221	456.94
450.442	414.94
450.662	407.94
450.883	379.94
451.104	391.94
451.324	389.94
451.545	392.94
451.766	381.94
451.986	358.94
452.207	377.94
452.428	337.94
452.648	361.94
452.869	342.94
453.089	345.94
453.31	354.94
453.53	360.94
453.751	345.94
453.971	359.94
454.192	375.94
454.412	359.94
454.633	351.94
454.853	355.94
455.073	340.94
455.294	362.94
455.514	430.94
455.734	424.94
455.955	354.94
456.175	346.94
456.395	333.94
456.616	322.94
456.836	328.94
457.056	335.94
457.276	329.94
457.497	337.94
457.717	340.94
457.937	341.94
458.157	341.94
458.377	359.94
458.598	357.94
458.818	412.94
459.038	438.94
459.258	508.94
459.478	396.94
459.698	349.94
459.918	378.94
460.138	374.94
460.358	362.94
460.578	377.94
460.798	369.94
461.018	373.94
461.238	394.94
461.458	370.94
461.678	359.94
461.898	384.94
462.118	380.94
462.338	366.94
462.558	400.94
462.777	394.94
462.997	398.94
463.217	392.94
463.437	409.94
463.657	406.94
463.876	391.94
464.096	409.94
464.316	403.94
464.536	399.94
464.755	398.94
464.975	412.94
465.195	428.94
465.414	462.94
465.634	424.94
465.854	420.94
466.073	384.94
466.293	380.94
466.512	358.94
466.732	370.94
466.951	384.94
467.171	369.94
467.391	364.94
467.61	372.94
467.829	373.94
468.049	378.94
468.268	376.94
468.488	361.94
468.707	356.94
468.927	344.94
469.146	362.94
469.365	357.94
469.585	363.94
469.804	341.94
470.023	368.94
470.243	360.94
470.462	376.94
470.681	391.94
470.901	367.94
471.12	346.94
471.339	351.94
471.558	388.94
471.777	372.94
471.997	366.94
472.216	379.94
472.435	393.94
472.654	383.94
472.873	376.94
473.092	376.94
473.311	357.94
473.53	369.94
473.749	385.94
473.968	399.94
474.187	502.94
474.406	534.94
474.625	434.94
474.844	393.94
475.063	368.94
475.282	361.94
475.501	365.94
475.72	369.94
475.939	365.94
476.158	393.94
476.377	372.94
476.596	362.94
476.814	392.94
477.033	381.94
477.252	382.94
477.471	408.94
477.69	394.94
477.908	396.94
478.127	396.94
478.346	400.94
478.564	393.94
478.783	425.94
479.002	412.94
479.22	420.94
479.439	420.94
479.658	427.94
479.876	459.94
480.095	439.94
480.313	457.94
480.532	451.94
480.751	444.94
480.969	463.94
481.188	492.94
481.406	500.94
481.624	489.94
481.843	453.94
482.061	436.94
482.28	420.94
482.498	418.94
482.717	434.94
482.935	425.94
483.153	429.94
483.372	432.94
483.59	428.94
483.808	455.94
484.027	426.94
484.245	432.94
484.463	463.94
484.681	429.94
484.9	432.94
485.118	461.94
485.336	440.94
485.554	459.94
485.772	429.94
485.99	444.94
486.209	460.94
486.427	458.94
486.645	454.94
486.863	459.94
487.081	444.94
487.299	448.94
487.517	452.94
487.735	446.94
487.953	460.94
488.171	470.94
488.389	453.94
488.607	473.94
488.825	479.94
489.043	469.94
489.261	476.94
489.479	485.94
489.696	457.94
489.914	465.94
490.132	470.94
490.35	488.94
490.568	492.94
490.786	492.94
491.003	503.94
491.221	489.94
491.439	502.94
491.657	512.94
491.874	534.94
492.092	554.94
492.31	500.94
492.527	526.94
492.745	516.94
492.963	486.94
493.18	530.94
493.398	555.94
493.615	537.94
493.833	528.94
494.05	535.94
494.268	518.94
494.485	552.94
494.703	536.94
494.92	538.94
495.138	539.94
495.355	538.94
495.573	531.94
495.79	557.94
496.008	524.94
496.225	531.94
496.442	557.94
496.66	573.94
496.877	572.94
497.094	541.94
497.312	551.94
497.529	562.94
497.746	578.94
497.963	557.94
498.181	574.94
498.398	581.94
498.615	606.94
498.832	620.94
499.049	620.94
499.267	629.94
499.484	625.94
499.701	651.94
499.918	657.94
500.135	662.94
500.352	712.94
500.569	713.94
500.786	741.94
501.003	724.94
501.22	677.94
501.437	713.94
501.654	676.94
501.871	660.94
502.088	650.94
