Data from 1972.PennyLincolnUp.Lamp.En5.5.200Scan.071719.P1._HRD10591_15-29-35-844.txt Node
Date: Thu Jul 18 15:29:35 EDT 2019
User: cochatt
Spectrometer: HR+D1059
Trigger mode: 1
Integration Time (sec): 1.000000E-1
Scans to average: 1
Electric dark correction enabled: true
Nonlinearity correction enabled: false
Boxcar width: 0
XAxis mode: Wavelengths
Number of Pixels in Spectrum: 2048
>>>>>Begin Spectral Data<<<<<
223.165	-5.94
223.4	-5.94
223.635	-5.94
223.869	-23.94
224.104	-23.94
224.338	-7.94
224.573	-11.94
224.808	-16.94
225.042	-7.94
225.277	-8.94
225.511	5.06
225.746	-0.94
225.98	10.06
226.215	16.06
226.449	11.06
226.683	20.06
226.918	21.06
227.152	25.06
227.387	24.06
227.621	37.06
227.856	46.06
228.09	45.06
228.324	42.06
228.559	53.06
228.793	67.06
229.027	103.06
229.262	117.06
229.496	115.06
229.73	153.06
229.964	163.06
230.199	161.06
230.433	136.06
230.667	116.06
230.901	119.06
231.136	120.06
231.37	110.06
231.604	112.06
231.838	112.06
232.072	113.06
232.306	126.06
232.541	118.06
232.775	125.06
233.009	129.06
233.243	126.06
233.477	123.06
233.711	108.06
233.945	115.06
234.179	112.06
234.413	122.06
234.647	115.06
234.881	127.06
235.115	130.06
235.349	123.06
235.583	118.06
235.817	121.06
236.051	130.06
236.285	136.06
236.519	123.06
236.753	137.06
236.987	143.06
237.221	200.06
237.455	264.06
237.689	208.06
237.922	156.06
238.156	140.06
238.39	147.06
238.624	131.06
238.858	146.06
239.091	137.06
239.325	131.06
239.559	125.06
239.793	136.06
240.027	142.06
240.26	167.06
240.494	158.06
240.728	161.06
240.961	149.06
241.195	171.06
241.429	149.06
241.662	139.06
241.896	143.06
242.13	123.06
242.363	132.06
242.597	150.06
242.83	119.06
243.064	145.06
243.298	134.06
243.531	144.06
243.765	138.06
243.998	142.06
244.232	146.06
244.465	162.06
244.699	153.06
244.932	151.06
245.166	139.06
245.399	165.06
245.633	153.06
245.866	139.06
246.099	151.06
246.333	161.06
246.566	144.06
246.8	155.06
247.033	143.06
247.266	158.06
247.5	162.06
247.733	185.06
247.966	172.06
248.2	159.06
248.433	183.06
248.666	200.06
248.899	183.06
249.133	221.06
249.366	232.06
249.599	228.06
249.832	186.06
250.066	178.06
250.299	206.06
250.532	216.06
250.765	204.06
250.998	249.06
251.231	262.06
251.465	234.06
251.698	219.06
251.931	217.06
252.164	216.06
252.397	209.06
252.63	214.06
252.863	214.06
253.096	229.06
253.329	228.06
253.562	233.06
253.795	225.06
254.028	240.06
254.261	250.06
254.494	243.06
254.727	276.06
254.96	298.06
255.193	301.06
255.426	268.06
255.659	258.06
255.892	245.06
256.124	247.06
256.357	244.06
256.59	231.06
256.823	235.06
257.056	237.06
257.289	219.06
257.521	223.06
257.754	213.06
257.987	209.06
258.22	227.06
258.452	243.06
258.685	234.06
258.918	211.06
259.151	233.06
259.383	240.06
259.616	225.06
259.849	243.06
260.081	241.06
260.314	272.06
260.547	291.06
260.779	263.06
261.012	251.06
261.244	238.06
261.477	228.06
261.71	238.06
261.942	260.06
262.175	253.06
262.407	245.06
262.64	234.06
262.872	229.06
263.105	224.06
263.337	229.06
263.57	215.06
263.802	210.06
264.035	207.06
264.267	227.06
264.499	215.06
264.732	235.06
264.964	208.06
265.197	219.06
265.429	219.06
265.661	221.06
265.894	217.06
266.126	224.06
266.358	232.06
266.591	225.06
266.823	239.06
267.055	233.06
267.287	245.06
267.52	217.06
267.752	216.06
267.984	235.06
268.216	242.06
268.448	257.06
268.681	239.06
268.913	265.06
269.145	269.06
269.377	308.06
269.609	303.06
269.841	281.06
270.073	293.06
270.306	309.06
270.538	352.06
270.77	340.06
271.002	324.06
271.234	314.06
271.466	321.06
271.698	357.06
271.93	357.06
272.162	364.06
272.394	361.06
272.626	329.06
272.858	334.06
273.09	311.06
273.322	290.06
273.553	286.06
273.785	281.06
274.017	279.06
274.249	275.06
274.481	291.06
274.713	285.06
274.945	312.06
275.176	303.06
275.408	265.06
275.64	279.06
275.872	271.06
276.104	296.06
276.335	287.06
276.567	293.06
276.799	301.06
277.031	345.06
277.262	360.06
277.494	359.06
277.726	336.06
277.957	316.06
278.189	311.06
278.421	277.06
278.652	283.06
278.884	284.06
279.115	282.06
279.347	294.06
279.579	295.06
279.81	273.06
280.042	278.06
280.273	283.06
280.505	288.06
280.736	278.06
280.968	275.06
281.199	277.06
281.431	280.06
281.662	280.06
281.894	288.06
282.125	283.06
282.356	305.06
282.588	335.06
282.819	336.06
283.051	297.06
283.282	294.06
283.513	270.06
283.745	259.06
283.976	312.06
284.207	274.06
284.439	283.06
284.67	283.06
284.901	291.06
285.132	279.06
285.364	276.06
285.595	273.06
285.826	283.06
286.057	295.06
286.288	278.06
286.52	291.06
286.751	288.06
286.982	296.06
287.213	287.06
287.444	297.06
287.675	303.06
287.906	294.06
288.138	317.06
288.369	307.06
288.6	329.06
288.831	322.06
289.062	291.06
289.293	313.06
289.524	315.06
289.755	292.06
289.986	283.06
290.217	287.06
290.448	300.06
290.679	294.06
290.91	295.06
291.141	297.06
291.371	302.06
291.602	289.06
291.833	303.06
292.064	291.06
292.295	293.06
292.526	282.06
292.757	291.06
292.987	297.06
293.218	276.06
293.449	295.06
293.68	293.06
293.91	271.06
294.141	286.06
294.372	286.06
294.603	302.06
294.833	277.06
295.064	295.06
295.295	299.06
295.525	279.06
295.756	297.06
295.987	312.06
296.217	354.06
296.448	355.06
296.679	309.06
296.909	309.06
297.14	312.06
297.37	301.06
297.601	300.06
297.831	294.06
298.062	297.06
298.292	288.06
298.523	317.06
298.753	292.06
298.984	304.06
299.214	309.06
299.445	306.06
299.675	315.06
299.905	316.06
300.136	311.06
300.366	318.06
300.597	311.06
300.827	325.06
301.057	344.06
301.288	343.06
301.518	314.06
301.748	327.06
301.979	321.06
302.209	324.06
302.439	335.06
302.669	344.06
302.9	325.06
303.13	331.06
303.36	340.06
303.59	341.06
303.82	339.06
304.051	342.06
304.281	330.06
304.511	336.06
304.741	345.06
304.971	320.06
305.201	328.06
305.431	305.06
305.661	327.06
305.891	333.06
306.121	348.06
306.352	342.06
306.582	350.06
306.812	351.06
307.042	334.06
307.272	340.06
307.502	340.06
307.731	360.06
307.961	359.06
308.191	341.06
308.421	336.06
308.651	346.06
308.881	349.06
309.111	355.06
309.341	345.06
309.571	373.06
309.8	373.06
310.03	379.06
310.26	389.06
310.49	383.06
310.72	406.06
310.949	429.06
311.179	423.06
311.409	412.06
311.639	405.06
311.868	404.06
312.098	401.06
312.328	414.06
312.557	421.06
312.787	441.06
313.017	443.06
313.246	416.06
313.476	391.06
313.706	384.06
313.935	408.06
314.165	437.06
314.394	431.06
314.624	428.06
314.853	424.06
315.083	416.06
315.312	385.06
315.542	385.06
315.771	384.06
316.001	373.06
316.23	380.06
316.46	378.06
316.689	392.06
316.919	421.06
317.148	430.06
317.377	409.06
317.607	424.06
317.836	415.06
318.065	397.06
318.295	374.06
318.524	391.06
318.753	401.06
318.983	374.06
319.212	391.06
319.441	411.06
319.67	409.06
319.9	407.06
320.129	393.06
320.358	404.06
320.587	412.06
320.816	404.06
321.046	430.06
321.275	452.06
321.504	448.06
321.733	414.06
321.962	431.06
322.191	459.06
322.42	481.06
322.649	492.06
322.878	494.06
323.108	506.06
323.337	566.06
323.566	578.06
323.795	633.06
324.024	691.06
324.253	876.06
324.482	1269.06
324.71	2051.06
324.939	2982.06
325.168	2635.06
325.397	1279.06
325.626	814.06
325.855	686.06
326.084	624.06
326.313	586.06
326.542	598.06
326.77	649.06
326.999	781.06
327.228	1126.06
327.457	1755.06
327.686	2250.06
327.914	1446.06
328.143	933.06
328.372	772.06
328.6	727.06
328.829	679.06
329.058	654.06
329.287	691.06
329.515	645.06
329.744	592.06
329.972	581.06
330.201	644.06
330.43	683.06
330.658	700.06
330.887	741.06
331.115	705.06
331.344	609.06
331.572	545.06
331.801	534.06
332.03	550.06
332.258	506.06
332.486	503.06
332.715	476.06
332.943	471.06
333.172	482.06
333.4	472.06
333.629	483.06
333.857	494.06
334.085	524.06
334.314	533.06
334.542	580.06
334.771	597.06
334.999	523.06
335.227	499.06
335.455	472.06
335.684	455.06
335.912	462.06
336.14	445.06
336.369	452.06
336.597	472.06
336.825	484.06
337.053	475.06
337.281	440.06
337.51	432.06
337.738	454.06
337.966	449.06
338.194	457.06
338.422	442.06
338.65	442.06
338.878	436.06
339.106	441.06
339.334	437.06
339.562	444.06
339.79	430.06
340.018	433.06
340.246	428.06
340.474	444.06
340.702	443.06
340.93	418.06
341.158	450.06
341.386	419.06
341.614	442.06
341.842	439.06
342.07	437.06
342.298	429.06
342.526	447.06
342.754	422.06
342.981	399.06
343.209	416.06
343.437	400.06
343.665	413.06
343.893	419.06
344.12	427.06
344.348	427.06
344.576	442.06
344.804	461.06
345.031	450.06
345.259	456.06
345.487	469.06
345.714	453.06
345.942	424.06
346.17	416.06
346.397	426.06
346.625	430.06
346.853	441.06
347.08	417.06
347.308	444.06
347.535	439.06
347.763	430.06
347.99	444.06
348.218	446.06
348.445	442.06
348.673	461.06
348.9	429.06
349.128	417.06
349.355	392.06
349.583	421.06
349.81	388.06
350.037	425.06
350.265	407.06
350.492	417.06
350.72	407.06
350.947	429.06
351.174	431.06
351.402	445.06
351.629	414.06
351.856	447.06
352.083	435.06
352.311	440.06
352.538	465.06
352.765	445.06
352.992	453.06
353.22	441.06
353.447	440.06
353.674	421.06
353.901	412.06
354.128	407.06
354.355	384.06
354.583	395.06
354.81	407.06
355.037	372.06
355.264	395.06
355.491	375.06
355.718	378.06
355.945	388.06
356.172	385.06
356.399	372.06
356.626	373.06
356.853	365.06
357.08	358.06
357.307	372.06
357.534	385.06
357.761	388.06
357.988	395.06
358.215	383.06
358.441	388.06
358.668	391.06
358.895	389.06
359.122	400.06
359.349	414.06
359.576	424.06
359.802	484.06
360.029	484.06
360.256	496.06
360.483	471.06
360.709	446.06
360.936	409.06
361.163	403.06
361.39	434.06
361.616	429.06
361.843	423.06
362.07	434.06
362.296	438.06
362.523	401.06
362.749	406.06
362.976	428.06
363.203	416.06
363.429	415.06
363.656	391.06
363.882	413.06
364.109	375.06
364.335	389.06
364.562	385.06
364.788	400.06
365.015	399.06
365.241	411.06
365.468	412.06
365.694	418.06
365.92	407.06
366.147	409.06
366.373	397.06
366.599	394.06
366.826	377.06
367.052	392.06
367.278	407.06
367.505	395.06
367.731	395.06
367.957	391.06
368.184	390.06
368.41	407.06
368.636	398.06
368.862	405.06
369.089	389.06
369.315	391.06
369.541	385.06
369.767	405.06
369.993	390.06
370.219	377.06
370.445	386.06
370.672	385.06
370.898	379.06
371.124	378.06
371.35	375.06
371.576	380.06
371.802	386.06
372.028	375.06
372.254	375.06
372.48	377.06
372.706	385.06
372.932	377.06
373.158	383.06
373.384	376.06
373.61	388.06
373.835	392.06
374.061	371.06
374.287	392.06
374.513	380.06
374.739	392.06
374.965	398.06
375.191	376.06
375.416	378.06
375.642	373.06
375.868	393.06
376.094	377.06
376.319	394.06
376.545	379.06
376.771	375.06
376.997	369.06
377.222	372.06
377.448	371.06
377.674	371.06
377.899	344.06
378.125	387.06
378.35	349.06
378.576	371.06
378.802	371.06
379.027	361.06
379.253	352.06
379.478	364.06
379.704	389.06
379.929	400.06
380.155	385.06
380.38	396.06
380.606	375.06
380.831	372.06
381.057	398.06
381.282	377.06
381.507	373.06
381.733	388.06
381.958	370.06
382.184	388.06
382.409	382.06
382.634	363.06
382.86	385.06
383.085	383.06
383.31	372.06
383.535	388.06
383.761	388.06
383.986	384.06
384.211	360.06
384.436	384.06
384.662	402.06
384.887	387.06
385.112	401.06
385.337	405.06
385.562	393.06
385.787	410.06
386.013	411.06
386.238	411.06
386.463	409.06
386.688	413.06
386.913	387.06
387.138	389.06
387.363	395.06
387.588	391.06
387.813	400.06
388.038	395.06
388.263	412.06
388.488	379.06
388.713	399.06
388.938	393.06
389.163	399.06
389.387	385.06
389.612	399.06
389.837	393.06
390.062	396.06
390.287	391.06
390.512	397.06
390.736	384.06
390.961	411.06
391.186	411.06
391.411	391.06
391.636	420.06
391.86	421.06
392.085	421.06
392.31	392.06
392.534	408.06
392.759	400.06
392.984	393.06
393.208	414.06
393.433	420.06
393.658	400.06
393.882	411.06
394.107	413.06
394.331	405.06
394.556	395.06
394.78	407.06
395.005	411.06
395.229	376.06
395.454	408.06
395.678	429.06
395.903	439.06
396.127	442.06
396.352	462.06
396.576	443.06
396.801	426.06
397.025	403.06
397.249	411.06
397.474	428.06
397.698	419.06
397.922	435.06
398.147	455.06
398.371	465.06
398.595	460.06
398.82	455.06
399.044	424.06
399.268	451.06
399.492	470.06
399.717	473.06
399.941	512.06
400.165	581.06
400.389	592.06
400.613	527.06
400.837	480.06
401.062	477.06
401.286	464.06
401.51	450.06
401.734	451.06
401.958	475.06
402.182	475.06
402.406	483.06
402.63	466.06
402.854	456.06
403.078	469.06
403.302	480.06
403.526	453.06
403.75	471.06
403.974	455.06
404.198	460.06
404.422	473.06
404.645	491.06
404.869	489.06
405.093	539.06
405.317	593.06
405.541	616.06
405.765	570.06
405.988	544.06
406.212	542.06
406.436	530.06
406.66	569.06
406.883	533.06
407.107	542.06
407.331	571.06
407.555	655.06
407.778	648.06
408.002	607.06
408.226	539.06
408.449	541.06
408.673	535.06
408.896	573.06
409.12	591.06
409.344	571.06
409.567	529.06
409.791	506.06
410.014	491.06
410.238	472.06
410.461	496.06
410.685	476.06
410.908	505.06
411.132	541.06
411.355	584.06
411.578	559.06
411.802	513.06
412.025	494.06
412.249	476.06
412.472	546.06
412.695	572.06
412.919	551.06
413.142	505.06
413.365	503.06
413.589	457.06
413.812	461.06
414.035	460.06
414.258	467.06
414.482	437.06
414.705	427.06
414.928	455.06
415.151	439.06
415.374	445.06
415.597	451.06
415.821	430.06
416.044	435.06
416.267	447.06
416.49	448.06
416.713	445.06
416.936	456.06
417.159	447.06
417.382	477.06
417.605	455.06
417.828	474.06
418.051	473.06
418.274	483.06
418.497	456.06
418.72	460.06
418.943	425.06
419.166	449.06
419.389	492.06
419.611	475.06
419.834	456.06
420.057	487.06
420.28	463.06
420.503	475.06
420.726	487.06
420.948	508.06
421.171	555.06
421.394	597.06
421.617	490.06
421.839	493.06
422.062	497.06
422.285	521.06
422.507	575.06
422.73	634.06
422.953	619.06
423.175	544.06
423.398	509.06
423.621	515.06
423.843	543.06
424.066	509.06
424.288	544.06
424.511	544.06
424.733	617.06
424.956	707.06
425.178	698.06
425.401	667.06
425.623	712.06
425.846	611.06
426.068	561.06
426.291	520.06
426.513	540.06
426.735	558.06
426.958	600.06
427.18	692.06
427.402	845.06
427.625	950.06
427.847	851.06
428.069	723.06
428.292	624.06
428.514	560.06
428.736	530.06
428.958	500.06
429.181	500.06
429.403	488.06
429.625	501.06
429.847	540.06
430.069	631.06
430.292	629.06
430.514	500.06
430.736	485.06
430.958	484.06
431.18	462.06
431.402	465.06
431.624	445.06
431.846	450.06
432.068	455.06
432.29	477.06
432.512	463.06
432.734	465.06
432.956	467.06
433.178	463.06
433.4	490.06
433.622	444.06
433.844	434.06
434.066	455.06
434.287	453.06
434.509	465.06
434.731	483.06
434.953	444.06
435.175	486.06
435.397	528.06
435.618	534.06
435.84	586.06
436.062	707.06
436.284	781.06
436.505	641.06
436.727	550.06
436.949	529.06
437.17	508.06
437.392	523.06
437.614	536.06
437.835	561.06
438.057	705.06
438.278	795.06
438.5	786.06
438.721	858.06
438.943	810.06
439.165	636.06
439.386	574.06
439.608	557.06
439.829	567.06
440.05	597.06
440.272	662.06
440.493	631.06
440.715	551.06
440.936	519.06
441.158	515.06
441.379	476.06
441.6	493.06
441.822	567.06
442.043	573.06
442.264	681.06
442.486	718.06
442.707	616.06
442.928	585.06
443.149	580.06
443.371	607.06
443.592	647.06
443.813	784.06
444.034	814.06
444.255	671.06
444.476	570.06
444.698	548.06
444.919	541.06
445.14	630.06
445.361	614.06
445.582	591.06
445.803	677.06
446.024	805.06
446.245	811.06
446.466	726.06
446.687	617.06
446.908	551.06
447.129	516.06
447.35	518.06
447.571	521.06
447.792	515.06
448.013	502.06
448.234	527.06
448.455	610.06
448.675	714.06
448.896	848.06
449.117	710.06
449.338	673.06
449.559	771.06
449.779	880.06
450	705.06
450.221	591.06
450.442	517.06
450.662	513.06
450.883	541.06
451.104	546.06
451.324	526.06
451.545	489.06
451.766	460.06
451.986	447.06
452.207	444.06
452.428	462.06
452.648	442.06
452.869	435.06
453.089	446.06
453.31	491.06
453.53	454.06
453.751	444.06
453.971	453.06
454.192	476.06
454.412	487.06
454.633	460.06
454.853	433.06
455.073	448.06
455.294	475.06
455.514	575.06
455.734	551.06
455.955	445.06
456.175	437.06
456.395	419.06
456.616	423.06
456.836	436.06
457.056	424.06
457.276	391.06
457.497	416.06
457.717	412.06
457.937	446.06
458.157	422.06
458.377	435.06
458.598	459.06
458.818	558.06
459.038	649.06
459.258	664.06
459.478	529.06
459.698	487.06
459.918	469.06
460.138	464.06
460.358	463.06
460.578	458.06
460.798	457.06
461.018	475.06
461.238	452.06
461.458	448.06
461.678	447.06
461.898	428.06
462.118	435.06
462.338	457.06
462.558	441.06
462.777	433.06
462.997	469.06
463.217	460.06
463.437	475.06
463.657	458.06
463.876	468.06
464.096	470.06
464.316	489.06
464.536	479.06
464.755	479.06
464.975	480.06
465.195	561.06
465.414	649.06
465.634	557.06
465.854	527.06
466.073	478.06
466.293	465.06
466.512	462.06
466.732	455.06
466.951	449.06
467.171	455.06
467.391	455.06
467.61	457.06
467.829	459.06
468.049	469.06
468.268	451.06
468.488	439.06
468.707	432.06
468.927	432.06
469.146	405.06
469.365	447.06
469.585	451.06
469.804	437.06
470.023	469.06
470.243	451.06
470.462	451.06
470.681	485.06
470.901	472.06
471.12	448.06
471.339	464.06
471.558	460.06
471.777	469.06
471.997	444.06
472.216	472.06
472.435	510.06
472.654	484.06
472.873	461.06
473.092	465.06
473.311	457.06
473.53	453.06
473.749	465.06
473.968	519.06
474.187	641.06
474.406	667.06
474.625	533.06
474.844	478.06
475.063	484.06
475.282	469.06
475.501	463.06
475.72	486.06
475.939	456.06
476.158	446.06
476.377	445.06
476.596	477.06
476.814	462.06
477.033	487.06
477.252	492.06
477.471	469.06
477.69	466.06
477.908	486.06
478.127	468.06
478.346	487.06
478.564	500.06
478.783	495.06
479.002	515.06
479.22	513.06
479.439	527.06
479.658	551.06
479.876	578.06
480.095	551.06
480.313	578.06
480.532	550.06
480.751	562.06
480.969	576.06
481.188	672.06
481.406	744.06
481.624	628.06
481.843	571.06
482.061	549.06
482.28	535.06
482.498	541.06
482.717	565.06
482.935	556.06
483.153	525.06
483.372	523.06
483.59	545.06
483.808	542.06
484.027	535.06
484.245	536.06
484.463	547.06
484.681	543.06
484.9	527.06
485.118	538.06
485.336	549.06
485.554	559.06
485.772	551.06
485.99	540.06
486.209	555.06
486.427	579.06
486.645	569.06
486.863	583.06
487.081	602.06
487.299	593.06
487.517	588.06
487.735	581.06
487.953	591.06
488.171	575.06
488.389	563.06
488.607	565.06
488.825	579.06
489.043	568.06
489.261	600.06
489.479	596.06
489.696	588.06
489.914	587.06
490.132	590.06
490.35	605.06
490.568	620.06
490.786	608.06
491.003	613.06
491.221	631.06
491.439	643.06
491.657	648.06
491.874	639.06
492.092	687.06
492.31	625.06
492.527	667.06
492.745	668.06
492.963	679.06
493.18	665.06
493.398	677.06
493.615	677.06
493.833	667.06
494.05	693.06
494.268	696.06
494.485	684.06
494.703	655.06
494.92	673.06
495.138	666.06
495.355	687.06
495.573	679.06
495.79	693.06
496.008	697.06
496.225	712.06
496.442	685.06
496.66	691.06
496.877	679.06
497.094	683.06
497.312	691.06
497.529	693.06
497.746	687.06
497.963	693.06
498.181	786.06
498.398	759.06
498.615	750.06
498.832	750.06
499.049	763.06
499.267	755.06
499.484	769.06
499.701	793.06
499.918	804.06
500.135	821.06
500.352	838.06
500.569	868.06
500.786	852.06
501.003	841.06
501.22	830.06
501.437	834.06
501.654	832.06
501.871	836.06
