Data from 1972.PennyLincolnUp.Lamp.En5.5.200Scan.071719.P1._HRD10591_15-28-21-844.txt Node
Date: Thu Jul 18 15:28:21 EDT 2019
User: cochatt
Spectrometer: HR+D1059
Trigger mode: 1
Integration Time (sec): 1.000000E-1
Scans to average: 1
Electric dark correction enabled: true
Nonlinearity correction enabled: false
Boxcar width: 0
XAxis mode: Wavelengths
Number of Pixels in Spectrum: 2048
>>>>>Begin Spectral Data<<<<<
223.165	-21.88
223.4	-21.88
223.635	-21.88
223.869	-8.88
224.104	-23.88
224.338	-17.88
224.573	-20.88
224.808	-23.88
225.042	-5.88
225.277	-4.88
225.511	-10.88
225.746	5.12
225.98	5.12
226.215	21.12
226.449	12.12
226.683	28.12
226.918	32.12
227.152	35.12
227.387	39.12
227.621	26.12
227.856	30.12
228.09	27.12
228.324	57.12
228.559	58.12
228.793	74.12
229.027	104.12
229.262	113.12
229.496	129.12
229.73	145.12
229.964	150.12
230.199	126.12
230.433	115.12
230.667	118.12
230.901	122.12
231.136	108.12
231.37	105.12
231.604	110.12
231.838	121.12
232.072	98.12
232.306	132.12
232.541	114.12
232.775	122.12
233.009	120.12
233.243	113.12
233.477	119.12
233.711	123.12
233.945	107.12
234.179	119.12
234.413	125.12
234.647	110.12
234.881	125.12
235.115	124.12
235.349	128.12
235.583	122.12
235.817	124.12
236.051	134.12
236.285	122.12
236.519	105.12
236.753	128.12
236.987	134.12
237.221	185.12
237.455	244.12
237.689	203.12
237.922	148.12
238.156	128.12
238.39	128.12
238.624	104.12
238.858	129.12
239.091	117.12
239.325	121.12
239.559	141.12
239.793	114.12
240.027	136.12
240.26	139.12
240.494	152.12
240.728	138.12
240.961	157.12
241.195	147.12
241.429	147.12
241.662	139.12
241.896	141.12
242.13	146.12
242.363	124.12
242.597	124.12
242.83	119.12
243.064	143.12
243.298	130.12
243.531	146.12
243.765	126.12
243.998	136.12
244.232	136.12
244.465	128.12
244.699	119.12
244.932	141.12
245.166	135.12
245.399	137.12
245.633	150.12
245.866	142.12
246.099	157.12
246.333	155.12
246.566	178.12
246.8	150.12
247.033	132.12
247.266	148.12
247.5	156.12
247.733	178.12
247.966	184.12
248.2	166.12
248.433	169.12
248.666	182.12
248.899	179.12
249.133	191.12
249.366	234.12
249.599	199.12
249.832	179.12
250.066	181.12
250.299	189.12
250.532	201.12
250.765	208.12
250.998	219.12
251.231	200.12
251.465	215.12
251.698	212.12
251.931	213.12
252.164	185.12
252.397	189.12
252.63	189.12
252.863	192.12
253.096	196.12
253.329	226.12
253.562	221.12
253.795	221.12
254.028	211.12
254.261	213.12
254.494	234.12
254.727	261.12
254.96	285.12
255.193	276.12
255.426	255.12
255.659	232.12
255.892	228.12
256.124	256.12
256.357	234.12
256.59	227.12
256.823	219.12
257.056	216.12
257.289	212.12
257.521	213.12
257.754	211.12
257.987	212.12
258.22	189.12
258.452	208.12
258.685	219.12
258.918	206.12
259.151	216.12
259.383	217.12
259.616	226.12
259.849	239.12
260.081	237.12
260.314	260.12
260.547	264.12
260.779	248.12
261.012	244.12
261.244	229.12
261.477	226.12
261.71	223.12
261.942	225.12
262.175	245.12
262.407	239.12
262.64	217.12
262.872	203.12
263.105	201.12
263.337	227.12
263.57	229.12
263.802	211.12
264.035	221.12
264.267	209.12
264.499	215.12
264.732	217.12
264.964	202.12
265.197	202.12
265.429	222.12
265.661	207.12
265.894	205.12
266.126	200.12
266.358	212.12
266.591	220.12
266.823	227.12
267.055	226.12
267.287	212.12
267.52	218.12
267.752	224.12
267.984	221.12
268.216	216.12
268.448	227.12
268.681	222.12
268.913	231.12
269.145	260.12
269.377	279.12
269.609	276.12
269.841	273.12
270.073	277.12
270.306	293.12
270.538	310.12
270.77	311.12
271.002	304.12
271.234	306.12
271.466	301.12
271.698	310.12
271.93	323.12
272.162	321.12
272.394	323.12
272.626	321.12
272.858	289.12
273.09	270.12
273.322	254.12
273.553	274.12
273.785	267.12
274.017	265.12
274.249	275.12
274.481	272.12
274.713	252.12
274.945	268.12
275.176	255.12
275.408	273.12
275.64	267.12
275.872	248.12
276.104	255.12
276.335	273.12
276.567	263.12
276.799	280.12
277.031	305.12
277.262	315.12
277.494	315.12
277.726	309.12
277.957	296.12
278.189	256.12
278.421	280.12
278.652	273.12
278.884	273.12
279.115	254.12
279.347	262.12
279.579	238.12
279.81	260.12
280.042	245.12
280.273	266.12
280.505	269.12
280.736	255.12
280.968	251.12
281.199	263.12
281.431	260.12
281.662	252.12
281.894	255.12
282.125	267.12
282.356	280.12
282.588	295.12
282.819	312.12
283.051	247.12
283.282	274.12
283.513	269.12
283.745	265.12
283.976	269.12
284.207	275.12
284.439	262.12
284.67	286.12
284.901	259.12
285.132	248.12
285.364	260.12
285.595	248.12
285.826	263.12
286.057	258.12
286.288	261.12
286.52	268.12
286.751	280.12
286.982	282.12
287.213	263.12
287.444	269.12
287.675	262.12
287.906	287.12
288.138	301.12
288.369	296.12
288.6	289.12
288.831	284.12
289.062	303.12
289.293	275.12
289.524	264.12
289.755	271.12
289.986	273.12
290.217	271.12
290.448	273.12
290.679	269.12
290.91	276.12
291.141	261.12
291.371	267.12
291.602	264.12
291.833	263.12
292.064	263.12
292.295	268.12
292.526	276.12
292.757	290.12
292.987	268.12
293.218	272.12
293.449	272.12
293.68	277.12
293.91	268.12
294.141	271.12
294.372	257.12
294.603	283.12
294.833	273.12
295.064	269.12
295.295	270.12
295.525	273.12
295.756	274.12
295.987	294.12
296.217	318.12
296.448	333.12
296.679	285.12
296.909	282.12
297.14	288.12
297.37	284.12
297.601	275.12
297.831	275.12
298.062	270.12
298.292	281.12
298.523	277.12
298.753	271.12
298.984	274.12
299.214	265.12
299.445	282.12
299.675	280.12
299.905	292.12
300.136	278.12
300.366	275.12
300.597	290.12
300.827	290.12
301.057	304.12
301.288	300.12
301.518	306.12
301.748	302.12
301.979	293.12
302.209	290.12
302.439	304.12
302.669	294.12
302.9	308.12
303.13	308.12
303.36	310.12
303.59	310.12
303.82	320.12
304.051	308.12
304.281	299.12
304.511	299.12
304.741	298.12
304.971	308.12
305.201	292.12
305.431	298.12
305.661	291.12
305.891	309.12
306.121	301.12
306.352	314.12
306.582	325.12
306.812	302.12
307.042	299.12
307.272	301.12
307.502	297.12
307.731	292.12
307.961	304.12
308.191	292.12
308.421	325.12
308.651	328.12
308.881	314.12
309.111	342.12
309.341	332.12
309.571	334.12
309.8	336.12
310.03	339.12
310.26	372.12
310.49	365.12
310.72	386.12
310.949	389.12
311.179	381.12
311.409	365.12
311.639	366.12
311.868	372.12
312.098	362.12
312.328	380.12
312.557	388.12
312.787	399.12
313.017	408.12
313.246	394.12
313.476	352.12
313.706	359.12
313.935	366.12
314.165	376.12
314.394	396.12
314.624	381.12
314.853	371.12
315.083	362.12
315.312	370.12
315.542	349.12
315.771	341.12
316.001	365.12
316.23	339.12
316.46	362.12
316.689	356.12
316.919	377.12
317.148	378.12
317.377	377.12
317.607	362.12
317.836	356.12
318.065	358.12
318.295	352.12
318.524	354.12
318.753	345.12
318.983	357.12
319.212	385.12
319.441	376.12
319.67	368.12
319.9	369.12
320.129	360.12
320.358	368.12
320.587	370.12
320.816	372.12
321.046	375.12
321.275	381.12
321.504	391.12
321.733	385.12
321.962	402.12
322.191	412.12
322.42	413.12
322.649	459.12
322.878	453.12
323.108	456.12
323.337	487.12
323.566	546.12
323.795	557.12
324.024	609.12
324.253	749.12
324.482	1112.12
324.71	1754.12
324.939	2614.12
325.168	2271.12
325.397	1149.12
325.626	755.12
325.855	595.12
326.084	534.12
326.313	520.12
326.542	538.12
326.77	590.12
326.999	716.12
327.228	1010.12
327.457	1567.12
327.686	1952.12
327.914	1294.12
328.143	823.12
328.372	732.12
328.6	635.12
328.829	602.12
329.058	626.12
329.287	656.12
329.515	605.12
329.744	534.12
329.972	528.12
330.201	545.12
330.43	597.12
330.658	652.12
330.887	681.12
331.115	634.12
331.344	560.12
331.572	508.12
331.801	504.12
332.03	486.12
332.258	460.12
332.486	448.12
332.715	448.12
332.943	452.12
333.172	433.12
333.4	438.12
333.629	440.12
333.857	452.12
334.085	482.12
334.314	475.12
334.542	509.12
334.771	556.12
334.999	497.12
335.227	459.12
335.455	439.12
335.684	417.12
335.912	412.12
336.14	416.12
336.369	428.12
336.597	413.12
336.825	422.12
337.053	413.12
337.281	409.12
337.51	413.12
337.738	415.12
337.966	400.12
338.194	423.12
338.422	420.12
338.65	419.12
338.878	410.12
339.106	397.12
339.334	406.12
339.562	399.12
339.79	389.12
340.018	391.12
340.246	401.12
340.474	412.12
340.702	406.12
340.93	407.12
341.158	396.12
341.386	406.12
341.614	418.12
341.842	402.12
342.07	424.12
342.298	372.12
342.526	398.12
342.754	386.12
342.981	374.12
343.209	376.12
343.437	391.12
343.665	363.12
343.893	380.12
344.12	385.12
344.348	403.12
344.576	398.12
344.804	409.12
345.031	421.12
345.259	416.12
345.487	413.12
345.714	417.12
345.942	402.12
346.17	365.12
346.397	398.12
346.625	369.12
346.853	401.12
347.08	393.12
347.308	407.12
347.535	393.12
347.763	413.12
347.99	419.12
348.218	410.12
348.445	398.12
348.673	414.12
348.9	404.12
349.128	385.12
349.355	378.12
349.583	363.12
349.81	363.12
350.037	369.12
350.265	380.12
350.492	378.12
350.72	388.12
350.947	390.12
351.174	410.12
351.402	384.12
351.629	404.12
351.856	392.12
352.083	404.12
352.311	416.12
352.538	408.12
352.765	417.12
352.992	404.12
353.22	394.12
353.447	384.12
353.674	401.12
353.901	372.12
354.128	372.12
354.355	366.12
354.583	355.12
354.81	349.12
355.037	342.12
355.264	330.12
355.491	347.12
355.718	362.12
355.945	353.12
356.172	343.12
356.399	359.12
356.626	332.12
356.853	334.12
357.08	334.12
357.307	351.12
357.534	349.12
357.761	342.12
357.988	340.12
358.215	342.12
358.441	334.12
358.668	354.12
358.895	334.12
359.122	361.12
359.349	376.12
359.576	372.12
359.802	412.12
360.029	458.12
360.256	459.12
360.483	448.12
360.709	399.12
360.936	396.12
361.163	391.12
361.39	397.12
361.616	394.12
361.843	380.12
362.07	382.12
362.296	393.12
362.523	376.12
362.749	389.12
362.976	379.12
363.203	357.12
363.429	364.12
363.656	371.12
363.882	376.12
364.109	349.12
364.335	354.12
364.562	350.12
364.788	345.12
365.015	358.12
365.241	372.12
365.468	373.12
365.694	380.12
365.92	385.12
366.147	379.12
366.373	376.12
366.599	358.12
366.826	340.12
367.052	334.12
367.278	368.12
367.505	349.12
367.731	372.12
367.957	344.12
368.184	351.12
368.41	361.12
368.636	377.12
368.862	366.12
369.089	374.12
369.315	349.12
369.541	356.12
369.767	357.12
369.993	354.12
370.219	348.12
370.445	368.12
370.672	340.12
370.898	337.12
371.124	355.12
371.35	344.12
371.576	328.12
371.802	341.12
372.028	356.12
372.254	348.12
372.48	353.12
372.706	346.12
372.932	334.12
373.158	328.12
373.384	332.12
373.61	348.12
373.835	346.12
374.061	345.12
374.287	353.12
374.513	351.12
374.739	347.12
374.965	353.12
375.191	343.12
375.416	352.12
375.642	368.12
375.868	357.12
376.094	330.12
376.319	354.12
376.545	353.12
376.771	341.12
376.997	350.12
377.222	354.12
377.448	344.12
377.674	350.12
377.899	336.12
378.125	331.12
378.35	339.12
378.576	331.12
378.802	330.12
379.027	330.12
379.253	325.12
379.478	326.12
379.704	336.12
379.929	336.12
380.155	331.12
380.38	344.12
380.606	334.12
380.831	348.12
381.057	360.12
381.282	359.12
381.507	347.12
381.733	344.12
381.958	362.12
382.184	377.12
382.409	360.12
382.634	342.12
382.86	374.12
383.085	345.12
383.31	342.12
383.535	368.12
383.761	344.12
383.986	349.12
384.211	337.12
384.436	347.12
384.662	344.12
384.887	352.12
385.112	353.12
385.337	357.12
385.562	358.12
385.787	370.12
386.013	396.12
386.238	383.12
386.463	358.12
386.688	381.12
386.913	346.12
387.138	345.12
387.363	356.12
387.588	374.12
387.813	353.12
388.038	348.12
388.263	353.12
388.488	374.12
388.713	370.12
388.938	372.12
389.163	365.12
389.387	382.12
389.612	347.12
389.837	378.12
390.062	363.12
390.287	352.12
390.512	360.12
390.736	364.12
390.961	372.12
391.186	370.12
391.411	367.12
391.636	366.12
391.86	350.12
392.085	378.12
392.31	372.12
392.534	347.12
392.759	378.12
392.984	381.12
393.208	364.12
393.433	383.12
393.658	383.12
393.882	388.12
394.107	361.12
394.331	360.12
394.556	368.12
394.78	364.12
395.005	375.12
395.229	359.12
395.454	382.12
395.678	368.12
395.903	387.12
396.127	416.12
396.352	410.12
396.576	382.12
396.801	372.12
397.025	365.12
397.249	398.12
397.474	401.12
397.698	382.12
397.922	395.12
398.147	394.12
398.371	407.12
398.595	388.12
398.82	399.12
399.044	385.12
399.268	390.12
399.492	422.12
399.717	437.12
399.941	470.12
400.165	486.12
400.389	530.12
400.613	454.12
400.837	441.12
401.062	446.12
401.286	431.12
401.51	427.12
401.734	424.12
401.958	422.12
402.182	415.12
402.406	424.12
402.63	437.12
402.854	425.12
403.078	403.12
403.302	423.12
403.526	436.12
403.75	424.12
403.974	428.12
404.198	423.12
404.422	414.12
404.645	451.12
404.869	434.12
405.093	477.12
405.317	528.12
405.541	563.12
405.765	477.12
405.988	451.12
406.212	464.12
406.436	504.12
406.66	515.12
406.883	500.12
407.107	488.12
407.331	515.12
407.555	594.12
407.778	599.12
408.002	551.12
408.226	516.12
408.449	502.12
408.673	488.12
408.896	515.12
409.12	568.12
409.344	503.12
409.567	458.12
409.791	463.12
410.014	441.12
410.238	436.12
410.461	432.12
410.685	452.12
410.908	459.12
411.132	477.12
411.355	522.12
411.578	485.12
411.802	467.12
412.025	417.12
412.249	443.12
412.472	466.12
412.695	505.12
412.919	503.12
413.142	446.12
413.365	443.12
413.589	426.12
413.812	414.12
414.035	410.12
414.258	388.12
414.482	405.12
414.705	417.12
414.928	393.12
415.151	406.12
415.374	414.12
415.597	392.12
415.821	406.12
416.044	416.12
416.267	406.12
416.49	397.12
416.713	395.12
416.936	416.12
417.159	414.12
417.382	407.12
417.605	421.12
417.828	423.12
418.051	439.12
418.274	442.12
418.497	406.12
418.72	411.12
418.943	400.12
419.166	413.12
419.389	444.12
419.611	426.12
419.834	422.12
420.057	446.12
420.28	441.12
420.503	457.12
420.726	461.12
420.948	448.12
421.171	496.12
421.394	534.12
421.617	474.12
421.839	450.12
422.062	467.12
422.285	457.12
422.507	517.12
422.73	597.12
422.953	548.12
423.175	488.12
423.398	456.12
423.621	457.12
423.843	475.12
424.066	470.12
424.288	476.12
424.511	500.12
424.733	563.12
424.956	641.12
425.178	614.12
425.401	596.12
425.623	616.12
425.846	536.12
426.068	488.12
426.291	474.12
426.513	483.12
426.735	521.12
426.958	540.12
427.18	626.12
427.402	776.12
427.625	837.12
427.847	760.12
428.069	660.12
428.292	585.12
428.514	514.12
428.736	488.12
428.958	450.12
429.181	444.12
429.403	453.12
429.625	444.12
429.847	480.12
430.069	572.12
430.292	573.12
430.514	489.12
430.736	455.12
430.958	433.12
431.18	442.12
431.402	421.12
431.624	399.12
431.846	409.12
432.068	414.12
432.29	425.12
432.512	407.12
432.734	434.12
432.956	418.12
433.178	422.12
433.4	429.12
433.622	427.12
433.844	405.12
434.066	408.12
434.287	404.12
434.509	423.12
434.731	429.12
434.953	442.12
435.175	445.12
435.397	470.12
435.618	479.12
435.84	520.12
436.062	604.12
436.284	680.12
436.505	592.12
436.727	537.12
436.949	454.12
437.17	460.12
437.392	474.12
437.614	478.12
437.835	513.12
438.057	611.12
438.278	718.12
438.5	720.12
438.721	773.12
438.943	722.12
439.165	583.12
439.386	544.12
439.608	524.12
439.829	509.12
440.05	545.12
440.272	571.12
440.493	582.12
440.715	496.12
440.936	475.12
441.158	468.12
441.379	450.12
441.6	473.12
441.822	472.12
442.043	527.12
442.264	601.12
442.486	685.12
442.707	574.12
442.928	524.12
443.149	511.12
443.371	536.12
443.592	582.12
443.813	657.12
444.034	716.12
444.255	586.12
444.476	520.12
444.698	507.12
444.919	478.12
445.14	578.12
445.361	548.12
445.582	546.12
445.803	598.12
446.024	741.12
446.245	750.12
446.466	698.12
446.687	579.12
446.908	512.12
447.129	450.12
447.35	457.12
447.571	465.12
447.792	461.12
448.013	469.12
448.234	482.12
448.455	526.12
448.675	627.12
448.896	762.12
449.117	631.12
449.338	606.12
449.559	700.12
449.779	794.12
450	646.12
450.221	516.12
450.442	485.12
450.662	459.12
450.883	460.12
451.104	503.12
451.324	456.12
451.545	422.12
451.766	418.12
451.986	412.12
452.207	425.12
452.428	410.12
452.648	416.12
452.869	408.12
453.089	424.12
453.31	448.12
453.53	423.12
453.751	412.12
453.971	428.12
454.192	456.12
454.412	426.12
454.633	426.12
454.853	405.12
455.073	406.12
455.294	443.12
455.514	502.12
455.734	514.12
455.955	429.12
456.175	388.12
456.395	402.12
456.616	404.12
456.836	365.12
457.056	380.12
457.276	373.12
457.497	375.12
457.717	385.12
457.937	382.12
458.157	395.12
458.377	396.12
458.598	422.12
458.818	488.12
459.038	602.12
459.258	591.12
459.478	483.12
459.698	457.12
459.918	412.12
460.138	407.12
460.358	407.12
460.578	410.12
460.798	414.12
461.018	405.12
461.238	402.12
461.458	412.12
461.678	400.12
461.898	417.12
462.118	391.12
462.338	421.12
462.558	411.12
462.777	404.12
462.997	421.12
463.217	422.12
463.437	441.12
463.657	444.12
463.876	435.12
464.096	451.12
464.316	431.12
464.536	432.12
464.755	436.12
464.975	464.12
465.195	513.12
465.414	604.12
465.634	501.12
465.854	450.12
466.073	464.12
466.293	436.12
466.512	397.12
466.732	417.12
466.951	404.12
467.171	412.12
467.391	406.12
467.61	417.12
467.829	439.12
468.049	424.12
468.268	425.12
468.488	404.12
468.707	387.12
468.927	412.12
469.146	396.12
469.365	396.12
469.585	398.12
469.804	404.12
470.023	421.12
470.243	427.12
470.462	416.12
470.681	443.12
470.901	416.12
471.12	408.12
471.339	425.12
471.558	426.12
471.777	420.12
471.997	403.12
472.216	421.12
472.435	467.12
472.654	449.12
472.873	414.12
473.092	401.12
473.311	398.12
473.53	402.12
473.749	416.12
473.968	472.12
474.187	583.12
474.406	613.12
474.625	506.12
474.844	442.12
475.063	412.12
475.282	416.12
475.501	427.12
475.72	411.12
475.939	427.12
476.158	423.12
476.377	426.12
476.596	413.12
476.814	433.12
477.033	451.12
477.252	448.12
477.471	428.12
477.69	437.12
477.908	446.12
478.127	412.12
478.346	451.12
478.564	454.12
478.783	477.12
479.002	476.12
479.22	460.12
479.439	475.12
479.658	501.12
479.876	502.12
480.095	507.12
480.313	540.12
480.532	520.12
480.751	495.12
480.969	536.12
481.188	606.12
481.406	654.12
481.624	560.12
481.843	522.12
482.061	518.12
482.28	510.12
482.498	496.12
482.717	496.12
482.935	489.12
483.153	476.12
483.372	498.12
483.59	480.12
483.808	486.12
484.027	484.12
484.245	495.12
484.463	489.12
484.681	501.12
484.9	514.12
485.118	485.12
485.336	480.12
485.554	495.12
485.772	491.12
485.99	526.12
486.209	518.12
486.427	488.12
486.645	525.12
486.863	546.12
487.081	524.12
487.299	515.12
487.517	524.12
487.735	511.12
487.953	524.12
488.171	537.12
488.389	519.12
488.607	520.12
488.825	546.12
489.043	514.12
489.261	532.12
489.479	507.12
489.696	539.12
489.914	528.12
490.132	541.12
490.35	534.12
490.568	543.12
490.786	570.12
491.003	584.12
491.221	576.12
491.439	596.12
491.657	621.12
491.874	604.12
492.092	611.12
492.31	599.12
492.527	620.12
492.745	600.12
492.963	603.12
493.18	621.12
493.398	609.12
493.615	633.12
493.833	584.12
494.05	618.12
494.268	610.12
494.485	617.12
494.703	624.12
494.92	632.12
495.138	613.12
495.355	628.12
495.573	641.12
495.79	639.12
496.008	624.12
496.225	645.12
496.442	624.12
496.66	634.12
496.877	618.12
497.094	632.12
497.312	633.12
497.529	659.12
497.746	634.12
497.963	665.12
498.181	678.12
498.398	664.12
498.615	680.12
498.832	668.12
499.049	688.12
499.267	681.12
499.484	719.12
499.701	724.12
499.918	715.12
500.135	739.12
500.352	769.12
500.569	756.12
500.786	762.12
501.003	774.12
501.22	752.12
501.437	752.12
501.654	742.12
501.871	775.12
