Data from 1972.PennyLincolnUp.Lamp.En5.5.200Scan.071719.P1._HRD10591_15-28-42-844.txt Node
Date: Thu Jul 18 15:28:42 EDT 2019
User: cochatt
Spectrometer: HR+D1059
Trigger mode: 1
Integration Time (sec): 1.000000E-1
Scans to average: 1
Electric dark correction enabled: true
Nonlinearity correction enabled: false
Boxcar width: 0
XAxis mode: Wavelengths
Number of Pixels in Spectrum: 2048
>>>>>Begin Spectral Data<<<<<
223.165	-16.25
223.4	-16.25
223.635	-16.25
223.869	-17.25
224.104	-14.25
224.338	-12.25
224.573	-26.25
224.808	-5.25
225.042	-15.25
225.277	1.75
225.511	0.75
225.746	-0.25
225.98	2.75
226.215	9.75
226.449	9.75
226.683	27.75
226.918	33.75
227.152	20.75
227.387	27.75
227.621	39.75
227.856	47.75
228.09	42.75
228.324	48.75
228.559	48.75
228.793	51.75
229.027	101.75
229.262	124.75
229.496	113.75
229.73	144.75
229.964	156.75
230.199	153.75
230.433	116.75
230.667	107.75
230.901	119.75
231.136	109.75
231.37	93.75
231.604	109.75
231.838	98.75
232.072	113.75
232.306	109.75
232.541	101.75
232.775	104.75
233.009	115.75
233.243	115.75
233.477	106.75
233.711	127.75
233.945	111.75
234.179	121.75
234.413	126.75
234.647	121.75
234.881	115.75
235.115	115.75
235.349	109.75
235.583	120.75
235.817	135.75
236.051	123.75
236.285	123.75
236.519	114.75
236.753	132.75
236.987	148.75
237.221	196.75
237.455	253.75
237.689	203.75
237.922	125.75
238.156	124.75
238.39	142.75
238.624	133.75
238.858	129.75
239.091	122.75
239.325	106.75
239.559	129.75
239.793	133.75
240.027	152.75
240.26	143.75
240.494	169.75
240.728	165.75
240.961	177.75
241.195	144.75
241.429	138.75
241.662	149.75
241.896	141.75
242.13	119.75
242.363	130.75
242.597	121.75
242.83	134.75
243.064	138.75
243.298	140.75
243.531	134.75
243.765	124.75
243.998	141.75
244.232	139.75
244.465	153.75
244.699	145.75
244.932	161.75
245.166	135.75
245.399	155.75
245.633	153.75
245.866	156.75
246.099	151.75
246.333	141.75
246.566	145.75
246.8	167.75
247.033	153.75
247.266	153.75
247.5	156.75
247.733	179.75
247.966	180.75
248.2	169.75
248.433	173.75
248.666	187.75
248.899	192.75
249.133	201.75
249.366	229.75
249.599	215.75
249.832	205.75
250.066	188.75
250.299	190.75
250.532	197.75
250.765	205.75
250.998	239.75
251.231	227.75
251.465	225.75
251.698	223.75
251.931	218.75
252.164	195.75
252.397	204.75
252.63	203.75
252.863	212.75
253.096	223.75
253.329	243.75
253.562	256.75
253.795	225.75
254.028	215.75
254.261	225.75
254.494	214.75
254.727	270.75
254.96	321.75
255.193	301.75
255.426	260.75
255.659	248.75
255.892	236.75
256.124	257.75
256.357	259.75
256.59	239.75
256.823	232.75
257.056	215.75
257.289	218.75
257.521	221.75
257.754	225.75
257.987	203.75
258.22	204.75
258.452	218.75
258.685	216.75
258.918	210.75
259.151	215.75
259.383	217.75
259.616	233.75
259.849	245.75
260.081	242.75
260.314	271.75
260.547	292.75
260.779	247.75
261.012	257.75
261.244	236.75
261.477	238.75
261.71	243.75
261.942	265.75
262.175	246.75
262.407	239.75
262.64	227.75
262.872	221.75
263.105	212.75
263.337	219.75
263.57	200.75
263.802	216.75
264.035	226.75
264.267	221.75
264.499	202.75
264.732	206.75
264.964	225.75
265.197	226.75
265.429	227.75
265.661	195.75
265.894	222.75
266.126	210.75
266.358	218.75
266.591	219.75
266.823	221.75
267.055	223.75
267.287	228.75
267.52	219.75
267.752	214.75
267.984	241.75
268.216	220.75
268.448	245.75
268.681	243.75
268.913	245.75
269.145	267.75
269.377	274.75
269.609	291.75
269.841	272.75
270.073	277.75
270.306	314.75
270.538	328.75
270.77	330.75
271.002	321.75
271.234	309.75
271.466	337.75
271.698	336.75
271.93	345.75
272.162	344.75
272.394	320.75
272.626	315.75
272.858	308.75
273.09	308.75
273.322	286.75
273.553	255.75
273.785	240.75
274.017	277.75
274.249	263.75
274.481	258.75
274.713	263.75
274.945	282.75
275.176	282.75
275.408	279.75
275.64	275.75
275.872	265.75
276.104	271.75
276.335	265.75
276.567	285.75
276.799	294.75
277.031	311.75
277.262	348.75
277.494	327.75
277.726	311.75
277.957	297.75
278.189	308.75
278.421	291.75
278.652	262.75
278.884	281.75
279.115	265.75
279.347	272.75
279.579	273.75
279.81	267.75
280.042	263.75
280.273	257.75
280.505	265.75
280.736	265.75
280.968	264.75
281.199	271.75
281.431	273.75
281.662	273.75
281.894	280.75
282.125	268.75
282.356	296.75
282.588	321.75
282.819	309.75
283.051	271.75
283.282	275.75
283.513	270.75
283.745	280.75
283.976	261.75
284.207	278.75
284.439	277.75
284.67	271.75
284.901	286.75
285.132	284.75
285.364	279.75
285.595	267.75
285.826	278.75
286.057	296.75
286.288	271.75
286.52	266.75
286.751	284.75
286.982	278.75
287.213	279.75
287.444	259.75
287.675	270.75
287.906	298.75
288.138	300.75
288.369	281.75
288.6	286.75
288.831	283.75
289.062	301.75
289.293	288.75
289.524	285.75
289.755	265.75
289.986	260.75
290.217	289.75
290.448	279.75
290.679	285.75
290.91	285.75
291.141	263.75
291.371	291.75
291.602	281.75
291.833	275.75
292.064	277.75
292.295	278.75
292.526	265.75
292.757	272.75
292.987	272.75
293.218	273.75
293.449	284.75
293.68	283.75
293.91	279.75
294.141	275.75
294.372	293.75
294.603	296.75
294.833	279.75
295.064	266.75
295.295	291.75
295.525	291.75
295.756	296.75
295.987	301.75
296.217	328.75
296.448	335.75
296.679	307.75
296.909	296.75
297.14	291.75
297.37	273.75
297.601	294.75
297.831	306.75
298.062	300.75
298.292	293.75
298.523	295.75
298.753	293.75
298.984	279.75
299.214	298.75
299.445	281.75
299.675	309.75
299.905	301.75
300.136	315.75
300.366	305.75
300.597	303.75
300.827	309.75
301.057	305.75
301.288	331.75
301.518	310.75
301.748	311.75
301.979	310.75
302.209	316.75
302.439	327.75
302.669	316.75
302.9	310.75
303.13	318.75
303.36	318.75
303.59	319.75
303.82	345.75
304.051	338.75
304.281	325.75
304.511	316.75
304.741	323.75
304.971	320.75
305.201	312.75
305.431	321.75
305.661	318.75
305.891	330.75
306.121	327.75
306.352	312.75
306.582	352.75
306.812	320.75
307.042	323.75
307.272	329.75
307.502	329.75
307.731	325.75
307.961	320.75
308.191	328.75
308.421	331.75
308.651	339.75
308.881	317.75
309.111	341.75
309.341	330.75
309.571	359.75
309.8	354.75
310.03	385.75
310.26	377.75
310.49	382.75
310.72	388.75
310.949	411.75
311.179	414.75
311.409	408.75
311.639	384.75
311.868	374.75
312.098	377.75
312.328	406.75
312.557	393.75
312.787	419.75
313.017	432.75
313.246	407.75
313.476	378.75
313.706	383.75
313.935	385.75
314.165	402.75
314.394	427.75
314.624	423.75
314.853	385.75
315.083	379.75
315.312	382.75
315.542	365.75
315.771	369.75
316.001	369.75
316.23	387.75
316.46	364.75
316.689	375.75
316.919	374.75
317.148	378.75
317.377	395.75
317.607	386.75
317.836	366.75
318.065	378.75
318.295	368.75
318.524	384.75
318.753	363.75
318.983	349.75
319.212	386.75
319.441	410.75
319.67	394.75
319.9	388.75
320.129	377.75
320.358	377.75
320.587	356.75
320.816	403.75
321.046	408.75
321.275	407.75
321.504	391.75
321.733	413.75
321.962	429.75
322.191	428.75
322.42	468.75
322.649	483.75
322.878	476.75
323.108	468.75
323.337	532.75
323.566	552.75
323.795	607.75
324.024	679.75
324.253	808.75
324.482	1226.75
324.71	1922.75
324.939	2851.75
325.168	2487.75
325.397	1230.75
325.626	823.75
325.855	635.75
326.084	565.75
326.313	571.75
326.542	568.75
326.77	631.75
326.999	767.75
327.228	1111.75
327.457	1675.75
327.686	2133.75
327.914	1413.75
328.143	889.75
328.372	724.75
328.6	675.75
328.829	647.75
329.058	680.75
329.287	674.75
329.515	625.75
329.744	575.75
329.972	549.75
330.201	587.75
330.43	639.75
330.658	690.75
330.887	689.75
331.115	687.75
331.344	563.75
331.572	544.75
331.801	524.75
332.03	526.75
332.258	502.75
332.486	456.75
332.715	453.75
332.943	446.75
333.172	447.75
333.4	453.75
333.629	457.75
333.857	477.75
334.085	498.75
334.314	533.75
334.542	525.75
334.771	602.75
334.999	526.75
335.227	473.75
335.455	442.75
335.684	445.75
335.912	464.75
336.14	447.75
336.369	431.75
336.597	450.75
336.825	447.75
337.053	445.75
337.281	451.75
337.51	420.75
337.738	431.75
337.966	429.75
338.194	431.75
338.422	450.75
338.65	420.75
338.878	414.75
339.106	413.75
339.334	407.75
339.562	398.75
339.79	412.75
340.018	398.75
340.246	425.75
340.474	437.75
340.702	447.75
340.93	423.75
341.158	433.75
341.386	428.75
341.614	419.75
341.842	417.75
342.07	423.75
342.298	407.75
342.526	403.75
342.754	414.75
342.981	380.75
343.209	397.75
343.437	406.75
343.665	397.75
343.893	400.75
344.12	403.75
344.348	394.75
344.576	433.75
344.804	439.75
345.031	440.75
345.259	450.75
345.487	439.75
345.714	455.75
345.942	426.75
346.17	415.75
346.397	410.75
346.625	405.75
346.853	396.75
347.08	400.75
347.308	423.75
347.535	425.75
347.763	421.75
347.99	416.75
348.218	443.75
348.445	436.75
348.673	419.75
348.9	405.75
349.128	388.75
349.355	397.75
349.583	391.75
349.81	390.75
350.037	391.75
350.265	391.75
350.492	396.75
350.72	396.75
350.947	412.75
351.174	424.75
351.402	415.75
351.629	441.75
351.856	421.75
352.083	431.75
352.311	413.75
352.538	419.75
352.765	430.75
352.992	416.75
353.22	425.75
353.447	410.75
353.674	417.75
353.901	397.75
354.128	380.75
354.355	371.75
354.583	379.75
354.81	364.75
355.037	364.75
355.264	371.75
355.491	354.75
355.718	345.75
355.945	375.75
356.172	359.75
356.399	339.75
356.626	364.75
356.853	356.75
357.08	369.75
357.307	351.75
357.534	359.75
357.761	370.75
357.988	360.75
358.215	359.75
358.441	382.75
358.668	378.75
358.895	380.75
359.122	360.75
359.349	388.75
359.576	414.75
359.802	421.75
360.029	470.75
360.256	481.75
360.483	476.75
360.709	433.75
360.936	397.75
361.163	406.75
361.39	426.75
361.616	440.75
361.843	424.75
362.07	396.75
362.296	401.75
362.523	395.75
362.749	411.75
362.976	422.75
363.203	401.75
363.429	394.75
363.656	367.75
363.882	389.75
364.109	371.75
364.335	387.75
364.562	385.75
364.788	371.75
365.015	360.75
365.241	371.75
365.468	374.75
365.694	388.75
365.92	390.75
366.147	373.75
366.373	380.75
366.599	376.75
366.826	377.75
367.052	376.75
367.278	371.75
367.505	377.75
367.731	378.75
367.957	369.75
368.184	369.75
368.41	378.75
368.636	391.75
368.862	400.75
369.089	390.75
369.315	383.75
369.541	381.75
369.767	373.75
369.993	368.75
370.219	379.75
370.445	363.75
370.672	369.75
370.898	371.75
371.124	373.75
371.35	361.75
371.576	361.75
371.802	371.75
372.028	359.75
372.254	359.75
372.48	368.75
372.706	348.75
372.932	356.75
373.158	384.75
373.384	359.75
373.61	355.75
373.835	364.75
374.061	357.75
374.287	360.75
374.513	347.75
374.739	365.75
374.965	374.75
375.191	369.75
375.416	372.75
375.642	365.75
375.868	354.75
376.094	348.75
376.319	373.75
376.545	359.75
376.771	377.75
376.997	338.75
377.222	360.75
377.448	374.75
377.674	368.75
377.899	352.75
378.125	351.75
378.35	354.75
378.576	353.75
378.802	360.75
379.027	363.75
379.253	367.75
379.478	372.75
379.704	357.75
379.929	366.75
380.155	371.75
380.38	357.75
380.606	357.75
380.831	351.75
381.057	379.75
381.282	361.75
381.507	368.75
381.733	357.75
381.958	360.75
382.184	354.75
382.409	368.75
382.634	362.75
382.86	349.75
383.085	371.75
383.31	370.75
383.535	367.75
383.761	386.75
383.986	368.75
384.211	372.75
384.436	376.75
384.662	377.75
384.887	359.75
385.112	399.75
385.337	387.75
385.562	380.75
385.787	388.75
386.013	392.75
386.238	397.75
386.463	405.75
386.688	399.75
386.913	382.75
387.138	371.75
387.363	385.75
387.588	377.75
387.813	387.75
388.038	377.75
388.263	388.75
388.488	399.75
388.713	379.75
388.938	383.75
389.163	393.75
389.387	368.75
389.612	381.75
389.837	373.75
390.062	397.75
390.287	390.75
390.512	392.75
390.736	381.75
390.961	370.75
391.186	376.75
391.411	385.75
391.636	391.75
391.86	378.75
392.085	377.75
392.31	394.75
392.534	407.75
392.759	401.75
392.984	382.75
393.208	379.75
393.433	388.75
393.658	391.75
393.882	398.75
394.107	390.75
394.331	379.75
394.556	389.75
394.78	382.75
395.005	367.75
395.229	410.75
395.454	399.75
395.678	401.75
395.903	402.75
396.127	419.75
396.352	414.75
396.576	413.75
396.801	402.75
397.025	382.75
397.249	396.75
397.474	409.75
397.698	405.75
397.922	397.75
398.147	443.75
398.371	410.75
398.595	427.75
398.82	458.75
399.044	419.75
399.268	437.75
399.492	460.75
399.717	482.75
399.941	512.75
400.165	506.75
400.389	535.75
400.613	514.75
400.837	471.75
401.062	460.75
401.286	451.75
401.51	415.75
401.734	437.75
401.958	453.75
402.182	421.75
402.406	452.75
402.63	463.75
402.854	460.75
403.078	434.75
403.302	463.75
403.526	462.75
403.75	454.75
403.974	459.75
404.198	454.75
404.422	435.75
404.645	472.75
404.869	463.75
405.093	499.75
405.317	553.75
405.541	600.75
405.765	535.75
405.988	476.75
406.212	501.75
406.436	507.75
406.66	532.75
406.883	507.75
407.107	527.75
407.331	587.75
407.555	660.75
407.778	621.75
408.002	542.75
408.226	530.75
408.449	519.75
408.673	484.75
408.896	563.75
409.12	579.75
409.344	549.75
409.567	510.75
409.791	483.75
410.014	468.75
410.238	450.75
410.461	465.75
410.685	466.75
410.908	484.75
411.132	534.75
411.355	549.75
411.578	541.75
411.802	476.75
412.025	467.75
412.249	473.75
412.472	492.75
412.695	518.75
412.919	550.75
413.142	484.75
413.365	455.75
413.589	457.75
413.812	432.75
414.035	443.75
414.258	435.75
414.482	431.75
414.705	434.75
414.928	425.75
415.151	428.75
415.374	428.75
415.597	428.75
415.821	409.75
416.044	412.75
416.267	429.75
416.49	422.75
416.713	440.75
416.936	416.75
417.159	415.75
417.382	457.75
417.605	445.75
417.828	422.75
418.051	442.75
418.274	455.75
418.497	444.75
418.72	444.75
418.943	428.75
419.166	415.75
419.389	456.75
419.611	455.75
419.834	448.75
420.057	453.75
420.28	467.75
420.503	458.75
420.726	480.75
420.948	466.75
421.171	522.75
421.394	554.75
421.617	483.75
421.839	455.75
422.062	460.75
422.285	485.75
422.507	541.75
422.73	616.75
422.953	604.75
423.175	505.75
423.398	470.75
423.621	489.75
423.843	516.75
424.066	519.75
424.288	501.75
424.511	532.75
424.733	589.75
424.956	690.75
425.178	631.75
425.401	656.75
425.623	653.75
425.846	557.75
426.068	511.75
426.291	535.75
426.513	499.75
426.735	530.75
426.958	585.75
427.18	652.75
427.402	810.75
427.625	890.75
427.847	811.75
428.069	695.75
428.292	596.75
428.514	533.75
428.736	501.75
428.958	498.75
429.181	479.75
429.403	459.75
429.625	501.75
429.847	532.75
430.069	592.75
430.292	603.75
430.514	505.75
430.736	479.75
430.958	474.75
431.18	417.75
431.402	455.75
431.624	436.75
431.846	431.75
432.068	444.75
432.29	451.75
432.512	446.75
432.734	437.75
432.956	464.75
433.178	472.75
433.4	458.75
433.622	435.75
433.844	435.75
434.066	436.75
434.287	453.75
434.509	437.75
434.731	444.75
434.953	440.75
435.175	454.75
435.397	490.75
435.618	534.75
435.84	550.75
436.062	672.75
436.284	759.75
436.505	623.75
436.727	544.75
436.949	513.75
437.17	501.75
437.392	496.75
437.614	518.75
437.835	550.75
438.057	652.75
438.278	742.75
438.5	775.75
438.721	818.75
438.943	792.75
439.165	635.75
439.386	549.75
439.608	558.75
439.829	557.75
440.05	593.75
440.272	652.75
440.493	582.75
440.715	526.75
440.936	520.75
441.158	491.75
441.379	488.75
441.6	462.75
441.822	507.75
442.043	569.75
442.264	650.75
442.486	683.75
442.707	584.75
442.928	539.75
443.149	534.75
443.371	575.75
443.592	629.75
443.813	722.75
444.034	770.75
444.255	635.75
444.476	533.75
444.698	541.75
444.919	507.75
445.14	562.75
445.361	572.75
445.582	552.75
445.803	651.75
446.024	788.75
446.245	781.75
446.466	697.75
446.687	589.75
446.908	546.75
447.129	512.75
447.35	488.75
447.571	482.75
447.792	482.75
448.013	495.75
448.234	525.75
448.455	559.75
448.675	666.75
448.896	793.75
449.117	675.75
449.338	628.75
449.559	741.75
449.779	837.75
450	694.75
450.221	559.75
450.442	521.75
450.662	498.75
450.883	516.75
451.104	531.75
451.324	495.75
451.545	468.75
451.766	465.75
451.986	440.75
452.207	427.75
452.428	423.75
452.648	437.75
452.869	428.75
453.089	421.75
453.31	445.75
453.53	443.75
453.751	429.75
453.971	447.75
454.192	475.75
454.412	453.75
454.633	455.75
454.853	436.75
455.073	443.75
455.294	457.75
455.514	548.75
455.734	554.75
455.955	417.75
456.175	395.75
456.395	407.75
456.616	391.75
456.836	413.75
457.056	391.75
457.276	393.75
457.497	400.75
457.717	396.75
457.937	421.75
458.157	404.75
458.377	411.75
458.598	432.75
458.818	548.75
459.038	619.75
459.258	623.75
459.478	531.75
459.698	465.75
459.918	455.75
460.138	427.75
460.358	435.75
460.578	438.75
460.798	436.75
461.018	437.75
461.238	425.75
461.458	476.75
461.678	417.75
461.898	451.75
462.118	449.75
462.338	432.75
462.558	440.75
462.777	442.75
462.997	439.75
463.217	424.75
463.437	450.75
463.657	467.75
463.876	446.75
464.096	464.75
464.316	438.75
464.536	465.75
464.755	450.75
464.975	469.75
465.195	552.75
465.414	659.75
465.634	575.75
465.854	489.75
466.073	452.75
466.293	464.75
466.512	439.75
466.732	419.75
466.951	436.75
467.171	417.75
467.391	434.75
467.61	463.75
467.829	444.75
468.049	462.75
468.268	449.75
468.488	431.75
468.707	419.75
468.927	414.75
469.146	412.75
469.365	417.75
469.585	415.75
469.804	409.75
470.023	443.75
470.243	441.75
470.462	432.75
470.681	463.75
470.901	475.75
471.12	441.75
471.339	426.75
471.558	439.75
471.777	428.75
471.997	415.75
472.216	475.75
472.435	505.75
472.654	479.75
472.873	432.75
473.092	438.75
473.311	442.75
473.53	435.75
473.749	429.75
473.968	511.75
474.187	610.75
474.406	652.75
474.625	500.75
474.844	461.75
475.063	452.75
475.282	460.75
475.501	457.75
475.72	449.75
475.939	440.75
476.158	449.75
476.377	461.75
476.596	482.75
476.814	451.75
477.033	455.75
477.252	440.75
477.471	465.75
477.69	475.75
477.908	452.75
478.127	459.75
478.346	469.75
478.564	489.75
478.783	475.75
479.002	484.75
479.22	478.75
479.439	496.75
479.658	525.75
479.876	526.75
480.095	531.75
480.313	560.75
480.532	520.75
480.751	523.75
480.969	574.75
481.188	654.75
481.406	711.75
481.624	599.75
481.843	540.75
482.061	540.75
482.28	518.75
482.498	505.75
482.717	508.75
482.935	527.75
483.153	509.75
483.372	506.75
483.59	490.75
483.808	490.75
484.027	520.75
484.245	509.75
484.463	497.75
484.681	531.75
484.9	524.75
485.118	531.75
485.336	515.75
485.554	533.75
485.772	521.75
485.99	522.75
486.209	511.75
486.427	536.75
486.645	551.75
486.863	586.75
487.081	587.75
487.299	548.75
487.517	555.75
487.735	538.75
487.953	538.75
488.171	557.75
488.389	575.75
488.607	545.75
488.825	539.75
489.043	549.75
489.261	574.75
489.479	565.75
489.696	560.75
489.914	557.75
490.132	582.75
490.35	578.75
490.568	615.75
490.786	583.75
491.003	599.75
491.221	618.75
491.439	624.75
491.657	607.75
491.874	629.75
492.092	653.75
492.31	639.75
492.527	642.75
492.745	651.75
492.963	636.75
493.18	652.75
493.398	647.75
493.615	653.75
493.833	660.75
494.05	657.75
494.268	652.75
494.485	636.75
494.703	651.75
494.92	678.75
495.138	678.75
495.355	663.75
495.573	660.75
495.79	680.75
496.008	673.75
496.225	661.75
496.442	646.75
496.66	693.75
496.877	643.75
497.094	661.75
497.312	661.75
497.529	656.75
497.746	691.75
497.963	685.75
498.181	717.75
498.398	689.75
498.615	710.75
498.832	729.75
499.049	708.75
499.267	731.75
499.484	739.75
499.701	748.75
499.918	746.75
500.135	800.75
500.352	807.75
500.569	805.75
500.786	804.75
501.003	801.75
501.22	799.75
501.437	810.75
501.654	803.75
501.871	802.75
