Data from 1972.PennyLincolnUp.Lamp.En5.5.200Scan.071719.P1._HRD10591_15-28-44-844.txt Node
Date: Thu Jul 18 15:28:44 EDT 2019
User: cochatt
Spectrometer: HR+D1059
Trigger mode: 1
Integration Time (sec): 1.000000E-1
Scans to average: 1
Electric dark correction enabled: true
Nonlinearity correction enabled: false
Boxcar width: 0
XAxis mode: Wavelengths
Number of Pixels in Spectrum: 2048
>>>>>Begin Spectral Data<<<<<
223.165	-21.88
223.4	-21.88
223.635	-21.88
223.869	-21.88
224.104	-11.88
224.338	-18.88
224.573	-27.88
224.808	-12.88
225.042	2.12
225.277	11.12
225.511	2.12
225.746	10.12
225.98	4.12
226.215	8.12
226.449	12.12
226.683	24.12
226.918	17.12
227.152	24.12
227.387	23.12
227.621	29.12
227.856	47.12
228.09	38.12
228.324	60.12
228.559	45.12
228.793	69.12
229.027	95.12
229.262	112.12
229.496	122.12
229.73	153.12
229.964	158.12
230.199	152.12
230.433	129.12
230.667	120.12
230.901	96.12
231.136	114.12
231.37	102.12
231.604	125.12
231.838	118.12
232.072	114.12
232.306	104.12
232.541	109.12
232.775	121.12
233.009	120.12
233.243	115.12
233.477	108.12
233.711	107.12
233.945	108.12
234.179	107.12
234.413	115.12
234.647	116.12
234.881	98.12
235.115	107.12
235.349	125.12
235.583	112.12
235.817	118.12
236.051	124.12
236.285	132.12
236.519	126.12
236.753	133.12
236.987	148.12
237.221	199.12
237.455	262.12
237.689	204.12
237.922	146.12
238.156	146.12
238.39	130.12
238.624	141.12
238.858	128.12
239.091	120.12
239.325	141.12
239.559	120.12
239.793	130.12
240.027	129.12
240.26	141.12
240.494	158.12
240.728	128.12
240.961	162.12
241.195	156.12
241.429	145.12
241.662	150.12
241.896	153.12
242.13	138.12
242.363	123.12
242.597	136.12
242.83	132.12
243.064	134.12
243.298	138.12
243.531	119.12
243.765	134.12
243.998	124.12
244.232	149.12
244.465	166.12
244.699	147.12
244.932	146.12
245.166	150.12
245.399	144.12
245.633	150.12
245.866	140.12
246.099	156.12
246.333	141.12
246.566	139.12
246.8	166.12
247.033	165.12
247.266	161.12
247.5	159.12
247.733	176.12
247.966	165.12
248.2	184.12
248.433	162.12
248.666	171.12
248.899	201.12
249.133	195.12
249.366	228.12
249.599	216.12
249.832	191.12
250.066	200.12
250.299	169.12
250.532	211.12
250.765	214.12
250.998	227.12
251.231	238.12
251.465	216.12
251.698	222.12
251.931	219.12
252.164	219.12
252.397	210.12
252.63	212.12
252.863	215.12
253.096	227.12
253.329	228.12
253.562	256.12
253.795	220.12
254.028	229.12
254.261	222.12
254.494	231.12
254.727	276.12
254.96	300.12
255.193	307.12
255.426	276.12
255.659	263.12
255.892	239.12
256.124	252.12
256.357	258.12
256.59	264.12
256.823	224.12
257.056	230.12
257.289	237.12
257.521	221.12
257.754	218.12
257.987	233.12
258.22	215.12
258.452	215.12
258.685	211.12
258.918	204.12
259.151	224.12
259.383	230.12
259.616	231.12
259.849	246.12
260.081	252.12
260.314	280.12
260.547	285.12
260.779	280.12
261.012	232.12
261.244	256.12
261.477	244.12
261.71	228.12
261.942	243.12
262.175	244.12
262.407	249.12
262.64	223.12
262.872	222.12
263.105	227.12
263.337	225.12
263.57	235.12
263.802	243.12
264.035	217.12
264.267	220.12
264.499	236.12
264.732	222.12
264.964	224.12
265.197	224.12
265.429	230.12
265.661	214.12
265.894	220.12
266.126	234.12
266.358	222.12
266.591	220.12
266.823	229.12
267.055	243.12
267.287	257.12
267.52	230.12
267.752	230.12
267.984	235.12
268.216	243.12
268.448	243.12
268.681	261.12
268.913	251.12
269.145	268.12
269.377	282.12
269.609	294.12
269.841	291.12
270.073	308.12
270.306	313.12
270.538	334.12
270.77	321.12
271.002	319.12
271.234	316.12
271.466	325.12
271.698	344.12
271.93	332.12
272.162	344.12
272.394	332.12
272.626	331.12
272.858	316.12
273.09	293.12
273.322	290.12
273.553	289.12
273.785	294.12
274.017	292.12
274.249	267.12
274.481	281.12
274.713	291.12
274.945	294.12
275.176	271.12
275.408	269.12
275.64	285.12
275.872	276.12
276.104	273.12
276.335	280.12
276.567	304.12
276.799	296.12
277.031	288.12
277.262	344.12
277.494	339.12
277.726	310.12
277.957	306.12
278.189	293.12
278.421	276.12
278.652	281.12
278.884	284.12
279.115	280.12
279.347	284.12
279.579	290.12
279.81	264.12
280.042	286.12
280.273	282.12
280.505	267.12
280.736	286.12
280.968	272.12
281.199	273.12
281.431	265.12
281.662	259.12
281.894	279.12
282.125	277.12
282.356	290.12
282.588	321.12
282.819	324.12
283.051	277.12
283.282	268.12
283.513	267.12
283.745	276.12
283.976	290.12
284.207	277.12
284.439	276.12
284.67	274.12
284.901	283.12
285.132	267.12
285.364	275.12
285.595	268.12
285.826	291.12
286.057	271.12
286.288	273.12
286.52	277.12
286.751	285.12
286.982	286.12
287.213	278.12
287.444	306.12
287.675	293.12
287.906	284.12
288.138	296.12
288.369	307.12
288.6	304.12
288.831	294.12
289.062	291.12
289.293	282.12
289.524	299.12
289.755	284.12
289.986	288.12
290.217	280.12
290.448	281.12
290.679	291.12
290.91	279.12
291.141	290.12
291.371	280.12
291.602	268.12
291.833	280.12
292.064	292.12
292.295	295.12
292.526	298.12
292.757	281.12
292.987	286.12
293.218	294.12
293.449	297.12
293.68	285.12
293.91	295.12
294.141	284.12
294.372	282.12
294.603	284.12
294.833	289.12
295.064	303.12
295.295	300.12
295.525	294.12
295.756	286.12
295.987	298.12
296.217	335.12
296.448	334.12
296.679	308.12
296.909	305.12
297.14	306.12
297.37	316.12
297.601	308.12
297.831	304.12
298.062	303.12
298.292	305.12
298.523	310.12
298.753	309.12
298.984	302.12
299.214	304.12
299.445	285.12
299.675	304.12
299.905	308.12
300.136	312.12
300.366	292.12
300.597	298.12
300.827	302.12
301.057	336.12
301.288	326.12
301.518	336.12
301.748	314.12
301.979	307.12
302.209	321.12
302.439	326.12
302.669	335.12
302.9	330.12
303.13	314.12
303.36	323.12
303.59	352.12
303.82	357.12
304.051	344.12
304.281	319.12
304.511	324.12
304.741	322.12
304.971	333.12
305.201	314.12
305.431	304.12
305.661	315.12
305.891	321.12
306.121	355.12
306.352	338.12
306.582	333.12
306.812	331.12
307.042	330.12
307.272	318.12
307.502	340.12
307.731	338.12
307.961	349.12
308.191	344.12
308.421	331.12
308.651	329.12
308.881	338.12
309.111	361.12
309.341	349.12
309.571	362.12
309.8	376.12
310.03	372.12
310.26	398.12
310.49	393.12
310.72	400.12
310.949	412.12
311.179	413.12
311.409	395.12
311.639	387.12
311.868	379.12
312.098	370.12
312.328	397.12
312.557	397.12
312.787	444.12
313.017	417.12
313.246	410.12
313.476	395.12
313.706	394.12
313.935	407.12
314.165	414.12
314.394	416.12
314.624	412.12
314.853	394.12
315.083	389.12
315.312	381.12
315.542	385.12
315.771	378.12
316.001	369.12
316.23	378.12
316.46	380.12
316.689	381.12
316.919	378.12
317.148	404.12
317.377	391.12
317.607	365.12
317.836	382.12
318.065	409.12
318.295	375.12
318.524	386.12
318.753	388.12
318.983	377.12
319.212	400.12
319.441	378.12
319.67	400.12
319.9	396.12
320.129	408.12
320.358	398.12
320.587	404.12
320.816	397.12
321.046	408.12
321.275	406.12
321.504	402.12
321.733	411.12
321.962	414.12
322.191	442.12
322.42	441.12
322.649	460.12
322.878	474.12
323.108	494.12
323.337	534.12
323.566	549.12
323.795	603.12
324.024	652.12
324.253	798.12
324.482	1170.12
324.71	1869.12
324.939	2770.12
325.168	2461.12
325.397	1202.12
325.626	786.12
325.855	635.12
326.084	577.12
326.313	562.12
326.542	578.12
326.77	627.12
326.999	741.12
327.228	1074.12
327.457	1688.12
327.686	2098.12
327.914	1383.12
328.143	850.12
328.372	773.12
328.6	675.12
328.829	634.12
329.058	657.12
329.287	642.12
329.515	632.12
329.744	553.12
329.972	566.12
330.201	589.12
330.43	654.12
330.658	691.12
330.887	730.12
331.115	669.12
331.344	591.12
331.572	540.12
331.801	537.12
332.03	497.12
332.258	507.12
332.486	468.12
332.715	462.12
332.943	474.12
333.172	464.12
333.4	462.12
333.629	484.12
333.857	466.12
334.085	488.12
334.314	530.12
334.542	558.12
334.771	598.12
334.999	530.12
335.227	474.12
335.455	472.12
335.684	444.12
335.912	451.12
336.14	434.12
336.369	446.12
336.597	439.12
336.825	445.12
337.053	436.12
337.281	445.12
337.51	438.12
337.738	450.12
337.966	450.12
338.194	443.12
338.422	446.12
338.65	424.12
338.878	420.12
339.106	417.12
339.334	416.12
339.562	411.12
339.79	407.12
340.018	425.12
340.246	430.12
340.474	461.12
340.702	417.12
340.93	421.12
341.158	416.12
341.386	420.12
341.614	427.12
341.842	434.12
342.07	412.12
342.298	423.12
342.526	406.12
342.754	424.12
342.981	383.12
343.209	391.12
343.437	411.12
343.665	403.12
343.893	402.12
344.12	415.12
344.348	412.12
344.576	434.12
344.804	446.12
345.031	456.12
345.259	453.12
345.487	441.12
345.714	443.12
345.942	431.12
346.17	440.12
346.397	430.12
346.625	424.12
346.853	396.12
347.08	403.12
347.308	427.12
347.535	435.12
347.763	442.12
347.99	410.12
348.218	440.12
348.445	438.12
348.673	471.12
348.9	420.12
349.128	412.12
349.355	420.12
349.583	401.12
349.81	403.12
350.037	395.12
350.265	384.12
350.492	384.12
350.72	397.12
350.947	421.12
351.174	409.12
351.402	448.12
351.629	443.12
351.856	444.12
352.083	437.12
352.311	451.12
352.538	439.12
352.765	469.12
352.992	455.12
353.22	428.12
353.447	410.12
353.674	400.12
353.901	411.12
354.128	382.12
354.355	396.12
354.583	383.12
354.81	372.12
355.037	379.12
355.264	371.12
355.491	372.12
355.718	375.12
355.945	372.12
356.172	370.12
356.399	373.12
356.626	394.12
356.853	369.12
357.08	380.12
357.307	364.12
357.534	371.12
357.761	380.12
357.988	375.12
358.215	379.12
358.441	386.12
358.668	380.12
358.895	370.12
359.122	378.12
359.349	393.12
359.576	433.12
359.802	450.12
360.029	474.12
360.256	477.12
360.483	453.12
360.709	425.12
360.936	422.12
361.163	402.12
361.39	415.12
361.616	410.12
361.843	397.12
362.07	398.12
362.296	429.12
362.523	413.12
362.749	407.12
362.976	399.12
363.203	394.12
363.429	411.12
363.656	407.12
363.882	374.12
364.109	396.12
364.335	384.12
364.562	402.12
364.788	377.12
365.015	383.12
365.241	397.12
365.468	404.12
365.694	402.12
365.92	396.12
366.147	406.12
366.373	403.12
366.599	384.12
366.826	382.12
367.052	373.12
367.278	384.12
367.505	396.12
367.731	380.12
367.957	385.12
368.184	388.12
368.41	398.12
368.636	399.12
368.862	389.12
369.089	396.12
369.315	384.12
369.541	376.12
369.767	380.12
369.993	374.12
370.219	381.12
370.445	381.12
370.672	369.12
370.898	370.12
371.124	391.12
371.35	382.12
371.576	380.12
371.802	371.12
372.028	368.12
372.254	374.12
372.48	377.12
372.706	360.12
372.932	370.12
373.158	352.12
373.384	371.12
373.61	364.12
373.835	373.12
374.061	384.12
374.287	377.12
374.513	382.12
374.739	376.12
374.965	372.12
375.191	388.12
375.416	370.12
375.642	354.12
375.868	380.12
376.094	372.12
376.319	384.12
376.545	363.12
376.771	365.12
376.997	382.12
377.222	364.12
377.448	377.12
377.674	372.12
377.899	380.12
378.125	361.12
378.35	372.12
378.576	368.12
378.802	374.12
379.027	386.12
379.253	370.12
379.478	354.12
379.704	364.12
379.929	362.12
380.155	350.12
380.38	359.12
380.606	375.12
380.831	348.12
381.057	362.12
381.282	369.12
381.507	368.12
381.733	386.12
381.958	350.12
382.184	376.12
382.409	370.12
382.634	380.12
382.86	379.12
383.085	379.12
383.31	385.12
383.535	373.12
383.761	371.12
383.986	379.12
384.211	384.12
384.436	387.12
384.662	395.12
384.887	389.12
385.112	371.12
385.337	409.12
385.562	405.12
385.787	403.12
386.013	420.12
386.238	391.12
386.463	406.12
386.688	406.12
386.913	414.12
387.138	396.12
387.363	393.12
387.588	379.12
387.813	399.12
388.038	395.12
388.263	387.12
388.488	390.12
388.713	385.12
388.938	386.12
389.163	382.12
389.387	399.12
389.612	378.12
389.837	397.12
390.062	376.12
390.287	378.12
390.512	391.12
390.736	372.12
390.961	379.12
391.186	390.12
391.411	387.12
391.636	402.12
391.86	386.12
392.085	396.12
392.31	407.12
392.534	404.12
392.759	404.12
392.984	405.12
393.208	412.12
393.433	413.12
393.658	396.12
393.882	417.12
394.107	404.12
394.331	388.12
394.556	422.12
394.78	388.12
395.005	405.12
395.229	386.12
395.454	389.12
395.678	415.12
395.903	403.12
396.127	433.12
396.352	475.12
396.576	418.12
396.801	422.12
397.025	414.12
397.249	429.12
397.474	412.12
397.698	435.12
397.922	427.12
398.147	458.12
398.371	460.12
398.595	438.12
398.82	453.12
399.044	439.12
399.268	467.12
399.492	465.12
399.717	468.12
399.941	508.12
400.165	540.12
400.389	537.12
400.613	509.12
400.837	459.12
401.062	467.12
401.286	461.12
401.51	445.12
401.734	432.12
401.958	449.12
402.182	468.12
402.406	485.12
402.63	465.12
402.854	457.12
403.078	472.12
403.302	442.12
403.526	482.12
403.75	467.12
403.974	445.12
404.198	448.12
404.422	487.12
404.645	468.12
404.869	477.12
405.093	522.12
405.317	569.12
405.541	601.12
405.765	556.12
405.988	506.12
406.212	533.12
406.436	515.12
406.66	536.12
406.883	523.12
407.107	541.12
407.331	570.12
407.555	629.12
407.778	648.12
408.002	590.12
408.226	549.12
408.449	542.12
408.673	523.12
408.896	570.12
409.12	599.12
409.344	571.12
409.567	507.12
409.791	492.12
410.014	506.12
410.238	481.12
410.461	464.12
410.685	488.12
410.908	473.12
411.132	554.12
411.355	558.12
411.578	538.12
411.802	491.12
412.025	468.12
412.249	479.12
412.472	531.12
412.695	563.12
412.919	533.12
413.142	469.12
413.365	477.12
413.589	491.12
413.812	451.12
414.035	421.12
414.258	442.12
414.482	429.12
414.705	440.12
414.928	423.12
415.151	433.12
415.374	442.12
415.597	429.12
415.821	434.12
416.044	435.12
416.267	463.12
416.49	459.12
416.713	423.12
416.936	449.12
417.159	465.12
417.382	450.12
417.605	435.12
417.828	488.12
418.051	479.12
418.274	456.12
418.497	474.12
418.72	444.12
418.943	454.12
419.166	455.12
419.389	476.12
419.611	470.12
419.834	458.12
420.057	473.12
420.28	487.12
420.503	479.12
420.726	496.12
420.948	485.12
421.171	552.12
421.394	574.12
421.617	473.12
421.839	460.12
422.062	458.12
422.285	499.12
422.507	544.12
422.73	629.12
422.953	640.12
423.175	512.12
423.398	518.12
423.621	527.12
423.843	491.12
424.066	524.12
424.288	517.12
424.511	523.12
424.733	590.12
424.956	705.12
425.178	657.12
425.401	645.12
425.623	672.12
425.846	583.12
426.068	521.12
426.291	499.12
426.513	541.12
426.735	532.12
426.958	562.12
427.18	688.12
427.402	808.12
427.625	912.12
427.847	830.12
428.069	702.12
428.292	598.12
428.514	541.12
428.736	515.12
428.958	504.12
429.181	501.12
429.403	486.12
429.625	500.12
429.847	547.12
430.069	619.12
430.292	606.12
430.514	506.12
430.736	478.12
430.958	464.12
431.18	465.12
431.402	458.12
431.624	455.12
431.846	442.12
432.068	448.12
432.29	470.12
432.512	448.12
432.734	464.12
432.956	462.12
433.178	480.12
433.4	469.12
433.622	454.12
433.844	450.12
434.066	461.12
434.287	460.12
434.509	446.12
434.731	438.12
434.953	478.12
435.175	478.12
435.397	518.12
435.618	532.12
435.84	575.12
436.062	696.12
436.284	771.12
436.505	624.12
436.727	550.12
436.949	516.12
437.17	468.12
437.392	480.12
437.614	483.12
437.835	553.12
438.057	666.12
438.278	756.12
438.5	755.12
438.721	828.12
438.943	797.12
439.165	628.12
439.386	554.12
439.608	549.12
439.829	561.12
440.05	600.12
440.272	686.12
440.493	590.12
440.715	530.12
440.936	504.12
441.158	473.12
441.379	501.12
441.6	516.12
441.822	520.12
442.043	587.12
442.264	636.12
442.486	713.12
442.707	598.12
442.928	568.12
443.149	549.12
443.371	580.12
443.592	645.12
443.813	716.12
444.034	766.12
444.255	637.12
444.476	573.12
444.698	531.12
444.919	512.12
445.14	597.12
445.361	585.12
445.582	563.12
445.803	666.12
446.024	782.12
446.245	805.12
446.466	718.12
446.687	600.12
446.908	546.12
447.129	510.12
447.35	499.12
447.571	506.12
447.792	488.12
448.013	482.12
448.234	525.12
448.455	587.12
448.675	697.12
448.896	818.12
449.117	712.12
449.338	662.12
449.559	773.12
449.779	880.12
450	709.12
450.221	576.12
450.442	532.12
450.662	524.12
450.883	511.12
451.104	527.12
451.324	492.12
451.545	495.12
451.766	441.12
451.986	436.12
452.207	441.12
452.428	429.12
452.648	449.12
452.869	436.12
453.089	472.12
453.31	472.12
453.53	461.12
453.751	431.12
453.971	456.12
454.192	463.12
454.412	473.12
454.633	443.12
454.853	442.12
455.073	456.12
455.294	474.12
455.514	572.12
455.734	543.12
455.955	445.12
456.175	421.12
456.395	390.12
456.616	405.12
456.836	429.12
457.056	408.12
457.276	397.12
457.497	410.12
457.717	412.12
457.937	420.12
458.157	430.12
458.377	414.12
458.598	462.12
458.818	539.12
459.038	626.12
459.258	635.12
459.478	518.12
459.698	480.12
459.918	449.12
460.138	443.12
460.358	442.12
460.578	436.12
460.798	447.12
461.018	444.12
461.238	431.12
461.458	438.12
461.678	442.12
461.898	447.12
462.118	433.12
462.338	443.12
462.558	459.12
462.777	443.12
462.997	463.12
463.217	468.12
463.437	489.12
463.657	450.12
463.876	482.12
464.096	475.12
464.316	474.12
464.536	482.12
464.755	476.12
464.975	497.12
465.195	542.12
465.414	640.12
465.634	539.12
465.854	501.12
466.073	489.12
466.293	446.12
466.512	441.12
466.732	457.12
466.951	440.12
467.171	435.12
467.391	455.12
467.61	440.12
467.829	477.12
468.049	478.12
468.268	462.12
468.488	444.12
468.707	434.12
468.927	425.12
469.146	434.12
469.365	433.12
469.585	427.12
469.804	435.12
470.023	428.12
470.243	457.12
470.462	455.12
470.681	468.12
470.901	480.12
471.12	466.12
471.339	460.12
471.558	437.12
471.777	454.12
471.997	457.12
472.216	446.12
472.435	524.12
472.654	507.12
472.873	470.12
473.092	452.12
473.311	456.12
473.53	442.12
473.749	461.12
473.968	498.12
474.187	650.12
474.406	657.12
474.625	539.12
474.844	484.12
475.063	459.12
475.282	454.12
475.501	476.12
475.72	465.12
475.939	454.12
476.158	455.12
476.377	452.12
476.596	459.12
476.814	465.12
477.033	460.12
477.252	490.12
477.471	491.12
477.69	473.12
477.908	462.12
478.127	513.12
478.346	487.12
478.564	479.12
478.783	482.12
479.002	494.12
479.22	482.12
479.439	512.12
479.658	533.12
479.876	544.12
480.095	548.12
480.313	562.12
480.532	552.12
480.751	534.12
480.969	563.12
481.188	652.12
481.406	705.12
481.624	605.12
481.843	572.12
482.061	533.12
482.28	546.12
482.498	514.12
482.717	536.12
482.935	518.12
483.153	514.12
483.372	546.12
483.59	523.12
483.808	554.12
484.027	543.12
484.245	531.12
484.463	520.12
484.681	557.12
484.9	522.12
485.118	520.12
485.336	529.12
485.554	553.12
485.772	525.12
485.99	546.12
486.209	545.12
486.427	553.12
486.645	561.12
486.863	627.12
487.081	571.12
487.299	567.12
487.517	580.12
487.735	571.12
487.953	567.12
488.171	589.12
488.389	576.12
488.607	587.12
488.825	570.12
489.043	588.12
489.261	585.12
489.479	566.12
489.696	557.12
489.914	591.12
490.132	580.12
490.35	586.12
490.568	586.12
490.786	605.12
491.003	617.12
491.221	634.12
491.439	662.12
491.657	658.12
491.874	633.12
492.092	637.12
492.31	673.12
492.527	645.12
492.745	643.12
492.963	652.12
493.18	668.12
493.398	680.12
493.615	681.12
493.833	668.12
494.05	687.12
494.268	673.12
494.485	659.12
494.703	653.12
494.92	653.12
495.138	646.12
495.355	669.12
495.573	696.12
495.79	652.12
496.008	681.12
496.225	676.12
496.442	663.12
496.66	686.12
496.877	696.12
497.094	692.12
497.312	668.12
497.529	692.12
497.746	704.12
497.963	723.12
498.181	734.12
498.398	736.12
498.615	738.12
498.832	730.12
499.049	752.12
499.267	739.12
499.484	789.12
499.701	776.12
499.918	796.12
500.135	819.12
500.352	846.12
500.569	851.12
500.786	825.12
501.003	828.12
501.22	840.12
501.437	794.12
501.654	804.12
501.871	832.12
