Data from 1972.PennyLincolnUp.Lamp.En5.5.200Scan.071719.P1._HRD10591_15-27-22-843.txt Node
Date: Thu Jul 18 15:27:22 EDT 2019
User: cochatt
Spectrometer: HR+D1059
Trigger mode: 1
Integration Time (sec): 1.000000E-1
Scans to average: 1
Electric dark correction enabled: true
Nonlinearity correction enabled: false
Boxcar width: 0
XAxis mode: Wavelengths
Number of Pixels in Spectrum: 2048
>>>>>Begin Spectral Data<<<<<
223.165	-14.75
223.4	-14.75
223.635	-14.75
223.869	-24.75
224.104	-20.75
224.338	-21.75
224.573	-7.75
224.808	-13.75
225.042	1.25
225.277	-7.75
225.511	-6.75
225.746	10.25
225.98	8.25
226.215	9.25
226.449	16.25
226.683	26.25
226.918	9.25
227.152	37.25
227.387	36.25
227.621	29.25
227.856	47.25
228.09	56.25
228.324	49.25
228.559	57.25
228.793	77.25
229.027	96.25
229.262	108.25
229.496	112.25
229.73	150.25
229.964	160.25
230.199	135.25
230.433	113.25
230.667	114.25
230.901	112.25
231.136	102.25
231.37	119.25
231.604	107.25
231.838	102.25
232.072	111.25
232.306	110.25
232.541	111.25
232.775	109.25
233.009	114.25
233.243	94.25
233.477	106.25
233.711	115.25
233.945	113.25
234.179	113.25
234.413	113.25
234.647	109.25
234.881	124.25
235.115	128.25
235.349	124.25
235.583	122.25
235.817	136.25
236.051	104.25
236.285	131.25
236.519	133.25
236.753	124.25
236.987	142.25
237.221	173.25
237.455	235.25
237.689	200.25
237.922	151.25
238.156	126.25
238.39	134.25
238.624	127.25
238.858	127.25
239.091	134.25
239.325	131.25
239.559	128.25
239.793	129.25
240.027	133.25
240.26	137.25
240.494	155.25
240.728	153.25
240.961	145.25
241.195	141.25
241.429	129.25
241.662	130.25
241.896	142.25
242.13	123.25
242.363	129.25
242.597	132.25
242.83	143.25
243.064	163.25
243.298	161.25
243.531	141.25
243.765	131.25
243.998	129.25
244.232	132.25
244.465	135.25
244.699	140.25
244.932	142.25
245.166	150.25
245.399	139.25
245.633	139.25
245.866	142.25
246.099	161.25
246.333	152.25
246.566	149.25
246.8	143.25
247.033	154.25
247.266	136.25
247.5	164.25
247.733	160.25
247.966	164.25
248.2	161.25
248.433	176.25
248.666	157.25
248.899	193.25
249.133	180.25
249.366	221.25
249.599	189.25
249.832	191.25
250.066	178.25
250.299	188.25
250.532	177.25
250.765	205.25
250.998	230.25
251.231	223.25
251.465	205.25
251.698	206.25
251.931	197.25
252.164	189.25
252.397	202.25
252.63	206.25
252.863	218.25
253.096	210.25
253.329	227.25
253.562	225.25
253.795	232.25
254.028	217.25
254.261	229.25
254.494	239.25
254.727	241.25
254.96	279.25
255.193	271.25
255.426	252.25
255.659	237.25
255.892	240.25
256.124	228.25
256.357	222.25
256.59	223.25
256.823	233.25
257.056	219.25
257.289	201.25
257.521	217.25
257.754	210.25
257.987	215.25
258.22	207.25
258.452	208.25
258.685	215.25
258.918	211.25
259.151	205.25
259.383	234.25
259.616	226.25
259.849	236.25
260.081	228.25
260.314	239.25
260.547	265.25
260.779	253.25
261.012	247.25
261.244	222.25
261.477	226.25
261.71	229.25
261.942	228.25
262.175	244.25
262.407	217.25
262.64	221.25
262.872	206.25
263.105	211.25
263.337	210.25
263.57	220.25
263.802	207.25
264.035	234.25
264.267	219.25
264.499	215.25
264.732	213.25
264.964	211.25
265.197	183.25
265.429	227.25
265.661	201.25
265.894	194.25
266.126	218.25
266.358	205.25
266.591	210.25
266.823	215.25
267.055	234.25
267.287	211.25
267.52	216.25
267.752	231.25
267.984	211.25
268.216	206.25
268.448	233.25
268.681	238.25
268.913	239.25
269.145	256.25
269.377	289.25
269.609	270.25
269.841	263.25
270.073	267.25
270.306	295.25
270.538	305.25
270.77	312.25
271.002	298.25
271.234	294.25
271.466	291.25
271.698	284.25
271.93	293.25
272.162	295.25
272.394	312.25
272.626	302.25
272.858	287.25
273.09	278.25
273.322	270.25
273.553	254.25
273.785	263.25
274.017	245.25
274.249	247.25
274.481	265.25
274.713	252.25
274.945	247.25
275.176	252.25
275.408	251.25
275.64	267.25
275.872	229.25
276.104	249.25
276.335	249.25
276.567	267.25
276.799	284.25
277.031	299.25
277.262	309.25
277.494	311.25
277.726	305.25
277.957	277.25
278.189	286.25
278.421	263.25
278.652	275.25
278.884	275.25
279.115	254.25
279.347	259.25
279.579	253.25
279.81	278.25
280.042	241.25
280.273	272.25
280.505	250.25
280.736	263.25
280.968	252.25
281.199	226.25
281.431	245.25
281.662	246.25
281.894	250.25
282.125	252.25
282.356	282.25
282.588	295.25
282.819	293.25
283.051	270.25
283.282	260.25
283.513	269.25
283.745	264.25
283.976	230.25
284.207	277.25
284.439	260.25
284.67	267.25
284.901	266.25
285.132	263.25
285.364	267.25
285.595	255.25
285.826	249.25
286.057	264.25
286.288	281.25
286.52	274.25
286.751	279.25
286.982	286.25
287.213	257.25
287.444	255.25
287.675	261.25
287.906	281.25
288.138	288.25
288.369	294.25
288.6	301.25
288.831	293.25
289.062	283.25
289.293	289.25
289.524	279.25
289.755	269.25
289.986	263.25
290.217	288.25
290.448	275.25
290.679	277.25
290.91	277.25
291.141	273.25
291.371	274.25
291.602	268.25
291.833	285.25
292.064	270.25
292.295	273.25
292.526	268.25
292.757	277.25
292.987	272.25
293.218	257.25
293.449	275.25
293.68	269.25
293.91	278.25
294.141	281.25
294.372	265.25
294.603	273.25
294.833	262.25
295.064	263.25
295.295	278.25
295.525	277.25
295.756	273.25
295.987	278.25
296.217	293.25
296.448	303.25
296.679	310.25
296.909	267.25
297.14	274.25
297.37	285.25
297.601	297.25
297.831	276.25
298.062	281.25
298.292	273.25
298.523	266.25
298.753	288.25
298.984	287.25
299.214	290.25
299.445	286.25
299.675	291.25
299.905	291.25
300.136	306.25
300.366	293.25
300.597	300.25
300.827	294.25
301.057	309.25
301.288	315.25
301.518	290.25
301.748	297.25
301.979	287.25
302.209	293.25
302.439	298.25
302.669	299.25
302.9	293.25
303.13	302.25
303.36	299.25
303.59	316.25
303.82	335.25
304.051	327.25
304.281	304.25
304.511	317.25
304.741	289.25
304.971	299.25
305.201	281.25
305.431	327.25
305.661	320.25
305.891	311.25
306.121	317.25
306.352	303.25
306.582	306.25
306.812	310.25
307.042	311.25
307.272	314.25
307.502	326.25
307.731	334.25
307.961	311.25
308.191	314.25
308.421	305.25
308.651	302.25
308.881	303.25
309.111	310.25
309.341	299.25
309.571	336.25
309.8	344.25
310.03	342.25
310.26	365.25
310.49	353.25
310.72	357.25
310.949	376.25
311.179	389.25
311.409	369.25
311.639	338.25
311.868	350.25
312.098	343.25
312.328	363.25
312.557	381.25
312.787	397.25
313.017	390.25
313.246	369.25
313.476	343.25
313.706	371.25
313.935	378.25
314.165	386.25
314.394	381.25
314.624	373.25
314.853	370.25
315.083	354.25
315.312	361.25
315.542	352.25
315.771	352.25
316.001	331.25
316.23	360.25
316.46	356.25
316.689	354.25
316.919	344.25
317.148	366.25
317.377	357.25
317.607	380.25
317.836	365.25
318.065	368.25
318.295	352.25
318.524	336.25
318.753	356.25
318.983	353.25
319.212	358.25
319.441	362.25
319.67	383.25
319.9	384.25
320.129	377.25
320.358	362.25
320.587	385.25
320.816	376.25
321.046	395.25
321.275	387.25
321.504	384.25
321.733	377.25
321.962	387.25
322.191	387.25
322.42	400.25
322.649	431.25
322.878	439.25
323.108	440.25
323.337	469.25
323.566	503.25
323.795	519.25
324.024	585.25
324.253	723.25
324.482	1013.25
324.71	1591.25
324.939	2269.25
325.168	2025.25
325.397	1004.25
325.626	659.25
325.855	563.25
326.084	509.25
326.313	494.25
326.542	507.25
326.77	551.25
326.999	653.25
327.228	901.25
327.457	1414.25
327.686	1762.25
327.914	1169.25
328.143	730.25
328.372	630.25
328.6	622.25
328.829	569.25
329.058	542.25
329.287	582.25
329.515	537.25
329.744	523.25
329.972	455.25
330.201	517.25
330.43	561.25
330.658	588.25
330.887	601.25
331.115	589.25
331.344	516.25
331.572	464.25
331.801	462.25
332.03	465.25
332.258	447.25
332.486	438.25
332.715	417.25
332.943	427.25
333.172	417.25
333.4	419.25
333.629	418.25
333.857	439.25
334.085	454.25
334.314	482.25
334.542	514.25
334.771	525.25
334.999	471.25
335.227	442.25
335.455	426.25
335.684	433.25
335.912	425.25
336.14	411.25
336.369	414.25
336.597	412.25
336.825	421.25
337.053	418.25
337.281	417.25
337.51	411.25
337.738	426.25
337.966	413.25
338.194	421.25
338.422	433.25
338.65	403.25
338.878	398.25
339.106	382.25
339.334	398.25
339.562	408.25
339.79	403.25
340.018	393.25
340.246	400.25
340.474	410.25
340.702	403.25
340.93	405.25
341.158	396.25
341.386	389.25
341.614	393.25
341.842	410.25
342.07	391.25
342.298	406.25
342.526	396.25
342.754	398.25
342.981	393.25
343.209	374.25
343.437	399.25
343.665	386.25
343.893	397.25
344.12	397.25
344.348	417.25
344.576	401.25
344.804	427.25
345.031	418.25
345.259	408.25
345.487	391.25
345.714	396.25
345.942	415.25
346.17	399.25
346.397	398.25
346.625	382.25
346.853	394.25
347.08	401.25
347.308	395.25
347.535	397.25
347.763	403.25
347.99	417.25
348.218	409.25
348.445	404.25
348.673	427.25
348.9	389.25
349.128	384.25
349.355	374.25
349.583	387.25
349.81	375.25
350.037	377.25
350.265	382.25
350.492	387.25
350.72	379.25
350.947	378.25
351.174	383.25
351.402	393.25
351.629	379.25
351.856	392.25
352.083	404.25
352.311	387.25
352.538	407.25
352.765	403.25
352.992	391.25
353.22	362.25
353.447	368.25
353.674	365.25
353.901	378.25
354.128	386.25
354.355	355.25
354.583	364.25
354.81	358.25
355.037	349.25
355.264	364.25
355.491	360.25
355.718	339.25
355.945	347.25
356.172	356.25
356.399	349.25
356.626	358.25
356.853	342.25
357.08	360.25
357.307	361.25
357.534	330.25
357.761	346.25
357.988	365.25
358.215	342.25
358.441	335.25
358.668	348.25
358.895	362.25
359.122	374.25
359.349	371.25
359.576	373.25
359.802	395.25
360.029	421.25
360.256	446.25
360.483	412.25
360.709	389.25
360.936	377.25
361.163	386.25
361.39	403.25
361.616	399.25
361.843	363.25
362.07	381.25
362.296	407.25
362.523	375.25
362.749	398.25
362.976	379.25
363.203	391.25
363.429	379.25
363.656	370.25
363.882	365.25
364.109	358.25
364.335	351.25
364.562	363.25
364.788	378.25
365.015	363.25
365.241	377.25
365.468	366.25
365.694	385.25
365.92	385.25
366.147	364.25
366.373	347.25
366.599	346.25
366.826	358.25
367.052	357.25
367.278	354.25
367.505	354.25
367.731	373.25
367.957	351.25
368.184	359.25
368.41	354.25
368.636	370.25
368.862	385.25
369.089	381.25
369.315	361.25
369.541	364.25
369.767	373.25
369.993	365.25
370.219	370.25
370.445	353.25
370.672	352.25
370.898	352.25
371.124	347.25
371.35	351.25
371.576	360.25
371.802	357.25
372.028	341.25
372.254	348.25
372.48	358.25
372.706	341.25
372.932	378.25
373.158	362.25
373.384	354.25
373.61	335.25
373.835	339.25
374.061	346.25
374.287	358.25
374.513	374.25
374.739	364.25
374.965	348.25
375.191	355.25
375.416	362.25
375.642	363.25
375.868	367.25
376.094	375.25
376.319	338.25
376.545	369.25
376.771	355.25
376.997	347.25
377.222	342.25
377.448	343.25
377.674	360.25
377.899	338.25
378.125	327.25
378.35	350.25
378.576	320.25
378.802	349.25
379.027	359.25
379.253	357.25
379.478	384.25
379.704	347.25
379.929	349.25
380.155	357.25
380.38	345.25
380.606	361.25
380.831	348.25
381.057	351.25
381.282	352.25
381.507	359.25
381.733	357.25
381.958	350.25
382.184	339.25
382.409	357.25
382.634	377.25
382.86	364.25
383.085	357.25
383.31	359.25
383.535	355.25
383.761	336.25
383.986	353.25
384.211	354.25
384.436	384.25
384.662	377.25
384.887	363.25
385.112	351.25
385.337	371.25
385.562	367.25
385.787	354.25
386.013	397.25
386.238	375.25
386.463	383.25
386.688	382.25
386.913	377.25
387.138	379.25
387.363	383.25
387.588	389.25
387.813	380.25
388.038	385.25
388.263	383.25
388.488	382.25
388.713	375.25
388.938	394.25
389.163	380.25
389.387	386.25
389.612	378.25
389.837	396.25
390.062	380.25
390.287	373.25
390.512	372.25
390.736	365.25
390.961	373.25
391.186	364.25
391.411	393.25
391.636	387.25
391.86	381.25
392.085	394.25
392.31	394.25
392.534	389.25
392.759	387.25
392.984	376.25
393.208	406.25
393.433	405.25
393.658	387.25
393.882	370.25
394.107	383.25
394.331	374.25
394.556	371.25
394.78	383.25
395.005	379.25
395.229	393.25
395.454	376.25
395.678	382.25
395.903	401.25
396.127	416.25
396.352	423.25
396.576	395.25
396.801	408.25
397.025	398.25
397.249	411.25
397.474	395.25
397.698	405.25
397.922	403.25
398.147	439.25
398.371	428.25
398.595	404.25
398.82	417.25
399.044	432.25
399.268	421.25
399.492	443.25
399.717	475.25
399.941	505.25
400.165	514.25
400.389	528.25
400.613	490.25
400.837	440.25
401.062	451.25
401.286	417.25
401.51	429.25
401.734	431.25
401.958	409.25
402.182	426.25
402.406	429.25
402.63	439.25
402.854	445.25
403.078	438.25
403.302	427.25
403.526	430.25
403.75	449.25
403.974	453.25
404.198	427.25
404.422	443.25
404.645	448.25
404.869	471.25
405.093	496.25
405.317	523.25
405.541	559.25
405.765	507.25
405.988	465.25
406.212	493.25
406.436	488.25
406.66	504.25
406.883	481.25
407.107	490.25
407.331	525.25
407.555	601.25
407.778	611.25
408.002	535.25
408.226	493.25
408.449	494.25
408.673	497.25
408.896	535.25
409.12	547.25
409.344	529.25
409.567	470.25
409.791	443.25
410.014	478.25
410.238	452.25
410.461	457.25
410.685	455.25
410.908	476.25
411.132	495.25
411.355	541.25
411.578	493.25
411.802	452.25
412.025	447.25
412.249	456.25
412.472	461.25
412.695	514.25
412.919	506.25
413.142	457.25
413.365	432.25
413.589	443.25
413.812	435.25
414.035	410.25
414.258	441.25
414.482	424.25
414.705	419.25
414.928	409.25
415.151	423.25
415.374	422.25
415.597	398.25
415.821	411.25
416.044	429.25
416.267	423.25
416.49	421.25
416.713	423.25
416.936	419.25
417.159	428.25
417.382	429.25
417.605	438.25
417.828	433.25
418.051	437.25
418.274	440.25
418.497	419.25
418.72	412.25
418.943	403.25
419.166	421.25
419.389	453.25
419.611	437.25
419.834	455.25
420.057	435.25
420.28	453.25
420.503	460.25
420.726	430.25
420.948	457.25
421.171	498.25
421.394	513.25
421.617	476.25
421.839	449.25
422.062	455.25
422.285	448.25
422.507	511.25
422.73	601.25
422.953	558.25
423.175	488.25
423.398	472.25
423.621	482.25
423.843	490.25
424.066	498.25
424.288	498.25
424.511	480.25
424.733	542.25
424.956	621.25
425.178	610.25
425.401	590.25
425.623	634.25
425.846	527.25
426.068	497.25
426.291	485.25
426.513	476.25
426.735	499.25
426.958	558.25
427.18	612.25
427.402	729.25
427.625	848.25
427.847	726.25
428.069	621.25
428.292	567.25
428.514	501.25
428.736	461.25
428.958	474.25
429.181	463.25
429.403	464.25
429.625	476.25
429.847	499.25
430.069	568.25
430.292	540.25
430.514	477.25
430.736	444.25
430.958	442.25
431.18	441.25
431.402	417.25
431.624	416.25
431.846	422.25
432.068	426.25
432.29	425.25
432.512	432.25
432.734	448.25
432.956	441.25
433.178	424.25
433.4	466.25
433.622	430.25
433.844	406.25
434.066	423.25
434.287	429.25
434.509	424.25
434.731	437.25
434.953	443.25
435.175	461.25
435.397	478.25
435.618	496.25
435.84	529.25
436.062	642.25
436.284	687.25
436.505	573.25
436.727	507.25
436.949	484.25
437.17	461.25
437.392	472.25
437.614	489.25
437.835	512.25
438.057	608.25
438.278	701.25
438.5	695.25
438.721	744.25
438.943	729.25
439.165	584.25
439.386	560.25
439.608	506.25
439.829	513.25
440.05	545.25
440.272	590.25
440.493	541.25
440.715	481.25
440.936	465.25
441.158	469.25
441.379	485.25
441.6	463.25
441.822	466.25
442.043	521.25
442.264	609.25
442.486	672.25
442.707	555.25
442.928	535.25
443.149	542.25
443.371	546.25
443.592	550.25
443.813	658.25
444.034	707.25
444.255	558.25
444.476	523.25
444.698	511.25
444.919	472.25
445.14	567.25
445.361	555.25
445.582	555.25
445.803	601.25
446.024	718.25
446.245	718.25
446.466	649.25
446.687	556.25
446.908	515.25
447.129	495.25
447.35	466.25
447.571	460.25
447.792	457.25
448.013	469.25
448.234	503.25
448.455	522.25
448.675	647.25
448.896	761.25
449.117	640.25
449.338	633.25
449.559	714.25
449.779	806.25
450	637.25
450.221	525.25
450.442	492.25
450.662	469.25
450.883	447.25
451.104	493.25
451.324	466.25
451.545	442.25
451.766	438.25
451.986	395.25
452.207	409.25
452.428	406.25
452.648	415.25
452.869	414.25
453.089	419.25
453.31	457.25
453.53	427.25
453.751	413.25
453.971	405.25
454.192	429.25
454.412	423.25
454.633	397.25
454.853	407.25
455.073	413.25
455.294	414.25
455.514	500.25
455.734	501.25
455.955	403.25
456.175	388.25
456.395	403.25
456.616	385.25
456.836	374.25
457.056	393.25
457.276	382.25
457.497	397.25
457.717	377.25
457.937	394.25
458.157	393.25
458.377	390.25
458.598	425.25
458.818	474.25
459.038	578.25
459.258	573.25
459.478	478.25
459.698	420.25
459.918	411.25
460.138	412.25
460.358	424.25
460.578	427.25
460.798	435.25
461.018	430.25
461.238	415.25
461.458	397.25
461.678	433.25
461.898	431.25
462.118	424.25
462.338	428.25
462.558	425.25
462.777	443.25
462.997	438.25
463.217	433.25
463.437	435.25
463.657	445.25
463.876	450.25
464.096	447.25
464.316	447.25
464.536	437.25
464.755	473.25
464.975	459.25
465.195	501.25
465.414	577.25
465.634	521.25
465.854	465.25
466.073	469.25
466.293	425.25
466.512	422.25
466.732	406.25
466.951	433.25
467.171	409.25
467.391	409.25
467.61	425.25
467.829	437.25
468.049	415.25
468.268	409.25
468.488	403.25
468.707	397.25
468.927	392.25
469.146	379.25
469.365	397.25
469.585	387.25
469.804	401.25
470.023	418.25
470.243	427.25
470.462	433.25
470.681	439.25
470.901	442.25
471.12	431.25
471.339	419.25
471.558	437.25
471.777	434.25
471.997	417.25
472.216	438.25
472.435	480.25
472.654	463.25
472.873	437.25
473.092	417.25
473.311	409.25
473.53	429.25
473.749	425.25
473.968	459.25
474.187	583.25
474.406	613.25
474.625	479.25
474.844	432.25
475.063	440.25
475.282	415.25
475.501	441.25
475.72	431.25
475.939	439.25
476.158	445.25
476.377	443.25
476.596	424.25
476.814	443.25
477.033	448.25
477.252	448.25
477.471	439.25
477.69	445.25
477.908	444.25
478.127	471.25
478.346	449.25
478.564	453.25
478.783	486.25
479.002	481.25
479.22	458.25
479.439	485.25
479.658	495.25
479.876	516.25
480.095	503.25
480.313	542.25
480.532	523.25
480.751	530.25
480.969	537.25
481.188	614.25
481.406	615.25
481.624	545.25
481.843	523.25
482.061	508.25
482.28	518.25
482.498	495.25
482.717	493.25
482.935	501.25
483.153	487.25
483.372	492.25
483.59	494.25
483.808	500.25
484.027	491.25
484.245	494.25
484.463	495.25
484.681	518.25
484.9	476.25
485.118	494.25
485.336	503.25
485.554	505.25
485.772	516.25
485.99	498.25
486.209	501.25
486.427	512.25
486.645	529.25
486.863	542.25
487.081	533.25
487.299	544.25
487.517	528.25
487.735	553.25
487.953	527.25
488.171	543.25
488.389	533.25
488.607	542.25
488.825	530.25
489.043	532.25
489.261	524.25
489.479	534.25
489.696	527.25
489.914	560.25
490.132	560.25
490.35	549.25
490.568	552.25
490.786	561.25
491.003	563.25
491.221	567.25
491.439	595.25
491.657	604.25
491.874	612.25
492.092	612.25
492.31	605.25
492.527	592.25
492.745	602.25
492.963	595.25
493.18	609.25
493.398	626.25
493.615	639.25
493.833	621.25
494.05	579.25
494.268	634.25
494.485	622.25
494.703	600.25
494.92	615.25
495.138	627.25
495.355	623.25
495.573	608.25
495.79	626.25
496.008	609.25
496.225	637.25
496.442	623.25
496.66	629.25
496.877	632.25
497.094	627.25
497.312	627.25
497.529	638.25
497.746	648.25
497.963	647.25
498.181	649.25
498.398	658.25
498.615	677.25
498.832	712.25
499.049	701.25
499.267	702.25
499.484	731.25
499.701	745.25
499.918	750.25
500.135	762.25
500.352	773.25
500.569	800.25
500.786	802.25
501.003	811.25
501.22	759.25
501.437	790.25
501.654	787.25
501.871	760.25
