Data from 1972.PennyLincolnUp.Lamp.En5.5.200Scan.071719.P1._HRD10591_15-29-38-845.txt Node
Date: Thu Jul 18 15:29:38 EDT 2019
User: cochatt
Spectrometer: HR+D1059
Trigger mode: 1
Integration Time (sec): 1.000000E-1
Scans to average: 1
Electric dark correction enabled: true
Nonlinearity correction enabled: false
Boxcar width: 0
XAxis mode: Wavelengths
Number of Pixels in Spectrum: 2048
>>>>>Begin Spectral Data<<<<<
223.165	-14.44
223.4	-14.44
223.635	-14.44
223.869	-22.44
224.104	-26.44
224.338	-17.44
224.573	-7.44
224.808	-6.44
225.042	-1.44
225.277	-18.44
225.511	-18.44
225.746	1.56
225.98	4.56
226.215	16.56
226.449	25.56
226.683	18.56
226.918	21.56
227.152	44.56
227.387	29.56
227.621	36.56
227.856	27.56
228.09	42.56
228.324	46.56
228.559	48.56
228.793	66.56
229.027	108.56
229.262	103.56
229.496	134.56
229.73	148.56
229.964	168.56
230.199	136.56
230.433	123.56
230.667	112.56
230.901	120.56
231.136	109.56
231.37	92.56
231.604	96.56
231.838	108.56
232.072	112.56
232.306	121.56
232.541	109.56
232.775	126.56
233.009	110.56
233.243	113.56
233.477	109.56
233.711	109.56
233.945	118.56
234.179	97.56
234.413	112.56
234.647	124.56
234.881	110.56
235.115	115.56
235.349	120.56
235.583	134.56
235.817	128.56
236.051	127.56
236.285	132.56
236.519	122.56
236.753	125.56
236.987	144.56
237.221	204.56
237.455	257.56
237.689	229.56
237.922	158.56
238.156	147.56
238.39	130.56
238.624	136.56
238.858	131.56
239.091	120.56
239.325	127.56
239.559	117.56
239.793	120.56
240.027	138.56
240.26	150.56
240.494	163.56
240.728	168.56
240.961	164.56
241.195	154.56
241.429	132.56
241.662	134.56
241.896	136.56
242.13	142.56
242.363	132.56
242.597	136.56
242.83	145.56
243.064	151.56
243.298	128.56
243.531	137.56
243.765	127.56
243.998	141.56
244.232	135.56
244.465	123.56
244.699	149.56
244.932	149.56
245.166	141.56
245.399	168.56
245.633	128.56
245.866	144.56
246.099	137.56
246.333	148.56
246.566	168.56
246.8	163.56
247.033	161.56
247.266	151.56
247.5	159.56
247.733	177.56
247.966	149.56
248.2	184.56
248.433	176.56
248.666	196.56
248.899	186.56
249.133	210.56
249.366	229.56
249.599	217.56
249.832	216.56
250.066	191.56
250.299	181.56
250.532	198.56
250.765	214.56
250.998	254.56
251.231	261.56
251.465	236.56
251.698	221.56
251.931	208.56
252.164	205.56
252.397	210.56
252.63	208.56
252.863	230.56
253.096	239.56
253.329	234.56
253.562	230.56
253.795	226.56
254.028	233.56
254.261	245.56
254.494	254.56
254.727	274.56
254.96	304.56
255.193	291.56
255.426	271.56
255.659	258.56
255.892	261.56
256.124	262.56
256.357	264.56
256.59	245.56
256.823	237.56
257.056	242.56
257.289	215.56
257.521	224.56
257.754	219.56
257.987	210.56
258.22	227.56
258.452	222.56
258.685	227.56
258.918	231.56
259.151	225.56
259.383	226.56
259.616	224.56
259.849	250.56
260.081	247.56
260.314	279.56
260.547	268.56
260.779	272.56
261.012	262.56
261.244	241.56
261.477	242.56
261.71	231.56
261.942	242.56
262.175	263.56
262.407	244.56
262.64	224.56
262.872	211.56
263.105	233.56
263.337	221.56
263.57	229.56
263.802	217.56
264.035	206.56
264.267	240.56
264.499	214.56
264.732	222.56
264.964	220.56
265.197	214.56
265.429	211.56
265.661	208.56
265.894	213.56
266.126	229.56
266.358	227.56
266.591	213.56
266.823	230.56
267.055	238.56
267.287	230.56
267.52	240.56
267.752	228.56
267.984	230.56
268.216	255.56
268.448	247.56
268.681	245.56
268.913	266.56
269.145	277.56
269.377	297.56
269.609	317.56
269.841	288.56
270.073	297.56
270.306	326.56
270.538	329.56
270.77	337.56
271.002	343.56
271.234	328.56
271.466	334.56
271.698	333.56
271.93	348.56
272.162	340.56
272.394	337.56
272.626	331.56
272.858	316.56
273.09	334.56
273.322	296.56
273.553	302.56
273.785	295.56
274.017	286.56
274.249	287.56
274.481	285.56
274.713	277.56
274.945	281.56
275.176	296.56
275.408	297.56
275.64	280.56
275.872	284.56
276.104	272.56
276.335	273.56
276.567	304.56
276.799	318.56
277.031	329.56
277.262	330.56
277.494	373.56
277.726	333.56
277.957	317.56
278.189	311.56
278.421	288.56
278.652	290.56
278.884	281.56
279.115	269.56
279.347	279.56
279.579	264.56
279.81	265.56
280.042	264.56
280.273	286.56
280.505	278.56
280.736	280.56
280.968	280.56
281.199	286.56
281.431	290.56
281.662	277.56
281.894	282.56
282.125	271.56
282.356	316.56
282.588	337.56
282.819	336.56
283.051	293.56
283.282	280.56
283.513	293.56
283.745	262.56
283.976	278.56
284.207	285.56
284.439	301.56
284.67	294.56
284.901	288.56
285.132	272.56
285.364	285.56
285.595	283.56
285.826	269.56
286.057	286.56
286.288	279.56
286.52	277.56
286.751	274.56
286.982	278.56
287.213	285.56
287.444	293.56
287.675	285.56
287.906	289.56
288.138	289.56
288.369	310.56
288.6	327.56
288.831	290.56
289.062	307.56
289.293	297.56
289.524	310.56
289.755	286.56
289.986	279.56
290.217	304.56
290.448	277.56
290.679	292.56
290.91	287.56
291.141	294.56
291.371	285.56
291.602	293.56
291.833	280.56
292.064	282.56
292.295	289.56
292.526	292.56
292.757	284.56
292.987	291.56
293.218	294.56
293.449	281.56
293.68	282.56
293.91	310.56
294.141	274.56
294.372	281.56
294.603	265.56
294.833	300.56
295.064	312.56
295.295	287.56
295.525	292.56
295.756	324.56
295.987	316.56
296.217	340.56
296.448	354.56
296.679	309.56
296.909	288.56
297.14	306.56
297.37	289.56
297.601	311.56
297.831	307.56
298.062	317.56
298.292	279.56
298.523	278.56
298.753	295.56
298.984	313.56
299.214	310.56
299.445	303.56
299.675	296.56
299.905	306.56
300.136	321.56
300.366	302.56
300.597	289.56
300.827	321.56
301.057	336.56
301.288	333.56
301.518	313.56
301.748	312.56
301.979	319.56
302.209	327.56
302.439	346.56
302.669	334.56
302.9	300.56
303.13	302.56
303.36	334.56
303.59	325.56
303.82	341.56
304.051	355.56
304.281	327.56
304.511	341.56
304.741	330.56
304.971	330.56
305.201	319.56
305.431	310.56
305.661	331.56
305.891	331.56
306.121	340.56
306.352	348.56
306.582	336.56
306.812	338.56
307.042	337.56
307.272	338.56
307.502	333.56
307.731	329.56
307.961	318.56
308.191	334.56
308.421	344.56
308.651	341.56
308.881	345.56
309.111	342.56
309.341	360.56
309.571	380.56
309.8	394.56
310.03	399.56
310.26	387.56
310.49	397.56
310.72	420.56
310.949	453.56
311.179	440.56
311.409	421.56
311.639	402.56
311.868	413.56
312.098	407.56
312.328	405.56
312.557	429.56
312.787	458.56
313.017	434.56
313.246	423.56
313.476	392.56
313.706	398.56
313.935	391.56
314.165	415.56
314.394	430.56
314.624	419.56
314.853	395.56
315.083	403.56
315.312	395.56
315.542	375.56
315.771	377.56
316.001	398.56
316.23	384.56
316.46	395.56
316.689	385.56
316.919	393.56
317.148	389.56
317.377	405.56
317.607	410.56
317.836	404.56
318.065	402.56
318.295	394.56
318.524	388.56
318.753	397.56
318.983	400.56
319.212	416.56
319.441	390.56
319.67	409.56
319.9	408.56
320.129	386.56
320.358	410.56
320.587	399.56
320.816	404.56
321.046	441.56
321.275	423.56
321.504	411.56
321.733	412.56
321.962	439.56
322.191	449.56
322.42	465.56
322.649	479.56
322.878	514.56
323.108	505.56
323.337	536.56
323.566	584.56
323.795	601.56
324.024	688.56
324.253	852.56
324.482	1272.56
324.71	2052.56
324.939	2905.56
325.168	2590.56
325.397	1283.56
325.626	818.56
325.855	644.56
326.084	598.56
326.313	590.56
326.542	589.56
326.77	647.56
326.999	787.56
327.228	1118.56
327.457	1772.56
327.686	2217.56
327.914	1473.56
328.143	904.56
328.372	770.56
328.6	720.56
328.829	679.56
329.058	687.56
329.287	690.56
329.515	623.56
329.744	577.56
329.972	596.56
330.201	630.56
330.43	684.56
330.658	704.56
330.887	736.56
331.115	724.56
331.344	607.56
331.572	536.56
331.801	574.56
332.03	548.56
332.258	488.56
332.486	487.56
332.715	482.56
332.943	463.56
333.172	464.56
333.4	476.56
333.629	492.56
333.857	507.56
334.085	509.56
334.314	537.56
334.542	600.56
334.771	579.56
334.999	537.56
335.227	500.56
335.455	489.56
335.684	460.56
335.912	459.56
336.14	453.56
336.369	454.56
336.597	486.56
336.825	461.56
337.053	463.56
337.281	455.56
337.51	422.56
337.738	456.56
337.966	452.56
338.194	452.56
338.422	452.56
338.65	439.56
338.878	437.56
339.106	437.56
339.334	416.56
339.562	432.56
339.79	420.56
340.018	420.56
340.246	438.56
340.474	420.56
340.702	423.56
340.93	429.56
341.158	424.56
341.386	430.56
341.614	446.56
341.842	445.56
342.07	414.56
342.298	421.56
342.526	414.56
342.754	410.56
342.981	415.56
343.209	378.56
343.437	432.56
343.665	416.56
343.893	434.56
344.12	430.56
344.348	418.56
344.576	423.56
344.804	452.56
345.031	462.56
345.259	459.56
345.487	444.56
345.714	435.56
345.942	420.56
346.17	415.56
346.397	397.56
346.625	407.56
346.853	415.56
347.08	411.56
347.308	419.56
347.535	434.56
347.763	432.56
347.99	448.56
348.218	430.56
348.445	452.56
348.673	445.56
348.9	424.56
349.128	431.56
349.355	439.56
349.583	400.56
349.81	403.56
350.037	396.56
350.265	395.56
350.492	410.56
350.72	438.56
350.947	416.56
351.174	401.56
351.402	456.56
351.629	448.56
351.856	406.56
352.083	437.56
352.311	434.56
352.538	446.56
352.765	447.56
352.992	444.56
353.22	441.56
353.447	416.56
353.674	388.56
353.901	394.56
354.128	387.56
354.355	387.56
354.583	373.56
354.81	400.56
355.037	378.56
355.264	376.56
355.491	375.56
355.718	370.56
355.945	364.56
356.172	387.56
356.399	365.56
356.626	382.56
356.853	374.56
357.08	375.56
357.307	378.56
357.534	384.56
357.761	376.56
357.988	384.56
358.215	372.56
358.441	393.56
358.668	380.56
358.895	390.56
359.122	378.56
359.349	404.56
359.576	411.56
359.802	455.56
360.029	485.56
360.256	505.56
360.483	483.56
360.709	422.56
360.936	430.56
361.163	436.56
361.39	407.56
361.616	430.56
361.843	416.56
362.07	414.56
362.296	445.56
362.523	425.56
362.749	434.56
362.976	405.56
363.203	409.56
363.429	407.56
363.656	412.56
363.882	409.56
364.109	373.56
364.335	399.56
364.562	414.56
364.788	386.56
365.015	386.56
365.241	391.56
365.468	381.56
365.694	386.56
365.92	408.56
366.147	390.56
366.373	388.56
366.599	381.56
366.826	400.56
367.052	376.56
367.278	386.56
367.505	369.56
367.731	388.56
367.957	382.56
368.184	382.56
368.41	399.56
368.636	405.56
368.862	397.56
369.089	389.56
369.315	390.56
369.541	372.56
369.767	395.56
369.993	386.56
370.219	399.56
370.445	376.56
370.672	382.56
370.898	357.56
371.124	359.56
371.35	383.56
371.576	364.56
371.802	373.56
372.028	374.56
372.254	368.56
372.48	374.56
372.706	390.56
372.932	384.56
373.158	391.56
373.384	377.56
373.61	383.56
373.835	370.56
374.061	385.56
374.287	380.56
374.513	387.56
374.739	373.56
374.965	380.56
375.191	380.56
375.416	401.56
375.642	367.56
375.868	379.56
376.094	380.56
376.319	365.56
376.545	369.56
376.771	361.56
376.997	388.56
377.222	380.56
377.448	376.56
377.674	375.56
377.899	352.56
378.125	372.56
378.35	352.56
378.576	372.56
378.802	374.56
379.027	378.56
379.253	382.56
379.478	365.56
379.704	350.56
379.929	380.56
380.155	373.56
380.38	372.56
380.606	397.56
380.831	360.56
381.057	382.56
381.282	384.56
381.507	390.56
381.733	381.56
381.958	369.56
382.184	390.56
382.409	383.56
382.634	384.56
382.86	387.56
383.085	408.56
383.31	380.56
383.535	362.56
383.761	362.56
383.986	378.56
384.211	376.56
384.436	364.56
384.662	381.56
384.887	378.56
385.112	392.56
385.337	384.56
385.562	390.56
385.787	392.56
386.013	397.56
386.238	416.56
386.463	409.56
386.688	410.56
386.913	383.56
387.138	389.56
387.363	398.56
387.588	376.56
387.813	417.56
388.038	374.56
388.263	387.56
388.488	388.56
388.713	392.56
388.938	386.56
389.163	388.56
389.387	398.56
389.612	376.56
389.837	390.56
390.062	419.56
390.287	403.56
390.512	390.56
390.736	388.56
390.961	411.56
391.186	403.56
391.411	383.56
391.636	400.56
391.86	406.56
392.085	402.56
392.31	404.56
392.534	381.56
392.759	403.56
392.984	386.56
393.208	394.56
393.433	409.56
393.658	389.56
393.882	394.56
394.107	390.56
394.331	404.56
394.556	390.56
394.78	393.56
395.005	400.56
395.229	370.56
395.454	401.56
395.678	427.56
395.903	400.56
396.127	436.56
396.352	447.56
396.576	430.56
396.801	420.56
397.025	410.56
397.249	409.56
397.474	410.56
397.698	409.56
397.922	416.56
398.147	446.56
398.371	452.56
398.595	444.56
398.82	438.56
399.044	453.56
399.268	447.56
399.492	478.56
399.717	496.56
399.941	522.56
400.165	552.56
400.389	548.56
400.613	517.56
400.837	478.56
401.062	465.56
401.286	457.56
401.51	455.56
401.734	440.56
401.958	463.56
402.182	438.56
402.406	480.56
402.63	492.56
402.854	446.56
403.078	458.56
403.302	452.56
403.526	485.56
403.75	448.56
403.974	468.56
404.198	448.56
404.422	473.56
404.645	467.56
404.869	461.56
405.093	537.56
405.317	568.56
405.541	627.56
405.765	551.56
405.988	506.56
406.212	495.56
406.436	541.56
406.66	542.56
406.883	544.56
407.107	532.56
407.331	583.56
407.555	678.56
407.778	660.56
408.002	601.56
408.226	534.56
408.449	510.56
408.673	526.56
408.896	571.56
409.12	572.56
409.344	569.56
409.567	513.56
409.791	492.56
410.014	502.56
410.238	480.56
410.461	462.56
410.685	474.56
410.908	495.56
411.132	564.56
411.355	579.56
411.578	537.56
411.802	473.56
412.025	480.56
412.249	482.56
412.472	511.56
412.695	566.56
412.919	584.56
413.142	499.56
413.365	485.56
413.589	464.56
413.812	446.56
414.035	462.56
414.258	447.56
414.482	436.56
414.705	438.56
414.928	454.56
415.151	445.56
415.374	451.56
415.597	442.56
415.821	417.56
416.044	446.56
416.267	442.56
416.49	450.56
416.713	461.56
416.936	439.56
417.159	457.56
417.382	458.56
417.605	457.56
417.828	488.56
418.051	499.56
418.274	486.56
418.497	463.56
418.72	441.56
418.943	441.56
419.166	471.56
419.389	473.56
419.611	462.56
419.834	494.56
420.057	473.56
420.28	484.56
420.503	469.56
420.726	471.56
420.948	486.56
421.171	550.56
421.394	572.56
421.617	512.56
421.839	488.56
422.062	477.56
422.285	495.56
422.507	560.56
422.73	651.56
422.953	626.56
423.175	489.56
423.398	493.56
423.621	494.56
423.843	535.56
424.066	536.56
424.288	540.56
424.511	561.56
424.733	626.56
424.956	699.56
425.178	668.56
425.401	671.56
425.623	668.56
425.846	579.56
426.068	546.56
426.291	533.56
426.513	519.56
426.735	550.56
426.958	604.56
427.18	654.56
427.402	826.56
427.625	940.56
427.847	842.56
428.069	737.56
428.292	645.56
428.514	560.56
428.736	541.56
428.958	510.56
429.181	493.56
429.403	499.56
429.625	496.56
429.847	519.56
430.069	611.56
430.292	602.56
430.514	524.56
430.736	480.56
430.958	497.56
431.18	471.56
431.402	469.56
431.624	448.56
431.846	444.56
432.068	453.56
432.29	470.56
432.512	464.56
432.734	465.56
432.956	444.56
433.178	481.56
433.4	498.56
433.622	456.56
433.844	455.56
434.066	452.56
434.287	439.56
434.509	445.56
434.731	432.56
434.953	444.56
435.175	464.56
435.397	512.56
435.618	530.56
435.84	585.56
436.062	680.56
436.284	781.56
436.505	627.56
436.727	585.56
436.949	545.56
437.17	498.56
437.392	489.56
437.614	512.56
437.835	546.56
438.057	677.56
438.278	802.56
438.5	783.56
438.721	866.56
438.943	818.56
439.165	682.56
439.386	573.56
439.608	574.56
439.829	589.56
440.05	625.56
440.272	664.56
440.493	597.56
440.715	548.56
440.936	536.56
441.158	504.56
441.379	504.56
441.6	513.56
441.822	537.56
442.043	573.56
442.264	681.56
442.486	731.56
442.707	626.56
442.928	570.56
443.149	542.56
443.371	588.56
443.592	636.56
443.813	702.56
444.034	804.56
444.255	660.56
444.476	562.56
444.698	542.56
444.919	522.56
445.14	612.56
445.361	577.56
445.582	600.56
445.803	681.56
446.024	828.56
446.245	820.56
446.466	761.56
446.687	628.56
446.908	561.56
447.129	554.56
447.35	523.56
447.571	508.56
447.792	489.56
448.013	511.56
448.234	552.56
448.455	601.56
448.675	722.56
448.896	850.56
449.117	709.56
449.338	667.56
449.559	813.56
449.779	888.56
450	720.56
450.221	568.56
450.442	526.56
450.662	508.56
450.883	516.56
451.104	544.56
451.324	510.56
451.545	494.56
451.766	475.56
451.986	468.56
452.207	453.56
452.428	453.56
452.648	428.56
452.869	454.56
453.089	453.56
453.31	454.56
453.53	463.56
453.751	451.56
453.971	464.56
454.192	463.56
454.412	489.56
454.633	455.56
454.853	453.56
455.073	449.56
455.294	467.56
455.514	582.56
455.734	565.56
455.955	464.56
456.175	428.56
456.395	407.56
456.616	414.56
456.836	400.56
457.056	404.56
457.276	389.56
457.497	399.56
457.717	423.56
457.937	411.56
458.157	431.56
458.377	432.56
458.598	463.56
458.818	544.56
459.038	646.56
459.258	657.56
459.478	537.56
459.698	460.56
459.918	442.56
460.138	461.56
460.358	454.56
460.578	457.56
460.798	470.56
461.018	456.56
461.238	447.56
461.458	439.56
461.678	455.56
461.898	464.56
462.118	453.56
462.338	444.56
462.558	438.56
462.777	468.56
462.997	461.56
463.217	450.56
463.437	476.56
463.657	467.56
463.876	481.56
464.096	484.56
464.316	462.56
464.536	480.56
464.755	474.56
464.975	512.56
465.195	561.56
465.414	662.56
465.634	578.56
465.854	494.56
466.073	485.56
466.293	475.56
466.512	428.56
466.732	432.56
466.951	440.56
467.171	446.56
467.391	441.56
467.61	452.56
467.829	472.56
468.049	470.56
468.268	462.56
468.488	450.56
468.707	421.56
468.927	433.56
469.146	416.56
469.365	442.56
469.585	412.56
469.804	457.56
470.023	463.56
470.243	456.56
470.462	456.56
470.681	484.56
470.901	472.56
471.12	445.56
471.339	436.56
471.558	449.56
471.777	463.56
471.997	457.56
472.216	476.56
472.435	529.56
472.654	489.56
472.873	456.56
473.092	459.56
473.311	454.56
473.53	462.56
473.749	482.56
473.968	507.56
474.187	632.56
474.406	700.56
474.625	549.56
474.844	477.56
475.063	457.56
475.282	440.56
475.501	468.56
475.72	467.56
475.939	446.56
476.158	483.56
476.377	460.56
476.596	448.56
476.814	479.56
477.033	473.56
477.252	486.56
477.471	471.56
477.69	466.56
477.908	456.56
478.127	495.56
478.346	470.56
478.564	502.56
478.783	482.56
479.002	500.56
479.22	486.56
479.439	546.56
479.658	555.56
479.876	561.56
480.095	557.56
480.313	596.56
480.532	560.56
480.751	559.56
480.969	565.56
481.188	665.56
481.406	738.56
481.624	644.56
481.843	566.56
482.061	548.56
482.28	544.56
482.498	540.56
482.717	547.56
482.935	535.56
483.153	549.56
483.372	550.56
483.59	534.56
483.808	522.56
484.027	527.56
484.245	521.56
484.463	546.56
484.681	529.56
484.9	534.56
485.118	531.56
485.336	552.56
485.554	560.56
485.772	546.56
485.99	543.56
486.209	537.56
486.427	565.56
486.645	574.56
486.863	593.56
487.081	579.56
487.299	584.56
487.517	588.56
487.735	569.56
487.953	548.56
488.171	577.56
488.389	572.56
488.607	568.56
488.825	569.56
489.043	588.56
489.261	597.56
489.479	589.56
489.696	582.56
489.914	599.56
490.132	593.56
490.35	583.56
490.568	622.56
490.786	612.56
491.003	631.56
491.221	637.56
491.439	658.56
491.657	644.56
491.874	664.56
492.092	663.56
492.31	651.56
492.527	679.56
492.745	668.56
492.963	682.56
493.18	650.56
493.398	678.56
493.615	676.56
493.833	698.56
494.05	700.56
494.268	681.56
494.485	684.56
494.703	686.56
494.92	697.56
495.138	681.56
495.355	658.56
495.573	693.56
495.79	697.56
496.008	688.56
496.225	674.56
496.442	677.56
496.66	677.56
496.877	681.56
497.094	692.56
497.312	726.56
497.529	695.56
497.746	712.56
497.963	716.56
498.181	726.56
498.398	732.56
498.615	738.56
498.832	756.56
499.049	766.56
499.267	750.56
499.484	785.56
499.701	769.56
499.918	789.56
500.135	805.56
500.352	838.56
500.569	833.56
500.786	861.56
501.003	835.56
501.22	835.56
501.437	843.56
501.654	836.56
501.871	842.56
