Data from 1972.PennyLincolnUp.Lamp.En5.5.200Scan.071719.P1._HRD10591_15-27-40-843.txt Node
Date: Thu Jul 18 15:27:40 EDT 2019
User: cochatt
Spectrometer: HR+D1059
Trigger mode: 1
Integration Time (sec): 1.000000E-1
Scans to average: 1
Electric dark correction enabled: true
Nonlinearity correction enabled: false
Boxcar width: 0
XAxis mode: Wavelengths
Number of Pixels in Spectrum: 2048
>>>>>Begin Spectral Data<<<<<
223.165	-15.75
223.4	-15.75
223.635	-15.75
223.869	-15.75
224.104	-8.75
224.338	3.25
224.573	-14.75
224.808	-17.75
225.042	-8.75
225.277	-0.75
225.511	-3.75
225.746	-10.75
225.98	-4.75
226.215	8.25
226.449	27.25
226.683	11.25
226.918	13.25
227.152	38.25
227.387	31.25
227.621	32.25
227.856	56.25
228.09	51.25
228.324	47.25
228.559	56.25
228.793	60.25
229.027	103.25
229.262	111.25
229.496	127.25
229.73	135.25
229.964	172.25
230.199	137.25
230.433	128.25
230.667	129.25
230.901	103.25
231.136	117.25
231.37	119.25
231.604	104.25
231.838	108.25
232.072	105.25
232.306	117.25
232.541	110.25
232.775	110.25
233.009	104.25
233.243	111.25
233.477	113.25
233.711	125.25
233.945	117.25
234.179	112.25
234.413	128.25
234.647	119.25
234.881	107.25
235.115	125.25
235.349	117.25
235.583	127.25
235.817	134.25
236.051	131.25
236.285	121.25
236.519	127.25
236.753	140.25
236.987	158.25
237.221	165.25
237.455	251.25
237.689	200.25
237.922	155.25
238.156	141.25
238.39	119.25
238.624	139.25
238.858	123.25
239.091	121.25
239.325	119.25
239.559	127.25
239.793	132.25
240.027	135.25
240.26	130.25
240.494	155.25
240.728	157.25
240.961	152.25
241.195	133.25
241.429	141.25
241.662	136.25
241.896	138.25
242.13	146.25
242.363	123.25
242.597	135.25
242.83	131.25
243.064	139.25
243.298	145.25
243.531	145.25
243.765	149.25
243.998	151.25
244.232	133.25
244.465	133.25
244.699	142.25
244.932	129.25
245.166	135.25
245.399	139.25
245.633	143.25
245.866	139.25
246.099	141.25
246.333	152.25
246.566	149.25
246.8	160.25
247.033	166.25
247.266	164.25
247.5	156.25
247.733	173.25
247.966	179.25
248.2	169.25
248.433	174.25
248.666	173.25
248.899	185.25
249.133	206.25
249.366	212.25
249.599	211.25
249.832	186.25
250.066	188.25
250.299	164.25
250.532	201.25
250.765	191.25
250.998	218.25
251.231	230.25
251.465	224.25
251.698	195.25
251.931	206.25
252.164	198.25
252.397	209.25
252.63	217.25
252.863	191.25
253.096	217.25
253.329	225.25
253.562	223.25
253.795	222.25
254.028	238.25
254.261	216.25
254.494	224.25
254.727	257.25
254.96	270.25
255.193	252.25
255.426	238.25
255.659	236.25
255.892	233.25
256.124	241.25
256.357	223.25
256.59	225.25
256.823	201.25
257.056	211.25
257.289	205.25
257.521	211.25
257.754	209.25
257.987	208.25
258.22	207.25
258.452	200.25
258.685	207.25
258.918	197.25
259.151	204.25
259.383	220.25
259.616	215.25
259.849	223.25
260.081	224.25
260.314	253.25
260.547	255.25
260.779	237.25
261.012	239.25
261.244	228.25
261.477	233.25
261.71	204.25
261.942	224.25
262.175	246.25
262.407	226.25
262.64	225.25
262.872	225.25
263.105	201.25
263.337	220.25
263.57	197.25
263.802	207.25
264.035	207.25
264.267	204.25
264.499	202.25
264.732	217.25
264.964	216.25
265.197	194.25
265.429	202.25
265.661	231.25
265.894	212.25
266.126	212.25
266.358	199.25
266.591	207.25
266.823	229.25
267.055	199.25
267.287	243.25
267.52	212.25
267.752	227.25
267.984	231.25
268.216	224.25
268.448	230.25
268.681	236.25
268.913	228.25
269.145	269.25
269.377	277.25
269.609	268.25
269.841	253.25
270.073	277.25
270.306	293.25
270.538	301.25
270.77	311.25
271.002	297.25
271.234	287.25
271.466	295.25
271.698	294.25
271.93	318.25
272.162	311.25
272.394	312.25
272.626	286.25
272.858	262.25
273.09	263.25
273.322	269.25
273.553	251.25
273.785	249.25
274.017	261.25
274.249	275.25
274.481	256.25
274.713	258.25
274.945	274.25
275.176	269.25
275.408	275.25
275.64	266.25
275.872	257.25
276.104	255.25
276.335	252.25
276.567	272.25
276.799	273.25
277.031	303.25
277.262	304.25
277.494	312.25
277.726	316.25
277.957	299.25
278.189	277.25
278.421	261.25
278.652	266.25
278.884	261.25
279.115	262.25
279.347	274.25
279.579	266.25
279.81	276.25
280.042	257.25
280.273	247.25
280.505	250.25
280.736	261.25
280.968	242.25
281.199	252.25
281.431	251.25
281.662	254.25
281.894	255.25
282.125	270.25
282.356	283.25
282.588	287.25
282.819	303.25
283.051	244.25
283.282	255.25
283.513	249.25
283.745	267.25
283.976	275.25
284.207	279.25
284.439	273.25
284.67	263.25
284.901	256.25
285.132	267.25
285.364	267.25
285.595	266.25
285.826	279.25
286.057	267.25
286.288	268.25
286.52	251.25
286.751	249.25
286.982	263.25
287.213	275.25
287.444	259.25
287.675	275.25
287.906	267.25
288.138	285.25
288.369	295.25
288.6	289.25
288.831	278.25
289.062	256.25
289.293	271.25
289.524	269.25
289.755	266.25
289.986	281.25
290.217	281.25
290.448	262.25
290.679	274.25
290.91	271.25
291.141	269.25
291.371	268.25
291.602	232.25
291.833	264.25
292.064	265.25
292.295	280.25
292.526	269.25
292.757	269.25
292.987	273.25
293.218	262.25
293.449	273.25
293.68	274.25
293.91	262.25
294.141	261.25
294.372	270.25
294.603	265.25
294.833	265.25
295.064	283.25
295.295	294.25
295.525	300.25
295.756	252.25
295.987	278.25
296.217	318.25
296.448	329.25
296.679	302.25
296.909	282.25
297.14	276.25
297.37	276.25
297.601	269.25
297.831	276.25
298.062	284.25
298.292	272.25
298.523	289.25
298.753	294.25
298.984	280.25
299.214	284.25
299.445	271.25
299.675	287.25
299.905	287.25
300.136	308.25
300.366	304.25
300.597	279.25
300.827	281.25
301.057	286.25
301.288	300.25
301.518	323.25
301.748	309.25
301.979	313.25
302.209	316.25
302.439	285.25
302.669	303.25
302.9	300.25
303.13	288.25
303.36	304.25
303.59	319.25
303.82	301.25
304.051	324.25
304.281	329.25
304.511	295.25
304.741	297.25
304.971	296.25
305.201	287.25
305.431	286.25
305.661	296.25
305.891	311.25
306.121	311.25
306.352	308.25
306.582	321.25
306.812	315.25
307.042	297.25
307.272	307.25
307.502	310.25
307.731	304.25
307.961	305.25
308.191	307.25
308.421	299.25
308.651	315.25
308.881	320.25
309.111	328.25
309.341	323.25
309.571	343.25
309.8	340.25
310.03	355.25
310.26	366.25
310.49	345.25
310.72	377.25
310.949	379.25
311.179	394.25
311.409	373.25
311.639	357.25
311.868	375.25
312.098	385.25
312.328	361.25
312.557	393.25
312.787	412.25
313.017	407.25
313.246	384.25
313.476	376.25
313.706	392.25
313.935	360.25
314.165	375.25
314.394	374.25
314.624	402.25
314.853	372.25
315.083	371.25
315.312	356.25
315.542	356.25
315.771	351.25
316.001	343.25
316.23	348.25
316.46	343.25
316.689	352.25
316.919	366.25
317.148	374.25
317.377	367.25
317.607	360.25
317.836	368.25
318.065	371.25
318.295	355.25
318.524	365.25
318.753	331.25
318.983	355.25
319.212	369.25
319.441	372.25
319.67	385.25
319.9	352.25
320.129	381.25
320.358	378.25
320.587	355.25
320.816	378.25
321.046	363.25
321.275	378.25
321.504	389.25
321.733	371.25
321.962	389.25
322.191	391.25
322.42	451.25
322.649	437.25
322.878	453.25
323.108	463.25
323.337	472.25
323.566	502.25
323.795	539.25
324.024	573.25
324.253	732.25
324.482	1056.25
324.71	1659.25
324.939	2402.25
325.168	2079.25
325.397	1085.25
325.626	729.25
325.855	590.25
326.084	539.25
326.313	503.25
326.542	516.25
326.77	570.25
326.999	687.25
327.228	939.25
327.457	1440.25
327.686	1820.25
327.914	1221.25
328.143	792.25
328.372	699.25
328.6	621.25
328.829	597.25
329.058	592.25
329.287	612.25
329.515	559.25
329.744	519.25
329.972	509.25
330.201	534.25
330.43	596.25
330.658	623.25
330.887	649.25
331.115	593.25
331.344	519.25
331.572	500.25
331.801	490.25
332.03	469.25
332.258	462.25
332.486	431.25
332.715	427.25
332.943	421.25
333.172	408.25
333.4	460.25
333.629	432.25
333.857	462.25
334.085	476.25
334.314	484.25
334.542	492.25
334.771	534.25
334.999	462.25
335.227	446.25
335.455	427.25
335.684	424.25
335.912	413.25
336.14	406.25
336.369	411.25
336.597	418.25
336.825	422.25
337.053	412.25
337.281	412.25
337.51	396.25
337.738	402.25
337.966	389.25
338.194	400.25
338.422	409.25
338.65	399.25
338.878	391.25
339.106	393.25
339.334	387.25
339.562	389.25
339.79	396.25
340.018	401.25
340.246	392.25
340.474	403.25
340.702	411.25
340.93	408.25
341.158	395.25
341.386	387.25
341.614	368.25
341.842	420.25
342.07	403.25
342.298	385.25
342.526	375.25
342.754	378.25
342.981	363.25
343.209	391.25
343.437	368.25
343.665	363.25
343.893	390.25
344.12	379.25
344.348	399.25
344.576	380.25
344.804	393.25
345.031	401.25
345.259	423.25
345.487	416.25
345.714	385.25
345.942	396.25
346.17	382.25
346.397	368.25
346.625	383.25
346.853	393.25
347.08	406.25
347.308	390.25
347.535	394.25
347.763	393.25
347.99	389.25
348.218	395.25
348.445	419.25
348.673	393.25
348.9	380.25
349.128	373.25
349.355	381.25
349.583	390.25
349.81	368.25
350.037	362.25
350.265	357.25
350.492	375.25
350.72	358.25
350.947	358.25
351.174	401.25
351.402	413.25
351.629	397.25
351.856	392.25
352.083	379.25
352.311	413.25
352.538	401.25
352.765	407.25
352.992	415.25
353.22	383.25
353.447	405.25
353.674	373.25
353.901	352.25
354.128	341.25
354.355	363.25
354.583	360.25
354.81	330.25
355.037	359.25
355.264	335.25
355.491	351.25
355.718	348.25
355.945	354.25
356.172	344.25
356.399	332.25
356.626	354.25
356.853	351.25
357.08	337.25
357.307	351.25
357.534	361.25
357.761	340.25
357.988	355.25
358.215	328.25
358.441	348.25
358.668	353.25
358.895	362.25
359.122	347.25
359.349	363.25
359.576	378.25
359.802	397.25
360.029	433.25
360.256	457.25
360.483	434.25
360.709	391.25
360.936	368.25
361.163	376.25
361.39	379.25
361.616	387.25
361.843	384.25
362.07	377.25
362.296	384.25
362.523	383.25
362.749	375.25
362.976	374.25
363.203	374.25
363.429	358.25
363.656	377.25
363.882	377.25
364.109	357.25
364.335	359.25
364.562	355.25
364.788	355.25
365.015	368.25
365.241	354.25
365.468	361.25
365.694	371.25
365.92	383.25
366.147	359.25
366.373	338.25
366.599	368.25
366.826	348.25
367.052	347.25
367.278	358.25
367.505	357.25
367.731	357.25
367.957	340.25
368.184	357.25
368.41	374.25
368.636	371.25
368.862	362.25
369.089	372.25
369.315	365.25
369.541	360.25
369.767	373.25
369.993	332.25
370.219	365.25
370.445	360.25
370.672	345.25
370.898	333.25
371.124	351.25
371.35	356.25
371.576	328.25
371.802	335.25
372.028	352.25
372.254	349.25
372.48	354.25
372.706	351.25
372.932	366.25
373.158	339.25
373.384	354.25
373.61	339.25
373.835	342.25
374.061	344.25
374.287	342.25
374.513	364.25
374.739	372.25
374.965	341.25
375.191	349.25
375.416	335.25
375.642	346.25
375.868	364.25
376.094	348.25
376.319	344.25
376.545	333.25
376.771	352.25
376.997	353.25
377.222	345.25
377.448	345.25
377.674	355.25
377.899	342.25
378.125	351.25
378.35	348.25
378.576	348.25
378.802	319.25
379.027	357.25
379.253	343.25
379.478	329.25
379.704	343.25
379.929	344.25
380.155	341.25
380.38	332.25
380.606	363.25
380.831	331.25
381.057	350.25
381.282	344.25
381.507	343.25
381.733	351.25
381.958	324.25
382.184	348.25
382.409	363.25
382.634	372.25
382.86	343.25
383.085	347.25
383.31	367.25
383.535	364.25
383.761	344.25
383.986	362.25
384.211	374.25
384.436	328.25
384.662	357.25
384.887	351.25
385.112	378.25
385.337	361.25
385.562	379.25
385.787	368.25
386.013	371.25
386.238	379.25
386.463	383.25
386.688	366.25
386.913	352.25
387.138	368.25
387.363	348.25
387.588	365.25
387.813	375.25
388.038	364.25
388.263	355.25
388.488	351.25
388.713	357.25
388.938	391.25
389.163	389.25
389.387	365.25
389.612	361.25
389.837	343.25
390.062	371.25
390.287	365.25
390.512	370.25
390.736	371.25
390.961	346.25
391.186	361.25
391.411	364.25
391.636	361.25
391.86	383.25
392.085	381.25
392.31	363.25
392.534	368.25
392.759	377.25
392.984	373.25
393.208	381.25
393.433	382.25
393.658	379.25
393.882	365.25
394.107	376.25
394.331	397.25
394.556	376.25
394.78	360.25
395.005	342.25
395.229	376.25
395.454	373.25
395.678	381.25
395.903	393.25
396.127	407.25
396.352	404.25
396.576	365.25
396.801	383.25
397.025	381.25
397.249	384.25
397.474	372.25
397.698	386.25
397.922	393.25
398.147	409.25
398.371	411.25
398.595	391.25
398.82	421.25
399.044	439.25
399.268	426.25
399.492	428.25
399.717	457.25
399.941	464.25
400.165	495.25
400.389	527.25
400.613	483.25
400.837	428.25
401.062	410.25
401.286	402.25
401.51	428.25
401.734	410.25
401.958	402.25
402.182	436.25
402.406	430.25
402.63	436.25
402.854	426.25
403.078	427.25
403.302	425.25
403.526	425.25
403.75	430.25
403.974	445.25
404.198	427.25
404.422	422.25
404.645	433.25
404.869	459.25
405.093	494.25
405.317	524.25
405.541	537.25
405.765	499.25
405.988	457.25
406.212	480.25
406.436	494.25
406.66	495.25
406.883	515.25
407.107	498.25
407.331	545.25
407.555	585.25
407.778	596.25
408.002	532.25
408.226	479.25
408.449	476.25
408.673	473.25
408.896	508.25
409.12	531.25
409.344	518.25
409.567	451.25
409.791	441.25
410.014	432.25
410.238	453.25
410.461	431.25
410.685	446.25
410.908	460.25
411.132	485.25
411.355	540.25
411.578	494.25
411.802	471.25
412.025	437.25
412.249	461.25
412.472	484.25
412.695	531.25
412.919	501.25
413.142	450.25
413.365	441.25
413.589	435.25
413.812	422.25
414.035	416.25
414.258	412.25
414.482	406.25
414.705	414.25
414.928	421.25
415.151	403.25
415.374	413.25
415.597	380.25
415.821	419.25
416.044	438.25
416.267	427.25
416.49	423.25
416.713	400.25
416.936	411.25
417.159	412.25
417.382	413.25
417.605	423.25
417.828	431.25
418.051	440.25
418.274	445.25
418.497	421.25
418.72	399.25
418.943	397.25
419.166	429.25
419.389	435.25
419.611	428.25
419.834	430.25
420.057	436.25
420.28	433.25
420.503	437.25
420.726	424.25
420.948	441.25
421.171	496.25
421.394	519.25
421.617	455.25
421.839	445.25
422.062	443.25
422.285	437.25
422.507	507.25
422.73	579.25
422.953	551.25
423.175	470.25
423.398	477.25
423.621	448.25
423.843	463.25
424.066	459.25
424.288	453.25
424.511	495.25
424.733	545.25
424.956	632.25
425.178	592.25
425.401	600.25
425.623	623.25
425.846	539.25
426.068	466.25
426.291	484.25
426.513	487.25
426.735	504.25
426.958	547.25
427.18	602.25
427.402	746.25
427.625	817.25
427.847	733.25
428.069	639.25
428.292	550.25
428.514	495.25
428.736	483.25
428.958	480.25
429.181	454.25
429.403	448.25
429.625	449.25
429.847	484.25
430.069	547.25
430.292	567.25
430.514	468.25
430.736	442.25
430.958	448.25
431.18	420.25
431.402	436.25
431.624	420.25
431.846	425.25
432.068	424.25
432.29	397.25
432.512	399.25
432.734	400.25
432.956	433.25
433.178	453.25
433.4	427.25
433.622	410.25
433.844	418.25
434.066	409.25
434.287	400.25
434.509	389.25
434.731	424.25
434.953	413.25
435.175	457.25
435.397	460.25
435.618	494.25
435.84	522.25
436.062	631.25
436.284	665.25
436.505	560.25
436.727	527.25
436.949	473.25
437.17	441.25
437.392	443.25
437.614	472.25
437.835	501.25
438.057	591.25
438.278	704.25
438.5	689.25
438.721	756.25
438.943	719.25
439.165	569.25
439.386	529.25
439.608	521.25
439.829	503.25
440.05	537.25
440.272	593.25
440.493	549.25
440.715	503.25
440.936	477.25
441.158	462.25
441.379	465.25
441.6	459.25
441.822	478.25
442.043	531.25
442.264	599.25
442.486	643.25
442.707	565.25
442.928	513.25
443.149	516.25
443.371	539.25
443.592	583.25
443.813	667.25
444.034	709.25
444.255	567.25
444.476	509.25
444.698	478.25
444.919	503.25
445.14	616.25
445.361	536.25
445.582	527.25
445.803	594.25
446.024	727.25
446.245	725.25
446.466	651.25
446.687	537.25
446.908	522.25
447.129	468.25
447.35	461.25
447.571	481.25
447.792	444.25
448.013	471.25
448.234	486.25
448.455	530.25
448.675	645.25
448.896	743.25
449.117	635.25
449.338	602.25
449.559	695.25
449.779	782.25
450	621.25
450.221	518.25
450.442	469.25
450.662	465.25
450.883	470.25
451.104	476.25
451.324	472.25
451.545	444.25
451.766	422.25
451.986	427.25
452.207	397.25
452.428	384.25
452.648	403.25
452.869	389.25
453.089	414.25
453.31	421.25
453.53	419.25
453.751	429.25
453.971	407.25
454.192	429.25
454.412	431.25
454.633	413.25
454.853	379.25
455.073	400.25
455.294	438.25
455.514	501.25
455.734	480.25
455.955	411.25
456.175	399.25
456.395	390.25
456.616	358.25
456.836	362.25
457.056	372.25
457.276	371.25
457.497	379.25
457.717	373.25
457.937	382.25
458.157	406.25
458.377	384.25
458.598	405.25
458.818	495.25
459.038	586.25
459.258	575.25
459.478	474.25
459.698	426.25
459.918	417.25
460.138	393.25
460.358	411.25
460.578	412.25
460.798	418.25
461.018	426.25
461.238	412.25
461.458	393.25
461.678	383.25
461.898	399.25
462.118	384.25
462.338	420.25
462.558	419.25
462.777	405.25
462.997	437.25
463.217	439.25
463.437	441.25
463.657	424.25
463.876	434.25
464.096	432.25
464.316	406.25
464.536	443.25
464.755	438.25
464.975	465.25
465.195	497.25
465.414	580.25
465.634	521.25
465.854	473.25
466.073	452.25
466.293	442.25
466.512	412.25
466.732	419.25
466.951	400.25
467.171	384.25
467.391	399.25
467.61	413.25
467.829	411.25
468.049	432.25
468.268	423.25
468.488	427.25
468.707	411.25
468.927	376.25
469.146	385.25
469.365	395.25
469.585	397.25
469.804	409.25
470.023	406.25
470.243	423.25
470.462	420.25
470.681	444.25
470.901	416.25
471.12	419.25
471.339	416.25
471.558	429.25
471.777	424.25
471.997	407.25
472.216	443.25
472.435	441.25
472.654	448.25
472.873	417.25
473.092	422.25
473.311	399.25
473.53	424.25
473.749	446.25
473.968	452.25
474.187	569.25
474.406	592.25
474.625	497.25
474.844	453.25
475.063	407.25
475.282	416.25
475.501	435.25
475.72	421.25
475.939	415.25
476.158	423.25
476.377	418.25
476.596	413.25
476.814	453.25
477.033	432.25
477.252	441.25
477.471	437.25
477.69	441.25
477.908	438.25
478.127	442.25
478.346	452.25
478.564	458.25
478.783	445.25
479.002	459.25
479.22	451.25
479.439	476.25
479.658	505.25
479.876	490.25
480.095	476.25
480.313	543.25
480.532	492.25
480.751	504.25
480.969	514.25
481.188	544.25
481.406	615.25
481.624	556.25
481.843	503.25
482.061	520.25
482.28	498.25
482.498	493.25
482.717	480.25
482.935	491.25
483.153	491.25
483.372	487.25
483.59	478.25
483.808	453.25
484.027	459.25
484.245	480.25
484.463	481.25
484.681	486.25
484.9	502.25
485.118	501.25
485.336	489.25
485.554	504.25
485.772	489.25
485.99	515.25
486.209	504.25
486.427	496.25
486.645	512.25
486.863	548.25
487.081	533.25
487.299	538.25
487.517	529.25
487.735	499.25
487.953	525.25
488.171	507.25
488.389	535.25
488.607	520.25
488.825	499.25
489.043	527.25
489.261	527.25
489.479	527.25
489.696	525.25
489.914	541.25
490.132	527.25
490.35	583.25
490.568	549.25
490.786	559.25
491.003	577.25
491.221	584.25
491.439	567.25
491.657	578.25
491.874	593.25
492.092	613.25
492.31	592.25
492.527	597.25
492.745	604.25
492.963	619.25
493.18	616.25
493.398	630.25
493.615	631.25
493.833	620.25
494.05	621.25
494.268	612.25
494.485	602.25
494.703	592.25
494.92	612.25
495.138	627.25
495.355	634.25
495.573	619.25
495.79	610.25
496.008	644.25
496.225	618.25
496.442	628.25
496.66	624.25
496.877	629.25
497.094	635.25
497.312	638.25
497.529	633.25
497.746	637.25
497.963	650.25
498.181	671.25
498.398	681.25
498.615	675.25
498.832	668.25
499.049	658.25
499.267	683.25
499.484	691.25
499.701	715.25
499.918	747.25
500.135	724.25
500.352	739.25
500.569	786.25
500.786	784.25
501.003	785.25
501.22	740.25
501.437	739.25
501.654	752.25
501.871	742.25
