Data from 1972.PennyLincolnUp.Lamp.En5.5.200Scan.071719.P1._HRD10591_15-29-52-844.txt Node
Date: Thu Jul 18 15:29:52 EDT 2019
User: cochatt
Spectrometer: HR+D1059
Trigger mode: 1
Integration Time (sec): 1.000000E-1
Scans to average: 1
Electric dark correction enabled: true
Nonlinearity correction enabled: false
Boxcar width: 0
XAxis mode: Wavelengths
Number of Pixels in Spectrum: 2048
>>>>>Begin Spectral Data<<<<<
223.165	-14.5
223.4	-14.5
223.635	-14.5
223.869	-20.5
224.104	-16.5
224.338	0.5
224.573	-10.5
224.808	-21.5
225.042	-2.5
225.277	-12.5
225.511	-5.5
225.746	0.5
225.98	-0.5
226.215	11.5
226.449	14.5
226.683	16.5
226.918	31.5
227.152	29.5
227.387	43.5
227.621	36.5
227.856	27.5
228.09	57.5
228.324	55.5
228.559	53.5
228.793	74.5
229.027	91.5
229.262	119.5
229.496	125.5
229.73	138.5
229.964	169.5
230.199	147.5
230.433	122.5
230.667	120.5
230.901	117.5
231.136	120.5
231.37	115.5
231.604	114.5
231.838	116.5
232.072	119.5
232.306	102.5
232.541	122.5
232.775	126.5
233.009	102.5
233.243	119.5
233.477	117.5
233.711	120.5
233.945	114.5
234.179	117.5
234.413	119.5
234.647	118.5
234.881	109.5
235.115	108.5
235.349	130.5
235.583	133.5
235.817	127.5
236.051	127.5
236.285	133.5
236.519	133.5
236.753	123.5
236.987	144.5
237.221	176.5
237.455	280.5
237.689	218.5
237.922	144.5
238.156	126.5
238.39	133.5
238.624	117.5
238.858	130.5
239.091	133.5
239.325	129.5
239.559	135.5
239.793	128.5
240.027	135.5
240.26	156.5
240.494	177.5
240.728	162.5
240.961	160.5
241.195	154.5
241.429	147.5
241.662	143.5
241.896	134.5
242.13	138.5
242.363	127.5
242.597	139.5
242.83	133.5
243.064	153.5
243.298	144.5
243.531	146.5
243.765	125.5
243.998	143.5
244.232	155.5
244.465	142.5
244.699	129.5
244.932	136.5
245.166	144.5
245.399	141.5
245.633	146.5
245.866	142.5
246.099	151.5
246.333	147.5
246.566	156.5
246.8	147.5
247.033	153.5
247.266	140.5
247.5	171.5
247.733	168.5
247.966	184.5
248.2	161.5
248.433	188.5
248.666	181.5
248.899	194.5
249.133	217.5
249.366	223.5
249.599	215.5
249.832	193.5
250.066	198.5
250.299	198.5
250.532	207.5
250.765	224.5
250.998	242.5
251.231	250.5
251.465	243.5
251.698	221.5
251.931	207.5
252.164	196.5
252.397	195.5
252.63	207.5
252.863	210.5
253.096	233.5
253.329	241.5
253.562	231.5
253.795	237.5
254.028	224.5
254.261	239.5
254.494	246.5
254.727	274.5
254.96	323.5
255.193	285.5
255.426	275.5
255.659	247.5
255.892	271.5
256.124	259.5
256.357	281.5
256.59	240.5
256.823	230.5
257.056	230.5
257.289	223.5
257.521	233.5
257.754	201.5
257.987	234.5
258.22	221.5
258.452	221.5
258.685	214.5
258.918	209.5
259.151	206.5
259.383	228.5
259.616	228.5
259.849	222.5
260.081	263.5
260.314	278.5
260.547	283.5
260.779	266.5
261.012	258.5
261.244	231.5
261.477	250.5
261.71	258.5
261.942	234.5
262.175	260.5
262.407	239.5
262.64	213.5
262.872	223.5
263.105	209.5
263.337	226.5
263.57	243.5
263.802	207.5
264.035	206.5
264.267	208.5
264.499	217.5
264.732	208.5
264.964	222.5
265.197	209.5
265.429	219.5
265.661	215.5
265.894	226.5
266.126	225.5
266.358	214.5
266.591	227.5
266.823	222.5
267.055	234.5
267.287	241.5
267.52	250.5
267.752	219.5
267.984	249.5
268.216	239.5
268.448	232.5
268.681	246.5
268.913	257.5
269.145	267.5
269.377	295.5
269.609	271.5
269.841	280.5
270.073	312.5
270.306	301.5
270.538	344.5
270.77	343.5
271.002	335.5
271.234	315.5
271.466	321.5
271.698	333.5
271.93	357.5
272.162	342.5
272.394	349.5
272.626	328.5
272.858	325.5
273.09	306.5
273.322	279.5
273.553	281.5
273.785	257.5
274.017	281.5
274.249	290.5
274.481	269.5
274.713	267.5
274.945	296.5
275.176	268.5
275.408	278.5
275.64	274.5
275.872	271.5
276.104	301.5
276.335	261.5
276.567	280.5
276.799	299.5
277.031	335.5
277.262	344.5
277.494	321.5
277.726	317.5
277.957	302.5
278.189	297.5
278.421	295.5
278.652	282.5
278.884	285.5
279.115	293.5
279.347	267.5
279.579	259.5
279.81	274.5
280.042	275.5
280.273	273.5
280.505	287.5
280.736	278.5
280.968	273.5
281.199	273.5
281.431	275.5
281.662	257.5
281.894	274.5
282.125	281.5
282.356	302.5
282.588	328.5
282.819	317.5
283.051	273.5
283.282	271.5
283.513	285.5
283.745	294.5
283.976	302.5
284.207	286.5
284.439	276.5
284.67	282.5
284.901	282.5
285.132	272.5
285.364	287.5
285.595	294.5
285.826	287.5
286.057	281.5
286.288	271.5
286.52	288.5
286.751	297.5
286.982	283.5
287.213	293.5
287.444	296.5
287.675	298.5
287.906	293.5
288.138	290.5
288.369	297.5
288.6	306.5
288.831	305.5
289.062	295.5
289.293	292.5
289.524	290.5
289.755	307.5
289.986	300.5
290.217	299.5
290.448	285.5
290.679	291.5
290.91	293.5
291.141	298.5
291.371	278.5
291.602	273.5
291.833	286.5
292.064	279.5
292.295	286.5
292.526	294.5
292.757	275.5
292.987	287.5
293.218	283.5
293.449	284.5
293.68	289.5
293.91	298.5
294.141	288.5
294.372	305.5
294.603	297.5
294.833	301.5
295.064	281.5
295.295	285.5
295.525	287.5
295.756	301.5
295.987	307.5
296.217	330.5
296.448	353.5
296.679	321.5
296.909	301.5
297.14	284.5
297.37	314.5
297.601	299.5
297.831	285.5
298.062	297.5
298.292	290.5
298.523	305.5
298.753	309.5
298.984	305.5
299.214	308.5
299.445	299.5
299.675	296.5
299.905	313.5
300.136	309.5
300.366	314.5
300.597	291.5
300.827	307.5
301.057	306.5
301.288	328.5
301.518	341.5
301.748	301.5
301.979	298.5
302.209	330.5
302.439	336.5
302.669	329.5
302.9	339.5
303.13	309.5
303.36	337.5
303.59	347.5
303.82	328.5
304.051	336.5
304.281	325.5
304.511	346.5
304.741	321.5
304.971	313.5
305.201	326.5
305.431	329.5
305.661	323.5
305.891	324.5
306.121	323.5
306.352	341.5
306.582	329.5
306.812	353.5
307.042	336.5
307.272	336.5
307.502	331.5
307.731	330.5
307.961	342.5
308.191	337.5
308.421	339.5
308.651	329.5
308.881	333.5
309.111	337.5
309.341	367.5
309.571	337.5
309.8	355.5
310.03	377.5
310.26	397.5
310.49	390.5
310.72	396.5
310.949	429.5
311.179	437.5
311.409	381.5
311.639	388.5
311.868	392.5
312.098	398.5
312.328	393.5
312.557	425.5
312.787	454.5
313.017	443.5
313.246	391.5
313.476	390.5
313.706	382.5
313.935	399.5
314.165	414.5
314.394	440.5
314.624	414.5
314.853	406.5
315.083	392.5
315.312	402.5
315.542	397.5
315.771	381.5
316.001	391.5
316.23	373.5
316.46	374.5
316.689	382.5
316.919	392.5
317.148	406.5
317.377	402.5
317.607	385.5
317.836	399.5
318.065	384.5
318.295	382.5
318.524	376.5
318.753	388.5
318.983	377.5
319.212	386.5
319.441	384.5
319.67	421.5
319.9	381.5
320.129	408.5
320.358	391.5
320.587	389.5
320.816	411.5
321.046	423.5
321.275	432.5
321.504	416.5
321.733	424.5
321.962	437.5
322.191	453.5
322.42	450.5
322.649	488.5
322.878	489.5
323.108	499.5
323.337	529.5
323.566	567.5
323.795	589.5
324.024	695.5
324.253	860.5
324.482	1279.5
324.71	1999.5
324.939	2981.5
325.168	2613.5
325.397	1301.5
325.626	826.5
325.855	665.5
326.084	589.5
326.313	578.5
326.542	588.5
326.77	650.5
326.999	794.5
327.228	1133.5
327.457	1789.5
327.686	2232.5
327.914	1467.5
328.143	901.5
328.372	763.5
328.6	723.5
328.829	661.5
329.058	681.5
329.287	683.5
329.515	636.5
329.744	578.5
329.972	579.5
330.201	598.5
330.43	658.5
330.658	714.5
330.887	720.5
331.115	707.5
331.344	611.5
331.572	545.5
331.801	564.5
332.03	545.5
332.258	495.5
332.486	462.5
332.715	465.5
332.943	482.5
333.172	479.5
333.4	450.5
333.629	490.5
333.857	498.5
334.085	499.5
334.314	538.5
334.542	586.5
334.771	618.5
334.999	553.5
335.227	495.5
335.455	462.5
335.684	472.5
335.912	467.5
336.14	439.5
336.369	463.5
336.597	485.5
336.825	457.5
337.053	441.5
337.281	442.5
337.51	442.5
337.738	460.5
337.966	449.5
338.194	458.5
338.422	449.5
338.65	439.5
338.878	439.5
339.106	425.5
339.334	442.5
339.562	421.5
339.79	427.5
340.018	457.5
340.246	425.5
340.474	413.5
340.702	445.5
340.93	418.5
341.158	429.5
341.386	419.5
341.614	429.5
341.842	432.5
342.07	418.5
342.298	419.5
342.526	430.5
342.754	424.5
342.981	415.5
343.209	406.5
343.437	409.5
343.665	411.5
343.893	411.5
344.12	422.5
344.348	414.5
344.576	433.5
344.804	453.5
345.031	442.5
345.259	456.5
345.487	444.5
345.714	440.5
345.942	426.5
346.17	440.5
346.397	413.5
346.625	430.5
346.853	420.5
347.08	412.5
347.308	434.5
347.535	438.5
347.763	441.5
347.99	427.5
348.218	426.5
348.445	438.5
348.673	451.5
348.9	433.5
349.128	429.5
349.355	411.5
349.583	412.5
349.81	421.5
350.037	410.5
350.265	431.5
350.492	402.5
350.72	409.5
350.947	420.5
351.174	420.5
351.402	433.5
351.629	418.5
351.856	440.5
352.083	436.5
352.311	461.5
352.538	455.5
352.765	437.5
352.992	439.5
353.22	430.5
353.447	429.5
353.674	419.5
353.901	393.5
354.128	381.5
354.355	385.5
354.583	372.5
354.81	393.5
355.037	404.5
355.264	387.5
355.491	371.5
355.718	368.5
355.945	369.5
356.172	381.5
356.399	377.5
356.626	377.5
356.853	382.5
357.08	367.5
357.307	379.5
357.534	371.5
357.761	361.5
357.988	383.5
358.215	375.5
358.441	377.5
358.668	386.5
358.895	387.5
359.122	394.5
359.349	403.5
359.576	419.5
359.802	437.5
360.029	496.5
360.256	505.5
360.483	472.5
360.709	439.5
360.936	428.5
361.163	394.5
361.39	412.5
361.616	417.5
361.843	443.5
362.07	413.5
362.296	426.5
362.523	402.5
362.749	401.5
362.976	413.5
363.203	415.5
363.429	392.5
363.656	403.5
363.882	405.5
364.109	409.5
364.335	382.5
364.562	384.5
364.788	383.5
365.015	397.5
365.241	385.5
365.468	381.5
365.694	413.5
365.92	406.5
366.147	394.5
366.373	384.5
366.599	402.5
366.826	380.5
367.052	365.5
367.278	377.5
367.505	392.5
367.731	388.5
367.957	385.5
368.184	389.5
368.41	378.5
368.636	396.5
368.862	393.5
369.089	402.5
369.315	392.5
369.541	381.5
369.767	379.5
369.993	368.5
370.219	392.5
370.445	359.5
370.672	381.5
370.898	374.5
371.124	369.5
371.35	354.5
371.576	361.5
371.802	395.5
372.028	375.5
372.254	383.5
372.48	369.5
372.706	375.5
372.932	381.5
373.158	367.5
373.384	368.5
373.61	374.5
373.835	371.5
374.061	369.5
374.287	381.5
374.513	373.5
374.739	381.5
374.965	389.5
375.191	363.5
375.416	379.5
375.642	377.5
375.868	378.5
376.094	385.5
376.319	352.5
376.545	359.5
376.771	378.5
376.997	352.5
377.222	379.5
377.448	378.5
377.674	379.5
377.899	383.5
378.125	373.5
378.35	369.5
378.576	369.5
378.802	366.5
379.027	357.5
379.253	371.5
379.478	362.5
379.704	370.5
379.929	367.5
380.155	376.5
380.38	359.5
380.606	390.5
380.831	381.5
381.057	377.5
381.282	370.5
381.507	390.5
381.733	377.5
381.958	386.5
382.184	381.5
382.409	388.5
382.634	371.5
382.86	362.5
383.085	368.5
383.31	401.5
383.535	386.5
383.761	372.5
383.986	384.5
384.211	378.5
384.436	375.5
384.662	377.5
384.887	400.5
385.112	380.5
385.337	390.5
385.562	387.5
385.787	393.5
386.013	404.5
386.238	398.5
386.463	400.5
386.688	401.5
386.913	387.5
387.138	380.5
387.363	419.5
387.588	401.5
387.813	391.5
388.038	376.5
388.263	401.5
388.488	408.5
388.713	381.5
388.938	418.5
389.163	399.5
389.387	400.5
389.612	402.5
389.837	414.5
390.062	401.5
390.287	385.5
390.512	389.5
390.736	392.5
390.961	397.5
391.186	386.5
391.411	399.5
391.636	391.5
391.86	387.5
392.085	392.5
392.31	395.5
392.534	401.5
392.759	403.5
392.984	389.5
393.208	396.5
393.433	389.5
393.658	396.5
393.882	406.5
394.107	402.5
394.331	399.5
394.556	386.5
394.78	395.5
395.005	423.5
395.229	389.5
395.454	426.5
395.678	404.5
395.903	429.5
396.127	460.5
396.352	424.5
396.576	438.5
396.801	429.5
397.025	411.5
397.249	417.5
397.474	417.5
397.698	432.5
397.922	441.5
398.147	449.5
398.371	457.5
398.595	448.5
398.82	456.5
399.044	419.5
399.268	449.5
399.492	453.5
399.717	506.5
399.941	518.5
400.165	553.5
400.389	567.5
400.613	517.5
400.837	490.5
401.062	455.5
401.286	476.5
401.51	422.5
401.734	437.5
401.958	451.5
402.182	480.5
402.406	472.5
402.63	471.5
402.854	467.5
403.078	440.5
403.302	478.5
403.526	468.5
403.75	452.5
403.974	474.5
404.198	457.5
404.422	485.5
404.645	490.5
404.869	484.5
405.093	529.5
405.317	574.5
405.541	605.5
405.765	565.5
405.988	504.5
406.212	509.5
406.436	520.5
406.66	577.5
406.883	533.5
407.107	519.5
407.331	579.5
407.555	653.5
407.778	665.5
408.002	575.5
408.226	535.5
408.449	543.5
408.673	523.5
408.896	541.5
409.12	601.5
409.344	570.5
409.567	518.5
409.791	482.5
410.014	483.5
410.238	478.5
410.461	488.5
410.685	472.5
410.908	486.5
411.132	539.5
411.355	584.5
411.578	535.5
411.802	495.5
412.025	455.5
412.249	473.5
412.472	521.5
412.695	535.5
412.919	543.5
413.142	495.5
413.365	470.5
413.589	466.5
413.812	455.5
414.035	450.5
414.258	448.5
414.482	424.5
414.705	420.5
414.928	425.5
415.151	433.5
415.374	434.5
415.597	433.5
415.821	436.5
416.044	445.5
416.267	444.5
416.49	454.5
416.713	444.5
416.936	440.5
417.159	442.5
417.382	455.5
417.605	466.5
417.828	477.5
418.051	469.5
418.274	479.5
418.497	465.5
418.72	450.5
418.943	429.5
419.166	472.5
419.389	473.5
419.611	469.5
419.834	463.5
420.057	471.5
420.28	522.5
420.503	480.5
420.726	469.5
420.948	463.5
421.171	545.5
421.394	581.5
421.617	515.5
421.839	481.5
422.062	477.5
422.285	510.5
422.507	575.5
422.73	629.5
422.953	610.5
423.175	533.5
423.398	487.5
423.621	500.5
423.843	532.5
424.066	532.5
424.288	518.5
424.511	520.5
424.733	602.5
424.956	690.5
425.178	662.5
425.401	645.5
425.623	722.5
425.846	586.5
426.068	543.5
426.291	523.5
426.513	517.5
426.735	544.5
426.958	606.5
427.18	697.5
427.402	815.5
427.625	902.5
427.847	848.5
428.069	706.5
428.292	616.5
428.514	565.5
428.736	525.5
428.958	507.5
429.181	485.5
429.403	500.5
429.625	512.5
429.847	553.5
430.069	615.5
430.292	599.5
430.514	511.5
430.736	502.5
430.958	470.5
431.18	474.5
431.402	457.5
431.624	441.5
431.846	437.5
432.068	439.5
432.29	447.5
432.512	446.5
432.734	471.5
432.956	442.5
433.178	465.5
433.4	480.5
433.622	460.5
433.844	455.5
434.066	437.5
434.287	455.5
434.509	457.5
434.731	466.5
434.953	471.5
435.175	480.5
435.397	539.5
435.618	531.5
435.84	571.5
436.062	709.5
436.284	767.5
436.505	618.5
436.727	577.5
436.949	511.5
437.17	486.5
437.392	516.5
437.614	521.5
437.835	569.5
438.057	680.5
438.278	783.5
438.5	763.5
438.721	833.5
438.943	795.5
439.165	641.5
439.386	552.5
439.608	571.5
439.829	565.5
440.05	614.5
440.272	655.5
440.493	595.5
440.715	561.5
440.936	519.5
441.158	511.5
441.379	499.5
441.6	511.5
441.822	553.5
442.043	574.5
442.264	687.5
442.486	714.5
442.707	611.5
442.928	567.5
443.149	564.5
443.371	604.5
443.592	658.5
443.813	731.5
444.034	799.5
444.255	643.5
444.476	560.5
444.698	558.5
444.919	527.5
445.14	610.5
445.361	600.5
445.582	585.5
445.803	697.5
446.024	813.5
446.245	809.5
446.466	763.5
446.687	642.5
446.908	537.5
447.129	527.5
447.35	482.5
447.571	522.5
447.792	498.5
448.013	507.5
448.234	543.5
448.455	614.5
448.675	738.5
448.896	825.5
449.117	711.5
449.338	658.5
449.559	764.5
449.779	881.5
450	710.5
450.221	578.5
450.442	520.5
450.662	489.5
450.883	518.5
451.104	536.5
451.324	516.5
451.545	491.5
451.766	473.5
451.986	458.5
452.207	437.5
452.428	450.5
452.648	451.5
452.869	446.5
453.089	459.5
453.31	470.5
453.53	436.5
453.751	456.5
453.971	452.5
454.192	459.5
454.412	449.5
454.633	458.5
454.853	443.5
455.073	442.5
455.294	498.5
455.514	553.5
455.734	548.5
455.955	465.5
456.175	425.5
456.395	414.5
456.616	401.5
456.836	403.5
457.056	390.5
457.276	401.5
457.497	395.5
457.717	421.5
457.937	429.5
458.157	420.5
458.377	431.5
458.598	475.5
458.818	529.5
459.038	640.5
459.258	658.5
459.478	530.5
459.698	456.5
459.918	445.5
460.138	451.5
460.358	436.5
460.578	455.5
460.798	447.5
461.018	473.5
461.238	445.5
461.458	459.5
461.678	437.5
461.898	433.5
462.118	427.5
462.338	457.5
462.558	435.5
462.777	445.5
462.997	453.5
463.217	440.5
463.437	469.5
463.657	465.5
463.876	457.5
464.096	455.5
464.316	456.5
464.536	468.5
464.755	475.5
464.975	476.5
465.195	563.5
465.414	659.5
465.634	550.5
465.854	499.5
466.073	491.5
466.293	463.5
466.512	457.5
466.732	437.5
466.951	435.5
467.171	423.5
467.391	437.5
467.61	458.5
467.829	456.5
468.049	466.5
468.268	467.5
468.488	418.5
468.707	414.5
468.927	443.5
469.146	423.5
469.365	435.5
469.585	425.5
469.804	440.5
470.023	472.5
470.243	455.5
470.462	471.5
470.681	486.5
470.901	481.5
471.12	451.5
471.339	442.5
471.558	475.5
471.777	453.5
471.997	455.5
472.216	463.5
472.435	497.5
472.654	496.5
472.873	456.5
473.092	459.5
473.311	460.5
473.53	453.5
473.749	452.5
473.968	509.5
474.187	632.5
474.406	661.5
474.625	547.5
474.844	480.5
475.063	460.5
475.282	438.5
475.501	447.5
475.72	474.5
475.939	453.5
476.158	458.5
476.377	457.5
476.596	459.5
476.814	478.5
477.033	488.5
477.252	503.5
477.471	467.5
477.69	481.5
477.908	470.5
478.127	500.5
478.346	475.5
478.564	486.5
478.783	482.5
479.002	494.5
479.22	507.5
479.439	520.5
479.658	530.5
479.876	545.5
480.095	549.5
480.313	570.5
480.532	577.5
480.751	561.5
480.969	558.5
481.188	662.5
481.406	722.5
481.624	611.5
481.843	570.5
482.061	561.5
482.28	556.5
482.498	540.5
482.717	517.5
482.935	527.5
483.153	541.5
483.372	519.5
483.59	524.5
483.808	513.5
484.027	511.5
484.245	539.5
484.463	530.5
484.681	529.5
484.9	549.5
485.118	563.5
485.336	535.5
485.554	550.5
485.772	557.5
485.99	547.5
486.209	535.5
486.427	555.5
486.645	561.5
486.863	586.5
487.081	578.5
487.299	573.5
487.517	587.5
487.735	563.5
487.953	537.5
488.171	573.5
488.389	581.5
488.607	558.5
488.825	569.5
489.043	570.5
489.261	567.5
489.479	571.5
489.696	572.5
489.914	571.5
490.132	584.5
490.35	603.5
490.568	620.5
490.786	626.5
491.003	621.5
491.221	634.5
491.439	641.5
491.657	657.5
491.874	681.5
492.092	642.5
492.31	685.5
492.527	643.5
492.745	660.5
492.963	683.5
493.18	665.5
493.398	667.5
493.615	690.5
493.833	699.5
494.05	694.5
494.268	696.5
494.485	659.5
494.703	677.5
494.92	678.5
495.138	711.5
495.355	674.5
495.573	674.5
495.79	677.5
496.008	672.5
496.225	680.5
496.442	680.5
496.66	675.5
496.877	662.5
497.094	672.5
497.312	675.5
497.529	701.5
497.746	717.5
497.963	690.5
498.181	737.5
498.398	726.5
498.615	737.5
498.832	761.5
499.049	731.5
499.267	773.5
499.484	750.5
499.701	770.5
499.918	792.5
500.135	833.5
500.352	817.5
500.569	821.5
500.786	853.5
501.003	833.5
501.22	845.5
501.437	859.5
501.654	822.5
501.871	806.5
502.088	813.5
502.305	769.5
502.522	765.5
502.739	747.5
502.956	717.5
503.172	712.5
503.389	724.5
503.606	705.5
503.823	699.5
504.04	706.5
504.256	710.5
504.473	696.5
504.69	681.5
504.907	654.5
505.123	648.5
505.34	659.5
505.557	671.5
505.773	676.5
505.99	673.5
506.207	659.5
506.423	648.5
506.64	641.5
506.856	669.5
507.073	656.5
507.289	669.5
507.506	657.5
507.722	642.5
507.939	680.5
508.155	698.5
508.372	665.5
508.588	644.5
508.805	607.5
509.021	657.5
509.238	662.5
509.454	651.5
509.67	663.5
509.887	641.5
510.103	656.5
510.319	672.5
510.536	801.5
510.752	1391.5
510.968	1135.5
511.184	713.5
511.401	631.5
511.617	633.5
511.833	603.5
512.049	623.5
512.265	611.5
512.481	609.5
512.698	609.5
512.914	623.5
513.13	623.5
513.346	601.5
513.562	616.5
513.778	616.5
513.994	619.5
514.21	660.5
514.426	673.5
514.642	714.5
514.858	754.5
515.074	826.5
515.29	1016.5
515.506	1583.5
515.721	1246.5
515.937	817.5
516.153	731.5
516.369	674.5
516.585	640.5
516.801	634.5
517.016	598.5
517.232	637.5
517.448	610.5
517.664	618.5
517.879	623.5
518.095	610.5
518.311	617.5
518.527	628.5
518.742	602.5
518.958	589.5
519.173	615.5
519.389	603.5
519.605	632.5
519.82	626.5
