Data from 1972.PennyLincolnUp.Lamp.En5.5.200Scan.071719.P1._HRD10591_15-29-50-845.txt Node
Date: Thu Jul 18 15:29:50 EDT 2019
User: cochatt
Spectrometer: HR+D1059
Trigger mode: 1
Integration Time (sec): 1.000000E-1
Scans to average: 1
Electric dark correction enabled: true
Nonlinearity correction enabled: false
Boxcar width: 0
XAxis mode: Wavelengths
Number of Pixels in Spectrum: 2048
>>>>>Begin Spectral Data<<<<<
223.165	-19.19
223.4	-19.19
223.635	-19.19
223.869	-25.19
224.104	-25.19
224.338	-3.19
224.573	-15.19
224.808	-1.19
225.042	3.81
225.277	-18.19
225.511	-5.19
225.746	8.81
225.98	5.81
226.215	12.81
226.449	11.81
226.683	5.81
226.918	30.81
227.152	32.81
227.387	31.81
227.621	38.81
227.856	44.81
228.09	42.81
228.324	56.81
228.559	48.81
228.793	49.81
229.027	96.81
229.262	116.81
229.496	124.81
229.73	137.81
229.964	181.81
230.199	138.81
230.433	109.81
230.667	127.81
230.901	120.81
231.136	108.81
231.37	100.81
231.604	115.81
231.838	125.81
232.072	109.81
232.306	113.81
232.541	116.81
232.775	125.81
233.009	132.81
233.243	98.81
233.477	116.81
233.711	114.81
233.945	117.81
234.179	126.81
234.413	121.81
234.647	117.81
234.881	118.81
235.115	126.81
235.349	121.81
235.583	133.81
235.817	110.81
236.051	126.81
236.285	123.81
236.519	132.81
236.753	143.81
236.987	166.81
237.221	198.81
237.455	285.81
237.689	222.81
237.922	149.81
238.156	148.81
238.39	143.81
238.624	123.81
238.858	127.81
239.091	131.81
239.325	133.81
239.559	124.81
239.793	140.81
240.027	150.81
240.26	155.81
240.494	167.81
240.728	166.81
240.961	169.81
241.195	156.81
241.429	128.81
241.662	135.81
241.896	133.81
242.13	140.81
242.363	129.81
242.597	141.81
242.83	143.81
243.064	139.81
243.298	123.81
243.531	141.81
243.765	153.81
243.998	148.81
244.232	147.81
244.465	155.81
244.699	162.81
244.932	151.81
245.166	165.81
245.399	163.81
245.633	155.81
245.866	149.81
246.099	152.81
246.333	165.81
246.566	164.81
246.8	151.81
247.033	161.81
247.266	168.81
247.5	160.81
247.733	173.81
247.966	182.81
248.2	170.81
248.433	181.81
248.666	168.81
248.899	192.81
249.133	199.81
249.366	221.81
249.599	216.81
249.832	188.81
250.066	185.81
250.299	212.81
250.532	206.81
250.765	208.81
250.998	246.81
251.231	266.81
251.465	238.81
251.698	226.81
251.931	203.81
252.164	215.81
252.397	199.81
252.63	227.81
252.863	203.81
253.096	230.81
253.329	244.81
253.562	244.81
253.795	208.81
254.028	234.81
254.261	245.81
254.494	258.81
254.727	269.81
254.96	300.81
255.193	308.81
255.426	263.81
255.659	265.81
255.892	269.81
256.124	265.81
256.357	259.81
256.59	264.81
256.823	238.81
257.056	206.81
257.289	242.81
257.521	230.81
257.754	226.81
257.987	232.81
258.22	224.81
258.452	210.81
258.685	230.81
258.918	204.81
259.151	212.81
259.383	226.81
259.616	228.81
259.849	241.81
260.081	261.81
260.314	269.81
260.547	275.81
260.779	270.81
261.012	253.81
261.244	241.81
261.477	248.81
261.71	234.81
261.942	238.81
262.175	261.81
262.407	256.81
262.64	235.81
262.872	222.81
263.105	237.81
263.337	227.81
263.57	235.81
263.802	223.81
264.035	221.81
264.267	214.81
264.499	230.81
264.732	213.81
264.964	223.81
265.197	222.81
265.429	227.81
265.661	228.81
265.894	239.81
266.126	224.81
266.358	232.81
266.591	230.81
266.823	232.81
267.055	233.81
267.287	240.81
267.52	246.81
267.752	233.81
267.984	249.81
268.216	242.81
268.448	236.81
268.681	250.81
268.913	259.81
269.145	284.81
269.377	294.81
269.609	281.81
269.841	300.81
270.073	301.81
270.306	302.81
270.538	359.81
270.77	356.81
271.002	326.81
271.234	344.81
271.466	346.81
271.698	352.81
271.93	337.81
272.162	351.81
272.394	347.81
272.626	339.81
272.858	301.81
273.09	320.81
273.322	300.81
273.553	278.81
273.785	280.81
274.017	282.81
274.249	289.81
274.481	279.81
274.713	284.81
274.945	286.81
275.176	276.81
275.408	288.81
275.64	270.81
275.872	276.81
276.104	284.81
276.335	300.81
276.567	306.81
276.799	318.81
277.031	333.81
277.262	352.81
277.494	343.81
277.726	325.81
277.957	326.81
278.189	297.81
278.421	285.81
278.652	278.81
278.884	280.81
279.115	272.81
279.347	280.81
279.579	291.81
279.81	284.81
280.042	272.81
280.273	263.81
280.505	270.81
280.736	285.81
280.968	287.81
281.199	281.81
281.431	273.81
281.662	283.81
281.894	289.81
282.125	286.81
282.356	297.81
282.588	333.81
282.819	331.81
283.051	304.81
283.282	290.81
283.513	294.81
283.745	320.81
283.976	287.81
284.207	280.81
284.439	292.81
284.67	278.81
284.901	285.81
285.132	277.81
285.364	270.81
285.595	298.81
285.826	296.81
286.057	289.81
286.288	279.81
286.52	271.81
286.751	281.81
286.982	280.81
287.213	300.81
287.444	296.81
287.675	291.81
287.906	308.81
288.138	316.81
288.369	309.81
288.6	310.81
288.831	286.81
289.062	289.81
289.293	300.81
289.524	299.81
289.755	305.81
289.986	285.81
290.217	295.81
290.448	278.81
290.679	292.81
290.91	285.81
291.141	308.81
291.371	302.81
291.602	292.81
291.833	282.81
292.064	285.81
292.295	289.81
292.526	300.81
292.757	292.81
292.987	291.81
293.218	289.81
293.449	289.81
293.68	287.81
293.91	306.81
294.141	292.81
294.372	296.81
294.603	290.81
294.833	288.81
295.064	301.81
295.295	301.81
295.525	311.81
295.756	301.81
295.987	293.81
296.217	337.81
296.448	363.81
296.679	316.81
296.909	308.81
297.14	306.81
297.37	308.81
297.601	312.81
297.831	290.81
298.062	307.81
298.292	300.81
298.523	310.81
298.753	316.81
298.984	310.81
299.214	303.81
299.445	293.81
299.675	302.81
299.905	331.81
300.136	297.81
300.366	308.81
300.597	293.81
300.827	316.81
301.057	346.81
301.288	332.81
301.518	320.81
301.748	322.81
301.979	337.81
302.209	330.81
302.439	357.81
302.669	334.81
302.9	337.81
303.13	331.81
303.36	323.81
303.59	331.81
303.82	323.81
304.051	329.81
304.281	340.81
304.511	330.81
304.741	323.81
304.971	329.81
305.201	339.81
305.431	325.81
305.661	324.81
305.891	315.81
306.121	330.81
306.352	343.81
306.582	354.81
306.812	349.81
307.042	348.81
307.272	339.81
307.502	330.81
307.731	359.81
307.961	341.81
308.191	334.81
308.421	341.81
308.651	358.81
308.881	363.81
309.111	350.81
309.341	341.81
309.571	363.81
309.8	379.81
310.03	392.81
310.26	387.81
310.49	397.81
310.72	408.81
310.949	434.81
311.179	412.81
311.409	383.81
311.639	399.81
311.868	393.81
312.098	396.81
312.328	400.81
312.557	440.81
312.787	469.81
313.017	459.81
313.246	430.81
313.476	405.81
313.706	393.81
313.935	404.81
314.165	414.81
314.394	434.81
314.624	436.81
314.853	405.81
315.083	379.81
315.312	402.81
315.542	396.81
315.771	367.81
316.001	389.81
316.23	370.81
316.46	384.81
316.689	378.81
316.919	397.81
317.148	403.81
317.377	399.81
317.607	408.81
317.836	412.81
318.065	409.81
318.295	400.81
318.524	376.81
318.753	404.81
318.983	379.81
319.212	392.81
319.441	412.81
319.67	394.81
319.9	409.81
320.129	394.81
320.358	409.81
320.587	416.81
320.816	412.81
321.046	418.81
321.275	432.81
321.504	421.81
321.733	420.81
321.962	443.81
322.191	447.81
322.42	457.81
322.649	493.81
322.878	493.81
323.108	531.81
323.337	573.81
323.566	581.81
323.795	631.81
324.024	706.81
324.253	871.81
324.482	1311.81
324.71	2067.81
324.939	3053.81
325.168	2684.81
325.397	1279.81
325.626	844.81
325.855	690.81
326.084	603.81
326.313	617.81
326.542	615.81
326.77	662.81
326.999	802.81
327.228	1162.81
327.457	1811.81
327.686	2250.81
327.914	1499.81
328.143	952.81
328.372	804.81
328.6	711.81
328.829	698.81
329.058	707.81
329.287	731.81
329.515	666.81
329.744	602.81
329.972	580.81
330.201	640.81
330.43	685.81
330.658	723.81
330.887	764.81
331.115	736.81
331.344	619.81
331.572	548.81
331.801	546.81
332.03	544.81
332.258	521.81
332.486	472.81
332.715	485.81
332.943	476.81
333.172	473.81
333.4	480.81
333.629	499.81
333.857	508.81
334.085	543.81
334.314	541.81
334.542	607.81
334.771	621.81
334.999	560.81
335.227	529.81
335.455	476.81
335.684	462.81
335.912	456.81
336.14	448.81
336.369	451.81
336.597	459.81
336.825	458.81
337.053	462.81
337.281	453.81
337.51	447.81
337.738	426.81
337.966	442.81
338.194	454.81
338.422	446.81
338.65	448.81
338.878	455.81
339.106	424.81
339.334	436.81
339.562	432.81
339.79	453.81
340.018	449.81
340.246	428.81
340.474	439.81
340.702	445.81
340.93	429.81
341.158	449.81
341.386	444.81
341.614	440.81
341.842	439.81
342.07	425.81
342.298	419.81
342.526	424.81
342.754	422.81
342.981	416.81
343.209	404.81
343.437	427.81
343.665	426.81
343.893	420.81
344.12	428.81
344.348	419.81
344.576	441.81
344.804	453.81
345.031	470.81
345.259	477.81
345.487	468.81
345.714	440.81
345.942	434.81
346.17	418.81
346.397	421.81
346.625	432.81
346.853	434.81
347.08	423.81
347.308	422.81
347.535	428.81
347.763	434.81
347.99	440.81
348.218	451.81
348.445	457.81
348.673	446.81
348.9	432.81
349.128	418.81
349.355	387.81
349.583	423.81
349.81	412.81
350.037	406.81
350.265	405.81
350.492	414.81
350.72	404.81
350.947	438.81
351.174	430.81
351.402	442.81
351.629	424.81
351.856	434.81
352.083	440.81
352.311	454.81
352.538	482.81
352.765	457.81
352.992	444.81
353.22	431.81
353.447	426.81
353.674	437.81
353.901	398.81
354.128	392.81
354.355	393.81
354.583	383.81
354.81	389.81
355.037	399.81
355.264	387.81
355.491	377.81
355.718	374.81
355.945	378.81
356.172	374.81
356.399	382.81
356.626	376.81
356.853	377.81
357.08	372.81
357.307	389.81
357.534	384.81
357.761	375.81
357.988	394.81
358.215	382.81
358.441	380.81
358.668	361.81
358.895	380.81
359.122	386.81
359.349	412.81
359.576	405.81
359.802	432.81
360.029	498.81
360.256	498.81
360.483	491.81
360.709	456.81
360.936	406.81
361.163	418.81
361.39	410.81
361.616	429.81
361.843	433.81
362.07	415.81
362.296	427.81
362.523	416.81
362.749	427.81
362.976	409.81
363.203	393.81
363.429	387.81
363.656	399.81
363.882	393.81
364.109	406.81
364.335	377.81
364.562	386.81
364.788	395.81
365.015	392.81
365.241	401.81
365.468	408.81
365.694	395.81
365.92	418.81
366.147	397.81
366.373	376.81
366.599	370.81
366.826	386.81
367.052	397.81
367.278	399.81
367.505	379.81
367.731	389.81
367.957	381.81
368.184	394.81
368.41	391.81
368.636	395.81
368.862	409.81
369.089	399.81
369.315	385.81
369.541	371.81
369.767	391.81
369.993	375.81
370.219	375.81
370.445	384.81
370.672	374.81
370.898	384.81
371.124	366.81
371.35	359.81
371.576	360.81
371.802	382.81
372.028	364.81
372.254	378.81
372.48	368.81
372.706	381.81
372.932	355.81
373.158	375.81
373.384	376.81
373.61	378.81
373.835	363.81
374.061	368.81
374.287	381.81
374.513	392.81
374.739	390.81
374.965	385.81
375.191	377.81
375.416	366.81
375.642	372.81
375.868	386.81
376.094	376.81
376.319	378.81
376.545	377.81
376.771	374.81
376.997	378.81
377.222	366.81
377.448	366.81
377.674	361.81
377.899	361.81
378.125	377.81
378.35	370.81
378.576	364.81
378.802	359.81
379.027	357.81
379.253	362.81
379.478	368.81
379.704	362.81
379.929	379.81
380.155	374.81
380.38	362.81
380.606	375.81
380.831	384.81
381.057	371.81
381.282	381.81
381.507	374.81
381.733	378.81
381.958	381.81
382.184	361.81
382.409	361.81
382.634	356.81
382.86	361.81
383.085	368.81
383.31	376.81
383.535	377.81
383.761	369.81
383.986	390.81
384.211	396.81
384.436	369.81
384.662	398.81
384.887	379.81
385.112	392.81
385.337	379.81
385.562	381.81
385.787	363.81
386.013	408.81
386.238	403.81
386.463	405.81
386.688	396.81
386.913	386.81
387.138	392.81
387.363	407.81
387.588	405.81
387.813	401.81
388.038	404.81
388.263	394.81
388.488	401.81
388.713	381.81
388.938	400.81
389.163	414.81
389.387	393.81
389.612	384.81
389.837	396.81
390.062	381.81
390.287	394.81
390.512	395.81
390.736	396.81
390.961	388.81
391.186	391.81
391.411	398.81
391.636	381.81
391.86	380.81
392.085	397.81
392.31	409.81
392.534	389.81
392.759	410.81
392.984	394.81
393.208	404.81
393.433	372.81
393.658	389.81
393.882	390.81
394.107	387.81
394.331	406.81
394.556	417.81
394.78	389.81
395.005	395.81
395.229	391.81
395.454	389.81
395.678	407.81
395.903	421.81
396.127	454.81
396.352	444.81
396.576	438.81
396.801	406.81
397.025	392.81
397.249	406.81
397.474	404.81
397.698	412.81
397.922	409.81
398.147	448.81
398.371	448.81
398.595	446.81
398.82	424.81
399.044	449.81
399.268	451.81
399.492	461.81
399.717	470.81
399.941	516.81
400.165	538.81
400.389	571.81
400.613	524.81
400.837	487.81
401.062	470.81
401.286	431.81
401.51	460.81
401.734	459.81
401.958	453.81
402.182	464.81
402.406	460.81
402.63	476.81
402.854	466.81
403.078	450.81
403.302	451.81
403.526	465.81
403.75	470.81
403.974	482.81
404.198	459.81
404.422	458.81
404.645	457.81
404.869	485.81
405.093	505.81
405.317	588.81
405.541	602.81
405.765	544.81
405.988	502.81
406.212	514.81
406.436	558.81
406.66	561.81
406.883	538.81
407.107	539.81
407.331	604.81
407.555	636.81
407.778	634.81
408.002	593.81
408.226	558.81
408.449	523.81
408.673	517.81
408.896	574.81
409.12	608.81
409.344	585.81
409.567	514.81
409.791	483.81
410.014	474.81
410.238	480.81
410.461	485.81
410.685	470.81
410.908	502.81
411.132	533.81
411.355	582.81
411.578	561.81
411.802	501.81
412.025	473.81
412.249	491.81
412.472	507.81
412.695	558.81
412.919	562.81
413.142	501.81
413.365	461.81
413.589	472.81
413.812	451.81
414.035	457.81
414.258	437.81
414.482	471.81
414.705	440.81
414.928	447.81
415.151	436.81
415.374	445.81
415.597	462.81
415.821	427.81
416.044	432.81
416.267	436.81
416.49	449.81
416.713	452.81
416.936	431.81
417.159	456.81
417.382	468.81
417.605	463.81
417.828	489.81
418.051	476.81
418.274	479.81
418.497	459.81
418.72	440.81
418.943	428.81
419.166	463.81
419.389	479.81
419.611	472.81
419.834	476.81
420.057	503.81
420.28	480.81
420.503	501.81
420.726	502.81
420.948	503.81
421.171	550.81
421.394	573.81
421.617	502.81
421.839	491.81
422.062	484.81
422.285	491.81
422.507	560.81
422.73	640.81
422.953	635.81
423.175	539.81
423.398	523.81
423.621	494.81
423.843	536.81
424.066	517.81
424.288	538.81
424.511	547.81
424.733	634.81
424.956	683.81
425.178	662.81
425.401	676.81
425.623	683.81
425.846	578.81
426.068	530.81
426.291	541.81
426.513	536.81
426.735	538.81
426.958	626.81
427.18	679.81
427.402	816.81
427.625	932.81
427.847	865.81
428.069	723.81
428.292	645.81
428.514	533.81
428.736	561.81
428.958	521.81
429.181	510.81
429.403	484.81
429.625	489.81
429.847	546.81
430.069	598.81
430.292	598.81
430.514	521.81
430.736	493.81
430.958	485.81
431.18	458.81
431.402	475.81
431.624	444.81
431.846	451.81
432.068	450.81
432.29	473.81
432.512	464.81
432.734	475.81
432.956	473.81
433.178	482.81
433.4	483.81
433.622	448.81
433.844	456.81
434.066	445.81
434.287	445.81
434.509	467.81
434.731	461.81
434.953	462.81
435.175	508.81
435.397	526.81
435.618	549.81
435.84	606.81
436.062	698.81
436.284	779.81
436.505	653.81
436.727	574.81
436.949	507.81
437.17	508.81
437.392	502.81
437.614	507.81
437.835	555.81
438.057	688.81
438.278	776.81
438.5	763.81
438.721	862.81
438.943	799.81
439.165	658.81
439.386	586.81
439.608	583.81
439.829	572.81
440.05	602.81
440.272	670.81
440.493	617.81
440.715	558.81
440.936	521.81
441.158	505.81
441.379	485.81
441.6	505.81
441.822	530.81
442.043	587.81
442.264	688.81
442.486	735.81
442.707	625.81
442.928	586.81
443.149	568.81
443.371	604.81
443.592	638.81
443.813	745.81
444.034	811.81
444.255	654.81
444.476	559.81
444.698	540.81
444.919	522.81
445.14	621.81
445.361	580.81
445.582	570.81
445.803	680.81
446.024	822.81
446.245	823.81
446.466	744.81
446.687	616.81
446.908	559.81
447.129	545.81
447.35	508.81
447.571	526.81
447.792	510.81
448.013	521.81
448.234	535.81
448.455	608.81
448.675	700.81
448.896	841.81
449.117	698.81
449.338	669.81
449.559	805.81
449.779	889.81
450	690.81
450.221	572.81
450.442	532.81
450.662	534.81
450.883	521.81
451.104	526.81
451.324	500.81
451.545	477.81
451.766	481.81
451.986	467.81
452.207	453.81
452.428	448.81
452.648	446.81
452.869	454.81
453.089	458.81
453.31	477.81
453.53	449.81
453.751	437.81
453.971	461.81
454.192	471.81
454.412	473.81
454.633	445.81
454.853	444.81
455.073	432.81
455.294	462.81
455.514	565.81
455.734	514.81
455.955	448.81
456.175	441.81
456.395	409.81
456.616	424.81
456.836	412.81
457.056	414.81
457.276	401.81
457.497	414.81
457.717	436.81
457.937	413.81
458.157	414.81
458.377	447.81
458.598	466.81
458.818	540.81
459.038	636.81
459.258	644.81
459.478	526.81
459.698	478.81
459.918	469.81
460.138	422.81
460.358	446.81
460.578	442.81
460.798	446.81
461.018	465.81
461.238	440.81
461.458	445.81
461.678	439.81
461.898	450.81
462.118	446.81
462.338	457.81
462.558	441.81
462.777	441.81
462.997	461.81
463.217	453.81
463.437	476.81
463.657	480.81
463.876	472.81
464.096	462.81
464.316	451.81
464.536	460.81
464.755	489.81
464.975	476.81
465.195	576.81
465.414	708.81
465.634	576.81
465.854	531.81
466.073	466.81
466.293	466.81
466.512	481.81
466.732	449.81
466.951	450.81
467.171	441.81
467.391	449.81
467.61	453.81
467.829	466.81
468.049	472.81
468.268	450.81
468.488	449.81
468.707	445.81
468.927	438.81
469.146	428.81
469.365	446.81
469.585	432.81
469.804	426.81
470.023	457.81
470.243	459.81
470.462	451.81
470.681	500.81
470.901	490.81
471.12	442.81
471.339	459.81
471.558	452.81
471.777	472.81
471.997	454.81
472.216	476.81
472.435	517.81
472.654	498.81
472.873	458.81
473.092	444.81
473.311	442.81
473.53	452.81
473.749	472.81
473.968	513.81
474.187	648.81
474.406	678.81
474.625	532.81
474.844	496.81
475.063	464.81
475.282	469.81
475.501	459.81
475.72	477.81
475.939	466.81
476.158	453.81
476.377	454.81
476.596	444.81
476.814	450.81
477.033	478.81
477.252	473.81
477.471	481.81
477.69	470.81
477.908	482.81
478.127	475.81
478.346	472.81
478.564	492.81
478.783	497.81
479.002	493.81
479.22	530.81
479.439	518.81
479.658	541.81
479.876	555.81
480.095	569.81
480.313	590.81
480.532	590.81
480.751	569.81
480.969	578.81
481.188	692.81
481.406	738.81
481.624	626.81
481.843	557.81
482.061	555.81
482.28	553.81
482.498	529.81
482.717	541.81
482.935	546.81
483.153	526.81
483.372	538.81
483.59	524.81
483.808	530.81
484.027	519.81
484.245	532.81
484.463	528.81
484.681	553.81
484.9	529.81
485.118	570.81
485.336	549.81
485.554	561.81
485.772	548.81
485.99	542.81
486.209	542.81
486.427	545.81
486.645	569.81
486.863	589.81
487.081	598.81
487.299	583.81
487.517	573.81
487.735	567.81
487.953	573.81
488.171	569.81
488.389	584.81
488.607	576.81
488.825	576.81
489.043	581.81
489.261	584.81
489.479	571.81
489.696	604.81
489.914	564.81
490.132	596.81
490.35	591.81
490.568	576.81
490.786	599.81
491.003	605.81
491.221	646.81
491.439	640.81
491.657	662.81
491.874	676.81
492.092	655.81
492.31	657.81
492.527	663.81
492.745	664.81
492.963	670.81
493.18	671.81
493.398	683.81
493.615	702.81
493.833	697.81
494.05	664.81
494.268	666.81
494.485	690.81
494.703	665.81
494.92	671.81
495.138	681.81
495.355	686.81
495.573	681.81
495.79	688.81
496.008	705.81
496.225	693.81
496.442	672.81
496.66	684.81
496.877	697.81
497.094	692.81
497.312	708.81
497.529	716.81
497.746	715.81
497.963	725.81
498.181	724.81
498.398	724.81
498.615	744.81
498.832	769.81
499.049	747.81
499.267	732.81
499.484	771.81
499.701	782.81
499.918	802.81
500.135	809.81
500.352	841.81
500.569	854.81
500.786	857.81
501.003	866.81
501.22	851.81
501.437	826.81
501.654	845.81
501.871	824.81
