Data from 1972.PennyLincolnUp.Lamp.En5.5.200Scan.071719.P1._HRD10591_15-27-17-843.txt Node
Date: Thu Jul 18 15:27:17 EDT 2019
User: cochatt
Spectrometer: HR+D1059
Trigger mode: 1
Integration Time (sec): 1.000000E-1
Scans to average: 1
Electric dark correction enabled: true
Nonlinearity correction enabled: false
Boxcar width: 0
XAxis mode: Wavelengths
Number of Pixels in Spectrum: 2048
>>>>>Begin Spectral Data<<<<<
223.165	-20.69
223.4	-20.69
223.635	-20.69
223.869	-17.69
224.104	-12.69
224.338	-8.69
224.573	-22.69
224.808	-17.69
225.042	-7.69
225.277	2.31
225.511	-6.69
225.746	12.31
225.98	4.31
226.215	15.31
226.449	5.31
226.683	19.31
226.918	20.31
227.152	35.31
227.387	25.31
227.621	47.31
227.856	52.31
228.09	42.31
228.324	57.31
228.559	63.31
228.793	71.31
229.027	90.31
229.262	115.31
229.496	102.31
229.73	119.31
229.964	137.31
230.199	119.31
230.433	115.31
230.667	104.31
230.901	123.31
231.136	108.31
231.37	103.31
231.604	118.31
231.838	114.31
232.072	119.31
232.306	122.31
232.541	114.31
232.775	125.31
233.009	101.31
233.243	116.31
233.477	97.31
233.711	114.31
233.945	117.31
234.179	106.31
234.413	121.31
234.647	117.31
234.881	120.31
235.115	138.31
235.349	130.31
235.583	124.31
235.817	118.31
236.051	134.31
236.285	116.31
236.519	113.31
236.753	133.31
236.987	138.31
237.221	176.31
237.455	224.31
237.689	195.31
237.922	141.31
238.156	126.31
238.39	129.31
238.624	123.31
238.858	93.31
239.091	116.31
239.325	117.31
239.559	120.31
239.793	122.31
240.027	123.31
240.26	132.31
240.494	155.31
240.728	155.31
240.961	140.31
241.195	128.31
241.429	129.31
241.662	123.31
241.896	129.31
242.13	131.31
242.363	133.31
242.597	126.31
242.83	127.31
243.064	133.31
243.298	138.31
243.531	131.31
243.765	127.31
243.998	143.31
244.232	113.31
244.465	135.31
244.699	141.31
244.932	150.31
245.166	137.31
245.399	139.31
245.633	130.31
245.866	142.31
246.099	139.31
246.333	149.31
246.566	142.31
246.8	149.31
247.033	133.31
247.266	150.31
247.5	156.31
247.733	144.31
247.966	165.31
248.2	148.31
248.433	166.31
248.666	158.31
248.899	178.31
249.133	191.31
249.366	185.31
249.599	198.31
249.832	171.31
250.066	155.31
250.299	172.31
250.532	174.31
250.765	200.31
250.998	203.31
251.231	228.31
251.465	207.31
251.698	178.31
251.931	196.31
252.164	187.31
252.397	185.31
252.63	189.31
252.863	190.31
253.096	197.31
253.329	216.31
253.562	210.31
253.795	200.31
254.028	209.31
254.261	214.31
254.494	208.31
254.727	234.31
254.96	262.31
255.193	259.31
255.426	224.31
255.659	215.31
255.892	220.31
256.124	204.31
256.357	228.31
256.59	222.31
256.823	207.31
257.056	212.31
257.289	222.31
257.521	217.31
257.754	194.31
257.987	205.31
258.22	203.31
258.452	201.31
258.685	184.31
258.918	199.31
259.151	192.31
259.383	201.31
259.616	198.31
259.849	197.31
260.081	196.31
260.314	220.31
260.547	249.31
260.779	220.31
261.012	228.31
261.244	222.31
261.477	225.31
261.71	215.31
261.942	217.31
262.175	234.31
262.407	212.31
262.64	197.31
262.872	208.31
263.105	222.31
263.337	222.31
263.57	197.31
263.802	209.31
264.035	199.31
264.267	204.31
264.499	191.31
264.732	200.31
264.964	193.31
265.197	219.31
265.429	204.31
265.661	202.31
265.894	193.31
266.126	195.31
266.358	207.31
266.591	210.31
266.823	207.31
267.055	209.31
267.287	203.31
267.52	215.31
267.752	220.31
267.984	219.31
268.216	238.31
268.448	212.31
268.681	211.31
268.913	228.31
269.145	241.31
269.377	242.31
269.609	261.31
269.841	249.31
270.073	233.31
270.306	281.31
270.538	299.31
270.77	292.31
271.002	269.31
271.234	288.31
271.466	271.31
271.698	291.31
271.93	305.31
272.162	288.31
272.394	282.31
272.626	285.31
272.858	280.31
273.09	262.31
273.322	254.31
273.553	246.31
273.785	258.31
274.017	241.31
274.249	238.31
274.481	261.31
274.713	250.31
274.945	245.31
275.176	255.31
275.408	261.31
275.64	247.31
275.872	241.31
276.104	252.31
276.335	259.31
276.567	260.31
276.799	269.31
277.031	280.31
277.262	315.31
277.494	299.31
277.726	278.31
277.957	266.31
278.189	262.31
278.421	272.31
278.652	261.31
278.884	250.31
279.115	246.31
279.347	251.31
279.579	248.31
279.81	241.31
280.042	251.31
280.273	232.31
280.505	244.31
280.736	260.31
280.968	241.31
281.199	272.31
281.431	233.31
281.662	249.31
281.894	248.31
282.125	252.31
282.356	251.31
282.588	282.31
282.819	284.31
283.051	262.31
283.282	248.31
283.513	257.31
283.745	237.31
283.976	272.31
284.207	251.31
284.439	259.31
284.67	252.31
284.901	252.31
285.132	253.31
285.364	255.31
285.595	252.31
285.826	231.31
286.057	253.31
286.288	254.31
286.52	262.31
286.751	255.31
286.982	247.31
287.213	247.31
287.444	249.31
287.675	254.31
287.906	261.31
288.138	267.31
288.369	269.31
288.6	269.31
288.831	264.31
289.062	260.31
289.293	269.31
289.524	266.31
289.755	263.31
289.986	264.31
290.217	273.31
290.448	265.31
290.679	259.31
290.91	247.31
291.141	270.31
291.371	280.31
291.602	246.31
291.833	264.31
292.064	254.31
292.295	273.31
292.526	261.31
292.757	252.31
292.987	268.31
293.218	270.31
293.449	271.31
293.68	262.31
293.91	264.31
294.141	281.31
294.372	237.31
294.603	252.31
294.833	267.31
295.064	261.31
295.295	267.31
295.525	271.31
295.756	256.31
295.987	274.31
296.217	298.31
296.448	297.31
296.679	282.31
296.909	249.31
297.14	270.31
297.37	264.31
297.601	265.31
297.831	281.31
298.062	271.31
298.292	276.31
298.523	279.31
298.753	279.31
298.984	271.31
299.214	284.31
299.445	270.31
299.675	284.31
299.905	265.31
300.136	279.31
300.366	277.31
300.597	286.31
300.827	271.31
301.057	281.31
301.288	309.31
301.518	279.31
301.748	295.31
301.979	307.31
302.209	288.31
302.439	295.31
302.669	281.31
302.9	283.31
303.13	290.31
303.36	298.31
303.59	302.31
303.82	311.31
304.051	297.31
304.281	280.31
304.511	294.31
304.741	285.31
304.971	296.31
305.201	298.31
305.431	283.31
305.661	292.31
305.891	308.31
306.121	311.31
306.352	298.31
306.582	285.31
306.812	282.31
307.042	308.31
307.272	306.31
307.502	318.31
307.731	297.31
307.961	293.31
308.191	307.31
308.421	309.31
308.651	314.31
308.881	321.31
309.111	324.31
309.341	315.31
309.571	315.31
309.8	342.31
310.03	343.31
310.26	347.31
310.49	342.31
310.72	325.31
310.949	355.31
311.179	353.31
311.409	351.31
311.639	340.31
311.868	340.31
312.098	340.31
312.328	345.31
312.557	360.31
312.787	368.31
313.017	362.31
313.246	360.31
313.476	335.31
313.706	340.31
313.935	353.31
314.165	354.31
314.394	369.31
314.624	358.31
314.853	352.31
315.083	355.31
315.312	326.31
315.542	325.31
315.771	348.31
316.001	329.31
316.23	348.31
316.46	343.31
316.689	331.31
316.919	345.31
317.148	350.31
317.377	349.31
317.607	366.31
317.836	345.31
318.065	337.31
318.295	336.31
318.524	340.31
318.753	349.31
318.983	333.31
319.212	331.31
319.441	367.31
319.67	357.31
319.9	329.31
320.129	361.31
320.358	348.31
320.587	354.31
320.816	348.31
321.046	372.31
321.275	361.31
321.504	361.31
321.733	377.31
321.962	366.31
322.191	364.31
322.42	409.31
322.649	404.31
322.878	422.31
323.108	432.31
323.337	438.31
323.566	475.31
323.795	500.31
324.024	544.31
324.253	667.31
324.482	962.31
324.71	1473.31
324.939	2149.31
325.168	1888.31
325.397	974.31
325.626	645.31
325.855	558.31
326.084	510.31
326.313	485.31
326.542	477.31
326.77	547.31
326.999	645.31
327.228	821.31
327.457	1297.31
327.686	1630.31
327.914	1087.31
328.143	678.31
328.372	606.31
328.6	573.31
328.829	533.31
329.058	549.31
329.287	565.31
329.515	518.31
329.744	485.31
329.972	459.31
330.201	481.31
330.43	536.31
330.658	562.31
330.887	573.31
331.115	551.31
331.344	493.31
331.572	454.31
331.801	450.31
332.03	435.31
332.258	435.31
332.486	402.31
332.715	397.31
332.943	400.31
333.172	396.31
333.4	399.31
333.629	417.31
333.857	433.31
334.085	431.31
334.314	448.31
334.542	491.31
334.771	480.31
334.999	449.31
335.227	427.31
335.455	405.31
335.684	401.31
335.912	422.31
336.14	387.31
336.369	385.31
336.597	419.31
336.825	387.31
337.053	393.31
337.281	379.31
337.51	394.31
337.738	402.31
337.966	396.31
338.194	405.31
338.422	408.31
338.65	390.31
338.878	391.31
339.106	367.31
339.334	385.31
339.562	383.31
339.79	359.31
340.018	375.31
340.246	385.31
340.474	390.31
340.702	399.31
340.93	383.31
341.158	380.31
341.386	367.31
341.614	380.31
341.842	387.31
342.07	396.31
342.298	380.31
342.526	358.31
342.754	381.31
342.981	366.31
343.209	367.31
343.437	364.31
343.665	354.31
343.893	373.31
344.12	362.31
344.348	361.31
344.576	395.31
344.804	379.31
345.031	403.31
345.259	400.31
345.487	385.31
345.714	395.31
345.942	371.31
346.17	380.31
346.397	375.31
346.625	391.31
346.853	361.31
347.08	365.31
347.308	386.31
347.535	385.31
347.763	398.31
347.99	388.31
348.218	363.31
348.445	396.31
348.673	393.31
348.9	357.31
349.128	369.31
349.355	379.31
349.583	343.31
349.81	356.31
350.037	344.31
350.265	360.31
350.492	371.31
350.72	366.31
350.947	360.31
351.174	356.31
351.402	382.31
351.629	389.31
351.856	394.31
352.083	382.31
352.311	372.31
352.538	395.31
352.765	403.31
352.992	364.31
353.22	359.31
353.447	374.31
353.674	356.31
353.901	358.31
354.128	359.31
354.355	333.31
354.583	351.31
354.81	331.31
355.037	340.31
355.264	329.31
355.491	335.31
355.718	339.31
355.945	343.31
356.172	348.31
356.399	330.31
356.626	330.31
356.853	339.31
357.08	317.31
357.307	332.31
357.534	351.31
357.761	349.31
357.988	340.31
358.215	343.31
358.441	349.31
358.668	341.31
358.895	356.31
359.122	330.31
359.349	363.31
359.576	362.31
359.802	382.31
360.029	400.31
360.256	418.31
360.483	407.31
360.709	375.31
360.936	385.31
361.163	392.31
361.39	386.31
361.616	374.31
361.843	380.31
362.07	378.31
362.296	376.31
362.523	374.31
362.749	374.31
362.976	351.31
363.203	378.31
363.429	356.31
363.656	349.31
363.882	358.31
364.109	365.31
364.335	346.31
364.562	355.31
364.788	353.31
365.015	355.31
365.241	344.31
365.468	344.31
365.694	366.31
365.92	342.31
366.147	334.31
366.373	348.31
366.599	339.31
366.826	346.31
367.052	355.31
367.278	332.31
367.505	343.31
367.731	365.31
367.957	350.31
368.184	349.31
368.41	361.31
368.636	346.31
368.862	391.31
369.089	354.31
369.315	342.31
369.541	353.31
369.767	347.31
369.993	335.31
370.219	342.31
370.445	353.31
370.672	350.31
370.898	339.31
371.124	327.31
371.35	340.31
371.576	338.31
371.802	335.31
372.028	348.31
372.254	335.31
372.48	326.31
372.706	336.31
372.932	335.31
373.158	324.31
373.384	349.31
373.61	350.31
373.835	345.31
374.061	350.31
374.287	344.31
374.513	339.31
374.739	332.31
374.965	341.31
375.191	348.31
375.416	345.31
375.642	339.31
375.868	346.31
376.094	346.31
376.319	345.31
376.545	356.31
376.771	355.31
376.997	350.31
377.222	344.31
377.448	347.31
377.674	347.31
377.899	340.31
378.125	327.31
378.35	331.31
378.576	333.31
378.802	331.31
379.027	355.31
379.253	337.31
379.478	322.31
379.704	338.31
379.929	330.31
380.155	334.31
380.38	329.31
380.606	350.31
380.831	341.31
381.057	349.31
381.282	335.31
381.507	335.31
381.733	334.31
381.958	338.31
382.184	339.31
382.409	361.31
382.634	341.31
382.86	359.31
383.085	352.31
383.31	345.31
383.535	355.31
383.761	335.31
383.986	347.31
384.211	354.31
384.436	348.31
384.662	348.31
384.887	388.31
385.112	361.31
385.337	349.31
385.562	354.31
385.787	356.31
386.013	391.31
386.238	369.31
386.463	357.31
386.688	358.31
386.913	359.31
387.138	356.31
387.363	374.31
387.588	364.31
387.813	360.31
388.038	361.31
388.263	364.31
388.488	373.31
388.713	379.31
388.938	350.31
389.163	371.31
389.387	384.31
389.612	360.31
389.837	377.31
390.062	377.31
390.287	351.31
390.512	348.31
390.736	334.31
390.961	359.31
391.186	374.31
391.411	375.31
391.636	389.31
391.86	376.31
392.085	369.31
392.31	374.31
392.534	375.31
392.759	360.31
392.984	375.31
393.208	387.31
393.433	389.31
393.658	389.31
393.882	371.31
394.107	371.31
394.331	354.31
394.556	342.31
394.78	354.31
395.005	372.31
395.229	366.31
395.454	379.31
395.678	372.31
395.903	372.31
396.127	418.31
396.352	394.31
396.576	394.31
396.801	389.31
397.025	385.31
397.249	386.31
397.474	398.31
397.698	415.31
397.922	391.31
398.147	394.31
398.371	418.31
398.595	379.31
398.82	395.31
399.044	416.31
399.268	423.31
399.492	433.31
399.717	429.31
399.941	489.31
400.165	509.31
400.389	539.31
400.613	491.31
400.837	436.31
401.062	440.31
401.286	428.31
401.51	413.31
401.734	404.31
401.958	415.31
402.182	415.31
402.406	409.31
402.63	434.31
402.854	437.31
403.078	428.31
403.302	413.31
403.526	434.31
403.75	436.31
403.974	441.31
404.198	421.31
404.422	418.31
404.645	441.31
404.869	449.31
405.093	471.31
405.317	523.31
405.541	536.31
405.765	481.31
405.988	449.31
406.212	469.31
406.436	484.31
406.66	477.31
406.883	458.31
407.107	490.31
407.331	537.31
407.555	577.31
407.778	596.31
408.002	494.31
408.226	492.31
408.449	462.31
408.673	478.31
408.896	503.31
409.12	533.31
409.344	494.31
409.567	475.31
409.791	452.31
410.014	438.31
410.238	422.31
410.461	443.31
410.685	428.31
410.908	423.31
411.132	490.31
411.355	505.31
411.578	483.31
411.802	460.31
412.025	417.31
412.249	437.31
412.472	473.31
412.695	502.31
412.919	476.31
413.142	472.31
413.365	415.31
413.589	409.31
413.812	414.31
414.035	428.31
414.258	418.31
414.482	413.31
414.705	407.31
414.928	413.31
415.151	407.31
415.374	393.31
415.597	399.31
415.821	403.31
416.044	389.31
416.267	398.31
416.49	400.31
416.713	400.31
416.936	395.31
417.159	408.31
417.382	401.31
417.605	403.31
417.828	427.31
418.051	436.31
418.274	425.31
418.497	419.31
418.72	413.31
418.943	402.31
419.166	407.31
419.389	426.31
419.611	426.31
419.834	413.31
420.057	439.31
420.28	423.31
420.503	421.31
420.726	433.31
420.948	445.31
421.171	450.31
421.394	503.31
421.617	440.31
421.839	433.31
422.062	434.31
422.285	437.31
422.507	506.31
422.73	565.31
422.953	559.31
423.175	466.31
423.398	471.31
423.621	474.31
423.843	458.31
424.066	464.31
424.288	474.31
424.511	478.31
424.733	546.31
424.956	611.31
425.178	599.31
425.401	599.31
425.623	614.31
425.846	513.31
426.068	464.31
426.291	469.31
426.513	479.31
426.735	449.31
426.958	522.31
427.18	582.31
427.402	727.31
427.625	799.31
427.847	716.31
428.069	598.31
428.292	528.31
428.514	477.31
428.736	462.31
428.958	431.31
429.181	425.31
429.403	428.31
429.625	461.31
429.847	484.31
430.069	559.31
430.292	552.31
430.514	444.31
430.736	439.31
430.958	444.31
431.18	433.31
431.402	405.31
431.624	400.31
431.846	405.31
432.068	418.31
432.29	399.31
432.512	410.31
432.734	425.31
432.956	410.31
433.178	414.31
433.4	418.31
433.622	404.31
433.844	392.31
434.066	407.31
434.287	400.31
434.509	414.31
434.731	430.31
434.953	429.31
435.175	427.31
435.397	454.31
435.618	456.31
435.84	504.31
436.062	604.31
436.284	675.31
436.505	539.31
436.727	499.31
436.949	444.31
437.17	459.31
437.392	431.31
437.614	437.31
437.835	473.31
438.057	567.31
438.278	670.31
438.5	667.31
438.721	712.31
438.943	677.31
439.165	533.31
439.386	500.31
439.608	468.31
439.829	460.31
440.05	512.31
440.272	547.31
440.493	517.31
440.715	490.31
440.936	455.31
441.158	450.31
441.379	434.31
441.6	450.31
441.822	463.31
442.043	523.31
442.264	584.31
442.486	640.31
442.707	518.31
442.928	488.31
443.149	489.31
443.371	502.31
443.592	545.31
443.813	631.31
444.034	687.31
444.255	568.31
444.476	483.31
444.698	456.31
444.919	468.31
445.14	554.31
445.361	523.31
445.582	510.31
445.803	558.31
446.024	672.31
446.245	679.31
446.466	633.31
446.687	540.31
446.908	489.31
447.129	464.31
447.35	462.31
447.571	465.31
447.792	433.31
448.013	437.31
448.234	470.31
448.455	502.31
448.675	615.31
448.896	729.31
449.117	600.31
449.338	549.31
449.559	662.31
449.779	769.31
450	615.31
450.221	519.31
450.442	466.31
450.662	461.31
450.883	448.31
451.104	451.31
451.324	461.31
451.545	425.31
451.766	399.31
451.986	405.31
452.207	379.31
452.428	393.31
452.648	397.31
452.869	391.31
453.089	388.31
453.31	410.31
453.53	407.31
453.751	386.31
453.971	393.31
454.192	438.31
454.412	408.31
454.633	403.31
454.853	403.31
455.073	394.31
455.294	434.31
455.514	469.31
455.734	463.31
455.955	396.31
456.175	375.31
456.395	390.31
456.616	375.31
456.836	377.31
457.056	375.31
457.276	344.31
457.497	337.31
457.717	370.31
457.937	391.31
458.157	375.31
458.377	372.31
458.598	407.31
458.818	462.31
459.038	538.31
459.258	543.31
459.478	447.31
459.698	408.31
459.918	405.31
460.138	396.31
460.358	390.31
460.578	405.31
460.798	405.31
461.018	412.31
461.238	425.31
461.458	406.31
461.678	387.31
461.898	411.31
462.118	403.31
462.338	424.31
462.558	412.31
462.777	411.31
462.997	427.31
463.217	409.31
463.437	419.31
463.657	446.31
463.876	425.31
464.096	424.31
464.316	443.31
464.536	430.31
464.755	457.31
464.975	446.31
465.195	491.31
465.414	550.31
465.634	507.31
465.854	443.31
466.073	425.31
466.293	410.31
466.512	384.31
466.732	415.31
466.951	398.31
467.171	407.31
467.391	414.31
467.61	397.31
467.829	425.31
468.049	389.31
468.268	423.31
468.488	388.31
468.707	385.31
468.927	390.31
469.146	375.31
469.365	381.31
469.585	385.31
469.804	394.31
470.023	411.31
470.243	405.31
470.462	391.31
470.681	425.31
470.901	431.31
471.12	413.31
471.339	402.31
471.558	433.31
471.777	407.31
471.997	407.31
472.216	390.31
472.435	427.31
472.654	438.31
472.873	407.31
473.092	397.31
473.311	388.31
473.53	386.31
473.749	424.31
473.968	438.31
474.187	555.31
474.406	566.31
474.625	446.31
474.844	430.31
475.063	395.31
475.282	428.31
475.501	419.31
475.72	424.31
475.939	422.31
476.158	409.31
476.377	405.31
476.596	429.31
476.814	423.31
477.033	447.31
477.252	444.31
477.471	432.31
477.69	429.31
477.908	442.31
478.127	450.31
478.346	449.31
478.564	459.31
478.783	433.31
479.002	451.31
479.22	456.31
479.439	468.31
479.658	475.31
479.876	493.31
480.095	487.31
480.313	534.31
480.532	500.31
480.751	492.31
480.969	514.31
481.188	581.31
481.406	599.31
481.624	549.31
481.843	515.31
482.061	495.31
482.28	478.31
482.498	473.31
482.717	480.31
482.935	481.31
483.153	470.31
483.372	502.31
483.59	461.31
483.808	478.31
484.027	492.31
484.245	472.31
484.463	479.31
484.681	475.31
484.9	489.31
485.118	475.31
485.336	482.31
485.554	481.31
485.772	498.31
485.99	505.31
486.209	487.31
486.427	493.31
486.645	490.31
486.863	531.31
487.081	509.31
487.299	523.31
487.517	534.31
487.735	509.31
487.953	493.31
488.171	503.31
488.389	515.31
488.607	504.31
488.825	515.31
489.043	519.31
489.261	516.31
489.479	498.31
489.696	511.31
489.914	527.31
490.132	528.31
490.35	506.31
490.568	519.31
490.786	531.31
491.003	554.31
491.221	565.31
491.439	543.31
491.657	585.31
491.874	569.31
492.092	572.31
492.31	586.31
492.527	586.31
492.745	589.31
492.963	574.31
493.18	607.31
493.398	556.31
493.615	607.31
493.833	586.31
494.05	613.31
494.268	625.31
494.485	607.31
494.703	613.31
494.92	589.31
495.138	589.31
495.355	633.31
495.573	608.31
495.79	598.31
496.008	627.31
496.225	609.31
496.442	617.31
496.66	588.31
496.877	604.31
497.094	601.31
497.312	620.31
497.529	606.31
497.746	628.31
497.963	604.31
498.181	620.31
498.398	654.31
498.615	637.31
498.832	642.31
499.049	657.31
499.267	689.31
499.484	681.31
499.701	726.31
499.918	743.31
500.135	727.31
500.352	749.31
500.569	787.31
500.786	793.31
501.003	754.31
501.22	775.31
501.437	717.31
501.654	736.31
501.871	739.31
