Data from 1972.PennyLincolnUp.Lamp.En5.5.200Scan.071719.P1._HRD10591_15-29-15-845.txt Node
Date: Thu Jul 18 15:29:15 EDT 2019
User: cochatt
Spectrometer: HR+D1059
Trigger mode: 1
Integration Time (sec): 1.000000E-1
Scans to average: 1
Electric dark correction enabled: true
Nonlinearity correction enabled: false
Boxcar width: 0
XAxis mode: Wavelengths
Number of Pixels in Spectrum: 2048
>>>>>Begin Spectral Data<<<<<
223.165	-11.94
223.4	-11.94
223.635	-11.94
223.869	-25.94
224.104	-17.94
224.338	-7.94
224.573	-6.94
224.808	0.06
225.042	-7.94
225.277	-8.94
225.511	1.06
225.746	4.06
225.98	5.06
226.215	3.06
226.449	16.06
226.683	14.06
226.918	23.06
227.152	21.06
227.387	46.06
227.621	32.06
227.856	53.06
228.09	40.06
228.324	50.06
228.559	61.06
228.793	63.06
229.027	112.06
229.262	110.06
229.496	120.06
229.73	143.06
229.964	175.06
230.199	147.06
230.433	111.06
230.667	132.06
230.901	118.06
231.136	104.06
231.37	126.06
231.604	125.06
231.838	108.06
232.072	123.06
232.306	114.06
232.541	124.06
232.775	117.06
233.009	118.06
233.243	111.06
233.477	109.06
233.711	118.06
233.945	126.06
234.179	123.06
234.413	114.06
234.647	98.06
234.881	118.06
235.115	122.06
235.349	120.06
235.583	114.06
235.817	122.06
236.051	134.06
236.285	138.06
236.519	133.06
236.753	140.06
236.987	150.06
237.221	191.06
237.455	266.06
237.689	216.06
237.922	162.06
238.156	140.06
238.39	130.06
238.624	125.06
238.858	123.06
239.091	122.06
239.325	142.06
239.559	135.06
239.793	128.06
240.027	131.06
240.26	155.06
240.494	172.06
240.728	164.06
240.961	157.06
241.195	172.06
241.429	152.06
241.662	139.06
241.896	141.06
242.13	146.06
242.363	137.06
242.597	147.06
242.83	142.06
243.064	137.06
243.298	159.06
243.531	133.06
243.765	135.06
243.998	142.06
244.232	148.06
244.465	140.06
244.699	146.06
244.932	141.06
245.166	151.06
245.399	157.06
245.633	146.06
245.866	156.06
246.099	140.06
246.333	148.06
246.566	152.06
246.8	158.06
247.033	148.06
247.266	159.06
247.5	180.06
247.733	163.06
247.966	167.06
248.2	175.06
248.433	179.06
248.666	191.06
248.899	204.06
249.133	206.06
249.366	222.06
249.599	216.06
249.832	213.06
250.066	173.06
250.299	191.06
250.532	201.06
250.765	197.06
250.998	228.06
251.231	239.06
251.465	225.06
251.698	219.06
251.931	206.06
252.164	211.06
252.397	216.06
252.63	215.06
252.863	222.06
253.096	230.06
253.329	265.06
253.562	252.06
253.795	232.06
254.028	241.06
254.261	224.06
254.494	234.06
254.727	286.06
254.96	326.06
255.193	286.06
255.426	290.06
255.659	248.06
255.892	262.06
256.124	264.06
256.357	256.06
256.59	244.06
256.823	239.06
257.056	239.06
257.289	226.06
257.521	211.06
257.754	243.06
257.987	234.06
258.22	227.06
258.452	209.06
258.685	226.06
258.918	204.06
259.151	204.06
259.383	250.06
259.616	236.06
259.849	255.06
260.081	258.06
260.314	291.06
260.547	279.06
260.779	263.06
261.012	255.06
261.244	238.06
261.477	250.06
261.71	215.06
261.942	250.06
262.175	245.06
262.407	254.06
262.64	235.06
262.872	226.06
263.105	228.06
263.337	215.06
263.57	226.06
263.802	232.06
264.035	224.06
264.267	215.06
264.499	219.06
264.732	221.06
264.964	230.06
265.197	214.06
265.429	235.06
265.661	205.06
265.894	224.06
266.126	232.06
266.358	208.06
266.591	223.06
266.823	235.06
267.055	234.06
267.287	247.06
267.52	237.06
267.752	244.06
267.984	235.06
268.216	240.06
268.448	252.06
268.681	257.06
268.913	269.06
269.145	270.06
269.377	301.06
269.609	301.06
269.841	298.06
270.073	287.06
270.306	330.06
270.538	350.06
270.77	336.06
271.002	339.06
271.234	310.06
271.466	334.06
271.698	357.06
271.93	336.06
272.162	355.06
272.394	347.06
272.626	342.06
272.858	320.06
273.09	301.06
273.322	309.06
273.553	294.06
273.785	292.06
274.017	287.06
274.249	294.06
274.481	279.06
274.713	279.06
274.945	295.06
275.176	290.06
275.408	276.06
275.64	275.06
275.872	287.06
276.104	301.06
276.335	283.06
276.567	290.06
276.799	300.06
277.031	319.06
277.262	363.06
277.494	356.06
277.726	302.06
277.957	294.06
278.189	314.06
278.421	294.06
278.652	301.06
278.884	284.06
279.115	282.06
279.347	277.06
279.579	280.06
279.81	252.06
280.042	280.06
280.273	300.06
280.505	278.06
280.736	269.06
280.968	283.06
281.199	253.06
281.431	283.06
281.662	292.06
281.894	255.06
282.125	287.06
282.356	309.06
282.588	334.06
282.819	331.06
283.051	300.06
283.282	277.06
283.513	284.06
283.745	278.06
283.976	287.06
284.207	292.06
284.439	297.06
284.67	283.06
284.901	301.06
285.132	269.06
285.364	275.06
285.595	276.06
285.826	297.06
286.057	277.06
286.288	277.06
286.52	278.06
286.751	275.06
286.982	306.06
287.213	276.06
287.444	282.06
287.675	291.06
287.906	294.06
288.138	314.06
288.369	320.06
288.6	303.06
288.831	302.06
289.062	308.06
289.293	295.06
289.524	287.06
289.755	288.06
289.986	298.06
290.217	278.06
290.448	294.06
290.679	302.06
290.91	296.06
291.141	301.06
291.371	278.06
291.602	278.06
291.833	272.06
292.064	298.06
292.295	281.06
292.526	280.06
292.757	278.06
292.987	303.06
293.218	281.06
293.449	299.06
293.68	306.06
293.91	307.06
294.141	294.06
294.372	317.06
294.603	289.06
294.833	291.06
295.064	282.06
295.295	299.06
295.525	290.06
295.756	290.06
295.987	307.06
296.217	338.06
296.448	355.06
296.679	315.06
296.909	294.06
297.14	310.06
297.37	297.06
297.601	304.06
297.831	285.06
298.062	313.06
298.292	302.06
298.523	315.06
298.753	312.06
298.984	287.06
299.214	299.06
299.445	308.06
299.675	296.06
299.905	317.06
300.136	318.06
300.366	307.06
300.597	312.06
300.827	311.06
301.057	335.06
301.288	334.06
301.518	327.06
301.748	316.06
301.979	326.06
302.209	322.06
302.439	324.06
302.669	311.06
302.9	345.06
303.13	326.06
303.36	325.06
303.59	328.06
303.82	339.06
304.051	327.06
304.281	341.06
304.511	329.06
304.741	319.06
304.971	334.06
305.201	323.06
305.431	322.06
305.661	313.06
305.891	322.06
306.121	332.06
306.352	336.06
306.582	337.06
306.812	331.06
307.042	332.06
307.272	332.06
307.502	331.06
307.731	336.06
307.961	348.06
308.191	342.06
308.421	337.06
308.651	339.06
308.881	329.06
309.111	348.06
309.341	349.06
309.571	349.06
309.8	373.06
310.03	390.06
310.26	390.06
310.49	396.06
310.72	415.06
310.949	436.06
311.179	465.06
311.409	399.06
311.639	406.06
311.868	400.06
312.098	389.06
312.328	420.06
312.557	426.06
312.787	451.06
313.017	439.06
313.246	414.06
313.476	381.06
313.706	371.06
313.935	403.06
314.165	400.06
314.394	440.06
314.624	414.06
314.853	409.06
315.083	397.06
315.312	398.06
315.542	401.06
315.771	398.06
316.001	374.06
316.23	376.06
316.46	376.06
316.689	370.06
316.919	388.06
317.148	396.06
317.377	437.06
317.607	412.06
317.836	388.06
318.065	383.06
318.295	375.06
318.524	360.06
318.753	376.06
318.983	370.06
319.212	389.06
319.441	404.06
319.67	402.06
319.9	399.06
320.129	396.06
320.358	403.06
320.587	378.06
320.816	400.06
321.046	393.06
321.275	436.06
321.504	418.06
321.733	421.06
321.962	419.06
322.191	474.06
322.42	469.06
322.649	462.06
322.878	506.06
323.108	499.06
323.337	548.06
323.566	564.06
323.795	636.06
324.024	674.06
324.253	811.06
324.482	1245.06
324.71	1993.06
324.939	2926.06
325.168	2513.06
325.397	1258.06
325.626	820.06
325.855	651.06
326.084	592.06
326.313	568.06
326.542	606.06
326.77	639.06
326.999	747.06
327.228	1072.06
327.457	1691.06
327.686	2166.06
327.914	1427.06
328.143	899.06
328.372	749.06
328.6	724.06
328.829	670.06
329.058	665.06
329.287	682.06
329.515	637.06
329.744	595.06
329.972	612.06
330.201	610.06
330.43	673.06
330.658	682.06
330.887	677.06
331.115	728.06
331.344	570.06
331.572	532.06
331.801	544.06
332.03	529.06
332.258	500.06
332.486	473.06
332.715	486.06
332.943	456.06
333.172	476.06
333.4	466.06
333.629	472.06
333.857	484.06
334.085	498.06
334.314	540.06
334.542	588.06
334.771	618.06
334.999	526.06
335.227	491.06
335.455	463.06
335.684	458.06
335.912	442.06
336.14	449.06
336.369	445.06
336.597	448.06
336.825	446.06
337.053	463.06
337.281	447.06
337.51	443.06
337.738	436.06
337.966	435.06
338.194	453.06
338.422	455.06
338.65	447.06
338.878	436.06
339.106	429.06
339.334	422.06
339.562	431.06
339.79	435.06
340.018	428.06
340.246	441.06
340.474	425.06
340.702	443.06
340.93	437.06
341.158	432.06
341.386	448.06
341.614	438.06
341.842	453.06
342.07	413.06
342.298	416.06
342.526	415.06
342.754	398.06
342.981	410.06
343.209	399.06
343.437	392.06
343.665	418.06
343.893	442.06
344.12	421.06
344.348	402.06
344.576	422.06
344.804	439.06
345.031	448.06
345.259	452.06
345.487	444.06
345.714	434.06
345.942	414.06
346.17	431.06
346.397	436.06
346.625	423.06
346.853	407.06
347.08	426.06
347.308	427.06
347.535	416.06
347.763	453.06
347.99	439.06
348.218	429.06
348.445	430.06
348.673	444.06
348.9	438.06
349.128	411.06
349.355	390.06
349.583	400.06
349.81	390.06
350.037	403.06
350.265	400.06
350.492	399.06
350.72	396.06
350.947	389.06
351.174	419.06
351.402	424.06
351.629	436.06
351.856	452.06
352.083	426.06
352.311	425.06
352.538	455.06
352.765	464.06
352.992	433.06
353.22	425.06
353.447	422.06
353.674	427.06
353.901	395.06
354.128	398.06
354.355	392.06
354.583	378.06
354.81	388.06
355.037	388.06
355.264	383.06
355.491	371.06
355.718	372.06
355.945	362.06
356.172	369.06
356.399	384.06
356.626	382.06
356.853	392.06
357.08	386.06
357.307	363.06
357.534	384.06
357.761	386.06
357.988	372.06
358.215	372.06
358.441	386.06
358.668	387.06
358.895	369.06
359.122	387.06
359.349	408.06
359.576	410.06
359.802	442.06
360.029	490.06
360.256	482.06
360.483	473.06
360.709	418.06
360.936	416.06
361.163	408.06
361.39	435.06
361.616	412.06
361.843	422.06
362.07	416.06
362.296	412.06
362.523	409.06
362.749	407.06
362.976	397.06
363.203	385.06
363.429	392.06
363.656	397.06
363.882	384.06
364.109	385.06
364.335	395.06
364.562	375.06
364.788	400.06
365.015	374.06
365.241	398.06
365.468	383.06
365.694	410.06
365.92	390.06
366.147	385.06
366.373	393.06
366.599	379.06
366.826	381.06
367.052	366.06
367.278	401.06
367.505	380.06
367.731	375.06
367.957	404.06
368.184	371.06
368.41	388.06
368.636	402.06
368.862	418.06
369.089	401.06
369.315	373.06
369.541	390.06
369.767	380.06
369.993	382.06
370.219	374.06
370.445	381.06
370.672	374.06
370.898	372.06
371.124	381.06
371.35	378.06
371.576	376.06
371.802	366.06
372.028	365.06
372.254	377.06
372.48	374.06
372.706	373.06
372.932	370.06
373.158	375.06
373.384	386.06
373.61	398.06
373.835	372.06
374.061	365.06
374.287	374.06
374.513	379.06
374.739	372.06
374.965	388.06
375.191	393.06
375.416	377.06
375.642	358.06
375.868	363.06
376.094	364.06
376.319	391.06
376.545	396.06
376.771	364.06
376.997	376.06
377.222	376.06
377.448	371.06
377.674	364.06
377.899	352.06
378.125	356.06
378.35	381.06
378.576	346.06
378.802	367.06
379.027	351.06
379.253	383.06
379.478	363.06
379.704	368.06
379.929	361.06
380.155	378.06
380.38	355.06
380.606	378.06
380.831	378.06
381.057	377.06
381.282	365.06
381.507	377.06
381.733	353.06
381.958	367.06
382.184	370.06
382.409	378.06
382.634	381.06
382.86	370.06
383.085	366.06
383.31	387.06
383.535	379.06
383.761	382.06
383.986	373.06
384.211	378.06
384.436	370.06
384.662	369.06
384.887	374.06
385.112	369.06
385.337	389.06
385.562	382.06
385.787	391.06
386.013	406.06
386.238	408.06
386.463	405.06
386.688	398.06
386.913	376.06
387.138	382.06
387.363	389.06
387.588	388.06
387.813	390.06
388.038	397.06
388.263	397.06
388.488	401.06
388.713	403.06
388.938	414.06
389.163	398.06
389.387	404.06
389.612	376.06
389.837	386.06
390.062	381.06
390.287	359.06
390.512	379.06
390.736	383.06
390.961	380.06
391.186	375.06
391.411	393.06
391.636	381.06
391.86	401.06
392.085	393.06
392.31	402.06
392.534	389.06
392.759	399.06
392.984	381.06
393.208	397.06
393.433	400.06
393.658	399.06
393.882	390.06
394.107	399.06
394.331	396.06
394.556	406.06
394.78	378.06
395.005	386.06
395.229	413.06
395.454	406.06
395.678	414.06
395.903	405.06
396.127	456.06
396.352	452.06
396.576	406.06
396.801	412.06
397.025	423.06
397.249	402.06
397.474	421.06
397.698	412.06
397.922	415.06
398.147	448.06
398.371	447.06
398.595	439.06
398.82	445.06
399.044	447.06
399.268	446.06
399.492	463.06
399.717	482.06
399.941	494.06
400.165	551.06
400.389	560.06
400.613	494.06
400.837	469.06
401.062	469.06
401.286	454.06
401.51	453.06
401.734	425.06
401.958	427.06
402.182	460.06
402.406	455.06
402.63	477.06
402.854	457.06
403.078	446.06
403.302	471.06
403.526	479.06
403.75	475.06
403.974	447.06
404.198	457.06
404.422	440.06
404.645	462.06
404.869	489.06
405.093	537.06
405.317	568.06
405.541	602.06
405.765	556.06
405.988	514.06
406.212	512.06
406.436	555.06
406.66	545.06
406.883	515.06
407.107	551.06
407.331	600.06
407.555	630.06
407.778	644.06
408.002	593.06
408.226	522.06
408.449	507.06
408.673	523.06
408.896	574.06
409.12	605.06
409.344	566.06
409.567	484.06
409.791	507.06
410.014	486.06
410.238	472.06
410.461	470.06
410.685	462.06
410.908	478.06
411.132	519.06
411.355	576.06
411.578	550.06
411.802	508.06
412.025	469.06
412.249	485.06
412.472	524.06
412.695	552.06
412.919	541.06
413.142	509.06
413.365	471.06
413.589	453.06
413.812	460.06
414.035	453.06
414.258	439.06
414.482	429.06
414.705	438.06
414.928	440.06
415.151	436.06
415.374	451.06
415.597	424.06
415.821	434.06
416.044	436.06
416.267	445.06
416.49	445.06
416.713	403.06
416.936	440.06
417.159	440.06
417.382	460.06
417.605	450.06
417.828	470.06
418.051	468.06
418.274	469.06
418.497	470.06
418.72	451.06
418.943	462.06
419.166	475.06
419.389	464.06
419.611	454.06
419.834	468.06
420.057	477.06
420.28	492.06
420.503	470.06
420.726	482.06
420.948	475.06
421.171	534.06
421.394	570.06
421.617	495.06
421.839	459.06
422.062	463.06
422.285	501.06
422.507	557.06
422.73	645.06
422.953	617.06
423.175	525.06
423.398	493.06
423.621	497.06
423.843	486.06
424.066	510.06
424.288	517.06
424.511	536.06
424.733	596.06
424.956	676.06
425.178	649.06
425.401	656.06
425.623	696.06
425.846	608.06
426.068	526.06
426.291	518.06
426.513	531.06
426.735	549.06
426.958	580.06
427.18	698.06
427.402	833.06
427.625	910.06
427.847	845.06
428.069	722.06
428.292	596.06
428.514	544.06
428.736	503.06
428.958	515.06
429.181	478.06
429.403	485.06
429.625	489.06
429.847	532.06
430.069	600.06
430.292	621.06
430.514	516.06
430.736	470.06
430.958	457.06
431.18	454.06
431.402	452.06
431.624	454.06
431.846	447.06
432.068	443.06
432.29	435.06
432.512	461.06
432.734	470.06
432.956	443.06
433.178	486.06
433.4	461.06
433.622	453.06
433.844	453.06
434.066	453.06
434.287	436.06
434.509	437.06
434.731	442.06
434.953	469.06
435.175	487.06
435.397	526.06
435.618	532.06
435.84	591.06
436.062	686.06
436.284	740.06
436.505	618.06
436.727	560.06
436.949	525.06
437.17	489.06
437.392	507.06
437.614	494.06
437.835	550.06
438.057	675.06
438.278	783.06
438.5	772.06
438.721	837.06
438.943	765.06
439.165	636.06
439.386	553.06
439.608	568.06
439.829	549.06
440.05	589.06
440.272	626.06
440.493	596.06
440.715	552.06
440.936	488.06
441.158	490.06
441.379	497.06
441.6	500.06
441.822	535.06
442.043	566.06
442.264	671.06
442.486	719.06
442.707	596.06
442.928	534.06
443.149	570.06
443.371	581.06
443.592	608.06
443.813	737.06
444.034	784.06
444.255	667.06
444.476	574.06
444.698	525.06
444.919	512.06
445.14	596.06
445.361	582.06
445.582	597.06
445.803	659.06
446.024	803.06
446.245	812.06
446.466	731.06
446.687	611.06
446.908	523.06
447.129	523.06
447.35	473.06
447.571	508.06
447.792	479.06
448.013	471.06
448.234	519.06
448.455	600.06
448.675	716.06
448.896	848.06
449.117	710.06
449.338	645.06
449.559	772.06
449.779	892.06
450	714.06
450.221	557.06
450.442	516.06
450.662	477.06
450.883	516.06
451.104	532.06
451.324	524.06
451.545	490.06
451.766	459.06
451.986	444.06
452.207	441.06
452.428	441.06
452.648	435.06
452.869	447.06
453.089	462.06
453.31	477.06
453.53	430.06
453.751	444.06
453.971	462.06
454.192	467.06
454.412	452.06
454.633	450.06
454.853	427.06
455.073	441.06
455.294	473.06
455.514	564.06
455.734	551.06
455.955	464.06
456.175	418.06
456.395	405.06
456.616	408.06
456.836	424.06
457.056	386.06
457.276	405.06
457.497	401.06
457.717	396.06
457.937	397.06
458.157	410.06
458.377	418.06
458.598	469.06
458.818	524.06
459.038	651.06
459.258	662.06
459.478	542.06
459.698	474.06
459.918	456.06
460.138	453.06
460.358	443.06
460.578	442.06
460.798	468.06
461.018	432.06
461.238	434.06
461.458	420.06
461.678	432.06
461.898	440.06
462.118	431.06
462.338	437.06
462.558	447.06
462.777	441.06
462.997	463.06
463.217	470.06
463.437	455.06
463.657	470.06
463.876	453.06
464.096	481.06
464.316	474.06
464.536	477.06
464.755	477.06
464.975	481.06
465.195	557.06
465.414	619.06
465.634	574.06
465.854	523.06
466.073	493.06
466.293	456.06
466.512	446.06
466.732	432.06
466.951	423.06
467.171	443.06
467.391	440.06
467.61	467.06
467.829	476.06
468.049	440.06
468.268	457.06
468.488	485.06
468.707	439.06
468.927	420.06
469.146	432.06
469.365	439.06
469.585	426.06
469.804	438.06
470.023	446.06
470.243	452.06
470.462	467.06
470.681	475.06
470.901	471.06
471.12	447.06
471.339	449.06
471.558	464.06
471.777	456.06
471.997	435.06
472.216	465.06
472.435	514.06
472.654	488.06
472.873	452.06
473.092	430.06
473.311	436.06
473.53	436.06
473.749	463.06
473.968	509.06
474.187	652.06
474.406	643.06
474.625	536.06
474.844	474.06
475.063	438.06
475.282	439.06
475.501	456.06
475.72	449.06
475.939	468.06
476.158	457.06
476.377	461.06
476.596	471.06
476.814	478.06
477.033	476.06
477.252	473.06
477.471	471.06
477.69	478.06
477.908	468.06
478.127	492.06
478.346	478.06
478.564	488.06
478.783	489.06
479.002	487.06
479.22	500.06
479.439	521.06
479.658	548.06
479.876	538.06
480.095	553.06
480.313	576.06
480.532	563.06
480.751	544.06
480.969	574.06
481.188	655.06
481.406	719.06
481.624	616.06
481.843	573.06
482.061	551.06
482.28	539.06
482.498	525.06
482.717	536.06
482.935	525.06
483.153	508.06
483.372	532.06
483.59	526.06
483.808	514.06
484.027	553.06
484.245	518.06
484.463	524.06
484.681	533.06
484.9	524.06
485.118	532.06
485.336	542.06
485.554	546.06
485.772	559.06
485.99	552.06
486.209	579.06
486.427	547.06
486.645	571.06
486.863	589.06
487.081	598.06
487.299	575.06
487.517	581.06
487.735	567.06
487.953	557.06
488.171	587.06
488.389	555.06
488.607	584.06
488.825	571.06
489.043	559.06
489.261	586.06
489.479	588.06
489.696	563.06
489.914	558.06
490.132	583.06
490.35	582.06
490.568	587.06
490.786	605.06
491.003	634.06
491.221	629.06
491.439	635.06
491.657	638.06
491.874	652.06
492.092	639.06
492.31	673.06
492.527	650.06
492.745	661.06
492.963	656.06
493.18	663.06
493.398	695.06
493.615	679.06
493.833	682.06
494.05	672.06
494.268	664.06
494.485	669.06
494.703	690.06
494.92	672.06
495.138	672.06
495.355	672.06
495.573	688.06
495.79	698.06
496.008	672.06
496.225	676.06
496.442	666.06
496.66	680.06
496.877	662.06
497.094	680.06
497.312	686.06
497.529	680.06
497.746	712.06
497.963	723.06
498.181	713.06
498.398	724.06
498.615	730.06
498.832	742.06
499.049	728.06
499.267	757.06
499.484	729.06
499.701	774.06
499.918	793.06
500.135	797.06
500.352	829.06
500.569	812.06
500.786	822.06
501.003	820.06
501.22	816.06
501.437	812.06
501.654	836.06
501.871	805.06
