Data from 1972.PennyLincolnUp.Lamp.En5.5.200Scan.071719.P1._HRD10591_15-29-30-845.txt Node
Date: Thu Jul 18 15:29:30 EDT 2019
User: cochatt
Spectrometer: HR+D1059
Trigger mode: 1
Integration Time (sec): 1.000000E-1
Scans to average: 1
Electric dark correction enabled: true
Nonlinearity correction enabled: false
Boxcar width: 0
XAxis mode: Wavelengths
Number of Pixels in Spectrum: 2048
>>>>>Begin Spectral Data<<<<<
223.165	-19.88
223.4	-19.88
223.635	-19.88
223.869	-19.88
224.104	-11.88
224.338	-21.88
224.573	-20.88
224.808	-21.88
225.042	-7.88
225.277	-3.88
225.511	-3.88
225.746	11.12
225.98	13.12
226.215	14.12
226.449	19.12
226.683	25.12
226.918	33.12
227.152	16.12
227.387	22.12
227.621	41.12
227.856	39.12
228.09	50.12
228.324	46.12
228.559	62.12
228.793	73.12
229.027	109.12
229.262	114.12
229.496	124.12
229.73	144.12
229.964	170.12
230.199	128.12
230.433	127.12
230.667	123.12
230.901	118.12
231.136	116.12
231.37	118.12
231.604	110.12
231.838	114.12
232.072	120.12
232.306	103.12
232.541	124.12
232.775	118.12
233.009	111.12
233.243	123.12
233.477	116.12
233.711	111.12
233.945	122.12
234.179	126.12
234.413	112.12
234.647	112.12
234.881	114.12
235.115	121.12
235.349	121.12
235.583	116.12
235.817	130.12
236.051	124.12
236.285	129.12
236.519	130.12
236.753	132.12
236.987	165.12
237.221	192.12
237.455	255.12
237.689	223.12
237.922	159.12
238.156	149.12
238.39	132.12
238.624	130.12
238.858	122.12
239.091	128.12
239.325	115.12
239.559	144.12
239.793	127.12
240.027	134.12
240.26	145.12
240.494	162.12
240.728	166.12
240.961	143.12
241.195	139.12
241.429	143.12
241.662	125.12
241.896	136.12
242.13	130.12
242.363	123.12
242.597	145.12
242.83	136.12
243.064	138.12
243.298	148.12
243.531	135.12
243.765	136.12
243.998	148.12
244.232	139.12
244.465	142.12
244.699	150.12
244.932	158.12
245.166	153.12
245.399	146.12
245.633	154.12
245.866	161.12
246.099	158.12
246.333	136.12
246.566	144.12
246.8	160.12
247.033	157.12
247.266	171.12
247.5	166.12
247.733	150.12
247.966	170.12
248.2	171.12
248.433	186.12
248.666	182.12
248.899	201.12
249.133	192.12
249.366	226.12
249.599	220.12
249.832	180.12
250.066	187.12
250.299	181.12
250.532	201.12
250.765	212.12
250.998	228.12
251.231	237.12
251.465	227.12
251.698	221.12
251.931	214.12
252.164	197.12
252.397	199.12
252.63	211.12
252.863	222.12
253.096	224.12
253.329	258.12
253.562	247.12
253.795	246.12
254.028	235.12
254.261	223.12
254.494	237.12
254.727	253.12
254.96	308.12
255.193	281.12
255.426	285.12
255.659	250.12
255.892	244.12
256.124	256.12
256.357	270.12
256.59	239.12
256.823	232.12
257.056	221.12
257.289	219.12
257.521	227.12
257.754	220.12
257.987	206.12
258.22	220.12
258.452	222.12
258.685	212.12
258.918	223.12
259.151	233.12
259.383	214.12
259.616	238.12
259.849	251.12
260.081	250.12
260.314	264.12
260.547	280.12
260.779	263.12
261.012	255.12
261.244	238.12
261.477	248.12
261.71	226.12
261.942	240.12
262.175	276.12
262.407	237.12
262.64	224.12
262.872	235.12
263.105	223.12
263.337	222.12
263.57	219.12
263.802	230.12
264.035	228.12
264.267	213.12
264.499	220.12
264.732	222.12
264.964	230.12
265.197	229.12
265.429	216.12
265.661	207.12
265.894	236.12
266.126	218.12
266.358	216.12
266.591	229.12
266.823	224.12
267.055	227.12
267.287	227.12
267.52	239.12
267.752	223.12
267.984	246.12
268.216	253.12
268.448	236.12
268.681	242.12
268.913	242.12
269.145	270.12
269.377	273.12
269.609	284.12
269.841	284.12
270.073	294.12
270.306	300.12
270.538	342.12
270.77	340.12
271.002	310.12
271.234	314.12
271.466	317.12
271.698	306.12
271.93	319.12
272.162	327.12
272.394	352.12
272.626	325.12
272.858	313.12
273.09	295.12
273.322	290.12
273.553	267.12
273.785	265.12
274.017	295.12
274.249	274.12
274.481	270.12
274.713	285.12
274.945	269.12
275.176	279.12
275.408	280.12
275.64	280.12
275.872	270.12
276.104	285.12
276.335	278.12
276.567	268.12
276.799	314.12
277.031	311.12
277.262	336.12
277.494	331.12
277.726	323.12
277.957	301.12
278.189	293.12
278.421	295.12
278.652	279.12
278.884	275.12
279.115	265.12
279.347	280.12
279.579	272.12
279.81	284.12
280.042	264.12
280.273	267.12
280.505	281.12
280.736	282.12
280.968	272.12
281.199	285.12
281.431	254.12
281.662	263.12
281.894	274.12
282.125	278.12
282.356	287.12
282.588	325.12
282.819	319.12
283.051	296.12
283.282	280.12
283.513	282.12
283.745	277.12
283.976	281.12
284.207	296.12
284.439	269.12
284.67	285.12
284.901	303.12
285.132	298.12
285.364	277.12
285.595	272.12
285.826	294.12
286.057	285.12
286.288	283.12
286.52	285.12
286.751	271.12
286.982	272.12
287.213	268.12
287.444	285.12
287.675	294.12
287.906	300.12
288.138	288.12
288.369	307.12
288.6	297.12
288.831	296.12
289.062	307.12
289.293	299.12
289.524	292.12
289.755	269.12
289.986	274.12
290.217	281.12
290.448	291.12
290.679	285.12
290.91	272.12
291.141	278.12
291.371	276.12
291.602	289.12
291.833	278.12
292.064	284.12
292.295	293.12
292.526	287.12
292.757	284.12
292.987	279.12
293.218	282.12
293.449	299.12
293.68	295.12
293.91	285.12
294.141	280.12
294.372	273.12
294.603	292.12
294.833	275.12
295.064	300.12
295.295	294.12
295.525	298.12
295.756	280.12
295.987	292.12
296.217	328.12
296.448	352.12
296.679	308.12
296.909	300.12
297.14	286.12
297.37	290.12
297.601	304.12
297.831	281.12
298.062	301.12
298.292	298.12
298.523	300.12
298.753	291.12
298.984	302.12
299.214	326.12
299.445	302.12
299.675	306.12
299.905	305.12
300.136	309.12
300.366	310.12
300.597	329.12
300.827	319.12
301.057	302.12
301.288	318.12
301.518	324.12
301.748	330.12
301.979	307.12
302.209	314.12
302.439	319.12
302.669	312.12
302.9	323.12
303.13	306.12
303.36	330.12
303.59	327.12
303.82	333.12
304.051	347.12
304.281	329.12
304.511	319.12
304.741	317.12
304.971	326.12
305.201	312.12
305.431	309.12
305.661	328.12
305.891	310.12
306.121	312.12
306.352	322.12
306.582	341.12
306.812	334.12
307.042	331.12
307.272	339.12
307.502	317.12
307.731	318.12
307.961	354.12
308.191	326.12
308.421	331.12
308.651	347.12
308.881	360.12
309.111	335.12
309.341	338.12
309.571	378.12
309.8	358.12
310.03	368.12
310.26	392.12
310.49	363.12
310.72	398.12
310.949	415.12
311.179	408.12
311.409	382.12
311.639	397.12
311.868	386.12
312.098	371.12
312.328	398.12
312.557	415.12
312.787	435.12
313.017	428.12
313.246	397.12
313.476	378.12
313.706	364.12
313.935	392.12
314.165	418.12
314.394	428.12
314.624	411.12
314.853	382.12
315.083	384.12
315.312	384.12
315.542	382.12
315.771	365.12
316.001	388.12
316.23	369.12
316.46	370.12
316.689	347.12
316.919	396.12
317.148	382.12
317.377	398.12
317.607	388.12
317.836	387.12
318.065	390.12
318.295	384.12
318.524	390.12
318.753	382.12
318.983	381.12
319.212	362.12
319.441	390.12
319.67	382.12
319.9	383.12
320.129	391.12
320.358	392.12
320.587	403.12
320.816	404.12
321.046	442.12
321.275	415.12
321.504	409.12
321.733	432.12
321.962	422.12
322.191	410.12
322.42	452.12
322.649	476.12
322.878	493.12
323.108	490.12
323.337	561.12
323.566	566.12
323.795	621.12
324.024	681.12
324.253	852.12
324.482	1215.12
324.71	1908.12
324.939	2868.12
325.168	2510.12
325.397	1244.12
325.626	826.12
325.855	638.12
326.084	591.12
326.313	536.12
326.542	580.12
326.77	626.12
326.999	750.12
327.228	1083.12
327.457	1743.12
327.686	2136.12
327.914	1379.12
328.143	881.12
328.372	724.12
328.6	688.12
328.829	658.12
329.058	659.12
329.287	676.12
329.515	619.12
329.744	580.12
329.972	571.12
330.201	608.12
330.43	664.12
330.658	672.12
330.887	724.12
331.115	694.12
331.344	597.12
331.572	540.12
331.801	540.12
332.03	544.12
332.258	496.12
332.486	468.12
332.715	446.12
332.943	456.12
333.172	452.12
333.4	472.12
333.629	483.12
333.857	487.12
334.085	503.12
334.314	534.12
334.542	579.12
334.771	593.12
334.999	522.12
335.227	482.12
335.455	463.12
335.684	465.12
335.912	420.12
336.14	421.12
336.369	440.12
336.597	442.12
336.825	446.12
337.053	437.12
337.281	437.12
337.51	417.12
337.738	445.12
337.966	430.12
338.194	453.12
338.422	453.12
338.65	431.12
338.878	426.12
339.106	428.12
339.334	411.12
339.562	405.12
339.79	425.12
340.018	428.12
340.246	420.12
340.474	444.12
340.702	438.12
340.93	417.12
341.158	409.12
341.386	428.12
341.614	441.12
341.842	416.12
342.07	417.12
342.298	418.12
342.526	397.12
342.754	411.12
342.981	398.12
343.209	408.12
343.437	381.12
343.665	397.12
343.893	410.12
344.12	414.12
344.348	436.12
344.576	405.12
344.804	418.12
345.031	448.12
345.259	447.12
345.487	441.12
345.714	426.12
345.942	438.12
346.17	413.12
346.397	426.12
346.625	398.12
346.853	397.12
347.08	419.12
347.308	441.12
347.535	417.12
347.763	444.12
347.99	432.12
348.218	422.12
348.445	435.12
348.673	425.12
348.9	422.12
349.128	409.12
349.355	390.12
349.583	382.12
349.81	409.12
350.037	367.12
350.265	383.12
350.492	397.12
350.72	389.12
350.947	381.12
351.174	416.12
351.402	426.12
351.629	414.12
351.856	408.12
352.083	436.12
352.311	452.12
352.538	462.12
352.765	415.12
352.992	441.12
353.22	414.12
353.447	419.12
353.674	409.12
353.901	386.12
354.128	397.12
354.355	377.12
354.583	379.12
354.81	394.12
355.037	371.12
355.264	377.12
355.491	368.12
355.718	382.12
355.945	387.12
356.172	368.12
356.399	380.12
356.626	378.12
356.853	359.12
357.08	359.12
357.307	355.12
357.534	367.12
357.761	382.12
357.988	382.12
358.215	376.12
358.441	360.12
358.668	373.12
358.895	384.12
359.122	398.12
359.349	394.12
359.576	414.12
359.802	464.12
360.029	467.12
360.256	488.12
360.483	463.12
360.709	423.12
360.936	403.12
361.163	402.12
361.39	408.12
361.616	406.12
361.843	406.12
362.07	400.12
362.296	430.12
362.523	425.12
362.749	408.12
362.976	414.12
363.203	382.12
363.429	387.12
363.656	390.12
363.882	397.12
364.109	381.12
364.335	396.12
364.562	377.12
364.788	390.12
365.015	406.12
365.241	406.12
365.468	390.12
365.694	383.12
365.92	404.12
366.147	410.12
366.373	382.12
366.599	402.12
366.826	365.12
367.052	369.12
367.278	390.12
367.505	399.12
367.731	388.12
367.957	382.12
368.184	383.12
368.41	372.12
368.636	397.12
368.862	411.12
369.089	388.12
369.315	386.12
369.541	381.12
369.767	390.12
369.993	385.12
370.219	372.12
370.445	358.12
370.672	362.12
370.898	367.12
371.124	364.12
371.35	356.12
371.576	383.12
371.802	368.12
372.028	370.12
372.254	342.12
372.48	367.12
372.706	360.12
372.932	379.12
373.158	368.12
373.384	372.12
373.61	371.12
373.835	357.12
374.061	371.12
374.287	374.12
374.513	390.12
374.739	371.12
374.965	366.12
375.191	354.12
375.416	363.12
375.642	364.12
375.868	382.12
376.094	380.12
376.319	378.12
376.545	380.12
376.771	375.12
376.997	371.12
377.222	356.12
377.448	353.12
377.674	348.12
377.899	360.12
378.125	371.12
378.35	342.12
378.576	360.12
378.802	361.12
379.027	369.12
379.253	378.12
379.478	356.12
379.704	381.12
379.929	362.12
380.155	357.12
380.38	365.12
380.606	334.12
380.831	354.12
381.057	342.12
381.282	372.12
381.507	376.12
381.733	370.12
381.958	381.12
382.184	363.12
382.409	378.12
382.634	380.12
382.86	380.12
383.085	381.12
383.31	366.12
383.535	380.12
383.761	374.12
383.986	378.12
384.211	384.12
384.436	367.12
384.662	378.12
384.887	386.12
385.112	377.12
385.337	380.12
385.562	376.12
385.787	403.12
386.013	410.12
386.238	406.12
386.463	401.12
386.688	383.12
386.913	384.12
387.138	382.12
387.363	395.12
387.588	387.12
387.813	383.12
388.038	383.12
388.263	390.12
388.488	403.12
388.713	397.12
388.938	386.12
389.163	391.12
389.387	378.12
389.612	382.12
389.837	387.12
390.062	379.12
390.287	407.12
390.512	388.12
390.736	395.12
390.961	383.12
391.186	393.12
391.411	385.12
391.636	388.12
391.86	412.12
392.085	379.12
392.31	391.12
392.534	387.12
392.759	389.12
392.984	383.12
393.208	382.12
393.433	398.12
393.658	410.12
393.882	370.12
394.107	378.12
394.331	377.12
394.556	385.12
394.78	397.12
395.005	377.12
395.229	383.12
395.454	408.12
395.678	396.12
395.903	413.12
396.127	455.12
396.352	425.12
396.576	416.12
396.801	412.12
397.025	380.12
397.249	400.12
397.474	399.12
397.698	422.12
397.922	434.12
398.147	438.12
398.371	429.12
398.595	417.12
398.82	436.12
399.044	430.12
399.268	454.12
399.492	460.12
399.717	482.12
399.941	503.12
400.165	533.12
400.389	558.12
400.613	493.12
400.837	480.12
401.062	442.12
401.286	450.12
401.51	408.12
401.734	465.12
401.958	440.12
402.182	444.12
402.406	461.12
402.63	447.12
402.854	455.12
403.078	463.12
403.302	451.12
403.526	471.12
403.75	466.12
403.974	439.12
404.198	436.12
404.422	455.12
404.645	475.12
404.869	469.12
405.093	506.12
405.317	562.12
405.541	595.12
405.765	536.12
405.988	508.12
406.212	471.12
406.436	532.12
406.66	554.12
406.883	534.12
407.107	529.12
407.331	577.12
407.555	619.12
407.778	649.12
408.002	584.12
408.226	534.12
408.449	556.12
408.673	534.12
408.896	570.12
409.12	604.12
409.344	543.12
409.567	484.12
409.791	484.12
410.014	467.12
410.238	466.12
410.461	460.12
410.685	487.12
410.908	497.12
411.132	534.12
411.355	570.12
411.578	545.12
411.802	477.12
412.025	467.12
412.249	477.12
412.472	529.12
412.695	556.12
412.919	530.12
413.142	511.12
413.365	463.12
413.589	480.12
413.812	447.12
414.035	449.12
414.258	454.12
414.482	440.12
414.705	423.12
414.928	409.12
415.151	418.12
415.374	426.12
415.597	445.12
415.821	438.12
416.044	420.12
416.267	425.12
416.49	426.12
416.713	427.12
416.936	414.12
417.159	440.12
417.382	418.12
417.605	437.12
417.828	453.12
418.051	486.12
418.274	456.12
418.497	454.12
418.72	423.12
418.943	423.12
419.166	448.12
419.389	473.12
419.611	469.12
419.834	442.12
420.057	444.12
420.28	439.12
420.503	488.12
420.726	474.12
420.948	488.12
421.171	526.12
421.394	556.12
421.617	508.12
421.839	454.12
422.062	459.12
422.285	478.12
422.507	556.12
422.73	633.12
422.953	596.12
423.175	528.12
423.398	518.12
423.621	485.12
423.843	518.12
424.066	511.12
424.288	504.12
424.511	529.12
424.733	587.12
424.956	672.12
425.178	646.12
425.401	665.12
425.623	656.12
425.846	584.12
426.068	536.12
426.291	504.12
426.513	534.12
426.735	528.12
426.958	588.12
427.18	672.12
427.402	773.12
427.625	902.12
427.847	806.12
428.069	690.12
428.292	593.12
428.514	519.12
428.736	494.12
428.958	487.12
429.181	502.12
429.403	482.12
429.625	485.12
429.847	522.12
430.069	592.12
430.292	596.12
430.514	495.12
430.736	467.12
430.958	470.12
431.18	450.12
431.402	428.12
431.624	427.12
431.846	413.12
432.068	451.12
432.29	432.12
432.512	443.12
432.734	466.12
432.956	453.12
433.178	480.12
433.4	459.12
433.622	454.12
433.844	442.12
434.066	428.12
434.287	450.12
434.509	432.12
434.731	430.12
434.953	463.12
435.175	479.12
435.397	533.12
435.618	529.12
435.84	566.12
436.062	670.12
436.284	747.12
436.505	632.12
436.727	562.12
436.949	493.12
437.17	500.12
437.392	486.12
437.614	510.12
437.835	566.12
438.057	665.12
438.278	764.12
438.5	758.12
438.721	860.12
438.943	796.12
439.165	631.12
439.386	545.12
439.608	566.12
439.829	551.12
440.05	599.12
440.272	648.12
440.493	607.12
440.715	530.12
440.936	499.12
441.158	491.12
441.379	497.12
441.6	486.12
441.822	532.12
442.043	571.12
442.264	654.12
442.486	694.12
442.707	582.12
442.928	546.12
443.149	546.12
443.371	585.12
443.592	626.12
443.813	740.12
444.034	761.12
444.255	636.12
444.476	548.12
444.698	529.12
444.919	517.12
445.14	595.12
445.361	589.12
445.582	578.12
445.803	678.12
446.024	779.12
446.245	798.12
446.466	720.12
446.687	603.12
446.908	549.12
447.129	516.12
447.35	499.12
447.571	479.12
447.792	457.12
448.013	501.12
448.234	532.12
448.455	573.12
448.675	675.12
448.896	810.12
449.117	693.12
449.338	644.12
449.559	770.12
449.779	859.12
450	688.12
450.221	566.12
450.442	501.12
450.662	482.12
450.883	498.12
451.104	527.12
451.324	486.12
451.545	482.12
451.766	454.12
451.986	441.12
452.207	448.12
452.428	437.12
452.648	422.12
452.869	414.12
453.089	434.12
453.31	476.12
453.53	428.12
453.751	439.12
453.971	456.12
454.192	465.12
454.412	445.12
454.633	452.12
454.853	439.12
455.073	416.12
455.294	470.12
455.514	547.12
455.734	532.12
455.955	440.12
456.175	426.12
456.395	406.12
456.616	401.12
456.836	399.12
457.056	413.12
457.276	385.12
457.497	380.12
457.717	427.12
457.937	419.12
458.157	429.12
458.377	435.12
458.598	448.12
458.818	518.12
459.038	622.12
459.258	639.12
459.478	516.12
459.698	445.12
459.918	436.12
460.138	443.12
460.358	446.12
460.578	430.12
460.798	445.12
461.018	440.12
461.238	434.12
461.458	447.12
461.678	440.12
461.898	437.12
462.118	436.12
462.338	441.12
462.558	431.12
462.777	443.12
462.997	429.12
463.217	452.12
463.437	465.12
463.657	442.12
463.876	453.12
464.096	464.12
464.316	454.12
464.536	476.12
464.755	456.12
464.975	479.12
465.195	514.12
465.414	632.12
465.634	556.12
465.854	512.12
466.073	468.12
466.293	446.12
466.512	436.12
466.732	428.12
466.951	444.12
467.171	421.12
467.391	406.12
467.61	442.12
467.829	459.12
468.049	439.12
468.268	453.12
468.488	437.12
468.707	422.12
468.927	434.12
469.146	427.12
469.365	435.12
469.585	408.12
469.804	432.12
470.023	454.12
470.243	427.12
470.462	451.12
470.681	480.12
470.901	464.12
471.12	441.12
471.339	435.12
471.558	444.12
471.777	444.12
471.997	415.12
472.216	446.12
472.435	510.12
472.654	500.12
472.873	455.12
473.092	446.12
473.311	442.12
473.53	446.12
473.749	458.12
473.968	503.12
474.187	634.12
474.406	646.12
474.625	509.12
474.844	460.12
475.063	460.12
475.282	439.12
475.501	448.12
475.72	442.12
475.939	452.12
476.158	462.12
476.377	452.12
476.596	439.12
476.814	455.12
477.033	457.12
477.252	449.12
477.471	472.12
477.69	477.12
477.908	458.12
478.127	486.12
478.346	464.12
478.564	480.12
478.783	494.12
479.002	506.12
479.22	510.12
479.439	504.12
479.658	532.12
479.876	525.12
480.095	531.12
480.313	556.12
480.532	556.12
480.751	556.12
480.969	551.12
481.188	658.12
481.406	692.12
481.624	591.12
481.843	566.12
482.061	530.12
482.28	538.12
482.498	515.12
482.717	528.12
482.935	536.12
483.153	518.12
483.372	511.12
483.59	490.12
483.808	519.12
484.027	493.12
484.245	516.12
484.463	514.12
484.681	534.12
484.9	548.12
485.118	527.12
485.336	527.12
485.554	531.12
485.772	532.12
485.99	543.12
486.209	536.12
486.427	524.12
486.645	546.12
486.863	584.12
487.081	567.12
487.299	577.12
487.517	565.12
487.735	555.12
487.953	572.12
488.171	553.12
488.389	538.12
488.607	565.12
488.825	591.12
489.043	559.12
489.261	590.12
489.479	575.12
489.696	567.12
489.914	564.12
490.132	576.12
490.35	576.12
490.568	618.12
490.786	602.12
491.003	620.12
491.221	598.12
491.439	609.12
491.657	619.12
491.874	606.12
492.092	651.12
492.31	642.12
492.527	644.12
492.745	656.12
492.963	652.12
493.18	667.12
493.398	664.12
493.615	669.12
493.833	693.12
494.05	656.12
494.268	666.12
494.485	662.12
494.703	675.12
494.92	674.12
495.138	686.12
495.355	678.12
495.573	652.12
495.79	656.12
496.008	671.12
496.225	651.12
496.442	662.12
496.66	675.12
496.877	661.12
497.094	679.12
497.312	656.12
497.529	688.12
497.746	703.12
497.963	722.12
498.181	725.12
498.398	714.12
498.615	712.12
498.832	718.12
499.049	717.12
499.267	728.12
499.484	744.12
499.701	746.12
499.918	803.12
500.135	803.12
500.352	820.12
500.569	796.12
500.786	802.12
501.003	829.12
501.22	820.12
501.437	796.12
501.654	786.12
501.871	821.12
