Data from 1972.PennyLincolnUp.Lamp.En5.5.200Scan.071719.P1._HRD10591_15-29-37-844.txt Node
Date: Thu Jul 18 15:29:37 EDT 2019
User: cochatt
Spectrometer: HR+D1059
Trigger mode: 1
Integration Time (sec): 1.000000E-1
Scans to average: 1
Electric dark correction enabled: true
Nonlinearity correction enabled: false
Boxcar width: 0
XAxis mode: Wavelengths
Number of Pixels in Spectrum: 2048
>>>>>Begin Spectral Data<<<<<
223.165	-13.12
223.4	-13.12
223.635	-13.12
223.869	-27.12
224.104	-29.12
224.338	-22.12
224.573	-10.12
224.808	-12.12
225.042	6.88
225.277	9.88
225.511	-3.12
225.746	1.88
225.98	5.88
226.215	10.88
226.449	21.88
226.683	12.88
226.918	20.88
227.152	25.88
227.387	25.88
227.621	40.88
227.856	48.88
228.09	33.88
228.324	43.88
228.559	64.88
228.793	59.88
229.027	118.88
229.262	113.88
229.496	117.88
229.73	140.88
229.964	170.88
230.199	156.88
230.433	113.88
230.667	119.88
230.901	122.88
231.136	114.88
231.37	115.88
231.604	108.88
231.838	103.88
232.072	125.88
232.306	122.88
232.541	107.88
232.775	118.88
233.009	109.88
233.243	96.88
233.477	127.88
233.711	103.88
233.945	119.88
234.179	118.88
234.413	115.88
234.647	104.88
234.881	121.88
235.115	119.88
235.349	116.88
235.583	116.88
235.817	135.88
236.051	129.88
236.285	140.88
236.519	121.88
236.753	136.88
236.987	147.88
237.221	197.88
237.455	267.88
237.689	200.88
237.922	155.88
238.156	139.88
238.39	133.88
238.624	140.88
238.858	114.88
239.091	125.88
239.325	120.88
239.559	128.88
239.793	122.88
240.027	140.88
240.26	145.88
240.494	164.88
240.728	163.88
240.961	161.88
241.195	149.88
241.429	125.88
241.662	136.88
241.896	133.88
242.13	136.88
242.363	144.88
242.597	126.88
242.83	147.88
243.064	138.88
243.298	152.88
243.531	135.88
243.765	140.88
243.998	127.88
244.232	153.88
244.465	143.88
244.699	148.88
244.932	149.88
245.166	151.88
245.399	150.88
245.633	131.88
245.866	151.88
246.099	145.88
246.333	156.88
246.566	156.88
246.8	137.88
247.033	155.88
247.266	169.88
247.5	160.88
247.733	185.88
247.966	185.88
248.2	157.88
248.433	163.88
248.666	192.88
248.899	174.88
249.133	195.88
249.366	222.88
249.599	220.88
249.832	175.88
250.066	186.88
250.299	191.88
250.532	199.88
250.765	208.88
250.998	220.88
251.231	245.88
251.465	229.88
251.698	220.88
251.931	208.88
252.164	225.88
252.397	210.88
252.63	210.88
252.863	229.88
253.096	223.88
253.329	241.88
253.562	240.88
253.795	233.88
254.028	220.88
254.261	220.88
254.494	225.88
254.727	276.88
254.96	295.88
255.193	284.88
255.426	277.88
255.659	275.88
255.892	246.88
256.124	244.88
256.357	234.88
256.59	248.88
256.823	223.88
257.056	229.88
257.289	247.88
257.521	223.88
257.754	224.88
257.987	230.88
258.22	214.88
258.452	220.88
258.685	229.88
258.918	221.88
259.151	219.88
259.383	243.88
259.616	228.88
259.849	228.88
260.081	244.88
260.314	260.88
260.547	290.88
260.779	270.88
261.012	243.88
261.244	260.88
261.477	226.88
261.71	220.88
261.942	224.88
262.175	256.88
262.407	236.88
262.64	222.88
262.872	231.88
263.105	237.88
263.337	233.88
263.57	228.88
263.802	223.88
264.035	210.88
264.267	213.88
264.499	220.88
264.732	232.88
264.964	205.88
265.197	212.88
265.429	203.88
265.661	208.88
265.894	204.88
266.126	222.88
266.358	201.88
266.591	216.88
266.823	227.88
267.055	225.88
267.287	219.88
267.52	203.88
267.752	237.88
267.984	222.88
268.216	233.88
268.448	239.88
268.681	227.88
268.913	244.88
269.145	275.88
269.377	280.88
269.609	275.88
269.841	291.88
270.073	288.88
270.306	310.88
270.538	345.88
270.77	351.88
271.002	337.88
271.234	312.88
271.466	316.88
271.698	324.88
271.93	333.88
272.162	337.88
272.394	331.88
272.626	321.88
272.858	311.88
273.09	311.88
273.322	303.88
273.553	293.88
273.785	278.88
274.017	275.88
274.249	271.88
274.481	267.88
274.713	276.88
274.945	269.88
275.176	283.88
275.408	290.88
275.64	283.88
275.872	274.88
276.104	277.88
276.335	271.88
276.567	268.88
276.799	295.88
277.031	303.88
277.262	348.88
277.494	348.88
277.726	306.88
277.957	306.88
278.189	287.88
278.421	285.88
278.652	264.88
278.884	274.88
279.115	269.88
279.347	266.88
279.579	277.88
279.81	271.88
280.042	259.88
280.273	278.88
280.505	276.88
280.736	276.88
280.968	258.88
281.199	259.88
281.431	254.88
281.662	261.88
281.894	270.88
282.125	283.88
282.356	304.88
282.588	330.88
282.819	321.88
283.051	304.88
283.282	281.88
283.513	270.88
283.745	281.88
283.976	264.88
284.207	265.88
284.439	277.88
284.67	288.88
284.901	280.88
285.132	292.88
285.364	265.88
285.595	275.88
285.826	240.88
286.057	263.88
286.288	277.88
286.52	282.88
286.751	270.88
286.982	263.88
287.213	262.88
287.444	287.88
287.675	284.88
287.906	295.88
288.138	301.88
288.369	298.88
288.6	295.88
288.831	291.88
289.062	289.88
289.293	277.88
289.524	285.88
289.755	265.88
289.986	292.88
290.217	281.88
290.448	277.88
290.679	259.88
290.91	293.88
291.141	281.88
291.371	278.88
291.602	274.88
291.833	291.88
292.064	281.88
292.295	266.88
292.526	273.88
292.757	291.88
292.987	263.88
293.218	276.88
293.449	290.88
293.68	282.88
293.91	273.88
294.141	290.88
294.372	282.88
294.603	289.88
294.833	292.88
295.064	289.88
295.295	287.88
295.525	280.88
295.756	305.88
295.987	291.88
296.217	322.88
296.448	330.88
296.679	316.88
296.909	290.88
297.14	300.88
297.37	304.88
297.601	289.88
297.831	290.88
298.062	291.88
298.292	301.88
298.523	279.88
298.753	298.88
298.984	317.88
299.214	289.88
299.445	326.88
299.675	300.88
299.905	323.88
300.136	317.88
300.366	294.88
300.597	307.88
300.827	313.88
301.057	328.88
301.288	313.88
301.518	324.88
301.748	309.88
301.979	322.88
302.209	324.88
302.439	335.88
302.669	322.88
302.9	307.88
303.13	296.88
303.36	323.88
303.59	309.88
303.82	315.88
304.051	316.88
304.281	327.88
304.511	318.88
304.741	310.88
304.971	309.88
305.201	320.88
305.431	307.88
305.661	329.88
305.891	307.88
306.121	312.88
306.352	327.88
306.582	328.88
306.812	331.88
307.042	296.88
307.272	312.88
307.502	329.88
307.731	327.88
307.961	321.88
308.191	312.88
308.421	337.88
308.651	314.88
308.881	322.88
309.111	346.88
309.341	330.88
309.571	356.88
309.8	360.88
310.03	381.88
310.26	397.88
310.49	368.88
310.72	371.88
310.949	392.88
311.179	407.88
311.409	393.88
311.639	387.88
311.868	383.88
312.098	389.88
312.328	390.88
312.557	397.88
312.787	444.88
313.017	423.88
313.246	402.88
313.476	399.88
313.706	390.88
313.935	381.88
314.165	409.88
314.394	402.88
314.624	417.88
314.853	388.88
315.083	385.88
315.312	375.88
315.542	368.88
315.771	372.88
316.001	365.88
316.23	370.88
316.46	383.88
316.689	351.88
316.919	371.88
317.148	362.88
317.377	387.88
317.607	393.88
317.836	384.88
318.065	379.88
318.295	365.88
318.524	358.88
318.753	375.88
318.983	370.88
319.212	384.88
319.441	395.88
319.67	368.88
319.9	377.88
320.129	388.88
320.358	389.88
320.587	377.88
320.816	392.88
321.046	417.88
321.275	414.88
321.504	399.88
321.733	412.88
321.962	410.88
322.191	451.88
322.42	479.88
322.649	462.88
322.878	493.88
323.108	497.88
323.337	520.88
323.566	544.88
323.795	587.88
324.024	671.88
324.253	833.88
324.482	1230.88
324.71	1979.88
324.939	2929.88
325.168	2536.88
325.397	1303.88
325.626	831.88
325.855	617.88
326.084	569.88
326.313	569.88
326.542	566.88
326.77	643.88
326.999	799.88
327.228	1088.88
327.457	1751.88
327.686	2162.88
327.914	1420.88
328.143	869.88
328.372	772.88
328.6	679.88
328.829	653.88
329.058	681.88
329.287	665.88
329.515	626.88
329.744	571.88
329.972	580.88
330.201	587.88
330.43	672.88
330.658	695.88
330.887	723.88
331.115	698.88
331.344	601.88
331.572	531.88
331.801	543.88
332.03	507.88
332.258	494.88
332.486	469.88
332.715	459.88
332.943	426.88
333.172	472.88
333.4	442.88
333.629	466.88
333.857	487.88
334.085	472.88
334.314	533.88
334.542	576.88
334.771	599.88
334.999	529.88
335.227	473.88
335.455	448.88
335.684	446.88
335.912	437.88
336.14	449.88
336.369	425.88
336.597	462.88
336.825	458.88
337.053	436.88
337.281	445.88
337.51	417.88
337.738	417.88
337.966	421.88
338.194	466.88
338.422	443.88
338.65	437.88
338.878	408.88
339.106	403.88
339.334	407.88
339.562	424.88
339.79	416.88
340.018	430.88
340.246	409.88
340.474	428.88
340.702	410.88
340.93	427.88
341.158	428.88
341.386	410.88
341.614	421.88
341.842	411.88
342.07	409.88
342.298	401.88
342.526	415.88
342.754	410.88
342.981	403.88
343.209	397.88
343.437	388.88
343.665	388.88
343.893	401.88
344.12	404.88
344.348	411.88
344.576	388.88
344.804	421.88
345.031	434.88
345.259	444.88
345.487	432.88
345.714	439.88
345.942	433.88
346.17	403.88
346.397	417.88
346.625	410.88
346.853	422.88
347.08	403.88
347.308	397.88
347.535	420.88
347.763	428.88
347.99	434.88
348.218	407.88
348.445	415.88
348.673	425.88
348.9	423.88
349.128	402.88
349.355	388.88
349.583	384.88
349.81	389.88
350.037	397.88
350.265	403.88
350.492	391.88
350.72	393.88
350.947	416.88
351.174	409.88
351.402	430.88
351.629	420.88
351.856	438.88
352.083	425.88
352.311	435.88
352.538	450.88
352.765	433.88
352.992	422.88
353.22	412.88
353.447	425.88
353.674	391.88
353.901	370.88
354.128	369.88
354.355	390.88
354.583	392.88
354.81	361.88
355.037	368.88
355.264	356.88
355.491	352.88
355.718	343.88
355.945	377.88
356.172	339.88
356.399	354.88
356.626	350.88
356.853	351.88
357.08	364.88
357.307	374.88
357.534	354.88
357.761	371.88
357.988	373.88
358.215	384.88
358.441	371.88
358.668	368.88
358.895	370.88
359.122	381.88
359.349	391.88
359.576	410.88
359.802	437.88
360.029	467.88
360.256	470.88
360.483	469.88
360.709	426.88
360.936	404.88
361.163	415.88
361.39	413.88
361.616	405.88
361.843	420.88
362.07	388.88
362.296	408.88
362.523	400.88
362.749	392.88
362.976	395.88
363.203	393.88
363.429	369.88
363.656	361.88
363.882	367.88
364.109	395.88
364.335	380.88
364.562	386.88
364.788	385.88
365.015	380.88
365.241	384.88
365.468	393.88
365.694	391.88
365.92	393.88
366.147	374.88
366.373	383.88
366.599	375.88
366.826	352.88
367.052	369.88
367.278	355.88
367.505	365.88
367.731	371.88
367.957	387.88
368.184	367.88
368.41	395.88
368.636	396.88
368.862	405.88
369.089	389.88
369.315	378.88
369.541	379.88
369.767	364.88
369.993	362.88
370.219	374.88
370.445	383.88
370.672	374.88
370.898	357.88
371.124	354.88
371.35	357.88
371.576	378.88
371.802	344.88
372.028	373.88
372.254	356.88
372.48	374.88
372.706	350.88
372.932	357.88
373.158	353.88
373.384	370.88
373.61	361.88
373.835	354.88
374.061	353.88
374.287	378.88
374.513	364.88
374.739	354.88
374.965	356.88
375.191	358.88
375.416	360.88
375.642	362.88
375.868	372.88
376.094	367.88
376.319	344.88
376.545	351.88
376.771	372.88
376.997	355.88
377.222	367.88
377.448	345.88
377.674	343.88
377.899	351.88
378.125	346.88
378.35	350.88
378.576	335.88
378.802	346.88
379.027	367.88
379.253	357.88
379.478	349.88
379.704	357.88
379.929	357.88
380.155	353.88
380.38	360.88
380.606	362.88
380.831	360.88
381.057	359.88
381.282	354.88
381.507	351.88
381.733	353.88
381.958	367.88
382.184	355.88
382.409	345.88
382.634	372.88
382.86	362.88
383.085	370.88
383.31	369.88
383.535	377.88
383.761	372.88
383.986	371.88
384.211	366.88
384.436	362.88
384.662	374.88
384.887	364.88
385.112	371.88
385.337	387.88
385.562	366.88
385.787	358.88
386.013	404.88
386.238	397.88
386.463	393.88
386.688	402.88
386.913	356.88
387.138	384.88
387.363	382.88
387.588	365.88
387.813	392.88
388.038	370.88
388.263	382.88
388.488	372.88
388.713	375.88
388.938	383.88
389.163	371.88
389.387	364.88
389.612	376.88
389.837	383.88
390.062	359.88
390.287	356.88
390.512	365.88
390.736	374.88
390.961	379.88
391.186	378.88
391.411	380.88
391.636	392.88
391.86	377.88
392.085	374.88
392.31	373.88
392.534	379.88
392.759	383.88
392.984	375.88
393.208	362.88
393.433	356.88
393.658	379.88
393.882	372.88
394.107	360.88
394.331	371.88
394.556	383.88
394.78	366.88
395.005	393.88
395.229	386.88
395.454	384.88
395.678	373.88
395.903	400.88
396.127	412.88
396.352	401.88
396.576	388.88
396.801	387.88
397.025	408.88
397.249	387.88
397.474	401.88
397.698	408.88
397.922	425.88
398.147	422.88
398.371	420.88
398.595	432.88
398.82	406.88
399.044	391.88
399.268	423.88
399.492	447.88
399.717	462.88
399.941	499.88
400.165	528.88
400.389	551.88
400.613	481.88
400.837	469.88
401.062	442.88
401.286	435.88
401.51	410.88
401.734	426.88
401.958	418.88
402.182	420.88
402.406	464.88
402.63	452.88
402.854	432.88
403.078	425.88
403.302	427.88
403.526	439.88
403.75	443.88
403.974	441.88
404.198	451.88
404.422	420.88
404.645	468.88
404.869	481.88
405.093	474.88
405.317	548.88
405.541	571.88
405.765	492.88
405.988	484.88
406.212	496.88
406.436	506.88
406.66	554.88
406.883	496.88
407.107	512.88
407.331	555.88
407.555	631.88
407.778	633.88
408.002	577.88
408.226	507.88
408.449	497.88
408.673	501.88
408.896	541.88
409.12	552.88
409.344	549.88
409.567	474.88
409.791	483.88
410.014	458.88
410.238	458.88
410.461	465.88
410.685	472.88
410.908	484.88
411.132	509.88
411.355	553.88
411.578	523.88
411.802	460.88
412.025	451.88
412.249	460.88
412.472	475.88
412.695	534.88
412.919	540.88
413.142	440.88
413.365	439.88
413.589	436.88
413.812	435.88
414.035	438.88
414.258	433.88
414.482	413.88
414.705	420.88
414.928	436.88
415.151	426.88
415.374	426.88
415.597	432.88
415.821	419.88
416.044	410.88
416.267	422.88
416.49	409.88
416.713	422.88
416.936	408.88
417.159	425.88
417.382	432.88
417.605	453.88
417.828	445.88
418.051	452.88
418.274	416.88
418.497	423.88
418.72	435.88
418.943	421.88
419.166	433.88
419.389	439.88
419.611	441.88
419.834	445.88
420.057	465.88
420.28	438.88
420.503	444.88
420.726	459.88
420.948	459.88
421.171	529.88
421.394	561.88
421.617	489.88
421.839	450.88
422.062	456.88
422.285	445.88
422.507	560.88
422.73	613.88
422.953	583.88
423.175	517.88
423.398	511.88
423.621	486.88
423.843	509.88
424.066	525.88
424.288	475.88
424.511	527.88
424.733	611.88
424.956	673.88
425.178	647.88
425.401	647.88
425.623	672.88
425.846	558.88
426.068	515.88
426.291	508.88
426.513	508.88
426.735	535.88
426.958	542.88
427.18	655.88
427.402	781.88
427.625	885.88
427.847	809.88
428.069	677.88
428.292	606.88
428.514	521.88
428.736	496.88
428.958	489.88
429.181	455.88
429.403	451.88
429.625	483.88
429.847	502.88
430.069	613.88
430.292	571.88
430.514	527.88
430.736	447.88
430.958	445.88
431.18	431.88
431.402	413.88
431.624	401.88
431.846	426.88
432.068	434.88
432.29	433.88
432.512	438.88
432.734	463.88
432.956	443.88
433.178	469.88
433.4	454.88
433.622	436.88
433.844	417.88
434.066	435.88
434.287	443.88
434.509	427.88
434.731	431.88
434.953	453.88
435.175	467.88
435.397	491.88
435.618	515.88
435.84	568.88
436.062	660.88
436.284	744.88
436.505	592.88
436.727	547.88
436.949	495.88
437.17	475.88
437.392	472.88
437.614	470.88
437.835	524.88
438.057	645.88
438.278	736.88
438.5	760.88
438.721	805.88
438.943	747.88
439.165	606.88
439.386	560.88
439.608	543.88
439.829	541.88
440.05	593.88
440.272	652.88
440.493	593.88
440.715	545.88
440.936	506.88
441.158	482.88
441.379	479.88
441.6	487.88
441.822	497.88
442.043	578.88
442.264	634.88
442.486	677.88
442.707	575.88
442.928	547.88
443.149	545.88
443.371	575.88
443.592	603.88
443.813	694.88
444.034	776.88
444.255	612.88
444.476	533.88
444.698	495.88
444.919	491.88
445.14	574.88
445.361	560.88
445.582	583.88
445.803	649.88
446.024	793.88
446.245	807.88
446.466	705.88
446.687	595.88
446.908	529.88
447.129	503.88
447.35	495.88
447.571	492.88
447.792	462.88
448.013	481.88
448.234	526.88
448.455	575.88
448.675	689.88
448.896	799.88
449.117	681.88
449.338	639.88
449.559	745.88
449.779	825.88
450	669.88
450.221	554.88
450.442	521.88
450.662	503.88
450.883	477.88
451.104	503.88
451.324	507.88
451.545	488.88
451.766	440.88
451.986	420.88
452.207	427.88
452.428	418.88
452.648	421.88
452.869	438.88
453.089	443.88
453.31	443.88
453.53	448.88
453.751	423.88
453.971	427.88
454.192	458.88
454.412	450.88
454.633	454.88
454.853	440.88
455.073	418.88
455.294	454.88
455.514	552.88
455.734	529.88
455.955	446.88
456.175	413.88
456.395	403.88
456.616	422.88
456.836	399.88
457.056	390.88
457.276	369.88
457.497	382.88
457.717	386.88
457.937	415.88
458.157	401.88
458.377	401.88
458.598	452.88
458.818	502.88
459.038	609.88
459.258	632.88
459.478	501.88
459.698	460.88
459.918	449.88
460.138	421.88
460.358	439.88
460.578	419.88
460.798	427.88
461.018	429.88
461.238	428.88
461.458	429.88
461.678	418.88
461.898	411.88
462.118	414.88
462.338	425.88
462.558	424.88
462.777	420.88
462.997	450.88
463.217	438.88
463.437	447.88
463.657	436.88
463.876	424.88
464.096	448.88
464.316	436.88
464.536	447.88
464.755	475.88
464.975	459.88
465.195	565.88
465.414	643.88
465.634	549.88
465.854	488.88
466.073	460.88
466.293	449.88
466.512	422.88
466.732	428.88
466.951	403.88
467.171	418.88
467.391	410.88
467.61	428.88
467.829	456.88
468.049	443.88
468.268	443.88
468.488	422.88
468.707	439.88
468.927	418.88
469.146	409.88
469.365	393.88
469.585	405.88
469.804	417.88
470.023	437.88
470.243	401.88
470.462	439.88
470.681	469.88
470.901	463.88
471.12	439.88
471.339	428.88
471.558	429.88
471.777	452.88
471.997	441.88
472.216	451.88
472.435	508.88
472.654	472.88
472.873	429.88
473.092	419.88
473.311	437.88
473.53	445.88
473.749	457.88
473.968	504.88
474.187	616.88
474.406	649.88
474.625	498.88
474.844	450.88
475.063	444.88
475.282	431.88
475.501	429.88
475.72	445.88
475.939	433.88
476.158	455.88
476.377	435.88
476.596	439.88
476.814	460.88
477.033	480.88
477.252	441.88
477.471	449.88
477.69	449.88
477.908	453.88
478.127	451.88
478.346	459.88
478.564	453.88
478.783	465.88
479.002	474.88
479.22	485.88
479.439	498.88
479.658	536.88
479.876	524.88
480.095	528.88
480.313	529.88
480.532	531.88
480.751	547.88
480.969	561.88
481.188	637.88
481.406	680.88
481.624	605.88
481.843	547.88
482.061	522.88
482.28	516.88
482.498	497.88
482.717	504.88
482.935	502.88
483.153	509.88
483.372	496.88
483.59	489.88
483.808	509.88
484.027	514.88
484.245	516.88
484.463	503.88
484.681	522.88
484.9	503.88
485.118	511.88
485.336	519.88
485.554	526.88
485.772	526.88
485.99	532.88
486.209	520.88
486.427	518.88
486.645	520.88
486.863	561.88
487.081	579.88
487.299	555.88
487.517	554.88
487.735	543.88
487.953	567.88
488.171	559.88
488.389	531.88
488.607	537.88
488.825	537.88
489.043	534.88
489.261	537.88
489.479	558.88
489.696	557.88
489.914	556.88
490.132	549.88
490.35	567.88
490.568	578.88
490.786	580.88
491.003	588.88
491.221	608.88
491.439	632.88
491.657	633.88
491.874	640.88
492.092	623.88
492.31	661.88
492.527	655.88
492.745	645.88
492.963	626.88
493.18	659.88
493.398	661.88
493.615	657.88
493.833	685.88
494.05	661.88
494.268	637.88
494.485	643.88
494.703	666.88
494.92	646.88
495.138	655.88
495.355	666.88
495.573	647.88
495.79	664.88
496.008	665.88
496.225	671.88
496.442	641.88
496.66	639.88
496.877	647.88
497.094	636.88
497.312	675.88
497.529	691.88
497.746	672.88
497.963	677.88
498.181	661.88
498.398	667.88
498.615	700.88
498.832	725.88
499.049	697.88
499.267	710.88
499.484	716.88
499.701	756.88
499.918	769.88
500.135	760.88
500.352	771.88
500.569	790.88
500.786	802.88
501.003	799.88
501.22	830.88
501.437	787.88
501.654	789.88
501.871	781.88
