Data from 1972.PennyLincolnUp.Lamp.En5.5.200Scan.071719.P1._HRD10591_15-27-26-843.txt Node
Date: Thu Jul 18 15:27:26 EDT 2019
User: cochatt
Spectrometer: HR+D1059
Trigger mode: 1
Integration Time (sec): 1.000000E-1
Scans to average: 1
Electric dark correction enabled: true
Nonlinearity correction enabled: false
Boxcar width: 0
XAxis mode: Wavelengths
Number of Pixels in Spectrum: 2048
>>>>>Begin Spectral Data<<<<<
223.165	-10.31
223.4	-10.31
223.635	-10.31
223.869	-20.31
224.104	-16.31
224.338	-1.31
224.573	-16.31
224.808	-24.31
225.042	-9.31
225.277	-4.31
225.511	-0.31
225.746	5.69
225.98	7.69
226.215	3.69
226.449	22.69
226.683	15.69
226.918	26.69
227.152	20.69
227.387	24.69
227.621	34.69
227.856	47.69
228.09	46.69
228.324	34.69
228.559	44.69
228.793	53.69
229.027	99.69
229.262	109.69
229.496	104.69
229.73	124.69
229.964	140.69
230.199	126.69
230.433	104.69
230.667	115.69
230.901	110.69
231.136	106.69
231.37	103.69
231.604	111.69
231.838	115.69
232.072	101.69
232.306	106.69
232.541	105.69
232.775	99.69
233.009	113.69
233.243	123.69
233.477	115.69
233.711	118.69
233.945	108.69
234.179	117.69
234.413	108.69
234.647	112.69
234.881	105.69
235.115	119.69
235.349	101.69
235.583	112.69
235.817	114.69
236.051	113.69
236.285	106.69
236.519	112.69
236.753	119.69
236.987	131.69
237.221	175.69
237.455	236.69
237.689	182.69
237.922	131.69
238.156	127.69
238.39	129.69
238.624	120.69
238.858	126.69
239.091	116.69
239.325	120.69
239.559	116.69
239.793	121.69
240.027	129.69
240.26	148.69
240.494	156.69
240.728	142.69
240.961	146.69
241.195	144.69
241.429	138.69
241.662	122.69
241.896	123.69
242.13	128.69
242.363	107.69
242.597	144.69
242.83	124.69
243.064	131.69
243.298	123.69
243.531	136.69
243.765	132.69
243.998	138.69
244.232	134.69
244.465	138.69
244.699	136.69
244.932	148.69
245.166	130.69
245.399	132.69
245.633	143.69
245.866	152.69
246.099	134.69
246.333	151.69
246.566	144.69
246.8	132.69
247.033	140.69
247.266	156.69
247.5	151.69
247.733	156.69
247.966	169.69
248.2	158.69
248.433	164.69
248.666	147.69
248.899	177.69
249.133	187.69
249.366	193.69
249.599	196.69
249.832	178.69
250.066	165.69
250.299	171.69
250.532	177.69
250.765	195.69
250.998	216.69
251.231	223.69
251.465	209.69
251.698	195.69
251.931	207.69
252.164	187.69
252.397	190.69
252.63	187.69
252.863	184.69
253.096	203.69
253.329	215.69
253.562	229.69
253.795	202.69
254.028	214.69
254.261	191.69
254.494	208.69
254.727	249.69
254.96	264.69
255.193	256.69
255.426	242.69
255.659	220.69
255.892	226.69
256.124	222.69
256.357	220.69
256.59	215.69
256.823	214.69
257.056	221.69
257.289	217.69
257.521	206.69
257.754	195.69
257.987	196.69
258.22	210.69
258.452	198.69
258.685	210.69
258.918	185.69
259.151	197.69
259.383	197.69
259.616	200.69
259.849	221.69
260.081	213.69
260.314	233.69
260.547	227.69
260.779	203.69
261.012	226.69
261.244	208.69
261.477	222.69
261.71	212.69
261.942	235.69
262.175	233.69
262.407	219.69
262.64	211.69
262.872	207.69
263.105	206.69
263.337	224.69
263.57	214.69
263.802	198.69
264.035	196.69
264.267	208.69
264.499	212.69
264.732	212.69
264.964	193.69
265.197	190.69
265.429	193.69
265.661	211.69
265.894	216.69
266.126	204.69
266.358	207.69
266.591	212.69
266.823	210.69
267.055	202.69
267.287	217.69
267.52	218.69
267.752	196.69
267.984	210.69
268.216	238.69
268.448	222.69
268.681	196.69
268.913	220.69
269.145	256.69
269.377	274.69
269.609	262.69
269.841	261.69
270.073	246.69
270.306	275.69
270.538	288.69
270.77	307.69
271.002	280.69
271.234	288.69
271.466	288.69
271.698	281.69
271.93	292.69
272.162	321.69
272.394	287.69
272.626	294.69
272.858	294.69
273.09	272.69
273.322	268.69
273.553	268.69
273.785	257.69
274.017	258.69
274.249	248.69
274.481	260.69
274.713	252.69
274.945	240.69
275.176	242.69
275.408	240.69
275.64	245.69
275.872	248.69
276.104	243.69
276.335	258.69
276.567	262.69
276.799	275.69
277.031	282.69
277.262	296.69
277.494	309.69
277.726	286.69
277.957	263.69
278.189	266.69
278.421	262.69
278.652	256.69
278.884	260.69
279.115	247.69
279.347	238.69
279.579	245.69
279.81	243.69
280.042	264.69
280.273	260.69
280.505	241.69
280.736	254.69
280.968	255.69
281.199	222.69
281.431	244.69
281.662	241.69
281.894	248.69
282.125	271.69
282.356	256.69
282.588	310.69
282.819	288.69
283.051	254.69
283.282	249.69
283.513	247.69
283.745	247.69
283.976	277.69
284.207	267.69
284.439	262.69
284.67	250.69
284.901	246.69
285.132	273.69
285.364	256.69
285.595	232.69
285.826	231.69
286.057	267.69
286.288	254.69
286.52	257.69
286.751	258.69
286.982	264.69
287.213	264.69
287.444	253.69
287.675	284.69
287.906	284.69
288.138	268.69
288.369	286.69
288.6	278.69
288.831	275.69
289.062	279.69
289.293	263.69
289.524	258.69
289.755	271.69
289.986	260.69
290.217	254.69
290.448	256.69
290.679	273.69
290.91	272.69
291.141	253.69
291.371	267.69
291.602	254.69
291.833	258.69
292.064	271.69
292.295	256.69
292.526	265.69
292.757	252.69
292.987	263.69
293.218	270.69
293.449	284.69
293.68	267.69
293.91	258.69
294.141	255.69
294.372	260.69
294.603	270.69
294.833	260.69
295.064	262.69
295.295	247.69
295.525	269.69
295.756	272.69
295.987	276.69
296.217	314.69
296.448	317.69
296.679	276.69
296.909	283.69
297.14	282.69
297.37	263.69
297.601	259.69
297.831	268.69
298.062	266.69
298.292	284.69
298.523	295.69
298.753	262.69
298.984	286.69
299.214	278.69
299.445	283.69
299.675	277.69
299.905	295.69
300.136	281.69
300.366	306.69
300.597	274.69
300.827	295.69
301.057	292.69
301.288	310.69
301.518	292.69
301.748	299.69
301.979	290.69
302.209	290.69
302.439	293.69
302.669	295.69
302.9	280.69
303.13	303.69
303.36	285.69
303.59	309.69
303.82	316.69
304.051	304.69
304.281	278.69
304.511	294.69
304.741	303.69
304.971	281.69
305.201	302.69
305.431	310.69
305.661	309.69
305.891	316.69
306.121	304.69
306.352	311.69
306.582	305.69
306.812	313.69
307.042	306.69
307.272	312.69
307.502	304.69
307.731	322.69
307.961	314.69
308.191	290.69
308.421	291.69
308.651	314.69
308.881	315.69
309.111	327.69
309.341	324.69
309.571	339.69
309.8	334.69
310.03	351.69
310.26	347.69
310.49	360.69
310.72	360.69
310.949	366.69
311.179	377.69
311.409	351.69
311.639	332.69
311.868	366.69
312.098	349.69
312.328	352.69
312.557	373.69
312.787	385.69
313.017	385.69
313.246	367.69
313.476	355.69
313.706	331.69
313.935	371.69
314.165	347.69
314.394	382.69
314.624	370.69
314.853	361.69
315.083	358.69
315.312	346.69
315.542	353.69
315.771	352.69
316.001	320.69
316.23	337.69
316.46	332.69
316.689	367.69
316.919	352.69
317.148	370.69
317.377	382.69
317.607	354.69
317.836	366.69
318.065	338.69
318.295	366.69
318.524	356.69
318.753	345.69
318.983	341.69
319.212	341.69
319.441	338.69
319.67	367.69
319.9	340.69
320.129	360.69
320.358	329.69
320.587	356.69
320.816	372.69
321.046	389.69
321.275	382.69
321.504	366.69
321.733	372.69
321.962	377.69
322.191	402.69
322.42	417.69
322.649	401.69
322.878	434.69
323.108	436.69
323.337	449.69
323.566	484.69
323.795	507.69
324.024	546.69
324.253	687.69
324.482	985.69
324.71	1579.69
324.939	2238.69
325.168	2019.69
325.397	1001.69
325.626	653.69
325.855	558.69
326.084	518.69
326.313	506.69
326.542	504.69
326.77	547.69
326.999	664.69
327.228	902.69
327.457	1382.69
327.686	1676.69
327.914	1145.69
328.143	741.69
328.372	668.69
328.6	616.69
328.829	551.69
329.058	560.69
329.287	579.69
329.515	518.69
329.744	500.69
329.972	472.69
330.201	514.69
330.43	558.69
330.658	576.69
330.887	612.69
331.115	580.69
331.344	521.69
331.572	471.69
331.801	478.69
332.03	462.69
332.258	442.69
332.486	434.69
332.715	417.69
332.943	415.69
333.172	403.69
333.4	422.69
333.629	419.69
333.857	456.69
334.085	442.69
334.314	482.69
334.542	503.69
334.771	514.69
334.999	471.69
335.227	436.69
335.455	424.69
335.684	422.69
335.912	410.69
336.14	399.69
336.369	402.69
336.597	423.69
336.825	406.69
337.053	419.69
337.281	394.69
337.51	409.69
337.738	390.69
337.966	401.69
338.194	411.69
338.422	405.69
338.65	386.69
338.878	399.69
339.106	355.69
339.334	380.69
339.562	387.69
339.79	382.69
340.018	389.69
340.246	396.69
340.474	400.69
340.702	404.69
340.93	390.69
341.158	377.69
341.386	395.69
341.614	402.69
341.842	414.69
342.07	387.69
342.298	405.69
342.526	378.69
342.754	360.69
342.981	378.69
343.209	371.69
343.437	377.69
343.665	401.69
343.893	397.69
344.12	383.69
344.348	394.69
344.576	376.69
344.804	413.69
345.031	394.69
345.259	410.69
345.487	395.69
345.714	401.69
345.942	381.69
346.17	379.69
346.397	371.69
346.625	394.69
346.853	378.69
347.08	369.69
347.308	389.69
347.535	391.69
347.763	402.69
347.99	397.69
348.218	400.69
348.445	411.69
348.673	376.69
348.9	364.69
349.128	367.69
349.355	366.69
349.583	348.69
349.81	368.69
350.037	379.69
350.265	377.69
350.492	375.69
350.72	368.69
350.947	374.69
351.174	384.69
351.402	378.69
351.629	389.69
351.856	387.69
352.083	388.69
352.311	391.69
352.538	387.69
352.765	392.69
352.992	385.69
353.22	371.69
353.447	372.69
353.674	362.69
353.901	359.69
354.128	344.69
354.355	334.69
354.583	345.69
354.81	363.69
355.037	330.69
355.264	348.69
355.491	344.69
355.718	327.69
355.945	335.69
356.172	351.69
356.399	351.69
356.626	335.69
356.853	327.69
357.08	357.69
357.307	353.69
357.534	349.69
357.761	350.69
357.988	355.69
358.215	359.69
358.441	361.69
358.668	348.69
358.895	353.69
359.122	366.69
359.349	370.69
359.576	388.69
359.802	403.69
360.029	423.69
360.256	458.69
360.483	438.69
360.709	400.69
360.936	370.69
361.163	396.69
361.39	387.69
361.616	377.69
361.843	373.69
362.07	378.69
362.296	403.69
362.523	380.69
362.749	375.69
362.976	367.69
363.203	346.69
363.429	353.69
363.656	355.69
363.882	358.69
364.109	355.69
364.335	346.69
364.562	350.69
364.788	366.69
365.015	346.69
365.241	352.69
365.468	343.69
365.694	345.69
365.92	359.69
366.147	355.69
366.373	340.69
366.599	361.69
366.826	332.69
367.052	372.69
367.278	358.69
367.505	356.69
367.731	345.69
367.957	353.69
368.184	351.69
368.41	375.69
368.636	368.69
368.862	386.69
369.089	370.69
369.315	367.69
369.541	331.69
369.767	364.69
369.993	334.69
370.219	352.69
370.445	356.69
370.672	353.69
370.898	359.69
371.124	347.69
371.35	361.69
371.576	355.69
371.802	348.69
372.028	325.69
372.254	338.69
372.48	336.69
372.706	370.69
372.932	330.69
373.158	359.69
373.384	329.69
373.61	344.69
373.835	362.69
374.061	355.69
374.287	336.69
374.513	348.69
374.739	357.69
374.965	345.69
375.191	370.69
375.416	370.69
375.642	350.69
375.868	352.69
376.094	364.69
376.319	337.69
376.545	347.69
376.771	351.69
376.997	358.69
377.222	353.69
377.448	344.69
377.674	340.69
377.899	339.69
378.125	355.69
378.35	352.69
378.576	350.69
378.802	341.69
379.027	338.69
379.253	338.69
379.478	336.69
379.704	356.69
379.929	352.69
380.155	361.69
380.38	355.69
380.606	359.69
380.831	340.69
381.057	359.69
381.282	342.69
381.507	345.69
381.733	359.69
381.958	356.69
382.184	344.69
382.409	339.69
382.634	330.69
382.86	352.69
383.085	358.69
383.31	342.69
383.535	325.69
383.761	359.69
383.986	353.69
384.211	357.69
384.436	360.69
384.662	363.69
384.887	343.69
385.112	351.69
385.337	378.69
385.562	390.69
385.787	370.69
386.013	382.69
386.238	387.69
386.463	381.69
386.688	401.69
386.913	357.69
387.138	370.69
387.363	368.69
387.588	367.69
387.813	373.69
388.038	367.69
388.263	376.69
388.488	373.69
388.713	355.69
388.938	377.69
389.163	378.69
389.387	371.69
389.612	356.69
389.837	368.69
390.062	371.69
390.287	372.69
390.512	348.69
390.736	362.69
390.961	359.69
391.186	373.69
391.411	378.69
391.636	367.69
391.86	368.69
392.085	368.69
392.31	359.69
392.534	358.69
392.759	393.69
392.984	372.69
393.208	390.69
393.433	384.69
393.658	393.69
393.882	376.69
394.107	365.69
394.331	364.69
394.556	368.69
394.78	372.69
395.005	384.69
395.229	385.69
395.454	382.69
395.678	400.69
395.903	389.69
396.127	409.69
396.352	426.69
396.576	386.69
396.801	392.69
397.025	388.69
397.249	400.69
397.474	408.69
397.698	393.69
397.922	388.69
398.147	415.69
398.371	396.69
398.595	424.69
398.82	414.69
399.044	423.69
399.268	410.69
399.492	450.69
399.717	465.69
399.941	480.69
400.165	514.69
400.389	503.69
400.613	490.69
400.837	426.69
401.062	424.69
401.286	447.69
401.51	430.69
401.734	392.69
401.958	443.69
402.182	434.69
402.406	428.69
402.63	449.69
402.854	418.69
403.078	406.69
403.302	426.69
403.526	418.69
403.75	426.69
403.974	449.69
404.198	424.69
404.422	445.69
404.645	463.69
404.869	462.69
405.093	468.69
405.317	513.69
405.541	556.69
405.765	496.69
405.988	472.69
406.212	472.69
406.436	483.69
406.66	492.69
406.883	456.69
407.107	494.69
407.331	504.69
407.555	594.69
407.778	575.69
408.002	523.69
408.226	486.69
408.449	488.69
408.673	495.69
408.896	503.69
409.12	546.69
409.344	506.69
409.567	465.69
409.791	449.69
410.014	436.69
410.238	420.69
410.461	432.69
410.685	456.69
410.908	450.69
411.132	476.69
411.355	523.69
411.578	520.69
411.802	445.69
412.025	428.69
412.249	458.69
412.472	458.69
412.695	526.69
412.919	502.69
413.142	440.69
413.365	419.69
413.589	460.69
413.812	418.69
414.035	412.69
414.258	402.69
414.482	411.69
414.705	407.69
414.928	403.69
415.151	416.69
415.374	422.69
415.597	424.69
415.821	391.69
416.044	398.69
416.267	407.69
416.49	382.69
416.713	398.69
416.936	409.69
417.159	408.69
417.382	430.69
417.605	419.69
417.828	430.69
418.051	448.69
418.274	444.69
418.497	422.69
418.72	419.69
418.943	413.69
419.166	422.69
419.389	452.69
419.611	428.69
419.834	434.69
420.057	419.69
420.28	437.69
420.503	429.69
420.726	458.69
420.948	448.69
421.171	484.69
421.394	503.69
421.617	459.69
421.839	436.69
422.062	426.69
422.285	450.69
422.507	510.69
422.73	571.69
422.953	556.69
423.175	485.69
423.398	470.69
423.621	449.69
423.843	471.69
424.066	465.69
424.288	490.69
424.511	485.69
424.733	532.69
424.956	622.69
425.178	595.69
425.401	564.69
425.623	592.69
425.846	520.69
426.068	491.69
426.291	469.69
426.513	455.69
426.735	459.69
426.958	530.69
427.18	600.69
427.402	702.69
427.625	822.69
427.847	719.69
428.069	631.69
428.292	546.69
428.514	510.69
428.736	457.69
428.958	464.69
429.181	458.69
429.403	452.69
429.625	456.69
429.847	476.69
430.069	560.69
430.292	547.69
430.514	459.69
430.736	449.69
430.958	426.69
431.18	440.69
431.402	437.69
431.624	396.69
431.846	397.69
432.068	416.69
432.29	418.69
432.512	418.69
432.734	439.69
432.956	438.69
433.178	431.69
433.4	432.69
433.622	419.69
433.844	433.69
434.066	415.69
434.287	394.69
434.509	419.69
434.731	421.69
434.953	436.69
435.175	444.69
435.397	462.69
435.618	482.69
435.84	527.69
436.062	616.69
436.284	688.69
436.505	583.69
436.727	504.69
436.949	477.69
437.17	457.69
437.392	456.69
437.614	461.69
437.835	498.69
438.057	588.69
438.278	672.69
438.5	679.69
438.721	738.69
438.943	718.69
439.165	563.69
439.386	511.69
439.608	512.69
439.829	499.69
440.05	545.69
440.272	558.69
440.493	527.69
440.715	500.69
440.936	469.69
441.158	446.69
441.379	451.69
441.6	465.69
441.822	478.69
442.043	510.69
442.264	608.69
442.486	637.69
442.707	536.69
442.928	495.69
443.149	498.69
443.371	530.69
443.592	571.69
443.813	671.69
444.034	707.69
444.255	601.69
444.476	529.69
444.698	502.69
444.919	478.69
445.14	605.69
445.361	551.69
445.582	540.69
445.803	570.69
446.024	710.69
446.245	691.69
446.466	636.69
446.687	514.69
446.908	475.69
447.129	470.69
447.35	456.69
447.571	450.69
447.792	437.69
448.013	454.69
448.234	476.69
448.455	540.69
448.675	633.69
448.896	743.69
449.117	610.69
449.338	575.69
449.559	710.69
449.779	804.69
450	630.69
450.221	512.69
450.442	471.69
450.662	442.69
450.883	471.69
451.104	442.69
451.324	461.69
451.545	434.69
451.766	415.69
451.986	427.69
452.207	421.69
452.428	394.69
452.648	397.69
452.869	418.69
453.089	436.69
453.31	435.69
453.53	421.69
453.751	407.69
453.971	423.69
454.192	435.69
454.412	411.69
454.633	420.69
454.853	418.69
455.073	413.69
455.294	424.69
455.514	487.69
455.734	462.69
455.955	420.69
456.175	402.69
456.395	396.69
456.616	378.69
456.836	356.69
457.056	358.69
457.276	360.69
457.497	377.69
457.717	382.69
457.937	380.69
458.157	390.69
458.377	396.69
458.598	409.69
458.818	469.69
459.038	543.69
459.258	562.69
459.478	468.69
459.698	412.69
459.918	411.69
460.138	396.69
460.358	422.69
460.578	406.69
460.798	407.69
461.018	427.69
461.238	408.69
461.458	389.69
461.678	410.69
461.898	412.69
462.118	415.69
462.338	415.69
462.558	406.69
462.777	426.69
462.997	422.69
463.217	436.69
463.437	440.69
463.657	449.69
463.876	411.69
464.096	448.69
464.316	432.69
464.536	434.69
464.755	431.69
464.975	438.69
465.195	486.69
465.414	546.69
465.634	490.69
465.854	454.69
466.073	428.69
466.293	436.69
466.512	426.69
466.732	423.69
466.951	418.69
467.171	407.69
467.391	420.69
467.61	426.69
467.829	432.69
468.049	415.69
468.268	407.69
468.488	395.69
468.707	419.69
468.927	395.69
469.146	399.69
469.365	392.69
469.585	401.69
469.804	406.69
470.023	402.69
470.243	424.69
470.462	431.69
470.681	440.69
470.901	417.69
471.12	404.69
471.339	418.69
471.558	415.69
471.777	437.69
471.997	390.69
472.216	403.69
472.435	474.69
472.654	431.69
472.873	425.69
473.092	406.69
473.311	419.69
473.53	408.69
473.749	425.69
473.968	466.69
474.187	530.69
474.406	597.69
474.625	488.69
474.844	426.69
475.063	417.69
475.282	415.69
475.501	424.69
475.72	418.69
475.939	428.69
476.158	434.69
476.377	426.69
476.596	424.69
476.814	435.69
477.033	427.69
477.252	419.69
477.471	448.69
477.69	435.69
477.908	435.69
478.127	441.69
478.346	449.69
478.564	445.69
478.783	454.69
479.002	469.69
479.22	460.69
479.439	470.69
479.658	481.69
479.876	492.69
480.095	499.69
480.313	522.69
480.532	494.69
480.751	511.69
480.969	532.69
481.188	594.69
481.406	614.69
481.624	545.69
481.843	490.69
482.061	474.69
482.28	491.69
482.498	501.69
482.717	494.69
482.935	473.69
483.153	485.69
483.372	482.69
483.59	485.69
483.808	481.69
484.027	481.69
484.245	467.69
484.463	464.69
484.681	501.69
484.9	490.69
485.118	492.69
485.336	511.69
485.554	505.69
485.772	474.69
485.99	487.69
486.209	475.69
486.427	502.69
486.645	530.69
486.863	531.69
487.081	517.69
487.299	492.69
487.517	514.69
487.735	508.69
487.953	539.69
488.171	510.69
488.389	504.69
488.607	531.69
488.825	519.69
489.043	524.69
489.261	520.69
489.479	529.69
489.696	536.69
489.914	526.69
490.132	551.69
490.35	542.69
490.568	570.69
490.786	552.69
491.003	540.69
491.221	569.69
491.439	569.69
491.657	584.69
491.874	587.69
492.092	576.69
492.31	596.69
492.527	600.69
492.745	600.69
492.963	581.69
493.18	624.69
493.398	611.69
493.615	634.69
493.833	626.69
494.05	619.69
494.268	620.69
494.485	599.69
494.703	611.69
494.92	608.69
495.138	615.69
495.355	617.69
495.573	631.69
495.79	636.69
496.008	628.69
496.225	624.69
496.442	626.69
496.66	631.69
496.877	626.69
497.094	635.69
497.312	633.69
497.529	642.69
497.746	666.69
497.963	642.69
498.181	658.69
498.398	650.69
498.615	658.69
498.832	670.69
499.049	678.69
499.267	674.69
499.484	723.69
499.701	716.69
499.918	730.69
500.135	743.69
500.352	802.69
500.569	800.69
500.786	801.69
501.003	798.69
501.22	788.69
501.437	770.69
501.654	750.69
501.871	738.69
