Data from 1972.PennyLincolnUp.Lamp.En5.5.200Scan.071719.P1._HRD10591_15-27-35-844.txt Node
Date: Thu Jul 18 15:27:35 EDT 2019
User: cochatt
Spectrometer: HR+D1059
Trigger mode: 1
Integration Time (sec): 1.000000E-1
Scans to average: 1
Electric dark correction enabled: true
Nonlinearity correction enabled: false
Boxcar width: 0
XAxis mode: Wavelengths
Number of Pixels in Spectrum: 2048
>>>>>Begin Spectral Data<<<<<
223.165	-4.44
223.4	-4.44
223.635	-4.44
223.869	-28.44
224.104	-12.44
224.338	-16.44
224.573	-17.44
224.808	-15.44
225.042	-12.44
225.277	11.56
225.511	9.56
225.746	-17.44
225.98	24.56
226.215	9.56
226.449	13.56
226.683	16.56
226.918	24.56
227.152	14.56
227.387	37.56
227.621	28.56
227.856	36.56
228.09	65.56
228.324	38.56
228.559	61.56
228.793	77.56
229.027	106.56
229.262	111.56
229.496	130.56
229.73	132.56
229.964	168.56
230.199	136.56
230.433	102.56
230.667	112.56
230.901	99.56
231.136	119.56
231.37	119.56
231.604	122.56
231.838	126.56
232.072	120.56
232.306	106.56
232.541	112.56
232.775	109.56
233.009	108.56
233.243	117.56
233.477	108.56
233.711	119.56
233.945	118.56
234.179	112.56
234.413	103.56
234.647	111.56
234.881	124.56
235.115	111.56
235.349	127.56
235.583	126.56
235.817	142.56
236.051	127.56
236.285	130.56
236.519	122.56
236.753	137.56
236.987	140.56
237.221	166.56
237.455	238.56
237.689	176.56
237.922	139.56
238.156	131.56
238.39	141.56
238.624	124.56
238.858	123.56
239.091	129.56
239.325	115.56
239.559	112.56
239.793	133.56
240.027	129.56
240.26	139.56
240.494	166.56
240.728	145.56
240.961	148.56
241.195	139.56
241.429	143.56
241.662	135.56
241.896	110.56
242.13	125.56
242.363	135.56
242.597	126.56
242.83	141.56
243.064	139.56
243.298	131.56
243.531	132.56
243.765	144.56
243.998	127.56
244.232	144.56
244.465	146.56
244.699	147.56
244.932	142.56
245.166	145.56
245.399	144.56
245.633	158.56
245.866	139.56
246.099	143.56
246.333	156.56
246.566	164.56
246.8	156.56
247.033	152.56
247.266	158.56
247.5	172.56
247.733	171.56
247.966	167.56
248.2	158.56
248.433	158.56
248.666	167.56
248.899	186.56
249.133	204.56
249.366	214.56
249.599	201.56
249.832	185.56
250.066	172.56
250.299	191.56
250.532	185.56
250.765	190.56
250.998	216.56
251.231	219.56
251.465	194.56
251.698	211.56
251.931	207.56
252.164	210.56
252.397	195.56
252.63	197.56
252.863	207.56
253.096	216.56
253.329	217.56
253.562	230.56
253.795	210.56
254.028	199.56
254.261	231.56
254.494	232.56
254.727	266.56
254.96	256.56
255.193	271.56
255.426	232.56
255.659	248.56
255.892	238.56
256.124	235.56
256.357	234.56
256.59	224.56
256.823	205.56
257.056	203.56
257.289	224.56
257.521	213.56
257.754	222.56
257.987	197.56
258.22	208.56
258.452	201.56
258.685	206.56
258.918	204.56
259.151	198.56
259.383	231.56
259.616	222.56
259.849	235.56
260.081	236.56
260.314	249.56
260.547	246.56
260.779	245.56
261.012	244.56
261.244	226.56
261.477	231.56
261.71	224.56
261.942	219.56
262.175	232.56
262.407	231.56
262.64	218.56
262.872	220.56
263.105	213.56
263.337	214.56
263.57	209.56
263.802	213.56
264.035	201.56
264.267	219.56
264.499	210.56
264.732	201.56
264.964	203.56
265.197	198.56
265.429	202.56
265.661	213.56
265.894	200.56
266.126	193.56
266.358	220.56
266.591	224.56
266.823	231.56
267.055	215.56
267.287	222.56
267.52	228.56
267.752	224.56
267.984	207.56
268.216	208.56
268.448	218.56
268.681	207.56
268.913	246.56
269.145	248.56
269.377	276.56
269.609	253.56
269.841	268.56
270.073	260.56
270.306	305.56
270.538	299.56
270.77	312.56
271.002	288.56
271.234	288.56
271.466	284.56
271.698	301.56
271.93	302.56
272.162	318.56
272.394	311.56
272.626	301.56
272.858	305.56
273.09	265.56
273.322	279.56
273.553	264.56
273.785	253.56
274.017	243.56
274.249	253.56
274.481	241.56
274.713	257.56
274.945	270.56
275.176	259.56
275.408	249.56
275.64	265.56
275.872	255.56
276.104	257.56
276.335	238.56
276.567	253.56
276.799	273.56
277.031	304.56
277.262	306.56
277.494	331.56
277.726	310.56
277.957	282.56
278.189	281.56
278.421	273.56
278.652	267.56
278.884	255.56
279.115	274.56
279.347	268.56
279.579	253.56
279.81	252.56
280.042	276.56
280.273	266.56
280.505	253.56
280.736	257.56
280.968	254.56
281.199	225.56
281.431	255.56
281.662	265.56
281.894	255.56
282.125	282.56
282.356	273.56
282.588	283.56
282.819	312.56
283.051	277.56
283.282	263.56
283.513	263.56
283.745	259.56
283.976	264.56
284.207	274.56
284.439	259.56
284.67	267.56
284.901	263.56
285.132	248.56
285.364	262.56
285.595	251.56
285.826	243.56
286.057	264.56
286.288	253.56
286.52	264.56
286.751	272.56
286.982	245.56
287.213	273.56
287.444	279.56
287.675	283.56
287.906	283.56
288.138	263.56
288.369	295.56
288.6	305.56
288.831	271.56
289.062	279.56
289.293	254.56
289.524	270.56
289.755	268.56
289.986	277.56
290.217	272.56
290.448	286.56
290.679	243.56
290.91	265.56
291.141	275.56
291.371	259.56
291.602	264.56
291.833	257.56
292.064	270.56
292.295	270.56
292.526	268.56
292.757	291.56
292.987	266.56
293.218	259.56
293.449	288.56
293.68	268.56
293.91	270.56
294.141	270.56
294.372	271.56
294.603	249.56
294.833	270.56
295.064	268.56
295.295	270.56
295.525	261.56
295.756	258.56
295.987	295.56
296.217	301.56
296.448	314.56
296.679	291.56
296.909	265.56
297.14	290.56
297.37	303.56
297.601	274.56
297.831	267.56
298.062	273.56
298.292	281.56
298.523	281.56
298.753	275.56
298.984	273.56
299.214	278.56
299.445	283.56
299.675	281.56
299.905	270.56
300.136	315.56
300.366	314.56
300.597	278.56
300.827	287.56
301.057	304.56
301.288	297.56
301.518	301.56
301.748	295.56
301.979	283.56
302.209	302.56
302.439	319.56
302.669	321.56
302.9	298.56
303.13	300.56
303.36	319.56
303.59	321.56
303.82	301.56
304.051	307.56
304.281	291.56
304.511	285.56
304.741	292.56
304.971	298.56
305.201	287.56
305.431	305.56
305.661	276.56
305.891	316.56
306.121	312.56
306.352	303.56
306.582	294.56
306.812	295.56
307.042	302.56
307.272	295.56
307.502	301.56
307.731	300.56
307.961	303.56
308.191	302.56
308.421	312.56
308.651	312.56
308.881	291.56
309.111	323.56
309.341	319.56
309.571	324.56
309.8	347.56
310.03	341.56
310.26	350.56
310.49	359.56
310.72	373.56
310.949	350.56
311.179	397.56
311.409	363.56
311.639	346.56
311.868	352.56
312.098	363.56
312.328	360.56
312.557	395.56
312.787	393.56
313.017	387.56
313.246	372.56
313.476	360.56
313.706	362.56
313.935	369.56
314.165	378.56
314.394	401.56
314.624	362.56
314.853	351.56
315.083	354.56
315.312	365.56
315.542	341.56
315.771	337.56
316.001	328.56
316.23	359.56
316.46	337.56
316.689	348.56
316.919	356.56
317.148	360.56
317.377	363.56
317.607	366.56
317.836	368.56
318.065	353.56
318.295	349.56
318.524	366.56
318.753	355.56
318.983	363.56
319.212	358.56
319.441	368.56
319.67	352.56
319.9	358.56
320.129	364.56
320.358	346.56
320.587	363.56
320.816	391.56
321.046	378.56
321.275	385.56
321.504	381.56
321.733	382.56
321.962	377.56
322.191	390.56
322.42	396.56
322.649	440.56
322.878	447.56
323.108	442.56
323.337	477.56
323.566	505.56
323.795	549.56
324.024	591.56
324.253	718.56
324.482	1052.56
324.71	1629.56
324.939	2423.56
325.168	2126.56
325.397	1087.56
325.626	694.56
325.855	581.56
326.084	512.56
326.313	515.56
326.542	515.56
326.77	553.56
326.999	691.56
327.228	932.56
327.457	1443.56
327.686	1831.56
327.914	1191.56
328.143	764.56
328.372	677.56
328.6	611.56
328.829	576.56
329.058	584.56
329.287	592.56
329.515	565.56
329.744	528.56
329.972	512.56
330.201	540.56
330.43	587.56
330.658	618.56
330.887	628.56
331.115	609.56
331.344	529.56
331.572	491.56
331.801	487.56
332.03	478.56
332.258	469.56
332.486	432.56
332.715	415.56
332.943	398.56
333.172	434.56
333.4	414.56
333.629	431.56
333.857	455.56
334.085	452.56
334.314	469.56
334.542	523.56
334.771	548.56
334.999	465.56
335.227	437.56
335.455	438.56
335.684	439.56
335.912	408.56
336.14	396.56
336.369	408.56
336.597	429.56
336.825	419.56
337.053	411.56
337.281	405.56
337.51	403.56
337.738	419.56
337.966	408.56
338.194	411.56
338.422	395.56
338.65	396.56
338.878	402.56
339.106	381.56
339.334	373.56
339.562	382.56
339.79	400.56
340.018	401.56
340.246	399.56
340.474	388.56
340.702	400.56
340.93	404.56
341.158	384.56
341.386	379.56
341.614	395.56
341.842	389.56
342.07	389.56
342.298	397.56
342.526	380.56
342.754	385.56
342.981	370.56
343.209	380.56
343.437	365.56
343.665	381.56
343.893	388.56
344.12	408.56
344.348	390.56
344.576	397.56
344.804	407.56
345.031	408.56
345.259	406.56
345.487	401.56
345.714	399.56
345.942	390.56
346.17	378.56
346.397	373.56
346.625	396.56
346.853	372.56
347.08	374.56
347.308	380.56
347.535	399.56
347.763	409.56
347.99	408.56
348.218	421.56
348.445	398.56
348.673	416.56
348.9	375.56
349.128	376.56
349.355	375.56
349.583	360.56
349.81	379.56
350.037	363.56
350.265	367.56
350.492	362.56
350.72	382.56
350.947	388.56
351.174	382.56
351.402	397.56
351.629	374.56
351.856	392.56
352.083	383.56
352.311	391.56
352.538	413.56
352.765	432.56
352.992	401.56
353.22	402.56
353.447	384.56
353.674	366.56
353.901	374.56
354.128	354.56
354.355	383.56
354.583	352.56
354.81	362.56
355.037	345.56
355.264	355.56
355.491	354.56
355.718	348.56
355.945	348.56
356.172	358.56
356.399	339.56
356.626	331.56
356.853	351.56
357.08	340.56
357.307	352.56
357.534	349.56
357.761	335.56
357.988	344.56
358.215	334.56
358.441	347.56
358.668	347.56
358.895	366.56
359.122	376.56
359.349	357.56
359.576	357.56
359.802	397.56
360.029	431.56
360.256	449.56
360.483	418.56
360.709	367.56
360.936	383.56
361.163	373.56
361.39	407.56
361.616	386.56
361.843	390.56
362.07	395.56
362.296	403.56
362.523	376.56
362.749	374.56
362.976	379.56
363.203	367.56
363.429	351.56
363.656	365.56
363.882	355.56
364.109	363.56
364.335	361.56
364.562	366.56
364.788	366.56
365.015	347.56
365.241	362.56
365.468	383.56
365.694	363.56
365.92	368.56
366.147	377.56
366.373	351.56
366.599	336.56
366.826	356.56
367.052	351.56
367.278	346.56
367.505	364.56
367.731	337.56
367.957	356.56
368.184	379.56
368.41	357.56
368.636	378.56
368.862	389.56
369.089	379.56
369.315	365.56
369.541	352.56
369.767	368.56
369.993	355.56
370.219	339.56
370.445	346.56
370.672	359.56
370.898	346.56
371.124	366.56
371.35	337.56
371.576	349.56
371.802	341.56
372.028	337.56
372.254	367.56
372.48	334.56
372.706	357.56
372.932	351.56
373.158	356.56
373.384	365.56
373.61	354.56
373.835	350.56
374.061	345.56
374.287	337.56
374.513	349.56
374.739	367.56
374.965	365.56
375.191	372.56
375.416	349.56
375.642	341.56
375.868	362.56
376.094	349.56
376.319	347.56
376.545	346.56
376.771	354.56
376.997	343.56
377.222	355.56
377.448	355.56
377.674	351.56
377.899	345.56
378.125	340.56
378.35	352.56
378.576	347.56
378.802	338.56
379.027	354.56
379.253	350.56
379.478	338.56
379.704	340.56
379.929	343.56
380.155	350.56
380.38	351.56
380.606	356.56
380.831	344.56
381.057	351.56
381.282	354.56
381.507	355.56
381.733	352.56
381.958	375.56
382.184	351.56
382.409	359.56
382.634	347.56
382.86	353.56
383.085	352.56
383.31	355.56
383.535	371.56
383.761	347.56
383.986	368.56
384.211	354.56
384.436	353.56
384.662	367.56
384.887	374.56
385.112	352.56
385.337	361.56
385.562	370.56
385.787	371.56
386.013	386.56
386.238	379.56
386.463	366.56
386.688	363.56
386.913	354.56
387.138	379.56
387.363	368.56
387.588	365.56
387.813	364.56
388.038	378.56
388.263	354.56
388.488	371.56
388.713	363.56
388.938	357.56
389.163	372.56
389.387	379.56
389.612	350.56
389.837	369.56
390.062	387.56
390.287	377.56
390.512	372.56
390.736	352.56
390.961	368.56
391.186	369.56
391.411	373.56
391.636	369.56
391.86	368.56
392.085	387.56
392.31	382.56
392.534	372.56
392.759	380.56
392.984	376.56
393.208	366.56
393.433	372.56
393.658	405.56
393.882	376.56
394.107	378.56
394.331	380.56
394.556	377.56
394.78	377.56
395.005	368.56
395.229	381.56
395.454	363.56
395.678	383.56
395.903	371.56
396.127	415.56
396.352	413.56
396.576	405.56
396.801	402.56
397.025	401.56
397.249	391.56
397.474	391.56
397.698	383.56
397.922	393.56
398.147	417.56
398.371	429.56
398.595	423.56
398.82	400.56
399.044	397.56
399.268	427.56
399.492	436.56
399.717	448.56
399.941	475.56
400.165	484.56
400.389	543.56
400.613	481.56
400.837	453.56
401.062	428.56
401.286	419.56
401.51	426.56
401.734	415.56
401.958	417.56
402.182	422.56
402.406	429.56
402.63	446.56
402.854	419.56
403.078	429.56
403.302	441.56
403.526	436.56
403.75	429.56
403.974	432.56
404.198	417.56
404.422	437.56
404.645	425.56
404.869	456.56
405.093	470.56
405.317	520.56
405.541	542.56
405.765	489.56
405.988	452.56
406.212	473.56
406.436	483.56
406.66	508.56
406.883	475.56
407.107	490.56
407.331	531.56
407.555	583.56
407.778	599.56
408.002	550.56
408.226	509.56
408.449	505.56
408.673	485.56
408.896	516.56
409.12	552.56
409.344	533.56
409.567	488.56
409.791	448.56
410.014	397.56
410.238	432.56
410.461	441.56
410.685	456.56
410.908	454.56
411.132	509.56
411.355	515.56
411.578	483.56
411.802	469.56
412.025	447.56
412.249	420.56
412.472	459.56
412.695	522.56
412.919	482.56
413.142	438.56
413.365	431.56
413.589	414.56
413.812	416.56
414.035	396.56
414.258	387.56
414.482	413.56
414.705	430.56
414.928	391.56
415.151	407.56
415.374	420.56
415.597	410.56
415.821	407.56
416.044	403.56
416.267	402.56
416.49	416.56
416.713	411.56
416.936	405.56
417.159	403.56
417.382	410.56
417.605	399.56
417.828	430.56
418.051	430.56
418.274	409.56
418.497	426.56
418.72	413.56
418.943	412.56
419.166	424.56
419.389	431.56
419.611	419.56
419.834	420.56
420.057	433.56
420.28	438.56
420.503	441.56
420.726	445.56
420.948	445.56
421.171	483.56
421.394	541.56
421.617	464.56
421.839	449.56
422.062	466.56
422.285	435.56
422.507	513.56
422.73	594.56
422.953	553.56
423.175	488.56
423.398	467.56
423.621	458.56
423.843	468.56
424.066	476.56
424.288	496.56
424.511	528.56
424.733	572.56
424.956	647.56
425.178	619.56
425.401	599.56
425.623	642.56
425.846	518.56
426.068	510.56
426.291	474.56
426.513	468.56
426.735	499.56
426.958	517.56
427.18	623.56
427.402	741.56
427.625	846.56
427.847	723.56
428.069	620.56
428.292	559.56
428.514	494.56
428.736	474.56
428.958	475.56
429.181	464.56
429.403	469.56
429.625	447.56
429.847	472.56
430.069	555.56
430.292	579.56
430.514	465.56
430.736	462.56
430.958	440.56
431.18	425.56
431.402	426.56
431.624	397.56
431.846	388.56
432.068	412.56
432.29	408.56
432.512	424.56
432.734	410.56
432.956	445.56
433.178	429.56
433.4	439.56
433.622	419.56
433.844	417.56
434.066	406.56
434.287	414.56
434.509	421.56
434.731	417.56
434.953	411.56
435.175	436.56
435.397	434.56
435.618	487.56
435.84	514.56
436.062	613.56
436.284	699.56
436.505	586.56
436.727	509.56
436.949	479.56
437.17	454.56
437.392	452.56
437.614	455.56
437.835	502.56
438.057	592.56
438.278	717.56
438.5	695.56
438.721	757.56
438.943	752.56
439.165	587.56
439.386	517.56
439.608	526.56
439.829	527.56
440.05	545.56
440.272	597.56
440.493	547.56
440.715	509.56
440.936	464.56
441.158	454.56
441.379	462.56
441.6	465.56
441.822	477.56
442.043	523.56
442.264	600.56
442.486	653.56
442.707	551.56
442.928	519.56
443.149	503.56
443.371	524.56
443.592	589.56
443.813	669.56
444.034	691.56
444.255	597.56
444.476	515.56
444.698	484.56
444.919	491.56
445.14	584.56
445.361	550.56
445.582	553.56
445.803	608.56
446.024	697.56
446.245	712.56
446.466	663.56
446.687	563.56
446.908	508.56
447.129	474.56
447.35	464.56
447.571	456.56
447.792	457.56
448.013	471.56
448.234	478.56
448.455	554.56
448.675	658.56
448.896	751.56
449.117	649.56
449.338	595.56
449.559	702.56
449.779	809.56
450	629.56
450.221	514.56
450.442	473.56
450.662	460.56
450.883	458.56
451.104	482.56
451.324	475.56
451.545	441.56
451.766	415.56
451.986	404.56
452.207	405.56
452.428	400.56
452.648	398.56
452.869	402.56
453.089	421.56
453.31	431.56
453.53	410.56
453.751	402.56
453.971	404.56
454.192	437.56
454.412	418.56
454.633	421.56
454.853	415.56
455.073	409.56
455.294	443.56
455.514	502.56
455.734	512.56
455.955	400.56
456.175	378.56
456.395	385.56
456.616	373.56
456.836	395.56
457.056	385.56
457.276	369.56
457.497	379.56
457.717	382.56
457.937	361.56
458.157	383.56
458.377	381.56
458.598	410.56
458.818	469.56
459.038	555.56
459.258	597.56
459.478	484.56
459.698	438.56
459.918	398.56
460.138	419.56
460.358	423.56
460.578	411.56
460.798	393.56
461.018	405.56
461.238	407.56
461.458	398.56
461.678	392.56
461.898	413.56
462.118	407.56
462.338	428.56
462.558	412.56
462.777	412.56
462.997	418.56
463.217	445.56
463.437	465.56
463.657	455.56
463.876	455.56
464.096	439.56
464.316	427.56
464.536	424.56
464.755	439.56
464.975	460.56
465.195	523.56
465.414	606.56
465.634	514.56
465.854	469.56
466.073	437.56
466.293	415.56
466.512	408.56
466.732	409.56
466.951	408.56
467.171	406.56
467.391	392.56
467.61	437.56
467.829	440.56
468.049	433.56
468.268	416.56
468.488	398.56
468.707	401.56
468.927	387.56
469.146	406.56
469.365	411.56
469.585	383.56
469.804	407.56
470.023	432.56
470.243	418.56
470.462	416.56
470.681	436.56
470.901	438.56
471.12	408.56
471.339	417.56
471.558	432.56
471.777	408.56
471.997	400.56
472.216	418.56
472.435	455.56
472.654	447.56
472.873	423.56
473.092	420.56
473.311	431.56
473.53	412.56
473.749	428.56
473.968	479.56
474.187	558.56
474.406	595.56
474.625	481.56
474.844	429.56
475.063	409.56
475.282	425.56
475.501	419.56
475.72	421.56
475.939	400.56
476.158	430.56
476.377	444.56
476.596	419.56
476.814	448.56
477.033	435.56
477.252	445.56
477.471	438.56
477.69	452.56
477.908	444.56
478.127	448.56
478.346	429.56
478.564	452.56
478.783	457.56
479.002	471.56
479.22	471.56
479.439	476.56
479.658	503.56
479.876	525.56
480.095	491.56
480.313	534.56
480.532	517.56
480.751	496.56
480.969	494.56
481.188	586.56
481.406	624.56
481.624	564.56
481.843	511.56
482.061	503.56
482.28	489.56
482.498	487.56
482.717	489.56
482.935	499.56
483.153	488.56
483.372	481.56
483.59	484.56
483.808	481.56
484.027	496.56
484.245	487.56
484.463	484.56
484.681	510.56
484.9	510.56
485.118	509.56
485.336	497.56
485.554	498.56
485.772	503.56
485.99	516.56
486.209	501.56
486.427	502.56
486.645	520.56
486.863	551.56
487.081	548.56
487.299	533.56
487.517	541.56
487.735	540.56
487.953	525.56
488.171	530.56
488.389	501.56
488.607	541.56
488.825	524.56
489.043	526.56
489.261	527.56
489.479	540.56
489.696	523.56
489.914	529.56
490.132	540.56
490.35	561.56
490.568	549.56
490.786	551.56
491.003	568.56
491.221	584.56
491.439	568.56
491.657	570.56
491.874	602.56
492.092	600.56
492.31	589.56
492.527	615.56
492.745	625.56
492.963	604.56
493.18	599.56
493.398	624.56
493.615	636.56
493.833	629.56
494.05	616.56
494.268	623.56
494.485	607.56
494.703	616.56
494.92	627.56
495.138	632.56
495.355	631.56
495.573	653.56
495.79	621.56
496.008	628.56
496.225	619.56
496.442	638.56
496.66	619.56
496.877	618.56
497.094	634.56
497.312	654.56
497.529	645.56
497.746	644.56
497.963	640.56
498.181	650.56
498.398	670.56
498.615	709.56
498.832	661.56
499.049	681.56
499.267	688.56
499.484	689.56
499.701	727.56
499.918	704.56
500.135	725.56
500.352	763.56
500.569	773.56
500.786	804.56
501.003	763.56
501.22	764.56
501.437	742.56
501.654	764.56
501.871	739.56
