Data from 1972.PennyLincolnUp.Lamp.En5.5.200Scan.071719.P1._HRD10591_15-27-46-843.txt Node
Date: Thu Jul 18 15:27:46 EDT 2019
User: cochatt
Spectrometer: HR+D1059
Trigger mode: 1
Integration Time (sec): 1.000000E-1
Scans to average: 1
Electric dark correction enabled: true
Nonlinearity correction enabled: false
Boxcar width: 0
XAxis mode: Wavelengths
Number of Pixels in Spectrum: 2048
>>>>>Begin Spectral Data<<<<<
223.165	-23.81
223.4	-23.81
223.635	-23.81
223.869	-10.81
224.104	-20.81
224.338	4.19
224.573	-26.81
224.808	-9.81
225.042	-9.81
225.277	4.19
225.511	4.19
225.746	-0.81
225.98	14.19
226.215	0.19
226.449	13.19
226.683	23.19
226.918	17.19
227.152	22.19
227.387	38.19
227.621	39.19
227.856	37.19
228.09	42.19
228.324	53.19
228.559	67.19
228.793	71.19
229.027	84.19
229.262	108.19
229.496	114.19
229.73	140.19
229.964	158.19
230.199	136.19
230.433	125.19
230.667	130.19
230.901	118.19
231.136	107.19
231.37	91.19
231.604	100.19
231.838	102.19
232.072	107.19
232.306	110.19
232.541	108.19
232.775	124.19
233.009	108.19
233.243	114.19
233.477	113.19
233.711	117.19
233.945	123.19
234.179	105.19
234.413	127.19
234.647	120.19
234.881	98.19
235.115	129.19
235.349	113.19
235.583	110.19
235.817	122.19
236.051	128.19
236.285	127.19
236.519	121.19
236.753	127.19
236.987	141.19
237.221	187.19
237.455	248.19
237.689	185.19
237.922	150.19
238.156	140.19
238.39	142.19
238.624	126.19
238.858	113.19
239.091	122.19
239.325	130.19
239.559	106.19
239.793	136.19
240.027	136.19
240.26	131.19
240.494	147.19
240.728	142.19
240.961	146.19
241.195	154.19
241.429	129.19
241.662	137.19
241.896	129.19
242.13	123.19
242.363	140.19
242.597	138.19
242.83	126.19
243.064	139.19
243.298	144.19
243.531	125.19
243.765	148.19
243.998	156.19
244.232	133.19
244.465	130.19
244.699	132.19
244.932	138.19
245.166	136.19
245.399	154.19
245.633	145.19
245.866	140.19
246.099	137.19
246.333	152.19
246.566	148.19
246.8	145.19
247.033	171.19
247.266	165.19
247.5	176.19
247.733	165.19
247.966	163.19
248.2	166.19
248.433	182.19
248.666	182.19
248.899	189.19
249.133	204.19
249.366	219.19
249.599	186.19
249.832	182.19
250.066	186.19
250.299	171.19
250.532	192.19
250.765	196.19
250.998	213.19
251.231	240.19
251.465	213.19
251.698	196.19
251.931	205.19
252.164	205.19
252.397	200.19
252.63	182.19
252.863	205.19
253.096	225.19
253.329	237.19
253.562	221.19
253.795	225.19
254.028	228.19
254.261	212.19
254.494	220.19
254.727	257.19
254.96	288.19
255.193	282.19
255.426	237.19
255.659	230.19
255.892	218.19
256.124	236.19
256.357	234.19
256.59	246.19
256.823	201.19
257.056	205.19
257.289	220.19
257.521	214.19
257.754	226.19
257.987	217.19
258.22	214.19
258.452	206.19
258.685	214.19
258.918	213.19
259.151	197.19
259.383	218.19
259.616	228.19
259.849	214.19
260.081	231.19
260.314	248.19
260.547	251.19
260.779	240.19
261.012	223.19
261.244	217.19
261.477	217.19
261.71	221.19
261.942	226.19
262.175	243.19
262.407	224.19
262.64	224.19
262.872	220.19
263.105	211.19
263.337	213.19
263.57	204.19
263.802	205.19
264.035	199.19
264.267	212.19
264.499	206.19
264.732	202.19
264.964	182.19
265.197	221.19
265.429	213.19
265.661	212.19
265.894	205.19
266.126	214.19
266.358	227.19
266.591	227.19
266.823	222.19
267.055	220.19
267.287	235.19
267.52	227.19
267.752	213.19
267.984	226.19
268.216	225.19
268.448	216.19
268.681	233.19
268.913	240.19
269.145	253.19
269.377	277.19
269.609	283.19
269.841	281.19
270.073	274.19
270.306	288.19
270.538	305.19
270.77	314.19
271.002	302.19
271.234	287.19
271.466	292.19
271.698	326.19
271.93	314.19
272.162	326.19
272.394	315.19
272.626	311.19
272.858	284.19
273.09	282.19
273.322	269.19
273.553	268.19
273.785	265.19
274.017	248.19
274.249	272.19
274.481	258.19
274.713	268.19
274.945	276.19
275.176	278.19
275.408	279.19
275.64	267.19
275.872	268.19
276.104	253.19
276.335	277.19
276.567	272.19
276.799	290.19
277.031	317.19
277.262	325.19
277.494	339.19
277.726	332.19
277.957	284.19
278.189	285.19
278.421	274.19
278.652	265.19
278.884	274.19
279.115	272.19
279.347	252.19
279.579	248.19
279.81	266.19
280.042	266.19
280.273	248.19
280.505	248.19
280.736	265.19
280.968	254.19
281.199	261.19
281.431	269.19
281.662	270.19
281.894	269.19
282.125	283.19
282.356	274.19
282.588	310.19
282.819	308.19
283.051	270.19
283.282	251.19
283.513	274.19
283.745	265.19
283.976	282.19
284.207	260.19
284.439	274.19
284.67	270.19
284.901	267.19
285.132	278.19
285.364	254.19
285.595	269.19
285.826	275.19
286.057	260.19
286.288	258.19
286.52	267.19
286.751	275.19
286.982	266.19
287.213	264.19
287.444	283.19
287.675	274.19
287.906	280.19
288.138	274.19
288.369	278.19
288.6	270.19
288.831	284.19
289.062	280.19
289.293	270.19
289.524	286.19
289.755	293.19
289.986	272.19
290.217	275.19
290.448	271.19
290.679	291.19
290.91	266.19
291.141	274.19
291.371	276.19
291.602	268.19
291.833	276.19
292.064	282.19
292.295	271.19
292.526	273.19
292.757	279.19
292.987	269.19
293.218	287.19
293.449	288.19
293.68	284.19
293.91	273.19
294.141	281.19
294.372	259.19
294.603	286.19
294.833	270.19
295.064	273.19
295.295	275.19
295.525	284.19
295.756	295.19
295.987	285.19
296.217	317.19
296.448	312.19
296.679	310.19
296.909	291.19
297.14	274.19
297.37	305.19
297.601	290.19
297.831	279.19
298.062	290.19
298.292	283.19
298.523	284.19
298.753	277.19
298.984	300.19
299.214	298.19
299.445	278.19
299.675	285.19
299.905	310.19
300.136	295.19
300.366	294.19
300.597	281.19
300.827	280.19
301.057	306.19
301.288	322.19
301.518	307.19
301.748	304.19
301.979	301.19
302.209	310.19
302.439	322.19
302.669	302.19
302.9	314.19
303.13	298.19
303.36	319.19
303.59	301.19
303.82	317.19
304.051	305.19
304.281	315.19
304.511	289.19
304.741	282.19
304.971	316.19
305.201	310.19
305.431	328.19
305.661	311.19
305.891	291.19
306.121	315.19
306.352	308.19
306.582	328.19
306.812	299.19
307.042	316.19
307.272	312.19
307.502	312.19
307.731	317.19
307.961	328.19
308.191	302.19
308.421	301.19
308.651	327.19
308.881	340.19
309.111	309.19
309.341	332.19
309.571	344.19
309.8	345.19
310.03	366.19
310.26	359.19
310.49	390.19
310.72	390.19
310.949	406.19
311.179	383.19
311.409	375.19
311.639	369.19
311.868	362.19
312.098	393.19
312.328	387.19
312.557	397.19
312.787	413.19
313.017	420.19
313.246	366.19
313.476	376.19
313.706	380.19
313.935	373.19
314.165	384.19
314.394	417.19
314.624	390.19
314.853	395.19
315.083	378.19
315.312	369.19
315.542	357.19
315.771	356.19
316.001	355.19
316.23	353.19
316.46	346.19
316.689	356.19
316.919	373.19
317.148	380.19
317.377	380.19
317.607	369.19
317.836	378.19
318.065	356.19
318.295	386.19
318.524	374.19
318.753	355.19
318.983	360.19
319.212	362.19
319.441	389.19
319.67	384.19
319.9	379.19
320.129	374.19
320.358	356.19
320.587	365.19
320.816	370.19
321.046	378.19
321.275	387.19
321.504	395.19
321.733	382.19
321.962	410.19
322.191	409.19
322.42	436.19
322.649	432.19
322.878	457.19
323.108	466.19
323.337	489.19
323.566	520.19
323.795	554.19
324.024	618.19
324.253	753.19
324.482	1094.19
324.71	1714.19
324.939	2507.19
325.168	2212.19
325.397	1124.19
325.626	730.19
325.855	591.19
326.084	540.19
326.313	534.19
326.542	530.19
326.77	589.19
326.999	698.19
327.228	990.19
327.457	1508.19
327.686	1889.19
327.914	1252.19
328.143	788.19
328.372	692.19
328.6	620.19
328.829	595.19
329.058	594.19
329.287	634.19
329.515	574.19
329.744	522.19
329.972	518.19
330.201	550.19
330.43	589.19
330.658	627.19
330.887	637.19
331.115	633.19
331.344	528.19
331.572	496.19
331.801	489.19
332.03	498.19
332.258	456.19
332.486	434.19
332.715	436.19
332.943	430.19
333.172	429.19
333.4	452.19
333.629	446.19
333.857	470.19
334.085	482.19
334.314	506.19
334.542	546.19
334.771	563.19
334.999	487.19
335.227	461.19
335.455	438.19
335.684	406.19
335.912	413.19
336.14	407.19
336.369	423.19
336.597	440.19
336.825	436.19
337.053	426.19
337.281	404.19
337.51	412.19
337.738	412.19
337.966	422.19
338.194	410.19
338.422	429.19
338.65	433.19
338.878	398.19
339.106	388.19
339.334	399.19
339.562	398.19
339.79	392.19
340.018	398.19
340.246	409.19
340.474	400.19
340.702	415.19
340.93	390.19
341.158	410.19
341.386	398.19
341.614	407.19
341.842	392.19
342.07	388.19
342.298	401.19
342.526	380.19
342.754	380.19
342.981	396.19
343.209	409.19
343.437	402.19
343.665	374.19
343.893	396.19
344.12	404.19
344.348	403.19
344.576	395.19
344.804	437.19
345.031	425.19
345.259	426.19
345.487	406.19
345.714	421.19
345.942	412.19
346.17	400.19
346.397	389.19
346.625	388.19
346.853	401.19
347.08	377.19
347.308	406.19
347.535	398.19
347.763	423.19
347.99	405.19
348.218	407.19
348.445	419.19
348.673	410.19
348.9	399.19
349.128	404.19
349.355	381.19
349.583	359.19
349.81	374.19
350.037	381.19
350.265	385.19
350.492	368.19
350.72	386.19
350.947	370.19
351.174	394.19
351.402	414.19
351.629	395.19
351.856	394.19
352.083	440.19
352.311	412.19
352.538	423.19
352.765	441.19
352.992	406.19
353.22	394.19
353.447	395.19
353.674	393.19
353.901	385.19
354.128	363.19
354.355	363.19
354.583	369.19
354.81	356.19
355.037	357.19
355.264	329.19
355.491	357.19
355.718	339.19
355.945	338.19
356.172	334.19
356.399	347.19
356.626	362.19
356.853	348.19
357.08	366.19
357.307	346.19
357.534	343.19
357.761	350.19
357.988	365.19
358.215	347.19
358.441	345.19
358.668	371.19
358.895	370.19
359.122	370.19
359.349	387.19
359.576	383.19
359.802	422.19
360.029	461.19
360.256	463.19
360.483	429.19
360.709	421.19
360.936	402.19
361.163	386.19
361.39	416.19
361.616	404.19
361.843	385.19
362.07	384.19
362.296	392.19
362.523	381.19
362.749	398.19
362.976	385.19
363.203	378.19
363.429	354.19
363.656	364.19
363.882	369.19
364.109	380.19
364.335	377.19
364.562	382.19
364.788	345.19
365.015	368.19
365.241	363.19
365.468	384.19
365.694	382.19
365.92	378.19
366.147	371.19
366.373	370.19
366.599	356.19
366.826	372.19
367.052	358.19
367.278	364.19
367.505	359.19
367.731	377.19
367.957	368.19
368.184	382.19
368.41	371.19
368.636	377.19
368.862	381.19
369.089	379.19
369.315	359.19
369.541	356.19
369.767	360.19
369.993	355.19
370.219	368.19
370.445	352.19
370.672	357.19
370.898	362.19
371.124	371.19
371.35	359.19
371.576	328.19
371.802	363.19
372.028	361.19
372.254	368.19
372.48	355.19
372.706	343.19
372.932	357.19
373.158	375.19
373.384	357.19
373.61	357.19
373.835	353.19
374.061	363.19
374.287	357.19
374.513	358.19
374.739	378.19
374.965	365.19
375.191	352.19
375.416	353.19
375.642	342.19
375.868	375.19
376.094	360.19
376.319	372.19
376.545	348.19
376.771	347.19
376.997	343.19
377.222	366.19
377.448	360.19
377.674	364.19
377.899	350.19
378.125	360.19
378.35	338.19
378.576	353.19
378.802	350.19
379.027	350.19
379.253	363.19
379.478	366.19
379.704	349.19
379.929	355.19
380.155	362.19
380.38	349.19
380.606	379.19
380.831	376.19
381.057	386.19
381.282	364.19
381.507	371.19
381.733	374.19
381.958	328.19
382.184	349.19
382.409	374.19
382.634	356.19
382.86	327.19
383.085	358.19
383.31	372.19
383.535	376.19
383.761	367.19
383.986	395.19
384.211	364.19
384.436	392.19
384.662	372.19
384.887	380.19
385.112	378.19
385.337	359.19
385.562	384.19
385.787	384.19
386.013	404.19
386.238	405.19
386.463	412.19
386.688	379.19
386.913	382.19
387.138	368.19
387.363	391.19
387.588	374.19
387.813	369.19
388.038	361.19
388.263	359.19
388.488	396.19
388.713	384.19
388.938	385.19
389.163	387.19
389.387	364.19
389.612	382.19
389.837	364.19
390.062	372.19
390.287	372.19
390.512	363.19
390.736	378.19
390.961	370.19
391.186	388.19
391.411	370.19
391.636	372.19
391.86	403.19
392.085	390.19
392.31	381.19
392.534	374.19
392.759	382.19
392.984	398.19
393.208	402.19
393.433	406.19
393.658	409.19
393.882	395.19
394.107	371.19
394.331	379.19
394.556	371.19
394.78	378.19
395.005	367.19
395.229	363.19
395.454	384.19
395.678	412.19
395.903	394.19
396.127	406.19
396.352	424.19
396.576	411.19
396.801	408.19
397.025	406.19
397.249	398.19
397.474	404.19
397.698	407.19
397.922	398.19
398.147	418.19
398.371	419.19
398.595	421.19
398.82	418.19
399.044	427.19
399.268	438.19
399.492	454.19
399.717	470.19
399.941	494.19
400.165	526.19
400.389	522.19
400.613	469.19
400.837	452.19
401.062	446.19
401.286	449.19
401.51	457.19
401.734	424.19
401.958	447.19
402.182	426.19
402.406	442.19
402.63	443.19
402.854	435.19
403.078	444.19
403.302	458.19
403.526	449.19
403.75	435.19
403.974	451.19
404.198	438.19
404.422	437.19
404.645	467.19
404.869	454.19
405.093	490.19
405.317	539.19
405.541	552.19
405.765	498.19
405.988	488.19
406.212	493.19
406.436	545.19
406.66	523.19
406.883	491.19
407.107	510.19
407.331	530.19
407.555	603.19
407.778	619.19
408.002	562.19
408.226	500.19
408.449	489.19
408.673	478.19
408.896	502.19
409.12	596.19
409.344	532.19
409.567	488.19
409.791	473.19
410.014	460.19
410.238	448.19
410.461	430.19
410.685	449.19
410.908	457.19
411.132	497.19
411.355	533.19
411.578	523.19
411.802	473.19
412.025	460.19
412.249	453.19
412.472	498.19
412.695	508.19
412.919	510.19
413.142	473.19
413.365	450.19
413.589	434.19
413.812	426.19
414.035	433.19
414.258	401.19
414.482	436.19
414.705	445.19
414.928	411.19
415.151	429.19
415.374	427.19
415.597	432.19
415.821	420.19
416.044	393.19
416.267	419.19
416.49	409.19
416.713	416.19
416.936	424.19
417.159	424.19
417.382	444.19
417.605	449.19
417.828	444.19
418.051	458.19
418.274	440.19
418.497	432.19
418.72	437.19
418.943	429.19
419.166	434.19
419.389	442.19
419.611	454.19
419.834	442.19
420.057	441.19
420.28	442.19
420.503	456.19
420.726	434.19
420.948	472.19
421.171	514.19
421.394	568.19
421.617	476.19
421.839	450.19
422.062	436.19
422.285	455.19
422.507	532.19
422.73	601.19
422.953	583.19
423.175	526.19
423.398	458.19
423.621	496.19
423.843	484.19
424.066	471.19
424.288	503.19
424.511	518.19
424.733	581.19
424.956	678.19
425.178	613.19
425.401	602.19
425.623	666.19
425.846	549.19
426.068	500.19
426.291	506.19
426.513	498.19
426.735	508.19
426.958	573.19
427.18	624.19
427.402	742.19
427.625	807.19
427.847	757.19
428.069	651.19
428.292	581.19
428.514	506.19
428.736	500.19
428.958	474.19
429.181	422.19
429.403	470.19
429.625	467.19
429.847	507.19
430.069	574.19
430.292	546.19
430.514	467.19
430.736	447.19
430.958	461.19
431.18	441.19
431.402	427.19
431.624	419.19
431.846	423.19
432.068	432.19
432.29	424.19
432.512	414.19
432.734	430.19
432.956	424.19
433.178	453.19
433.4	448.19
433.622	430.19
433.844	431.19
434.066	436.19
434.287	445.19
434.509	416.19
434.731	442.19
434.953	444.19
435.175	468.19
435.397	474.19
435.618	496.19
435.84	532.19
436.062	631.19
436.284	697.19
436.505	616.19
436.727	523.19
436.949	491.19
437.17	460.19
437.392	484.19
437.614	475.19
437.835	510.19
438.057	627.19
438.278	726.19
438.5	697.19
438.721	772.19
438.943	740.19
439.165	598.19
439.386	548.19
439.608	540.19
439.829	507.19
440.05	557.19
440.272	627.19
440.493	580.19
440.715	514.19
440.936	486.19
441.158	479.19
441.379	490.19
441.6	472.19
441.822	483.19
442.043	550.19
442.264	620.19
442.486	676.19
442.707	574.19
442.928	517.19
443.149	534.19
443.371	548.19
443.592	585.19
443.813	686.19
444.034	743.19
444.255	573.19
444.476	514.19
444.698	512.19
444.919	483.19
445.14	624.19
445.361	589.19
445.582	548.19
445.803	653.19
446.024	719.19
446.245	757.19
446.466	660.19
446.687	577.19
446.908	509.19
447.129	467.19
447.35	483.19
447.571	474.19
447.792	477.19
448.013	487.19
448.234	508.19
448.455	544.19
448.675	637.19
448.896	772.19
449.117	651.19
449.338	629.19
449.559	721.19
449.779	835.19
450	662.19
450.221	544.19
450.442	498.19
450.662	484.19
450.883	486.19
451.104	514.19
451.324	477.19
451.545	468.19
451.766	433.19
451.986	402.19
452.207	429.19
452.428	398.19
452.648	414.19
452.869	419.19
453.089	423.19
453.31	450.19
453.53	425.19
453.751	428.19
453.971	419.19
454.192	446.19
454.412	436.19
454.633	431.19
454.853	403.19
455.073	412.19
455.294	438.19
455.514	527.19
455.734	504.19
455.955	430.19
456.175	399.19
456.395	386.19
456.616	394.19
456.836	390.19
457.056	370.19
457.276	388.19
457.497	382.19
457.717	392.19
457.937	386.19
458.157	404.19
458.377	397.19
458.598	447.19
458.818	492.19
459.038	578.19
459.258	601.19
459.478	501.19
459.698	455.19
459.918	437.19
460.138	426.19
460.358	445.19
460.578	416.19
460.798	427.19
461.018	424.19
461.238	419.19
461.458	413.19
461.678	403.19
461.898	408.19
462.118	432.19
462.338	418.19
462.558	424.19
462.777	428.19
462.997	437.19
463.217	440.19
463.437	454.19
463.657	443.19
463.876	430.19
464.096	460.19
464.316	433.19
464.536	450.19
464.755	461.19
464.975	466.19
465.195	530.19
465.414	604.19
465.634	522.19
465.854	463.19
466.073	464.19
466.293	432.19
466.512	423.19
466.732	428.19
466.951	406.19
467.171	425.19
467.391	422.19
467.61	426.19
467.829	427.19
468.049	444.19
468.268	438.19
468.488	402.19
468.707	402.19
468.927	405.19
469.146	392.19
469.365	413.19
469.585	385.19
469.804	421.19
470.023	429.19
470.243	406.19
470.462	435.19
470.681	471.19
470.901	425.19
471.12	434.19
471.339	430.19
471.558	426.19
471.777	431.19
471.997	418.19
472.216	434.19
472.435	488.19
472.654	461.19
472.873	457.19
473.092	419.19
473.311	429.19
473.53	450.19
473.749	456.19
473.968	477.19
474.187	617.19
474.406	633.19
474.625	476.19
474.844	442.19
475.063	433.19
475.282	436.19
475.501	407.19
475.72	458.19
475.939	449.19
476.158	447.19
476.377	435.19
476.596	425.19
476.814	460.19
477.033	453.19
477.252	460.19
477.471	458.19
477.69	470.19
477.908	453.19
478.127	451.19
478.346	462.19
478.564	466.19
478.783	462.19
479.002	462.19
479.22	468.19
479.439	485.19
479.658	514.19
479.876	508.19
480.095	493.19
480.313	532.19
480.532	520.19
480.751	500.19
480.969	524.19
481.188	588.19
481.406	649.19
481.624	566.19
481.843	528.19
482.061	498.19
482.28	502.19
482.498	500.19
482.717	501.19
482.935	501.19
483.153	496.19
483.372	506.19
483.59	508.19
483.808	478.19
484.027	512.19
484.245	505.19
484.463	505.19
484.681	507.19
484.9	509.19
485.118	515.19
485.336	490.19
485.554	490.19
485.772	551.19
485.99	520.19
486.209	508.19
486.427	525.19
486.645	541.19
486.863	537.19
487.081	547.19
487.299	541.19
487.517	549.19
487.735	537.19
487.953	555.19
488.171	558.19
488.389	537.19
488.607	551.19
488.825	548.19
489.043	556.19
489.261	545.19
489.479	557.19
489.696	539.19
489.914	552.19
490.132	549.19
490.35	549.19
490.568	551.19
490.786	584.19
491.003	573.19
491.221	608.19
491.439	608.19
491.657	620.19
491.874	608.19
492.092	602.19
492.31	615.19
492.527	628.19
492.745	600.19
492.963	626.19
493.18	636.19
493.398	626.19
493.615	622.19
493.833	639.19
494.05	626.19
494.268	642.19
494.485	646.19
494.703	657.19
494.92	656.19
495.138	616.19
495.355	655.19
495.573	631.19
495.79	654.19
496.008	637.19
496.225	638.19
496.442	651.19
496.66	630.19
496.877	632.19
497.094	640.19
497.312	637.19
497.529	651.19
497.746	648.19
497.963	644.19
498.181	660.19
498.398	696.19
498.615	689.19
498.832	726.19
499.049	696.19
499.267	698.19
499.484	722.19
499.701	736.19
499.918	732.19
500.135	770.19
500.352	780.19
500.569	796.19
500.786	803.19
501.003	804.19
501.22	800.19
501.437	760.19
501.654	760.19
501.871	795.19
