Data from 1972.PennyLincolnUp.Lamp.En5.5.200Scan.071719.P1._HRD10591_15-28-24-844.txt Node
Date: Thu Jul 18 15:28:24 EDT 2019
User: cochatt
Spectrometer: HR+D1059
Trigger mode: 1
Integration Time (sec): 1.000000E-1
Scans to average: 1
Electric dark correction enabled: true
Nonlinearity correction enabled: false
Boxcar width: 0
XAxis mode: Wavelengths
Number of Pixels in Spectrum: 2048
>>>>>Begin Spectral Data<<<<<
223.165	-16.38
223.4	-16.38
223.635	-16.38
223.869	-27.38
224.104	-16.38
224.338	-15.38
224.573	-10.38
224.808	-12.38
225.042	-17.38
225.277	-7.38
225.511	0.62
225.746	0.62
225.98	9.62
226.215	21.62
226.449	11.62
226.683	26.62
226.918	26.62
227.152	25.62
227.387	35.62
227.621	37.62
227.856	52.62
228.09	47.62
228.324	50.62
228.559	65.62
228.793	76.62
229.027	115.62
229.262	108.62
229.496	126.62
229.73	156.62
229.964	159.62
230.199	119.62
230.433	132.62
230.667	93.62
230.901	109.62
231.136	109.62
231.37	109.62
231.604	114.62
231.838	111.62
232.072	122.62
232.306	111.62
232.541	119.62
232.775	99.62
233.009	90.62
233.243	120.62
233.477	114.62
233.711	101.62
233.945	114.62
234.179	114.62
234.413	108.62
234.647	126.62
234.881	141.62
235.115	124.62
235.349	120.62
235.583	107.62
235.817	116.62
236.051	126.62
236.285	128.62
236.519	124.62
236.753	137.62
236.987	155.62
237.221	193.62
237.455	244.62
237.689	191.62
237.922	125.62
238.156	140.62
238.39	134.62
238.624	128.62
238.858	142.62
239.091	130.62
239.325	126.62
239.559	130.62
239.793	135.62
240.027	122.62
240.26	138.62
240.494	162.62
240.728	151.62
240.961	148.62
241.195	153.62
241.429	138.62
241.662	138.62
241.896	127.62
242.13	114.62
242.363	135.62
242.597	120.62
242.83	124.62
243.064	146.62
243.298	127.62
243.531	154.62
243.765	144.62
243.998	148.62
244.232	142.62
244.465	154.62
244.699	155.62
244.932	147.62
245.166	135.62
245.399	154.62
245.633	159.62
245.866	132.62
246.099	150.62
246.333	160.62
246.566	154.62
246.8	143.62
247.033	166.62
247.266	149.62
247.5	162.62
247.733	154.62
247.966	164.62
248.2	171.62
248.433	155.62
248.666	165.62
248.899	171.62
249.133	206.62
249.366	203.62
249.599	210.62
249.832	178.62
250.066	186.62
250.299	188.62
250.532	188.62
250.765	206.62
250.998	227.62
251.231	218.62
251.465	239.62
251.698	215.62
251.931	193.62
252.164	210.62
252.397	201.62
252.63	198.62
252.863	212.62
253.096	225.62
253.329	227.62
253.562	232.62
253.795	223.62
254.028	222.62
254.261	219.62
254.494	232.62
254.727	270.62
254.96	292.62
255.193	276.62
255.426	251.62
255.659	259.62
255.892	259.62
256.124	252.62
256.357	238.62
256.59	260.62
256.823	246.62
257.056	224.62
257.289	217.62
257.521	221.62
257.754	224.62
257.987	227.62
258.22	212.62
258.452	207.62
258.685	235.62
258.918	213.62
259.151	210.62
259.383	232.62
259.616	234.62
259.849	238.62
260.081	227.62
260.314	248.62
260.547	271.62
260.779	266.62
261.012	240.62
261.244	222.62
261.477	228.62
261.71	233.62
261.942	227.62
262.175	243.62
262.407	208.62
262.64	215.62
262.872	211.62
263.105	187.62
263.337	205.62
263.57	222.62
263.802	202.62
264.035	218.62
264.267	203.62
264.499	209.62
264.732	221.62
264.964	190.62
265.197	203.62
265.429	200.62
265.661	206.62
265.894	211.62
266.126	212.62
266.358	216.62
266.591	199.62
266.823	242.62
267.055	235.62
267.287	243.62
267.52	224.62
267.752	222.62
267.984	218.62
268.216	230.62
268.448	227.62
268.681	229.62
268.913	245.62
269.145	262.62
269.377	290.62
269.609	284.62
269.841	274.62
270.073	274.62
270.306	308.62
270.538	316.62
270.77	360.62
271.002	315.62
271.234	299.62
271.466	312.62
271.698	325.62
271.93	345.62
272.162	328.62
272.394	332.62
272.626	319.62
272.858	281.62
273.09	284.62
273.322	273.62
273.553	271.62
273.785	264.62
274.017	267.62
274.249	262.62
274.481	271.62
274.713	266.62
274.945	262.62
275.176	280.62
275.408	266.62
275.64	262.62
275.872	263.62
276.104	278.62
276.335	285.62
276.567	284.62
276.799	303.62
277.031	312.62
277.262	331.62
277.494	328.62
277.726	290.62
277.957	295.62
278.189	290.62
278.421	262.62
278.652	276.62
278.884	258.62
279.115	270.62
279.347	262.62
279.579	252.62
279.81	270.62
280.042	271.62
280.273	254.62
280.505	262.62
280.736	281.62
280.968	239.62
281.199	257.62
281.431	271.62
281.662	264.62
281.894	270.62
282.125	263.62
282.356	294.62
282.588	313.62
282.819	314.62
283.051	278.62
283.282	246.62
283.513	271.62
283.745	281.62
283.976	255.62
284.207	280.62
284.439	268.62
284.67	278.62
284.901	267.62
285.132	284.62
285.364	268.62
285.595	273.62
285.826	266.62
286.057	290.62
286.288	265.62
286.52	276.62
286.751	279.62
286.982	252.62
287.213	270.62
287.444	267.62
287.675	306.62
287.906	297.62
288.138	303.62
288.369	310.62
288.6	316.62
288.831	303.62
289.062	275.62
289.293	295.62
289.524	275.62
289.755	272.62
289.986	279.62
290.217	259.62
290.448	269.62
290.679	297.62
290.91	279.62
291.141	258.62
291.371	274.62
291.602	277.62
291.833	275.62
292.064	264.62
292.295	286.62
292.526	284.62
292.757	270.62
292.987	274.62
293.218	282.62
293.449	294.62
293.68	272.62
293.91	272.62
294.141	277.62
294.372	260.62
294.603	267.62
294.833	259.62
295.064	277.62
295.295	279.62
295.525	296.62
295.756	295.62
295.987	288.62
296.217	310.62
296.448	335.62
296.679	282.62
296.909	269.62
297.14	286.62
297.37	278.62
297.601	273.62
297.831	272.62
298.062	298.62
298.292	298.62
298.523	288.62
298.753	286.62
298.984	292.62
299.214	302.62
299.445	301.62
299.675	296.62
299.905	316.62
300.136	310.62
300.366	314.62
300.597	287.62
300.827	298.62
301.057	306.62
301.288	306.62
301.518	336.62
301.748	301.62
301.979	311.62
302.209	306.62
302.439	306.62
302.669	301.62
302.9	319.62
303.13	309.62
303.36	339.62
303.59	322.62
303.82	321.62
304.051	310.62
304.281	322.62
304.511	316.62
304.741	311.62
304.971	301.62
305.201	303.62
305.431	308.62
305.661	289.62
305.891	310.62
306.121	303.62
306.352	331.62
306.582	330.62
306.812	324.62
307.042	302.62
307.272	316.62
307.502	330.62
307.731	331.62
307.961	318.62
308.191	312.62
308.421	314.62
308.651	338.62
308.881	317.62
309.111	328.62
309.341	342.62
309.571	332.62
309.8	364.62
310.03	367.62
310.26	389.62
310.49	385.62
310.72	378.62
310.949	400.62
311.179	415.62
311.409	399.62
311.639	376.62
311.868	375.62
312.098	379.62
312.328	388.62
312.557	383.62
312.787	421.62
313.017	391.62
313.246	375.62
313.476	371.62
313.706	359.62
313.935	374.62
314.165	394.62
314.394	393.62
314.624	392.62
314.853	396.62
315.083	388.62
315.312	360.62
315.542	376.62
315.771	367.62
316.001	360.62
316.23	353.62
316.46	389.62
316.689	384.62
316.919	380.62
317.148	382.62
317.377	388.62
317.607	372.62
317.836	377.62
318.065	391.62
318.295	384.62
318.524	370.62
318.753	368.62
318.983	358.62
319.212	389.62
319.441	380.62
319.67	397.62
319.9	370.62
320.129	390.62
320.358	380.62
320.587	395.62
320.816	376.62
321.046	386.62
321.275	420.62
321.504	400.62
321.733	388.62
321.962	419.62
322.191	427.62
322.42	454.62
322.649	447.62
322.878	486.62
323.108	485.62
323.337	506.62
323.566	535.62
323.795	576.62
324.024	646.62
324.253	790.62
324.482	1141.62
324.71	1801.62
324.939	2672.62
325.168	2348.62
325.397	1174.62
325.626	738.62
325.855	596.62
326.084	563.62
326.313	568.62
326.542	544.62
326.77	581.62
326.999	714.62
327.228	1047.62
327.457	1611.62
327.686	1995.62
327.914	1321.62
328.143	837.62
328.372	720.62
328.6	664.62
328.829	616.62
329.058	630.62
329.287	632.62
329.515	616.62
329.744	542.62
329.972	551.62
330.201	577.62
330.43	632.62
330.658	652.62
330.887	666.62
331.115	638.62
331.344	566.62
331.572	517.62
331.801	524.62
332.03	507.62
332.258	475.62
332.486	459.62
332.715	428.62
332.943	450.62
333.172	429.62
333.4	437.62
333.629	446.62
333.857	466.62
334.085	499.62
334.314	486.62
334.542	524.62
334.771	546.62
334.999	498.62
335.227	483.62
335.455	467.62
335.684	434.62
335.912	426.62
336.14	440.62
336.369	431.62
336.597	429.62
336.825	453.62
337.053	419.62
337.281	419.62
337.51	407.62
337.738	429.62
337.966	412.62
338.194	434.62
338.422	447.62
338.65	427.62
338.878	418.62
339.106	395.62
339.334	415.62
339.562	412.62
339.79	407.62
340.018	414.62
340.246	381.62
340.474	413.62
340.702	418.62
340.93	410.62
341.158	388.62
341.386	416.62
341.614	410.62
341.842	391.62
342.07	406.62
342.298	398.62
342.526	382.62
342.754	385.62
342.981	378.62
343.209	382.62
343.437	374.62
343.665	386.62
343.893	379.62
344.12	404.62
344.348	409.62
344.576	397.62
344.804	423.62
345.031	428.62
345.259	434.62
345.487	464.62
345.714	421.62
345.942	408.62
346.17	421.62
346.397	388.62
346.625	416.62
346.853	395.62
347.08	403.62
347.308	410.62
347.535	389.62
347.763	412.62
347.99	413.62
348.218	419.62
348.445	433.62
348.673	437.62
348.9	411.62
349.128	390.62
349.355	383.62
349.583	383.62
349.81	383.62
350.037	357.62
350.265	382.62
350.492	389.62
350.72	386.62
350.947	391.62
351.174	405.62
351.402	414.62
351.629	397.62
351.856	415.62
352.083	434.62
352.311	413.62
352.538	404.62
352.765	422.62
352.992	420.62
353.22	396.62
353.447	409.62
353.674	380.62
353.901	372.62
354.128	360.62
354.355	384.62
354.583	365.62
354.81	355.62
355.037	366.62
355.264	345.62
355.491	344.62
355.718	363.62
355.945	374.62
356.172	352.62
356.399	374.62
356.626	355.62
356.853	355.62
357.08	351.62
357.307	360.62
357.534	352.62
357.761	355.62
357.988	358.62
358.215	337.62
358.441	376.62
358.668	351.62
358.895	370.62
359.122	367.62
359.349	386.62
359.576	380.62
359.802	419.62
360.029	458.62
360.256	470.62
360.483	454.62
360.709	414.62
360.936	391.62
361.163	392.62
361.39	407.62
361.616	403.62
361.843	384.62
362.07	385.62
362.296	405.62
362.523	410.62
362.749	409.62
362.976	379.62
363.203	373.62
363.429	377.62
363.656	379.62
363.882	383.62
364.109	387.62
364.335	379.62
364.562	364.62
364.788	361.62
365.015	378.62
365.241	372.62
365.468	402.62
365.694	366.62
365.92	388.62
366.147	378.62
366.373	357.62
366.599	362.62
366.826	372.62
367.052	359.62
367.278	361.62
367.505	379.62
367.731	355.62
367.957	366.62
368.184	364.62
368.41	380.62
368.636	376.62
368.862	389.62
369.089	376.62
369.315	367.62
369.541	358.62
369.767	359.62
369.993	363.62
370.219	363.62
370.445	371.62
370.672	346.62
370.898	337.62
371.124	339.62
371.35	359.62
371.576	362.62
371.802	362.62
372.028	357.62
372.254	349.62
372.48	344.62
372.706	372.62
372.932	333.62
373.158	354.62
373.384	364.62
373.61	366.62
373.835	346.62
374.061	352.62
374.287	351.62
374.513	359.62
374.739	359.62
374.965	362.62
375.191	359.62
375.416	366.62
375.642	361.62
375.868	355.62
376.094	367.62
376.319	349.62
376.545	363.62
376.771	357.62
376.997	347.62
377.222	354.62
377.448	359.62
377.674	352.62
377.899	340.62
378.125	342.62
378.35	363.62
378.576	342.62
378.802	370.62
379.027	335.62
379.253	360.62
379.478	342.62
379.704	347.62
379.929	370.62
380.155	346.62
380.38	351.62
380.606	367.62
380.831	346.62
381.057	371.62
381.282	355.62
381.507	349.62
381.733	357.62
381.958	350.62
382.184	365.62
382.409	334.62
382.634	385.62
382.86	363.62
383.085	361.62
383.31	374.62
383.535	385.62
383.761	380.62
383.986	368.62
384.211	378.62
384.436	367.62
384.662	364.62
384.887	364.62
385.112	381.62
385.337	370.62
385.562	346.62
385.787	384.62
386.013	413.62
386.238	384.62
386.463	378.62
386.688	365.62
386.913	366.62
387.138	389.62
387.363	363.62
387.588	356.62
387.813	380.62
388.038	370.62
388.263	386.62
388.488	364.62
388.713	370.62
388.938	387.62
389.163	383.62
389.387	372.62
389.612	361.62
389.837	374.62
390.062	392.62
390.287	371.62
390.512	378.62
390.736	371.62
390.961	388.62
391.186	351.62
391.411	376.62
391.636	377.62
391.86	370.62
392.085	365.62
392.31	380.62
392.534	388.62
392.759	387.62
392.984	394.62
393.208	399.62
393.433	396.62
393.658	358.62
393.882	380.62
394.107	376.62
394.331	370.62
394.556	379.62
394.78	387.62
395.005	383.62
395.229	374.62
395.454	392.62
395.678	395.62
395.903	412.62
396.127	432.62
396.352	443.62
396.576	402.62
396.801	412.62
397.025	393.62
397.249	378.62
397.474	397.62
397.698	406.62
397.922	387.62
398.147	430.62
398.371	413.62
398.595	406.62
398.82	431.62
399.044	448.62
399.268	443.62
399.492	426.62
399.717	472.62
399.941	490.62
400.165	507.62
400.389	528.62
400.613	507.62
400.837	459.62
401.062	432.62
401.286	421.62
401.51	414.62
401.734	437.62
401.958	406.62
402.182	435.62
402.406	434.62
402.63	455.62
402.854	447.62
403.078	434.62
403.302	418.62
403.526	447.62
403.75	460.62
403.974	440.62
404.198	424.62
404.422	437.62
404.645	461.62
404.869	471.62
405.093	491.62
405.317	545.62
405.541	588.62
405.765	518.62
405.988	500.62
406.212	491.62
406.436	522.62
406.66	525.62
406.883	518.62
407.107	514.62
407.331	566.62
407.555	594.62
407.778	619.62
408.002	569.62
408.226	506.62
408.449	499.62
408.673	519.62
408.896	539.62
409.12	562.62
409.344	534.62
409.567	482.62
409.791	472.62
410.014	447.62
410.238	467.62
410.461	455.62
410.685	440.62
410.908	445.62
411.132	509.62
411.355	533.62
411.578	494.62
411.802	453.62
412.025	460.62
412.249	464.62
412.472	483.62
412.695	544.62
412.919	505.62
413.142	466.62
413.365	453.62
413.589	444.62
413.812	418.62
414.035	430.62
414.258	416.62
414.482	419.62
414.705	429.62
414.928	415.62
415.151	424.62
415.374	397.62
415.597	405.62
415.821	411.62
416.044	436.62
416.267	406.62
416.49	413.62
416.713	418.62
416.936	415.62
417.159	412.62
417.382	445.62
417.605	449.62
417.828	439.62
418.051	448.62
418.274	449.62
418.497	448.62
418.72	428.62
418.943	420.62
419.166	443.62
419.389	446.62
419.611	428.62
419.834	473.62
420.057	467.62
420.28	444.62
420.503	472.62
420.726	462.62
420.948	472.62
421.171	500.62
421.394	533.62
421.617	498.62
421.839	454.62
422.062	449.62
422.285	452.62
422.507	519.62
422.73	607.62
422.953	583.62
423.175	514.62
423.398	492.62
423.621	469.62
423.843	474.62
424.066	501.62
424.288	506.62
424.511	520.62
424.733	566.62
424.956	648.62
425.178	638.62
425.401	619.62
425.623	644.62
425.846	568.62
426.068	536.62
426.291	502.62
426.513	490.62
426.735	516.62
426.958	568.62
427.18	641.62
427.402	763.62
427.625	880.62
427.847	801.62
428.069	688.62
428.292	575.62
428.514	494.62
428.736	500.62
428.958	494.62
429.181	469.62
429.403	445.62
429.625	489.62
429.847	491.62
430.069	599.62
430.292	588.62
430.514	498.62
430.736	454.62
430.958	457.62
431.18	453.62
431.402	449.62
431.624	425.62
431.846	444.62
432.068	421.62
432.29	408.62
432.512	437.62
432.734	464.62
432.956	441.62
433.178	444.62
433.4	452.62
433.622	448.62
433.844	443.62
434.066	422.62
434.287	422.62
434.509	444.62
434.731	439.62
434.953	424.62
435.175	457.62
435.397	474.62
435.618	516.62
435.84	548.62
436.062	647.62
436.284	718.62
436.505	600.62
436.727	538.62
436.949	503.62
437.17	477.62
437.392	468.62
437.614	471.62
437.835	541.62
438.057	648.62
438.278	704.62
438.5	751.62
438.721	792.62
438.943	760.62
439.165	601.62
439.386	554.62
439.608	554.62
439.829	537.62
440.05	576.62
440.272	638.62
440.493	575.62
440.715	516.62
440.936	486.62
441.158	472.62
441.379	464.62
441.6	467.62
441.822	511.62
442.043	543.62
442.264	628.62
442.486	677.62
442.707	590.62
442.928	517.62
443.149	540.62
443.371	555.62
443.592	593.62
443.813	680.62
444.034	749.62
444.255	626.62
444.476	558.62
444.698	487.62
444.919	487.62
445.14	584.62
445.361	575.62
445.582	567.62
445.803	618.62
446.024	738.62
446.245	751.62
446.466	669.62
446.687	567.62
446.908	520.62
447.129	478.62
447.35	463.62
447.571	493.62
447.792	450.62
448.013	468.62
448.234	483.62
448.455	534.62
448.675	657.62
448.896	767.62
449.117	659.62
449.338	630.62
449.559	713.62
449.779	827.62
450	660.62
450.221	532.62
450.442	505.62
450.662	479.62
450.883	492.62
451.104	506.62
451.324	499.62
451.545	465.62
451.766	427.62
451.986	401.62
452.207	429.62
452.428	406.62
452.648	427.62
452.869	434.62
453.089	452.62
453.31	439.62
453.53	443.62
453.751	426.62
453.971	434.62
454.192	440.62
454.412	427.62
454.633	427.62
454.853	390.62
455.073	412.62
455.294	443.62
455.514	534.62
455.734	504.62
455.955	438.62
456.175	396.62
456.395	381.62
456.616	397.62
456.836	403.62
457.056	393.62
457.276	381.62
457.497	362.62
457.717	386.62
457.937	396.62
458.157	401.62
458.377	400.62
458.598	430.62
458.818	496.62
459.038	630.62
459.258	613.62
459.478	487.62
459.698	472.62
459.918	436.62
460.138	427.62
460.358	427.62
460.578	416.62
460.798	414.62
461.018	451.62
461.238	429.62
461.458	424.62
461.678	417.62
461.898	427.62
462.118	406.62
462.338	424.62
462.558	420.62
462.777	416.62
462.997	438.62
463.217	429.62
463.437	440.62
463.657	440.62
463.876	459.62
464.096	436.62
464.316	443.62
464.536	450.62
464.755	450.62
464.975	473.62
465.195	532.62
465.414	612.62
465.634	518.62
465.854	484.62
466.073	457.62
466.293	444.62
466.512	434.62
466.732	427.62
466.951	418.62
467.171	416.62
467.391	427.62
467.61	441.62
467.829	439.62
468.049	445.62
468.268	459.62
468.488	414.62
468.707	404.62
468.927	403.62
469.146	411.62
469.365	405.62
469.585	409.62
469.804	428.62
470.023	424.62
470.243	443.62
470.462	427.62
470.681	472.62
470.901	436.62
471.12	418.62
471.339	430.62
471.558	434.62
471.777	442.62
471.997	425.62
472.216	421.62
472.435	487.62
472.654	473.62
472.873	458.62
473.092	404.62
473.311	414.62
473.53	416.62
473.749	456.62
473.968	495.62
474.187	603.62
474.406	612.62
474.625	491.62
474.844	456.62
475.063	451.62
475.282	429.62
475.501	429.62
475.72	450.62
475.939	439.62
476.158	438.62
476.377	436.62
476.596	435.62
476.814	455.62
477.033	461.62
477.252	442.62
477.471	456.62
477.69	463.62
477.908	455.62
478.127	467.62
478.346	475.62
478.564	470.62
478.783	473.62
479.002	471.62
479.22	491.62
479.439	500.62
479.658	522.62
479.876	527.62
480.095	535.62
480.313	539.62
480.532	550.62
480.751	495.62
480.969	544.62
481.188	622.62
481.406	693.62
481.624	583.62
481.843	544.62
482.061	534.62
482.28	536.62
482.498	532.62
482.717	517.62
482.935	503.62
483.153	528.62
483.372	500.62
483.59	506.62
483.808	500.62
484.027	496.62
484.245	493.62
484.463	496.62
484.681	511.62
484.9	519.62
485.118	513.62
485.336	501.62
485.554	523.62
485.772	516.62
485.99	511.62
486.209	524.62
486.427	507.62
486.645	544.62
486.863	554.62
487.081	550.62
487.299	536.62
487.517	524.62
487.735	526.62
487.953	535.62
488.171	549.62
488.389	537.62
488.607	559.62
488.825	558.62
489.043	560.62
489.261	553.62
489.479	557.62
489.696	532.62
489.914	572.62
490.132	576.62
490.35	582.62
490.568	594.62
490.786	568.62
491.003	582.62
491.221	602.62
491.439	605.62
491.657	610.62
491.874	624.62
492.092	631.62
492.31	630.62
492.527	631.62
492.745	641.62
492.963	616.62
493.18	632.62
493.398	620.62
493.615	650.62
493.833	632.62
494.05	623.62
494.268	644.62
494.485	634.62
494.703	654.62
494.92	649.62
495.138	648.62
495.355	648.62
495.573	637.62
495.79	640.62
496.008	647.62
496.225	632.62
496.442	666.62
496.66	646.62
496.877	648.62
497.094	637.62
497.312	648.62
497.529	670.62
497.746	656.62
497.963	674.62
498.181	700.62
498.398	664.62
498.615	709.62
498.832	687.62
499.049	707.62
499.267	718.62
499.484	708.62
499.701	722.62
499.918	762.62
500.135	776.62
500.352	796.62
500.569	802.62
500.786	794.62
501.003	813.62
501.22	794.62
501.437	774.62
501.654	764.62
501.871	805.62
