Data from 1972.PennyLincolnUp.Lamp.En5.5.200Scan.071719.P1._HRD10591_15-29-07-844.txt Node
Date: Thu Jul 18 15:29:07 EDT 2019
User: cochatt
Spectrometer: HR+D1059
Trigger mode: 1
Integration Time (sec): 1.000000E-1
Scans to average: 1
Electric dark correction enabled: true
Nonlinearity correction enabled: false
Boxcar width: 0
XAxis mode: Wavelengths
Number of Pixels in Spectrum: 2048
>>>>>Begin Spectral Data<<<<<
223.165	-9.56
223.4	-9.56
223.635	-9.56
223.869	-11.56
224.104	-24.56
224.338	-6.56
224.573	-24.56
224.808	-5.56
225.042	-10.56
225.277	2.44
225.511	-1.56
225.746	1.44
225.98	1.44
226.215	3.44
226.449	6.44
226.683	16.44
226.918	26.44
227.152	36.44
227.387	28.44
227.621	20.44
227.856	41.44
228.09	46.44
228.324	41.44
228.559	47.44
228.793	71.44
229.027	100.44
229.262	118.44
229.496	117.44
229.73	139.44
229.964	172.44
230.199	163.44
230.433	130.44
230.667	123.44
230.901	123.44
231.136	105.44
231.37	109.44
231.604	125.44
231.838	106.44
232.072	119.44
232.306	125.44
232.541	124.44
232.775	108.44
233.009	123.44
233.243	102.44
233.477	139.44
233.711	117.44
233.945	115.44
234.179	113.44
234.413	126.44
234.647	116.44
234.881	120.44
235.115	117.44
235.349	108.44
235.583	111.44
235.817	127.44
236.051	136.44
236.285	130.44
236.519	140.44
236.753	134.44
236.987	157.44
237.221	195.44
237.455	267.44
237.689	215.44
237.922	162.44
238.156	131.44
238.39	151.44
238.624	134.44
238.858	114.44
239.091	124.44
239.325	115.44
239.559	134.44
239.793	131.44
240.027	139.44
240.26	143.44
240.494	154.44
240.728	160.44
240.961	162.44
241.195	155.44
241.429	153.44
241.662	145.44
241.896	154.44
242.13	135.44
242.363	131.44
242.597	135.44
242.83	146.44
243.064	140.44
243.298	148.44
243.531	144.44
243.765	154.44
243.998	146.44
244.232	144.44
244.465	141.44
244.699	141.44
244.932	143.44
245.166	141.44
245.399	156.44
245.633	151.44
245.866	139.44
246.099	156.44
246.333	146.44
246.566	161.44
246.8	158.44
247.033	158.44
247.266	151.44
247.5	152.44
247.733	183.44
247.966	175.44
248.2	168.44
248.433	178.44
248.666	184.44
248.899	205.44
249.133	213.44
249.366	227.44
249.599	206.44
249.832	184.44
250.066	197.44
250.299	195.44
250.532	198.44
250.765	222.44
250.998	232.44
251.231	244.44
251.465	220.44
251.698	207.44
251.931	211.44
252.164	205.44
252.397	202.44
252.63	213.44
252.863	218.44
253.096	217.44
253.329	226.44
253.562	234.44
253.795	219.44
254.028	236.44
254.261	249.44
254.494	244.44
254.727	285.44
254.96	319.44
255.193	303.44
255.426	277.44
255.659	247.44
255.892	247.44
256.124	228.44
256.357	225.44
256.59	249.44
256.823	230.44
257.056	227.44
257.289	247.44
257.521	244.44
257.754	217.44
257.987	218.44
258.22	211.44
258.452	232.44
258.685	219.44
258.918	227.44
259.151	213.44
259.383	238.44
259.616	227.44
259.849	238.44
260.081	250.44
260.314	263.44
260.547	285.44
260.779	265.44
261.012	261.44
261.244	239.44
261.477	249.44
261.71	232.44
261.942	246.44
262.175	250.44
262.407	263.44
262.64	225.44
262.872	231.44
263.105	218.44
263.337	225.44
263.57	231.44
263.802	211.44
264.035	227.44
264.267	226.44
264.499	220.44
264.732	210.44
264.964	227.44
265.197	214.44
265.429	234.44
265.661	226.44
265.894	224.44
266.126	206.44
266.358	210.44
266.591	233.44
266.823	222.44
267.055	236.44
267.287	229.44
267.52	226.44
267.752	231.44
267.984	248.44
268.216	234.44
268.448	238.44
268.681	250.44
268.913	252.44
269.145	284.44
269.377	285.44
269.609	287.44
269.841	284.44
270.073	299.44
270.306	311.44
270.538	347.44
270.77	348.44
271.002	321.44
271.234	314.44
271.466	335.44
271.698	346.44
271.93	358.44
272.162	358.44
272.394	343.44
272.626	339.44
272.858	293.44
273.09	315.44
273.322	294.44
273.553	275.44
273.785	278.44
274.017	289.44
274.249	294.44
274.481	282.44
274.713	286.44
274.945	274.44
275.176	288.44
275.408	283.44
275.64	279.44
275.872	274.44
276.104	280.44
276.335	265.44
276.567	288.44
276.799	293.44
277.031	320.44
277.262	333.44
277.494	346.44
277.726	311.44
277.957	298.44
278.189	302.44
278.421	282.44
278.652	272.44
278.884	257.44
279.115	282.44
279.347	267.44
279.579	279.44
279.81	268.44
280.042	293.44
280.273	271.44
280.505	280.44
280.736	260.44
280.968	279.44
281.199	270.44
281.431	280.44
281.662	263.44
281.894	287.44
282.125	283.44
282.356	298.44
282.588	317.44
282.819	325.44
283.051	300.44
283.282	277.44
283.513	277.44
283.745	283.44
283.976	284.44
284.207	297.44
284.439	299.44
284.67	279.44
284.901	289.44
285.132	275.44
285.364	288.44
285.595	277.44
285.826	274.44
286.057	275.44
286.288	282.44
286.52	295.44
286.751	291.44
286.982	276.44
287.213	257.44
287.444	281.44
287.675	311.44
287.906	290.44
288.138	291.44
288.369	295.44
288.6	320.44
288.831	289.44
289.062	297.44
289.293	288.44
289.524	291.44
289.755	282.44
289.986	277.44
290.217	269.44
290.448	282.44
290.679	299.44
290.91	289.44
291.141	278.44
291.371	290.44
291.602	304.44
291.833	287.44
292.064	296.44
292.295	283.44
292.526	290.44
292.757	294.44
292.987	299.44
293.218	295.44
293.449	297.44
293.68	281.44
293.91	279.44
294.141	288.44
294.372	306.44
294.603	290.44
294.833	298.44
295.064	267.44
295.295	286.44
295.525	295.44
295.756	314.44
295.987	307.44
296.217	332.44
296.448	328.44
296.679	319.44
296.909	306.44
297.14	286.44
297.37	281.44
297.601	292.44
297.831	290.44
298.062	311.44
298.292	310.44
298.523	326.44
298.753	289.44
298.984	316.44
299.214	306.44
299.445	307.44
299.675	305.44
299.905	315.44
300.136	301.44
300.366	307.44
300.597	299.44
300.827	293.44
301.057	296.44
301.288	328.44
301.518	312.44
301.748	310.44
301.979	329.44
302.209	334.44
302.439	345.44
302.669	326.44
302.9	316.44
303.13	329.44
303.36	337.44
303.59	317.44
303.82	345.44
304.051	326.44
304.281	319.44
304.511	332.44
304.741	311.44
304.971	322.44
305.201	324.44
305.431	310.44
305.661	315.44
305.891	322.44
306.121	331.44
306.352	333.44
306.582	340.44
306.812	330.44
307.042	313.44
307.272	308.44
307.502	343.44
307.731	350.44
307.961	332.44
308.191	317.44
308.421	313.44
308.651	331.44
308.881	314.44
309.111	340.44
309.341	332.44
309.571	346.44
309.8	372.44
310.03	388.44
310.26	413.44
310.49	411.44
310.72	414.44
310.949	390.44
311.179	413.44
311.409	391.44
311.639	386.44
311.868	403.44
312.098	367.44
312.328	407.44
312.557	408.44
312.787	434.44
313.017	430.44
313.246	405.44
313.476	388.44
313.706	380.44
313.935	383.44
314.165	415.44
314.394	411.44
314.624	428.44
314.853	410.44
315.083	393.44
315.312	384.44
315.542	364.44
315.771	346.44
316.001	375.44
316.23	375.44
316.46	363.44
316.689	371.44
316.919	383.44
317.148	388.44
317.377	393.44
317.607	399.44
317.836	399.44
318.065	381.44
318.295	391.44
318.524	383.44
318.753	394.44
318.983	357.44
319.212	381.44
319.441	389.44
319.67	392.44
319.9	405.44
320.129	390.44
320.358	377.44
320.587	394.44
320.816	413.44
321.046	394.44
321.275	410.44
321.504	414.44
321.733	409.44
321.962	414.44
322.191	433.44
322.42	455.44
322.649	471.44
322.878	486.44
323.108	503.44
323.337	545.44
323.566	563.44
323.795	583.44
324.024	665.44
324.253	859.44
324.482	1231.44
324.71	1949.44
324.939	2845.44
325.168	2511.44
325.397	1246.44
325.626	783.44
325.855	678.44
326.084	599.44
326.313	568.44
326.542	575.44
326.77	636.44
326.999	757.44
327.228	1086.44
327.457	1699.44
327.686	2115.44
327.914	1404.44
328.143	888.44
328.372	763.44
328.6	693.44
328.829	657.44
329.058	677.44
329.287	687.44
329.515	635.44
329.744	581.44
329.972	565.44
330.201	598.44
330.43	654.44
330.658	682.44
330.887	713.44
331.115	701.44
331.344	598.44
331.572	537.44
331.801	537.44
332.03	522.44
332.258	469.44
332.486	471.44
332.715	464.44
332.943	458.44
333.172	467.44
333.4	464.44
333.629	456.44
333.857	491.44
334.085	510.44
334.314	519.44
334.542	573.44
334.771	602.44
334.999	531.44
335.227	472.44
335.455	472.44
335.684	460.44
335.912	437.44
336.14	442.44
336.369	419.44
336.597	449.44
336.825	459.44
337.053	458.44
337.281	424.44
337.51	433.44
337.738	421.44
337.966	420.44
338.194	439.44
338.422	435.44
338.65	431.44
338.878	424.44
339.106	435.44
339.334	410.44
339.562	396.44
339.79	402.44
340.018	446.44
340.246	431.44
340.474	429.44
340.702	432.44
340.93	421.44
341.158	418.44
341.386	425.44
341.614	437.44
341.842	426.44
342.07	434.44
342.298	407.44
342.526	399.44
342.754	397.44
342.981	410.44
343.209	405.44
343.437	402.44
343.665	413.44
343.893	403.44
344.12	415.44
344.348	404.44
344.576	450.44
344.804	442.44
345.031	437.44
345.259	449.44
345.487	436.44
345.714	421.44
345.942	436.44
346.17	435.44
346.397	411.44
346.625	413.44
346.853	417.44
347.08	421.44
347.308	412.44
347.535	428.44
347.763	433.44
347.99	441.44
348.218	427.44
348.445	430.44
348.673	439.44
348.9	422.44
349.128	411.44
349.355	388.44
349.583	383.44
349.81	394.44
350.037	399.44
350.265	411.44
350.492	395.44
350.72	404.44
350.947	411.44
351.174	429.44
351.402	425.44
351.629	419.44
351.856	406.44
352.083	437.44
352.311	447.44
352.538	410.44
352.765	421.44
352.992	410.44
353.22	417.44
353.447	425.44
353.674	406.44
353.901	362.44
354.128	367.44
354.355	378.44
354.583	369.44
354.81	374.44
355.037	343.44
355.264	379.44
355.491	360.44
355.718	363.44
355.945	364.44
356.172	359.44
356.399	372.44
356.626	361.44
356.853	385.44
357.08	357.44
357.307	387.44
357.534	373.44
357.761	373.44
357.988	370.44
358.215	372.44
358.441	363.44
358.668	371.44
358.895	378.44
359.122	393.44
359.349	390.44
359.576	427.44
359.802	446.44
360.029	476.44
360.256	482.44
360.483	442.44
360.709	420.44
360.936	426.44
361.163	410.44
361.39	394.44
361.616	406.44
361.843	407.44
362.07	403.44
362.296	421.44
362.523	423.44
362.749	423.44
362.976	406.44
363.203	407.44
363.429	385.44
363.656	369.44
363.882	387.44
364.109	392.44
364.335	375.44
364.562	381.44
364.788	374.44
365.015	376.44
365.241	383.44
365.468	403.44
365.694	402.44
365.92	377.44
366.147	394.44
366.373	376.44
366.599	377.44
366.826	385.44
367.052	374.44
367.278	394.44
367.505	379.44
367.731	366.44
367.957	380.44
368.184	398.44
368.41	392.44
368.636	405.44
368.862	417.44
369.089	391.44
369.315	387.44
369.541	380.44
369.767	395.44
369.993	364.44
370.219	389.44
370.445	385.44
370.672	375.44
370.898	390.44
371.124	373.44
371.35	376.44
371.576	361.44
371.802	358.44
372.028	357.44
372.254	360.44
372.48	356.44
372.706	377.44
372.932	356.44
373.158	356.44
373.384	367.44
373.61	377.44
373.835	377.44
374.061	387.44
374.287	372.44
374.513	360.44
374.739	373.44
374.965	375.44
375.191	372.44
375.416	354.44
375.642	359.44
375.868	374.44
376.094	347.44
376.319	354.44
376.545	360.44
376.771	343.44
376.997	351.44
377.222	381.44
377.448	362.44
377.674	379.44
377.899	363.44
378.125	351.44
378.35	369.44
378.576	365.44
378.802	381.44
379.027	355.44
379.253	353.44
379.478	363.44
379.704	361.44
379.929	360.44
380.155	340.44
380.38	349.44
380.606	365.44
380.831	373.44
381.057	361.44
381.282	369.44
381.507	370.44
381.733	371.44
381.958	374.44
382.184	369.44
382.409	373.44
382.634	374.44
382.86	383.44
383.085	358.44
383.31	378.44
383.535	400.44
383.761	369.44
383.986	391.44
384.211	399.44
384.436	350.44
384.662	358.44
384.887	391.44
385.112	373.44
385.337	350.44
385.562	366.44
385.787	407.44
386.013	392.44
386.238	385.44
386.463	389.44
386.688	403.44
386.913	395.44
387.138	380.44
387.363	395.44
387.588	395.44
387.813	383.44
388.038	393.44
388.263	379.44
388.488	404.44
388.713	396.44
388.938	388.44
389.163	376.44
389.387	386.44
389.612	387.44
389.837	402.44
390.062	389.44
390.287	377.44
390.512	390.44
390.736	389.44
390.961	374.44
391.186	385.44
391.411	385.44
391.636	398.44
391.86	393.44
392.085	390.44
392.31	398.44
392.534	393.44
392.759	394.44
392.984	386.44
393.208	385.44
393.433	378.44
393.658	381.44
393.882	392.44
394.107	392.44
394.331	373.44
394.556	377.44
394.78	391.44
395.005	389.44
395.229	382.44
395.454	387.44
395.678	411.44
395.903	424.44
396.127	444.44
396.352	432.44
396.576	423.44
396.801	402.44
397.025	397.44
397.249	416.44
397.474	393.44
397.698	413.44
397.922	432.44
398.147	441.44
398.371	461.44
398.595	413.44
398.82	430.44
399.044	439.44
399.268	445.44
399.492	467.44
399.717	483.44
399.941	511.44
400.165	539.44
400.389	528.44
400.613	478.44
400.837	474.44
401.062	437.44
401.286	455.44
401.51	455.44
401.734	436.44
401.958	447.44
402.182	432.44
402.406	457.44
402.63	456.44
402.854	445.44
403.078	448.44
403.302	444.44
403.526	469.44
403.75	471.44
403.974	431.44
404.198	440.44
404.422	444.44
404.645	469.44
404.869	473.44
405.093	510.44
405.317	552.44
405.541	609.44
405.765	555.44
405.988	499.44
406.212	516.44
406.436	531.44
406.66	548.44
406.883	519.44
407.107	533.44
407.331	546.44
407.555	631.44
407.778	634.44
408.002	567.44
408.226	512.44
408.449	530.44
408.673	515.44
408.896	548.44
409.12	600.44
409.344	559.44
409.567	508.44
409.791	468.44
410.014	474.44
410.238	489.44
410.461	479.44
410.685	466.44
410.908	473.44
411.132	533.44
411.355	546.44
411.578	526.44
411.802	473.44
412.025	458.44
412.249	467.44
412.472	520.44
412.695	526.44
412.919	538.44
413.142	494.44
413.365	438.44
413.589	443.44
413.812	459.44
414.035	444.44
414.258	437.44
414.482	434.44
414.705	428.44
414.928	428.44
415.151	456.44
415.374	441.44
415.597	440.44
415.821	422.44
416.044	452.44
416.267	443.44
416.49	433.44
416.713	446.44
416.936	422.44
417.159	417.44
417.382	446.44
417.605	435.44
417.828	471.44
418.051	491.44
418.274	468.44
418.497	437.44
418.72	443.44
418.943	451.44
419.166	431.44
419.389	465.44
419.611	482.44
419.834	455.44
420.057	458.44
420.28	467.44
420.503	484.44
420.726	464.44
420.948	496.44
421.171	515.44
421.394	569.44
421.617	501.44
421.839	465.44
422.062	459.44
422.285	515.44
422.507	559.44
422.73	637.44
422.953	591.44
423.175	517.44
423.398	509.44
423.621	491.44
423.843	517.44
424.066	519.44
424.288	501.44
424.511	530.44
424.733	604.44
424.956	683.44
425.178	655.44
425.401	639.44
425.623	675.44
425.846	581.44
426.068	525.44
426.291	526.44
426.513	510.44
426.735	536.44
426.958	598.44
427.18	645.44
427.402	772.44
427.625	926.44
427.847	802.44
428.069	671.44
428.292	605.44
428.514	565.44
428.736	517.44
428.958	512.44
429.181	483.44
429.403	474.44
429.625	481.44
429.847	536.44
430.069	604.44
430.292	612.44
430.514	508.44
430.736	466.44
430.958	463.44
431.18	465.44
431.402	451.44
431.624	419.44
431.846	430.44
432.068	436.44
432.29	451.44
432.512	453.44
432.734	448.44
432.956	443.44
433.178	458.44
433.4	472.44
433.622	442.44
433.844	438.44
434.066	422.44
434.287	453.44
434.509	448.44
434.731	452.44
434.953	434.44
435.175	475.44
435.397	509.44
435.618	527.44
435.84	565.44
436.062	660.44
436.284	751.44
436.505	601.44
436.727	547.44
436.949	510.44
437.17	487.44
437.392	469.44
437.614	514.44
437.835	564.44
438.057	653.44
438.278	775.44
438.5	756.44
438.721	838.44
438.943	775.44
439.165	622.44
439.386	561.44
439.608	559.44
439.829	557.44
440.05	581.44
440.272	626.44
440.493	587.44
440.715	520.44
440.936	503.44
441.158	490.44
441.379	484.44
441.6	478.44
441.822	511.44
442.043	548.44
442.264	649.44
442.486	715.44
442.707	613.44
442.928	549.44
443.149	552.44
443.371	577.44
443.592	619.44
443.813	715.44
444.034	765.44
444.255	639.44
444.476	551.44
444.698	508.44
444.919	517.44
445.14	598.44
445.361	571.44
445.582	569.44
445.803	639.44
446.024	792.44
446.245	781.44
446.466	717.44
446.687	583.44
446.908	530.44
447.129	499.44
447.35	501.44
447.571	470.44
447.792	483.44
448.013	489.44
448.234	512.44
448.455	574.44
448.675	693.44
448.896	801.44
449.117	696.44
449.338	650.44
449.559	755.44
449.779	848.44
450	691.44
450.221	577.44
450.442	533.44
450.662	493.44
450.883	498.44
451.104	515.44
451.324	519.44
451.545	475.44
451.766	448.44
451.986	444.44
452.207	427.44
452.428	443.44
452.648	435.44
452.869	446.44
453.089	440.44
453.31	458.44
453.53	443.44
453.751	445.44
453.971	443.44
454.192	461.44
454.412	473.44
454.633	429.44
454.853	433.44
455.073	446.44
455.294	476.44
455.514	537.44
455.734	533.44
455.955	450.44
456.175	405.44
456.395	427.44
456.616	404.44
456.836	391.44
457.056	399.44
457.276	384.44
457.497	402.44
457.717	400.44
457.937	397.44
458.157	403.44
458.377	428.44
458.598	450.44
458.818	499.44
459.038	633.44
459.258	633.44
459.478	527.44
459.698	468.44
459.918	446.44
460.138	439.44
460.358	438.44
460.578	439.44
460.798	437.44
461.018	449.44
461.238	442.44
461.458	424.44
461.678	427.44
461.898	441.44
462.118	440.44
462.338	413.44
462.558	410.44
462.777	433.44
462.997	461.44
463.217	456.44
463.437	463.44
463.657	433.44
463.876	449.44
464.096	477.44
464.316	452.44
464.536	461.44
464.755	470.44
464.975	493.44
465.195	553.44
465.414	646.44
465.634	582.44
465.854	505.44
466.073	478.44
466.293	469.44
466.512	446.44
466.732	433.44
466.951	420.44
467.171	446.44
467.391	429.44
467.61	455.44
467.829	463.44
468.049	458.44
468.268	473.44
468.488	408.44
468.707	423.44
468.927	461.44
469.146	401.44
469.365	398.44
469.585	426.44
469.804	445.44
470.023	466.44
470.243	454.44
470.462	466.44
470.681	461.44
470.901	467.44
471.12	439.44
471.339	453.44
471.558	436.44
471.777	439.44
471.997	431.44
472.216	454.44
472.435	504.44
472.654	485.44
472.873	424.44
473.092	449.44
473.311	433.44
473.53	451.44
473.749	466.44
473.968	509.44
474.187	638.44
474.406	645.44
474.625	530.44
474.844	477.44
475.063	464.44
475.282	453.44
475.501	439.44
475.72	450.44
475.939	443.44
476.158	442.44
476.377	458.44
476.596	460.44
476.814	482.44
477.033	470.44
477.252	458.44
477.471	475.44
477.69	459.44
477.908	460.44
478.127	467.44
478.346	459.44
478.564	484.44
478.783	499.44
479.002	494.44
479.22	491.44
479.439	517.44
479.658	518.44
479.876	522.44
480.095	564.44
480.313	558.44
480.532	553.44
480.751	525.44
480.969	552.44
481.188	656.44
481.406	701.44
481.624	615.44
481.843	561.44
482.061	542.44
482.28	543.44
482.498	521.44
482.717	547.44
482.935	527.44
483.153	520.44
483.372	526.44
483.59	506.44
483.808	517.44
484.027	529.44
484.245	526.44
484.463	488.44
484.681	542.44
484.9	498.44
485.118	537.44
485.336	521.44
485.554	540.44
485.772	542.44
485.99	537.44
486.209	538.44
486.427	572.44
486.645	553.44
486.863	567.44
487.081	565.44
487.299	544.44
487.517	565.44
487.735	553.44
487.953	547.44
488.171	550.44
488.389	559.44
488.607	555.44
488.825	557.44
489.043	575.44
489.261	570.44
489.479	573.44
489.696	578.44
489.914	571.44
490.132	576.44
490.35	586.44
490.568	579.44
490.786	585.44
491.003	614.44
491.221	623.44
491.439	615.44
491.657	641.44
491.874	633.44
492.092	649.44
492.31	635.44
492.527	648.44
492.745	661.44
492.963	639.44
493.18	644.44
493.398	661.44
493.615	660.44
493.833	685.44
494.05	691.44
494.268	676.44
494.485	659.44
494.703	673.44
494.92	639.44
495.138	637.44
495.355	665.44
495.573	689.44
495.79	654.44
496.008	690.44
496.225	676.44
496.442	666.44
496.66	669.44
496.877	646.44
497.094	652.44
497.312	666.44
497.529	694.44
497.746	686.44
497.963	682.44
498.181	701.44
498.398	723.44
498.615	723.44
498.832	726.44
499.049	729.44
499.267	727.44
499.484	717.44
499.701	755.44
499.918	778.44
500.135	814.44
500.352	825.44
500.569	828.44
500.786	837.44
501.003	811.44
501.22	806.44
501.437	808.44
501.654	806.44
501.871	821.44
