Data from 1972.PennyLincolnUp.Lamp.En5.5.200Scan.071719.P1._HRD10591_15-27-02-843.txt Node
Date: Thu Jul 18 15:27:02 EDT 2019
User: cochatt
Spectrometer: HR+D1059
Trigger mode: 1
Integration Time (sec): 1.000000E-1
Scans to average: 1
Electric dark correction enabled: true
Nonlinearity correction enabled: false
Boxcar width: 0
XAxis mode: Wavelengths
Number of Pixels in Spectrum: 2048
>>>>>Begin Spectral Data<<<<<
223.165	-19.19
223.4	-19.19
223.635	-19.19
223.869	-33.19
224.104	-20.19
224.338	-27.19
224.573	-5.19
224.808	-11.19
225.042	-22.19
225.277	1.81
225.511	3.81
225.746	17.81
225.98	2.81
226.215	17.81
226.449	21.81
226.683	11.81
226.918	19.81
227.152	40.81
227.387	25.81
227.621	34.81
227.856	36.81
228.09	51.81
228.324	54.81
228.559	47.81
228.793	76.81
229.027	94.81
229.262	106.81
229.496	96.81
229.73	114.81
229.964	131.81
230.199	115.81
230.433	98.81
230.667	108.81
230.901	102.81
231.136	113.81
231.37	105.81
231.604	88.81
231.838	97.81
232.072	114.81
232.306	108.81
232.541	107.81
232.775	115.81
233.009	105.81
233.243	105.81
233.477	125.81
233.711	109.81
233.945	106.81
234.179	102.81
234.413	111.81
234.647	125.81
234.881	115.81
235.115	90.81
235.349	103.81
235.583	109.81
235.817	87.81
236.051	108.81
236.285	126.81
236.519	111.81
236.753	132.81
236.987	121.81
237.221	178.81
237.455	205.81
237.689	162.81
237.922	151.81
238.156	129.81
238.39	122.81
238.624	129.81
238.858	113.81
239.091	107.81
239.325	105.81
239.559	130.81
239.793	137.81
240.027	114.81
240.26	118.81
240.494	141.81
240.728	140.81
240.961	118.81
241.195	146.81
241.429	131.81
241.662	111.81
241.896	113.81
242.13	117.81
242.363	125.81
242.597	131.81
242.83	130.81
243.064	120.81
243.298	138.81
243.531	121.81
243.765	129.81
243.998	148.81
244.232	133.81
244.465	143.81
244.699	134.81
244.932	132.81
245.166	133.81
245.399	137.81
245.633	139.81
245.866	144.81
246.099	139.81
246.333	135.81
246.566	129.81
246.8	137.81
247.033	145.81
247.266	145.81
247.5	134.81
247.733	141.81
247.966	169.81
248.2	164.81
248.433	156.81
248.666	160.81
248.899	164.81
249.133	179.81
249.366	184.81
249.599	185.81
249.832	173.81
250.066	153.81
250.299	161.81
250.532	167.81
250.765	169.81
250.998	184.81
251.231	203.81
251.465	201.81
251.698	187.81
251.931	197.81
252.164	180.81
252.397	180.81
252.63	193.81
252.863	192.81
253.096	187.81
253.329	205.81
253.562	191.81
253.795	203.81
254.028	208.81
254.261	207.81
254.494	190.81
254.727	228.81
254.96	249.81
255.193	251.81
255.426	230.81
255.659	215.81
255.892	217.81
256.124	211.81
256.357	218.81
256.59	199.81
256.823	183.81
257.056	190.81
257.289	178.81
257.521	201.81
257.754	213.81
257.987	185.81
258.22	188.81
258.452	182.81
258.685	192.81
258.918	177.81
259.151	193.81
259.383	183.81
259.616	186.81
259.849	201.81
260.081	202.81
260.314	227.81
260.547	245.81
260.779	209.81
261.012	203.81
261.244	190.81
261.477	203.81
261.71	211.81
261.942	199.81
262.175	203.81
262.407	206.81
262.64	207.81
262.872	198.81
263.105	187.81
263.337	190.81
263.57	183.81
263.802	188.81
264.035	207.81
264.267	195.81
264.499	183.81
264.732	195.81
264.964	180.81
265.197	175.81
265.429	203.81
265.661	201.81
265.894	197.81
266.126	192.81
266.358	182.81
266.591	194.81
266.823	199.81
267.055	213.81
267.287	184.81
267.52	195.81
267.752	183.81
267.984	197.81
268.216	197.81
268.448	201.81
268.681	201.81
268.913	210.81
269.145	234.81
269.377	246.81
269.609	233.81
269.841	241.81
270.073	239.81
270.306	252.81
270.538	258.81
270.77	264.81
271.002	261.81
271.234	257.81
271.466	253.81
271.698	266.81
271.93	264.81
272.162	282.81
272.394	265.81
272.626	255.81
272.858	255.81
273.09	247.81
273.322	234.81
273.553	232.81
273.785	228.81
274.017	229.81
274.249	221.81
274.481	218.81
274.713	238.81
274.945	246.81
275.176	224.81
275.408	229.81
275.64	231.81
275.872	223.81
276.104	216.81
276.335	245.81
276.567	249.81
276.799	248.81
277.031	279.81
277.262	262.81
277.494	272.81
277.726	258.81
277.957	261.81
278.189	257.81
278.421	247.81
278.652	236.81
278.884	243.81
279.115	253.81
279.347	245.81
279.579	234.81
279.81	231.81
280.042	231.81
280.273	233.81
280.505	250.81
280.736	232.81
280.968	228.81
281.199	223.81
281.431	213.81
281.662	242.81
281.894	233.81
282.125	260.81
282.356	230.81
282.588	273.81
282.819	271.81
283.051	269.81
283.282	250.81
283.513	255.81
283.745	236.81
283.976	255.81
284.207	241.81
284.439	240.81
284.67	240.81
284.901	231.81
285.132	246.81
285.364	246.81
285.595	248.81
285.826	244.81
286.057	213.81
286.288	224.81
286.52	257.81
286.751	243.81
286.982	235.81
287.213	225.81
287.444	257.81
287.675	250.81
287.906	258.81
288.138	243.81
288.369	260.81
288.6	246.81
288.831	259.81
289.062	244.81
289.293	259.81
289.524	252.81
289.755	241.81
289.986	266.81
290.217	247.81
290.448	257.81
290.679	236.81
290.91	254.81
291.141	253.81
291.371	258.81
291.602	241.81
291.833	236.81
292.064	234.81
292.295	228.81
292.526	247.81
292.757	250.81
292.987	245.81
293.218	246.81
293.449	253.81
293.68	253.81
293.91	245.81
294.141	251.81
294.372	248.81
294.603	246.81
294.833	246.81
295.064	253.81
295.295	259.81
295.525	250.81
295.756	262.81
295.987	250.81
296.217	290.81
296.448	289.81
296.679	261.81
296.909	248.81
297.14	263.81
297.37	257.81
297.601	253.81
297.831	264.81
298.062	260.81
298.292	247.81
298.523	250.81
298.753	288.81
298.984	258.81
299.214	250.81
299.445	253.81
299.675	265.81
299.905	278.81
300.136	265.81
300.366	250.81
300.597	254.81
300.827	252.81
301.057	273.81
301.288	265.81
301.518	270.81
301.748	278.81
301.979	282.81
302.209	268.81
302.439	284.81
302.669	279.81
302.9	281.81
303.13	257.81
303.36	270.81
303.59	298.81
303.82	286.81
304.051	296.81
304.281	267.81
304.511	287.81
304.741	278.81
304.971	261.81
305.201	290.81
305.431	271.81
305.661	264.81
305.891	274.81
306.121	282.81
306.352	286.81
306.582	306.81
306.812	292.81
307.042	295.81
307.272	287.81
307.502	283.81
307.731	302.81
307.961	300.81
308.191	290.81
308.421	290.81
308.651	277.81
308.881	291.81
309.111	309.81
309.341	290.81
309.571	319.81
309.8	308.81
310.03	322.81
310.26	315.81
310.49	315.81
310.72	324.81
310.949	331.81
311.179	339.81
311.409	316.81
311.639	312.81
311.868	314.81
312.098	327.81
312.328	335.81
312.557	329.81
312.787	346.81
313.017	341.81
313.246	337.81
313.476	316.81
313.706	332.81
313.935	324.81
314.165	332.81
314.394	329.81
314.624	338.81
314.853	348.81
315.083	330.81
315.312	325.81
315.542	322.81
315.771	299.81
316.001	316.81
316.23	313.81
316.46	322.81
316.689	289.81
316.919	325.81
317.148	319.81
317.377	343.81
317.607	349.81
317.836	335.81
318.065	318.81
318.295	327.81
318.524	321.81
318.753	309.81
318.983	322.81
319.212	315.81
319.441	324.81
319.67	333.81
319.9	306.81
320.129	324.81
320.358	324.81
320.587	334.81
320.816	350.81
321.046	341.81
321.275	342.81
321.504	340.81
321.733	351.81
321.962	348.81
322.191	356.81
322.42	373.81
322.649	381.81
322.878	394.81
323.108	387.81
323.337	404.81
323.566	430.81
323.795	444.81
324.024	516.81
324.253	575.81
324.482	817.81
324.71	1307.81
324.939	1925.81
325.168	1628.81
325.397	830.81
325.626	577.81
325.855	469.81
326.084	441.81
326.313	447.81
326.542	441.81
326.77	469.81
326.999	523.81
327.228	733.81
327.457	1165.81
327.686	1403.81
327.914	945.81
328.143	611.81
328.372	543.81
328.6	503.81
328.829	454.81
329.058	485.81
329.287	497.81
329.515	448.81
329.744	435.81
329.972	439.81
330.201	445.81
330.43	462.81
330.658	505.81
330.887	546.81
331.115	496.81
331.344	425.81
331.572	427.81
331.801	422.81
332.03	426.81
332.258	407.81
332.486	385.81
332.715	385.81
332.943	375.81
333.172	385.81
333.4	390.81
333.629	395.81
333.857	397.81
334.085	400.81
334.314	394.81
334.542	434.81
334.771	463.81
334.999	419.81
335.227	393.81
335.455	391.81
335.684	383.81
335.912	372.81
336.14	375.81
336.369	379.81
336.597	364.81
336.825	375.81
337.053	371.81
337.281	370.81
337.51	337.81
337.738	354.81
337.966	377.81
338.194	380.81
338.422	374.81
338.65	378.81
338.878	373.81
339.106	347.81
339.334	357.81
339.562	353.81
339.79	373.81
340.018	376.81
340.246	369.81
340.474	367.81
340.702	365.81
340.93	344.81
341.158	356.81
341.386	348.81
341.614	362.81
341.842	368.81
342.07	343.81
342.298	365.81
342.526	339.81
342.754	352.81
342.981	341.81
343.209	339.81
343.437	361.81
343.665	365.81
343.893	343.81
344.12	378.81
344.348	385.81
344.576	361.81
344.804	351.81
345.031	365.81
345.259	377.81
345.487	361.81
345.714	348.81
345.942	339.81
346.17	362.81
346.397	356.81
346.625	337.81
346.853	344.81
347.08	348.81
347.308	348.81
347.535	347.81
347.763	343.81
347.99	365.81
348.218	387.81
348.445	360.81
348.673	354.81
348.9	338.81
349.128	341.81
349.355	352.81
349.583	333.81
349.81	339.81
350.037	336.81
350.265	339.81
350.492	329.81
350.72	348.81
350.947	351.81
351.174	345.81
351.402	383.81
351.629	359.81
351.856	347.81
352.083	351.81
352.311	373.81
352.538	388.81
352.765	348.81
352.992	341.81
353.22	339.81
353.447	345.81
353.674	341.81
353.901	343.81
354.128	327.81
354.355	344.81
354.583	335.81
354.81	335.81
355.037	334.81
355.264	329.81
355.491	317.81
355.718	326.81
355.945	333.81
356.172	327.81
356.399	317.81
356.626	325.81
356.853	325.81
357.08	328.81
357.307	317.81
357.534	323.81
357.761	334.81
357.988	325.81
358.215	327.81
358.441	329.81
358.668	326.81
358.895	341.81
359.122	323.81
359.349	314.81
359.576	347.81
359.802	377.81
360.029	387.81
360.256	390.81
360.483	375.81
360.709	360.81
360.936	350.81
361.163	332.81
361.39	339.81
361.616	336.81
361.843	347.81
362.07	357.81
362.296	352.81
362.523	336.81
362.749	337.81
362.976	358.81
363.203	355.81
363.429	343.81
363.656	343.81
363.882	338.81
364.109	341.81
364.335	334.81
364.562	358.81
364.788	339.81
365.015	330.81
365.241	317.81
365.468	347.81
365.694	341.81
365.92	327.81
366.147	311.81
366.373	312.81
366.599	349.81
366.826	332.81
367.052	320.81
367.278	323.81
367.505	324.81
367.731	336.81
367.957	349.81
368.184	346.81
368.41	334.81
368.636	350.81
368.862	342.81
369.089	352.81
369.315	330.81
369.541	346.81
369.767	325.81
369.993	344.81
370.219	332.81
370.445	332.81
370.672	325.81
370.898	321.81
371.124	327.81
371.35	321.81
371.576	334.81
371.802	318.81
372.028	344.81
372.254	348.81
372.48	336.81
372.706	342.81
372.932	332.81
373.158	339.81
373.384	337.81
373.61	350.81
373.835	339.81
374.061	327.81
374.287	336.81
374.513	345.81
374.739	338.81
374.965	332.81
375.191	344.81
375.416	329.81
375.642	346.81
375.868	317.81
376.094	350.81
376.319	335.81
376.545	326.81
376.771	318.81
376.997	348.81
377.222	325.81
377.448	326.81
377.674	348.81
377.899	337.81
378.125	343.81
378.35	336.81
378.576	338.81
378.802	335.81
379.027	340.81
379.253	327.81
379.478	319.81
379.704	327.81
379.929	334.81
380.155	331.81
380.38	332.81
380.606	336.81
380.831	331.81
381.057	339.81
381.282	333.81
381.507	337.81
381.733	338.81
381.958	319.81
382.184	339.81
382.409	348.81
382.634	343.81
382.86	354.81
383.085	336.81
383.31	339.81
383.535	346.81
383.761	349.81
383.986	355.81
384.211	335.81
384.436	347.81
384.662	341.81
384.887	344.81
385.112	346.81
385.337	336.81
385.562	335.81
385.787	333.81
386.013	376.81
386.238	363.81
386.463	369.81
386.688	355.81
386.913	332.81
387.138	341.81
387.363	347.81
387.588	366.81
387.813	364.81
388.038	372.81
388.263	371.81
388.488	341.81
388.713	371.81
388.938	366.81
389.163	357.81
389.387	335.81
389.612	348.81
389.837	356.81
390.062	374.81
390.287	353.81
390.512	354.81
390.736	353.81
390.961	348.81
391.186	342.81
391.411	377.81
391.636	348.81
391.86	343.81
392.085	361.81
392.31	366.81
392.534	351.81
392.759	373.81
392.984	343.81
393.208	365.81
393.433	389.81
393.658	377.81
393.882	355.81
394.107	356.81
394.331	362.81
394.556	358.81
394.78	376.81
395.005	362.81
395.229	370.81
395.454	359.81
395.678	358.81
395.903	379.81
396.127	377.81
396.352	418.81
396.576	372.81
396.801	396.81
397.025	399.81
397.249	390.81
397.474	378.81
397.698	377.81
397.922	393.81
398.147	374.81
398.371	403.81
398.595	383.81
398.82	403.81
399.044	409.81
399.268	397.81
399.492	411.81
399.717	450.81
399.941	440.81
400.165	470.81
400.389	499.81
400.613	458.81
400.837	437.81
401.062	414.81
401.286	413.81
401.51	404.81
401.734	400.81
401.958	399.81
402.182	405.81
402.406	427.81
402.63	413.81
402.854	390.81
403.078	380.81
403.302	413.81
403.526	417.81
403.75	416.81
403.974	407.81
404.198	412.81
404.422	410.81
404.645	406.81
404.869	413.81
405.093	455.81
405.317	477.81
405.541	494.81
405.765	472.81
405.988	449.81
406.212	439.81
406.436	439.81
406.66	466.81
406.883	459.81
407.107	469.81
407.331	489.81
407.555	545.81
407.778	555.81
408.002	535.81
408.226	467.81
408.449	470.81
408.673	451.81
408.896	469.81
409.12	535.81
409.344	497.81
409.567	440.81
409.791	437.81
410.014	424.81
410.238	411.81
410.461	411.81
410.685	422.81
410.908	433.81
411.132	460.81
411.355	506.81
411.578	477.81
411.802	420.81
412.025	414.81
412.249	442.81
412.472	444.81
412.695	461.81
412.919	451.81
413.142	428.81
413.365	401.81
413.589	403.81
413.812	402.81
414.035	391.81
414.258	387.81
414.482	401.81
414.705	403.81
414.928	395.81
415.151	389.81
415.374	393.81
415.597	403.81
415.821	391.81
416.044	409.81
416.267	399.81
416.49	401.81
416.713	385.81
416.936	391.81
417.159	402.81
417.382	393.81
417.605	398.81
417.828	407.81
418.051	415.81
418.274	394.81
418.497	399.81
418.72	394.81
418.943	371.81
419.166	411.81
419.389	430.81
419.611	427.81
419.834	406.81
420.057	429.81
420.28	421.81
420.503	405.81
420.726	425.81
420.948	431.81
421.171	478.81
421.394	479.81
421.617	423.81
421.839	417.81
422.062	420.81
422.285	431.81
422.507	483.81
422.73	533.81
422.953	528.81
423.175	437.81
423.398	444.81
423.621	441.81
423.843	457.81
424.066	453.81
424.288	447.81
424.511	467.81
424.733	513.81
424.956	561.81
425.178	572.81
425.401	552.81
425.623	583.81
425.846	506.81
426.068	468.81
426.291	450.81
426.513	463.81
426.735	466.81
426.958	477.81
427.18	573.81
427.402	667.81
427.625	754.81
427.847	647.81
428.069	574.81
428.292	506.81
428.514	477.81
428.736	453.81
428.958	429.81
429.181	426.81
429.403	420.81
429.625	411.81
429.847	451.81
430.069	523.81
430.292	516.81
430.514	452.81
430.736	421.81
430.958	433.81
431.18	394.81
431.402	412.81
431.624	380.81
431.846	406.81
432.068	375.81
432.29	385.81
432.512	392.81
432.734	403.81
432.956	401.81
433.178	398.81
433.4	405.81
433.622	389.81
433.844	408.81
434.066	395.81
434.287	391.81
434.509	397.81
434.731	413.81
434.953	407.81
435.175	419.81
435.397	438.81
435.618	452.81
435.84	472.81
436.062	583.81
436.284	635.81
436.505	531.81
436.727	465.81
436.949	441.81
437.17	429.81
437.392	411.81
437.614	421.81
437.835	455.81
438.057	558.81
438.278	633.81
438.5	644.81
438.721	699.81
438.943	664.81
439.165	530.81
439.386	467.81
439.608	454.81
439.829	462.81
440.05	479.81
440.272	520.81
440.493	493.81
440.715	461.81
440.936	434.81
441.158	421.81
441.379	439.81
441.6	422.81
441.822	438.81
442.043	470.81
442.264	570.81
442.486	589.81
442.707	501.81
442.928	464.81
443.149	483.81
443.371	472.81
443.592	528.81
443.813	601.81
444.034	665.81
444.255	548.81
444.476	469.81
444.698	458.81
444.919	449.81
445.14	556.81
445.361	515.81
445.582	479.81
445.803	541.81
446.024	658.81
446.245	679.81
446.466	616.81
446.687	495.81
446.908	468.81
447.129	436.81
447.35	420.81
447.571	430.81
447.792	413.81
448.013	417.81
448.234	435.81
448.455	493.81
448.675	564.81
448.896	685.81
449.117	591.81
449.338	551.81
449.559	652.81
449.779	730.81
450	572.81
450.221	477.81
450.442	439.81
450.662	420.81
450.883	420.81
451.104	438.81
451.324	432.81
451.545	403.81
451.766	387.81
451.986	378.81
452.207	360.81
452.428	370.81
452.648	381.81
452.869	375.81
453.089	376.81
453.31	402.81
453.53	366.81
453.751	373.81
453.971	371.81
454.192	386.81
454.412	406.81
454.633	372.81
454.853	374.81
455.073	379.81
455.294	395.81
455.514	442.81
455.734	433.81
455.955	385.81
456.175	372.81
456.395	343.81
456.616	364.81
456.836	350.81
457.056	332.81
457.276	355.81
457.497	361.81
457.717	364.81
457.937	364.81
458.157	359.81
458.377	370.81
458.598	381.81
458.818	423.81
459.038	497.81
459.258	499.81
459.478	447.81
459.698	397.81
459.918	392.81
460.138	382.81
460.358	402.81
460.578	377.81
460.798	420.81
461.018	405.81
461.238	394.81
461.458	389.81
461.678	393.81
461.898	412.81
462.118	374.81
462.338	405.81
462.558	406.81
462.777	401.81
462.997	385.81
463.217	407.81
463.437	433.81
463.657	405.81
463.876	417.81
464.096	412.81
464.316	398.81
464.536	425.81
464.755	423.81
464.975	433.81
465.195	434.81
465.414	491.81
465.634	449.81
465.854	424.81
466.073	409.81
466.293	402.81
466.512	399.81
466.732	391.81
466.951	391.81
467.171	390.81
467.391	396.81
467.61	387.81
467.829	385.81
468.049	385.81
468.268	386.81
468.488	395.81
468.707	381.81
468.927	365.81
469.146	367.81
469.365	363.81
469.585	387.81
469.804	392.81
470.023	384.81
470.243	381.81
470.462	389.81
470.681	422.81
470.901	407.81
471.12	384.81
471.339	405.81
471.558	397.81
471.777	391.81
471.997	398.81
472.216	383.81
472.435	420.81
472.654	418.81
472.873	392.81
473.092	378.81
473.311	369.81
473.53	382.81
473.749	381.81
473.968	443.81
474.187	520.81
474.406	537.81
474.625	456.81
474.844	407.81
475.063	405.81
475.282	379.81
475.501	397.81
475.72	411.81
475.939	408.81
476.158	399.81
476.377	382.81
476.596	394.81
476.814	402.81
477.033	424.81
477.252	407.81
477.471	419.81
477.69	424.81
477.908	433.81
478.127	417.81
478.346	414.81
478.564	433.81
478.783	439.81
479.002	439.81
479.22	417.81
479.439	447.81
479.658	451.81
479.876	443.81
480.095	458.81
480.313	477.81
480.532	462.81
480.751	474.81
480.969	476.81
481.188	525.81
481.406	545.81
481.624	501.81
481.843	485.81
482.061	457.81
482.28	471.81
482.498	450.81
482.717	430.81
482.935	466.81
483.153	472.81
483.372	438.81
483.59	457.81
483.808	466.81
484.027	459.81
484.245	458.81
484.463	459.81
484.681	459.81
484.9	455.81
485.118	469.81
485.336	463.81
485.554	477.81
485.772	459.81
485.99	464.81
486.209	477.81
486.427	489.81
486.645	473.81
486.863	500.81
487.081	491.81
487.299	492.81
487.517	499.81
487.735	449.81
487.953	492.81
488.171	477.81
488.389	500.81
488.607	482.81
488.825	499.81
489.043	501.81
489.261	517.81
489.479	482.81
489.696	511.81
489.914	509.81
490.132	509.81
490.35	531.81
490.568	498.81
490.786	510.81
491.003	529.81
491.221	534.81
491.439	541.81
491.657	554.81
491.874	521.81
492.092	564.81
492.31	545.81
492.527	569.81
492.745	557.81
492.963	573.81
493.18	559.81
493.398	573.81
493.615	580.81
493.833	557.81
494.05	567.81
494.268	563.81
494.485	562.81
494.703	587.81
494.92	567.81
495.138	576.81
495.355	565.81
495.573	592.81
495.79	562.81
496.008	560.81
496.225	580.81
496.442	573.81
496.66	574.81
496.877	570.81
497.094	588.81
497.312	569.81
497.529	604.81
497.746	610.81
497.963	622.81
498.181	622.81
498.398	594.81
498.615	627.81
498.832	637.81
499.049	634.81
499.267	650.81
499.484	665.81
499.701	716.81
499.918	713.81
500.135	742.81
500.352	735.81
500.569	744.81
500.786	744.81
501.003	739.81
501.22	733.81
501.437	723.81
501.654	739.81
501.871	706.81
502.088	675.81
