Data from 1972.PennyLincolnUp.Lamp.En5.5.200Scan.071719.P1._HRD10591_15-26-43-843.txt Node
Date: Thu Jul 18 15:26:43 EDT 2019
User: cochatt
Spectrometer: HR+D1059
Trigger mode: 1
Integration Time (sec): 1.000000E-1
Scans to average: 1
Electric dark correction enabled: true
Nonlinearity correction enabled: false
Boxcar width: 0
XAxis mode: Wavelengths
Number of Pixels in Spectrum: 2048
>>>>>Begin Spectral Data<<<<<
223.165	-22.19
223.4	-22.19
223.635	-22.19
223.869	-15.19
224.104	-25.19
224.338	-11.19
224.573	-6.19
224.808	-6.19
225.042	-1.19
225.277	-2.19
225.511	0.81
225.746	6.81
225.98	-10.19
226.215	2.81
226.449	13.81
226.683	22.81
226.918	23.81
227.152	28.81
227.387	28.81
227.621	35.81
227.856	37.81
228.09	44.81
228.324	63.81
228.559	50.81
228.793	77.81
229.027	104.81
229.262	106.81
229.496	109.81
229.73	121.81
229.964	145.81
230.199	123.81
230.433	106.81
230.667	114.81
230.901	112.81
231.136	118.81
231.37	112.81
231.604	105.81
231.838	104.81
232.072	116.81
232.306	112.81
232.541	104.81
232.775	105.81
233.009	104.81
233.243	106.81
233.477	120.81
233.711	108.81
233.945	105.81
234.179	106.81
234.413	109.81
234.647	98.81
234.881	104.81
235.115	111.81
235.349	106.81
235.583	128.81
235.817	112.81
236.051	118.81
236.285	126.81
236.519	122.81
236.753	118.81
236.987	141.81
237.221	167.81
237.455	201.81
237.689	163.81
237.922	127.81
238.156	109.81
238.39	127.81
238.624	108.81
238.858	100.81
239.091	120.81
239.325	125.81
239.559	116.81
239.793	99.81
240.027	124.81
240.26	129.81
240.494	147.81
240.728	142.81
240.961	138.81
241.195	137.81
241.429	124.81
241.662	126.81
241.896	119.81
242.13	115.81
242.363	150.81
242.597	125.81
242.83	129.81
243.064	130.81
243.298	134.81
243.531	124.81
243.765	134.81
243.998	141.81
244.232	146.81
244.465	126.81
244.699	139.81
244.932	144.81
245.166	141.81
245.399	144.81
245.633	132.81
245.866	136.81
246.099	139.81
246.333	150.81
246.566	144.81
246.8	130.81
247.033	146.81
247.266	138.81
247.5	156.81
247.733	150.81
247.966	163.81
248.2	170.81
248.433	163.81
248.666	155.81
248.899	164.81
249.133	178.81
249.366	196.81
249.599	196.81
249.832	174.81
250.066	177.81
250.299	160.81
250.532	176.81
250.765	177.81
250.998	177.81
251.231	183.81
251.465	198.81
251.698	184.81
251.931	207.81
252.164	189.81
252.397	172.81
252.63	197.81
252.863	195.81
253.096	191.81
253.329	210.81
253.562	209.81
253.795	213.81
254.028	196.81
254.261	205.81
254.494	208.81
254.727	225.81
254.96	240.81
255.193	244.81
255.426	208.81
255.659	218.81
255.892	224.81
256.124	213.81
256.357	190.81
256.59	203.81
256.823	203.81
257.056	193.81
257.289	194.81
257.521	210.81
257.754	200.81
257.987	183.81
258.22	181.81
258.452	195.81
258.685	174.81
258.918	200.81
259.151	200.81
259.383	199.81
259.616	210.81
259.849	208.81
260.081	202.81
260.314	233.81
260.547	231.81
260.779	236.81
261.012	215.81
261.244	207.81
261.477	207.81
261.71	199.81
261.942	197.81
262.175	215.81
262.407	216.81
262.64	194.81
262.872	209.81
263.105	198.81
263.337	189.81
263.57	202.81
263.802	197.81
264.035	193.81
264.267	194.81
264.499	182.81
264.732	197.81
264.964	184.81
265.197	187.81
265.429	192.81
265.661	187.81
265.894	180.81
266.126	173.81
266.358	186.81
266.591	193.81
266.823	204.81
267.055	210.81
267.287	204.81
267.52	190.81
267.752	206.81
267.984	202.81
268.216	200.81
268.448	207.81
268.681	220.81
268.913	202.81
269.145	233.81
269.377	234.81
269.609	246.81
269.841	242.81
270.073	243.81
270.306	244.81
270.538	286.81
270.77	273.81
271.002	253.81
271.234	252.81
271.466	277.81
271.698	263.81
271.93	267.81
272.162	289.81
272.394	304.81
272.626	274.81
272.858	256.81
273.09	244.81
273.322	250.81
273.553	246.81
273.785	236.81
274.017	224.81
274.249	241.81
274.481	235.81
274.713	242.81
274.945	250.81
275.176	250.81
275.408	249.81
275.64	236.81
275.872	246.81
276.104	228.81
276.335	235.81
276.567	239.81
276.799	252.81
277.031	267.81
277.262	304.81
277.494	283.81
277.726	275.81
277.957	259.81
278.189	246.81
278.421	251.81
278.652	251.81
278.884	237.81
279.115	241.81
279.347	253.81
279.579	274.81
279.81	291.81
280.042	267.81
280.273	266.81
280.505	277.81
280.736	259.81
280.968	239.81
281.199	226.81
281.431	246.81
281.662	213.81
281.894	231.81
282.125	244.81
282.356	263.81
282.588	272.81
282.819	283.81
283.051	240.81
283.282	237.81
283.513	238.81
283.745	256.81
283.976	248.81
284.207	240.81
284.439	244.81
284.67	245.81
284.901	231.81
285.132	244.81
285.364	256.81
285.595	271.81
285.826	246.81
286.057	237.81
286.288	252.81
286.52	246.81
286.751	242.81
286.982	241.81
287.213	255.81
287.444	264.81
287.675	256.81
287.906	265.81
288.138	254.81
288.369	273.81
288.6	252.81
288.831	252.81
289.062	270.81
289.293	239.81
289.524	252.81
289.755	250.81
289.986	248.81
290.217	247.81
290.448	268.81
290.679	246.81
290.91	240.81
291.141	239.81
291.371	250.81
291.602	240.81
291.833	247.81
292.064	243.81
292.295	248.81
292.526	273.81
292.757	260.81
292.987	250.81
293.218	255.81
293.449	253.81
293.68	252.81
293.91	261.81
294.141	249.81
294.372	254.81
294.603	248.81
294.833	253.81
295.064	274.81
295.295	262.81
295.525	282.81
295.756	270.81
295.987	268.81
296.217	285.81
296.448	300.81
296.679	264.81
296.909	265.81
297.14	260.81
297.37	252.81
297.601	253.81
297.831	246.81
298.062	252.81
298.292	255.81
298.523	269.81
298.753	260.81
298.984	266.81
299.214	252.81
299.445	274.81
299.675	276.81
299.905	264.81
300.136	265.81
300.366	264.81
300.597	252.81
300.827	278.81
301.057	292.81
301.288	274.81
301.518	273.81
301.748	279.81
301.979	277.81
302.209	271.81
302.439	293.81
302.669	270.81
302.9	283.81
303.13	271.81
303.36	266.81
303.59	271.81
303.82	306.81
304.051	279.81
304.281	278.81
304.511	294.81
304.741	271.81
304.971	281.81
305.201	297.81
305.431	280.81
305.661	270.81
305.891	278.81
306.121	268.81
306.352	296.81
306.582	294.81
306.812	294.81
307.042	286.81
307.272	295.81
307.502	288.81
307.731	291.81
307.961	280.81
308.191	298.81
308.421	286.81
308.651	270.81
308.881	291.81
309.111	294.81
309.341	290.81
309.571	324.81
309.8	322.81
310.03	325.81
310.26	335.81
310.49	327.81
310.72	333.81
310.949	344.81
311.179	365.81
311.409	357.81
311.639	341.81
311.868	313.81
312.098	327.81
312.328	347.81
312.557	339.81
312.787	384.81
313.017	361.81
313.246	352.81
313.476	344.81
313.706	326.81
313.935	331.81
314.165	353.81
314.394	368.81
314.624	344.81
314.853	331.81
315.083	351.81
315.312	347.81
315.542	321.81
315.771	309.81
316.001	343.81
316.23	337.81
316.46	348.81
316.689	338.81
316.919	339.81
317.148	361.81
317.377	336.81
317.607	354.81
317.836	359.81
318.065	382.81
318.295	410.81
318.524	393.81
318.753	346.81
318.983	342.81
319.212	336.81
319.441	352.81
319.67	350.81
319.9	362.81
320.129	350.81
320.358	361.81
320.587	351.81
320.816	340.81
321.046	374.81
321.275	358.81
321.504	347.81
321.733	338.81
321.962	343.81
322.191	368.81
322.42	377.81
322.649	395.81
322.878	403.81
323.108	391.81
323.337	426.81
323.566	446.81
323.795	493.81
324.024	524.81
324.253	630.81
324.482	931.81
324.71	1447.81
324.939	2063.81
325.168	1831.81
325.397	922.81
325.626	602.81
325.855	522.81
326.084	475.81
326.313	458.81
326.542	442.81
326.77	470.81
326.999	596.81
327.228	813.81
327.457	1234.81
327.686	1552.81
327.914	1022.81
328.143	667.81
328.372	588.81
328.6	534.81
328.829	492.81
329.058	542.81
329.287	502.81
329.515	501.81
329.744	462.81
329.972	443.81
330.201	439.81
330.43	491.81
330.658	520.81
330.887	538.81
331.115	516.81
331.344	444.81
331.572	445.81
331.801	432.81
332.03	424.81
332.258	405.81
332.486	392.81
332.715	382.81
332.943	367.81
333.172	378.81
333.4	374.81
333.629	374.81
333.857	392.81
334.085	407.81
334.314	412.81
334.542	436.81
334.771	458.81
334.999	418.81
335.227	399.81
335.455	373.81
335.684	390.81
335.912	393.81
336.14	374.81
336.369	385.81
336.597	381.81
336.825	397.81
337.053	373.81
337.281	374.81
337.51	389.81
337.738	399.81
337.966	374.81
338.194	383.81
338.422	392.81
338.65	374.81
338.878	374.81
339.106	356.81
339.334	376.81
339.562	362.81
339.79	352.81
340.018	379.81
340.246	360.81
340.474	375.81
340.702	394.81
340.93	357.81
341.158	340.81
341.386	357.81
341.614	398.81
341.842	377.81
342.07	362.81
342.298	336.81
342.526	351.81
342.754	353.81
342.981	355.81
343.209	347.81
343.437	342.81
343.665	354.81
343.893	354.81
344.12	360.81
344.348	376.81
344.576	368.81
344.804	382.81
345.031	380.81
345.259	386.81
345.487	374.81
345.714	366.81
345.942	379.81
346.17	365.81
346.397	358.81
346.625	352.81
346.853	382.81
347.08	363.81
347.308	357.81
347.535	353.81
347.763	350.81
347.99	357.81
348.218	359.81
348.445	382.81
348.673	350.81
348.9	383.81
349.128	324.81
349.355	348.81
349.583	350.81
349.81	340.81
350.037	352.81
350.265	331.81
350.492	338.81
350.72	347.81
350.947	357.81
351.174	354.81
351.402	346.81
351.629	378.81
351.856	356.81
352.083	352.81
352.311	388.81
352.538	390.81
352.765	361.81
352.992	359.81
353.22	352.81
353.447	358.81
353.674	385.81
353.901	344.81
354.128	327.81
354.355	350.81
354.583	318.81
354.81	328.81
355.037	340.81
355.264	325.81
355.491	345.81
355.718	335.81
355.945	335.81
356.172	337.81
356.399	337.81
356.626	339.81
356.853	322.81
357.08	330.81
357.307	321.81
357.534	344.81
357.761	326.81
357.988	328.81
358.215	337.81
358.441	332.81
358.668	325.81
358.895	341.81
359.122	345.81
359.349	320.81
359.576	344.81
359.802	370.81
360.029	396.81
360.256	400.81
360.483	383.81
360.709	360.81
360.936	374.81
361.163	355.81
361.39	348.81
361.616	372.81
361.843	351.81
362.07	349.81
362.296	360.81
362.523	331.81
362.749	344.81
362.976	350.81
363.203	332.81
363.429	342.81
363.656	344.81
363.882	326.81
364.109	329.81
364.335	351.81
364.562	357.81
364.788	312.81
365.015	340.81
365.241	324.81
365.468	352.81
365.694	336.81
365.92	340.81
366.147	334.81
366.373	328.81
366.599	346.81
366.826	332.81
367.052	325.81
367.278	340.81
367.505	342.81
367.731	327.81
367.957	323.81
368.184	345.81
368.41	356.81
368.636	344.81
368.862	345.81
369.089	329.81
369.315	322.81
369.541	332.81
369.767	332.81
369.993	328.81
370.219	343.81
370.445	327.81
370.672	327.81
370.898	340.81
371.124	321.81
371.35	335.81
371.576	337.81
371.802	329.81
372.028	339.81
372.254	333.81
372.48	340.81
372.706	315.81
372.932	344.81
373.158	328.81
373.384	336.81
373.61	344.81
373.835	351.81
374.061	354.81
374.287	353.81
374.513	336.81
374.739	335.81
374.965	357.81
375.191	331.81
375.416	341.81
375.642	324.81
375.868	330.81
376.094	336.81
376.319	305.81
376.545	339.81
376.771	344.81
376.997	330.81
377.222	310.81
377.448	332.81
377.674	297.81
377.899	312.81
378.125	332.81
378.35	331.81
378.576	312.81
378.802	312.81
379.027	321.81
379.253	326.81
379.478	320.81
379.704	342.81
379.929	324.81
380.155	323.81
380.38	340.81
380.606	329.81
380.831	326.81
381.057	320.81
381.282	332.81
381.507	333.81
381.733	323.81
381.958	339.81
382.184	359.81
382.409	346.81
382.634	335.81
382.86	336.81
383.085	341.81
383.31	359.81
383.535	341.81
383.761	350.81
383.986	321.81
384.211	340.81
384.436	332.81
384.662	356.81
384.887	368.81
385.112	363.81
385.337	361.81
385.562	356.81
385.787	359.81
386.013	393.81
386.238	356.81
386.463	382.81
386.688	384.81
386.913	363.81
387.138	357.81
387.363	368.81
387.588	346.81
387.813	366.81
388.038	351.81
388.263	376.81
388.488	364.81
388.713	374.81
388.938	363.81
389.163	355.81
389.387	361.81
389.612	368.81
389.837	363.81
390.062	361.81
390.287	357.81
390.512	338.81
390.736	368.81
390.961	359.81
391.186	360.81
391.411	370.81
391.636	359.81
391.86	362.81
392.085	375.81
392.31	358.81
392.534	369.81
392.759	399.81
392.984	452.81
393.208	608.81
393.433	907.81
393.658	959.81
393.882	558.81
394.107	412.81
394.331	374.81
394.556	370.81
394.78	364.81
395.005	385.81
395.229	376.81
395.454	374.81
395.678	364.81
395.903	390.81
396.127	429.81
396.352	419.81
396.576	481.81
396.801	584.81
397.025	742.81
397.249	593.81
397.474	437.81
397.698	394.81
397.922	382.81
398.147	396.81
398.371	393.81
398.595	396.81
398.82	392.81
399.044	404.81
399.268	412.81
399.492	430.81
399.717	440.81
399.941	449.81
400.165	471.81
400.389	484.81
400.613	453.81
400.837	398.81
401.062	406.81
401.286	403.81
401.51	401.81
401.734	406.81
401.958	380.81
402.182	405.81
402.406	417.81
402.63	407.81
402.854	394.81
403.078	393.81
403.302	399.81
403.526	421.81
403.75	408.81
403.974	417.81
404.198	404.81
404.422	416.81
404.645	393.81
404.869	420.81
405.093	436.81
405.317	477.81
405.541	492.81
405.765	451.81
405.988	429.81
406.212	425.81
406.436	469.81
406.66	484.81
406.883	442.81
407.107	465.81
407.331	477.81
407.555	559.81
407.778	558.81
408.002	495.81
408.226	458.81
408.449	477.81
408.673	439.81
408.896	486.81
409.12	542.81
409.344	501.81
409.567	454.81
409.791	410.81
410.014	412.81
410.238	413.81
410.461	414.81
410.685	406.81
410.908	433.81
411.132	462.81
411.355	468.81
411.578	449.81
411.802	431.81
412.025	408.81
412.249	421.81
412.472	441.81
412.695	478.81
412.919	458.81
413.142	440.81
413.365	410.81
413.589	416.81
413.812	389.81
414.035	401.81
414.258	381.81
414.482	391.81
414.705	397.81
414.928	402.81
415.151	390.81
415.374	385.81
415.597	391.81
415.821	399.81
416.044	380.81
416.267	373.81
416.49	392.81
416.713	396.81
416.936	397.81
417.159	397.81
417.382	389.81
417.605	389.81
417.828	393.81
418.051	424.81
418.274	389.81
418.497	391.81
418.72	397.81
418.943	377.81
419.166	376.81
419.389	418.81
419.611	397.81
419.834	408.81
420.057	417.81
420.28	410.81
420.503	386.81
420.726	390.81
420.948	418.81
421.171	457.81
421.394	475.81
421.617	448.81
421.839	430.81
422.062	418.81
422.285	429.81
422.507	481.81
422.73	570.81
422.953	594.81
423.175	453.81
423.398	426.81
423.621	432.81
423.843	445.81
424.066	446.81
424.288	438.81
424.511	456.81
424.733	492.81
424.956	573.81
425.178	557.81
425.401	561.81
425.623	563.81
425.846	474.81
426.068	472.81
426.291	436.81
426.513	447.81
426.735	466.81
426.958	474.81
427.18	578.81
427.402	667.81
427.625	756.81
427.847	652.81
428.069	566.81
428.292	504.81
428.514	469.81
428.736	448.81
428.958	430.81
429.181	410.81
429.403	396.81
429.625	428.81
429.847	461.81
430.069	516.81
430.292	487.81
430.514	442.81
430.736	425.81
430.958	419.81
431.18	389.81
431.402	383.81
431.624	395.81
431.846	385.81
432.068	397.81
432.29	392.81
432.512	381.81
432.734	394.81
432.956	394.81
433.178	397.81
433.4	407.81
433.622	387.81
433.844	395.81
434.066	397.81
434.287	382.81
434.509	395.81
434.731	378.81
434.953	417.81
435.175	401.81
435.397	436.81
435.618	448.81
435.84	471.81
436.062	558.81
436.284	630.81
436.505	524.81
436.727	456.81
436.949	429.81
437.17	421.81
437.392	436.81
437.614	408.81
437.835	464.81
438.057	538.81
438.278	631.81
438.5	623.81
438.721	714.81
438.943	644.81
439.165	500.81
439.386	466.81
439.608	458.81
439.829	482.81
440.05	477.81
440.272	516.81
440.493	485.81
440.715	451.81
440.936	421.81
441.158	422.81
441.379	453.81
441.6	432.81
441.822	426.81
442.043	478.81
442.264	546.81
442.486	593.81
442.707	513.81
442.928	462.81
443.149	462.81
443.371	484.81
443.592	529.81
443.813	616.81
444.034	664.81
444.255	529.81
444.476	472.81
444.698	453.81
444.919	440.81
445.14	549.81
445.361	502.81
445.582	485.81
445.803	559.81
446.024	642.81
446.245	635.81
446.466	585.81
446.687	485.81
446.908	449.81
447.129	449.81
447.35	409.81
447.571	424.81
447.792	406.81
448.013	448.81
448.234	438.81
448.455	476.81
448.675	585.81
448.896	694.81
449.117	558.81
449.338	540.81
449.559	630.81
449.779	704.81
450	571.81
450.221	490.81
450.442	442.81
450.662	416.81
450.883	411.81
451.104	449.81
451.324	430.81
451.545	410.81
451.766	405.81
451.986	385.81
452.207	373.81
452.428	380.81
452.648	379.81
452.869	384.81
453.089	380.81
453.31	394.81
453.53	388.81
453.751	380.81
453.971	393.81
454.192	397.81
454.412	390.81
454.633	373.81
454.853	357.81
455.073	383.81
455.294	405.81
455.514	463.81
455.734	442.81
455.955	393.81
456.175	374.81
456.395	366.81
456.616	340.81
456.836	346.81
457.056	343.81
457.276	343.81
457.497	358.81
457.717	354.81
457.937	373.81
458.157	352.81
458.377	373.81
458.598	406.81
458.818	426.81
459.038	516.81
459.258	527.81
459.478	450.81
459.698	398.81
459.918	394.81
460.138	384.81
460.358	373.81
460.578	392.81
460.798	394.81
461.018	402.81
461.238	392.81
461.458	400.81
461.678	370.81
461.898	396.81
462.118	385.81
462.338	401.81
462.558	414.81
462.777	418.81
462.997	417.81
463.217	423.81
463.437	432.81
463.657	397.81
463.876	416.81
464.096	408.81
464.316	419.81
464.536	408.81
464.755	395.81
464.975	428.81
465.195	458.81
465.414	536.81
465.634	476.81
465.854	452.81
466.073	402.81
466.293	388.81
466.512	378.81
466.732	398.81
466.951	379.81
467.171	376.81
467.391	385.81
467.61	386.81
467.829	400.81
468.049	412.81
468.268	388.81
468.488	379.81
468.707	381.81
468.927	382.81
469.146	382.81
469.365	389.81
469.585	381.81
469.804	383.81
470.023	412.81
470.243	401.81
470.462	396.81
470.681	388.81
470.901	405.81
471.12	402.81
471.339	384.81
471.558	376.81
471.777	402.81
471.997	385.81
472.216	405.81
472.435	411.81
472.654	417.81
472.873	402.81
473.092	389.81
473.311	400.81
473.53	413.81
473.749	414.81
473.968	450.81
474.187	525.81
474.406	544.81
474.625	452.81
474.844	422.81
475.063	386.81
475.282	399.81
475.501	387.81
475.72	414.81
475.939	407.81
476.158	398.81
476.377	400.81
476.596	397.81
476.814	401.81
477.033	419.81
477.252	419.81
477.471	422.81
477.69	412.81
477.908	432.81
478.127	412.81
478.346	419.81
478.564	436.81
478.783	449.81
479.002	443.81
479.22	459.81
479.439	433.81
479.658	474.81
479.876	458.81
480.095	489.81
480.313	499.81
480.532	450.81
480.751	470.81
480.969	487.81
481.188	528.81
481.406	564.81
481.624	514.81
481.843	471.81
482.061	476.81
482.28	448.81
482.498	478.81
482.717	433.81
482.935	451.81
483.153	450.81
483.372	471.81
483.59	457.81
483.808	465.81
484.027	465.81
484.245	449.81
484.463	461.81
484.681	471.81
484.9	485.81
485.118	459.81
485.336	470.81
485.554	477.81
485.772	476.81
485.99	476.81
486.209	469.81
486.427	473.81
486.645	467.81
486.863	516.81
487.081	489.81
487.299	514.81
487.517	512.81
487.735	490.81
487.953	492.81
488.171	485.81
488.389	486.81
488.607	500.81
488.825	486.81
489.043	495.81
489.261	507.81
489.479	496.81
489.696	510.81
489.914	500.81
490.132	504.81
490.35	507.81
490.568	514.81
490.786	521.81
491.003	525.81
491.221	519.81
491.439	523.81
491.657	536.81
491.874	562.81
492.092	553.81
492.31	547.81
492.527	522.81
492.745	578.81
492.963	559.81
493.18	561.81
493.398	572.81
493.615	559.81
493.833	565.81
494.05	561.81
494.268	566.81
494.485	535.81
494.703	559.81
494.92	571.81
495.138	567.81
495.355	595.81
495.573	569.81
495.79	574.81
496.008	594.81
496.225	586.81
496.442	581.81
496.66	589.81
496.877	584.81
497.094	601.81
497.312	586.81
497.529	612.81
497.746	601.81
497.963	568.81
498.181	613.81
498.398	630.81
498.615	625.81
498.832	632.81
499.049	624.81
499.267	658.81
499.484	666.81
499.701	682.81
499.918	667.81
500.135	717.81
500.352	730.81
500.569	737.81
500.786	727.81
501.003	729.81
501.22	711.81
501.437	702.81
501.654	696.81
501.871	699.81
