Data from 1972.PennyLincolnUp.Lamp.En5.5.200Scan.071719.P1._HRD10591_15-27-14-843.txt Node
Date: Thu Jul 18 15:27:14 EDT 2019
User: cochatt
Spectrometer: HR+D1059
Trigger mode: 1
Integration Time (sec): 1.000000E-1
Scans to average: 1
Electric dark correction enabled: true
Nonlinearity correction enabled: false
Boxcar width: 0
XAxis mode: Wavelengths
Number of Pixels in Spectrum: 2048
>>>>>Begin Spectral Data<<<<<
223.165	-6.5
223.4	-6.5
223.635	-6.5
223.869	-12.5
224.104	-11.5
224.338	-20.5
224.573	-14.5
224.808	-19.5
225.042	4.5
225.277	-5.5
225.511	0.5
225.746	-3.5
225.98	2.5
226.215	8.5
226.449	17.5
226.683	18.5
226.918	12.5
227.152	29.5
227.387	32.5
227.621	38.5
227.856	54.5
228.09	43.5
228.324	44.5
228.559	56.5
228.793	71.5
229.027	94.5
229.262	90.5
229.496	105.5
229.73	121.5
229.964	145.5
230.199	128.5
230.433	111.5
230.667	104.5
230.901	93.5
231.136	105.5
231.37	104.5
231.604	104.5
231.838	106.5
232.072	111.5
232.306	112.5
232.541	117.5
232.775	104.5
233.009	103.5
233.243	101.5
233.477	118.5
233.711	123.5
233.945	112.5
234.179	115.5
234.413	125.5
234.647	113.5
234.881	104.5
235.115	124.5
235.349	116.5
235.583	110.5
235.817	124.5
236.051	116.5
236.285	110.5
236.519	119.5
236.753	116.5
236.987	127.5
237.221	156.5
237.455	204.5
237.689	165.5
237.922	140.5
238.156	125.5
238.39	125.5
238.624	132.5
238.858	107.5
239.091	112.5
239.325	129.5
239.559	117.5
239.793	116.5
240.027	121.5
240.26	116.5
240.494	154.5
240.728	155.5
240.961	143.5
241.195	124.5
241.429	126.5
241.662	121.5
241.896	114.5
242.13	125.5
242.363	130.5
242.597	118.5
242.83	129.5
243.064	111.5
243.298	124.5
243.531	133.5
243.765	125.5
243.998	126.5
244.232	131.5
244.465	126.5
244.699	141.5
244.932	138.5
245.166	132.5
245.399	141.5
245.633	133.5
245.866	129.5
246.099	140.5
246.333	136.5
246.566	138.5
246.8	135.5
247.033	137.5
247.266	138.5
247.5	141.5
247.733	157.5
247.966	149.5
248.2	158.5
248.433	157.5
248.666	160.5
248.899	163.5
249.133	193.5
249.366	183.5
249.599	184.5
249.832	162.5
250.066	144.5
250.299	164.5
250.532	169.5
250.765	178.5
250.998	212.5
251.231	197.5
251.465	208.5
251.698	187.5
251.931	201.5
252.164	204.5
252.397	181.5
252.63	198.5
252.863	189.5
253.096	188.5
253.329	196.5
253.562	185.5
253.795	193.5
254.028	197.5
254.261	199.5
254.494	218.5
254.727	219.5
254.96	260.5
255.193	232.5
255.426	213.5
255.659	218.5
255.892	211.5
256.124	221.5
256.357	212.5
256.59	217.5
256.823	198.5
257.056	188.5
257.289	191.5
257.521	189.5
257.754	198.5
257.987	180.5
258.22	199.5
258.452	200.5
258.685	200.5
258.918	219.5
259.151	185.5
259.383	187.5
259.616	210.5
259.849	202.5
260.081	222.5
260.314	226.5
260.547	231.5
260.779	242.5
261.012	206.5
261.244	207.5
261.477	216.5
261.71	224.5
261.942	205.5
262.175	210.5
262.407	199.5
262.64	197.5
262.872	205.5
263.105	189.5
263.337	182.5
263.57	196.5
263.802	197.5
264.035	178.5
264.267	178.5
264.499	188.5
264.732	197.5
264.964	183.5
265.197	185.5
265.429	192.5
265.661	195.5
265.894	184.5
266.126	189.5
266.358	199.5
266.591	195.5
266.823	195.5
267.055	209.5
267.287	193.5
267.52	202.5
267.752	203.5
267.984	205.5
268.216	215.5
268.448	226.5
268.681	201.5
268.913	217.5
269.145	219.5
269.377	249.5
269.609	244.5
269.841	242.5
270.073	228.5
270.306	264.5
270.538	269.5
270.77	266.5
271.002	283.5
271.234	265.5
271.466	254.5
271.698	285.5
271.93	275.5
272.162	282.5
272.394	295.5
272.626	278.5
272.858	274.5
273.09	263.5
273.322	252.5
273.553	233.5
273.785	228.5
274.017	243.5
274.249	251.5
274.481	234.5
274.713	251.5
274.945	226.5
275.176	233.5
275.408	231.5
275.64	251.5
275.872	243.5
276.104	230.5
276.335	230.5
276.567	246.5
276.799	251.5
277.031	271.5
277.262	285.5
277.494	278.5
277.726	279.5
277.957	256.5
278.189	243.5
278.421	249.5
278.652	235.5
278.884	226.5
279.115	222.5
279.347	222.5
279.579	245.5
279.81	242.5
280.042	237.5
280.273	235.5
280.505	253.5
280.736	242.5
280.968	240.5
281.199	233.5
281.431	233.5
281.662	256.5
281.894	217.5
282.125	247.5
282.356	243.5
282.588	276.5
282.819	285.5
283.051	250.5
283.282	252.5
283.513	245.5
283.745	229.5
283.976	240.5
284.207	225.5
284.439	248.5
284.67	246.5
284.901	245.5
285.132	241.5
285.364	228.5
285.595	244.5
285.826	213.5
286.057	255.5
286.288	241.5
286.52	222.5
286.751	239.5
286.982	238.5
287.213	256.5
287.444	258.5
287.675	256.5
287.906	262.5
288.138	253.5
288.369	247.5
288.6	253.5
288.831	271.5
289.062	235.5
289.293	270.5
289.524	241.5
289.755	252.5
289.986	270.5
290.217	230.5
290.448	238.5
290.679	244.5
290.91	244.5
291.141	234.5
291.371	252.5
291.602	251.5
291.833	259.5
292.064	240.5
292.295	244.5
292.526	245.5
292.757	247.5
292.987	245.5
293.218	249.5
293.449	256.5
293.68	253.5
293.91	249.5
294.141	251.5
294.372	240.5
294.603	260.5
294.833	246.5
295.064	248.5
295.295	257.5
295.525	260.5
295.756	269.5
295.987	282.5
296.217	288.5
296.448	288.5
296.679	251.5
296.909	258.5
297.14	262.5
297.37	263.5
297.601	267.5
297.831	285.5
298.062	284.5
298.292	269.5
298.523	276.5
298.753	248.5
298.984	245.5
299.214	261.5
299.445	270.5
299.675	264.5
299.905	289.5
300.136	279.5
300.366	268.5
300.597	252.5
300.827	264.5
301.057	269.5
301.288	282.5
301.518	287.5
301.748	264.5
301.979	276.5
302.209	281.5
302.439	277.5
302.669	280.5
302.9	280.5
303.13	288.5
303.36	285.5
303.59	281.5
303.82	295.5
304.051	282.5
304.281	273.5
304.511	280.5
304.741	271.5
304.971	282.5
305.201	283.5
305.431	279.5
305.661	274.5
305.891	279.5
306.121	288.5
306.352	316.5
306.582	284.5
306.812	280.5
307.042	289.5
307.272	278.5
307.502	294.5
307.731	289.5
307.961	283.5
308.191	291.5
308.421	296.5
308.651	302.5
308.881	301.5
309.111	300.5
309.341	302.5
309.571	312.5
309.8	310.5
310.03	312.5
310.26	334.5
310.49	319.5
310.72	320.5
310.949	320.5
311.179	325.5
311.409	349.5
311.639	343.5
311.868	330.5
312.098	314.5
312.328	324.5
312.557	358.5
312.787	370.5
313.017	332.5
313.246	320.5
313.476	329.5
313.706	317.5
313.935	332.5
314.165	351.5
314.394	346.5
314.624	338.5
314.853	339.5
315.083	335.5
315.312	334.5
315.542	319.5
315.771	312.5
316.001	328.5
316.23	318.5
316.46	335.5
316.689	329.5
316.919	332.5
317.148	343.5
317.377	366.5
317.607	345.5
317.836	312.5
318.065	331.5
318.295	327.5
318.524	332.5
318.753	333.5
318.983	325.5
319.212	325.5
319.441	317.5
319.67	323.5
319.9	339.5
320.129	324.5
320.358	311.5
320.587	321.5
320.816	326.5
321.046	337.5
321.275	351.5
321.504	352.5
321.733	336.5
321.962	352.5
322.191	368.5
322.42	376.5
322.649	374.5
322.878	392.5
323.108	417.5
323.337	442.5
323.566	439.5
323.795	471.5
324.024	535.5
324.253	614.5
324.482	900.5
324.71	1398.5
324.939	2039.5
325.168	1818.5
325.397	922.5
325.626	611.5
325.855	516.5
326.084	462.5
326.313	451.5
326.542	451.5
326.77	495.5
326.999	577.5
327.228	823.5
327.457	1235.5
327.686	1554.5
327.914	1017.5
328.143	654.5
328.372	578.5
328.6	534.5
328.829	493.5
329.058	512.5
329.287	549.5
329.515	487.5
329.744	449.5
329.972	456.5
330.201	453.5
330.43	510.5
330.658	520.5
330.887	525.5
331.115	537.5
331.344	438.5
331.572	451.5
331.801	442.5
332.03	434.5
332.258	418.5
332.486	384.5
332.715	389.5
332.943	403.5
333.172	376.5
333.4	390.5
333.629	402.5
333.857	410.5
334.085	420.5
334.314	422.5
334.542	465.5
334.771	484.5
334.999	439.5
335.227	407.5
335.455	387.5
335.684	385.5
335.912	380.5
336.14	353.5
336.369	382.5
336.597	380.5
336.825	391.5
337.053	372.5
337.281	382.5
337.51	362.5
337.738	378.5
337.966	379.5
338.194	380.5
338.422	376.5
338.65	372.5
338.878	361.5
339.106	358.5
339.334	364.5
339.562	357.5
339.79	366.5
340.018	362.5
340.246	363.5
340.474	364.5
340.702	375.5
340.93	378.5
341.158	363.5
341.386	350.5
341.614	380.5
341.842	369.5
342.07	346.5
342.298	366.5
342.526	368.5
342.754	353.5
342.981	338.5
343.209	328.5
343.437	348.5
343.665	359.5
343.893	358.5
344.12	376.5
344.348	342.5
344.576	365.5
344.804	373.5
345.031	363.5
345.259	384.5
345.487	379.5
345.714	354.5
345.942	360.5
346.17	340.5
346.397	350.5
346.625	352.5
346.853	370.5
347.08	361.5
347.308	356.5
347.535	358.5
347.763	370.5
347.99	382.5
348.218	365.5
348.445	364.5
348.673	373.5
348.9	358.5
349.128	345.5
349.355	345.5
349.583	346.5
349.81	326.5
350.037	340.5
350.265	333.5
350.492	330.5
350.72	339.5
350.947	354.5
351.174	372.5
351.402	352.5
351.629	363.5
351.856	340.5
352.083	381.5
352.311	359.5
352.538	370.5
352.765	386.5
352.992	360.5
353.22	370.5
353.447	374.5
353.674	348.5
353.901	354.5
354.128	341.5
354.355	342.5
354.583	339.5
354.81	340.5
355.037	315.5
355.264	322.5
355.491	339.5
355.718	340.5
355.945	329.5
356.172	322.5
356.399	316.5
356.626	328.5
356.853	341.5
357.08	336.5
357.307	345.5
357.534	320.5
357.761	337.5
357.988	343.5
358.215	335.5
358.441	352.5
358.668	322.5
358.895	322.5
359.122	320.5
359.349	319.5
359.576	346.5
359.802	354.5
360.029	393.5
360.256	412.5
360.483	376.5
360.709	360.5
360.936	365.5
361.163	357.5
361.39	358.5
361.616	344.5
361.843	382.5
362.07	339.5
362.296	370.5
362.523	342.5
362.749	350.5
362.976	364.5
363.203	343.5
363.429	342.5
363.656	344.5
363.882	332.5
364.109	348.5
364.335	334.5
364.562	325.5
364.788	353.5
365.015	337.5
365.241	329.5
365.468	333.5
365.694	337.5
365.92	349.5
366.147	323.5
366.373	334.5
366.599	333.5
366.826	342.5
367.052	330.5
367.278	324.5
367.505	318.5
367.731	340.5
367.957	331.5
368.184	357.5
368.41	339.5
368.636	316.5
368.862	334.5
369.089	338.5
369.315	334.5
369.541	336.5
369.767	321.5
369.993	323.5
370.219	344.5
370.445	331.5
370.672	329.5
370.898	329.5
371.124	311.5
371.35	325.5
371.576	332.5
371.802	327.5
372.028	323.5
372.254	329.5
372.48	328.5
372.706	331.5
372.932	330.5
373.158	324.5
373.384	324.5
373.61	335.5
373.835	344.5
374.061	361.5
374.287	347.5
374.513	333.5
374.739	333.5
374.965	331.5
375.191	349.5
375.416	326.5
375.642	316.5
375.868	321.5
376.094	338.5
376.319	342.5
376.545	345.5
376.771	328.5
376.997	317.5
377.222	333.5
377.448	325.5
377.674	321.5
377.899	322.5
378.125	334.5
378.35	328.5
378.576	301.5
378.802	324.5
379.027	342.5
379.253	322.5
379.478	329.5
379.704	325.5
379.929	325.5
380.155	330.5
380.38	317.5
380.606	323.5
380.831	341.5
381.057	338.5
381.282	322.5
381.507	315.5
381.733	334.5
381.958	325.5
382.184	318.5
382.409	340.5
382.634	333.5
382.86	348.5
383.085	351.5
383.31	334.5
383.535	343.5
383.761	322.5
383.986	334.5
384.211	340.5
384.436	326.5
384.662	361.5
384.887	343.5
385.112	355.5
385.337	370.5
385.562	353.5
385.787	349.5
386.013	358.5
386.238	371.5
386.463	368.5
386.688	378.5
386.913	339.5
387.138	344.5
387.363	355.5
387.588	331.5
387.813	341.5
388.038	348.5
388.263	346.5
388.488	343.5
388.713	350.5
388.938	358.5
389.163	373.5
389.387	346.5
389.612	361.5
389.837	353.5
390.062	344.5
390.287	355.5
390.512	343.5
390.736	359.5
390.961	348.5
391.186	342.5
391.411	353.5
391.636	340.5
391.86	360.5
392.085	343.5
392.31	352.5
392.534	354.5
392.759	376.5
392.984	348.5
393.208	366.5
393.433	357.5
393.658	385.5
393.882	370.5
394.107	365.5
394.331	349.5
394.556	345.5
394.78	354.5
395.005	358.5
395.229	368.5
395.454	364.5
395.678	353.5
395.903	360.5
396.127	394.5
396.352	402.5
396.576	378.5
396.801	372.5
397.025	382.5
397.249	385.5
397.474	378.5
397.698	361.5
397.922	391.5
398.147	397.5
398.371	399.5
398.595	375.5
398.82	393.5
399.044	378.5
399.268	411.5
399.492	407.5
399.717	438.5
399.941	444.5
400.165	474.5
400.389	497.5
400.613	444.5
400.837	429.5
401.062	409.5
401.286	396.5
401.51	392.5
401.734	409.5
401.958	401.5
402.182	404.5
402.406	406.5
402.63	416.5
402.854	413.5
403.078	404.5
403.302	413.5
403.526	398.5
403.75	422.5
403.974	401.5
404.198	404.5
404.422	399.5
404.645	408.5
404.869	432.5
405.093	461.5
405.317	450.5
405.541	496.5
405.765	480.5
405.988	445.5
406.212	453.5
406.436	461.5
406.66	466.5
406.883	456.5
407.107	460.5
407.331	512.5
407.555	567.5
407.778	549.5
408.002	520.5
408.226	461.5
408.449	454.5
408.673	483.5
408.896	498.5
409.12	536.5
409.344	482.5
409.567	446.5
409.791	420.5
410.014	421.5
410.238	390.5
410.461	398.5
410.685	427.5
410.908	428.5
411.132	453.5
411.355	490.5
411.578	460.5
411.802	413.5
412.025	409.5
412.249	424.5
412.472	435.5
412.695	496.5
412.919	476.5
413.142	422.5
413.365	416.5
413.589	424.5
413.812	411.5
414.035	395.5
414.258	390.5
414.482	386.5
414.705	398.5
414.928	380.5
415.151	388.5
415.374	405.5
415.597	384.5
415.821	388.5
416.044	391.5
416.267	386.5
416.49	387.5
416.713	378.5
416.936	382.5
417.159	373.5
417.382	385.5
417.605	391.5
417.828	412.5
418.051	397.5
418.274	412.5
418.497	381.5
418.72	368.5
418.943	390.5
419.166	405.5
419.389	410.5
419.611	410.5
419.834	405.5
420.057	426.5
420.28	410.5
420.503	418.5
420.726	404.5
420.948	428.5
421.171	456.5
421.394	478.5
421.617	436.5
421.839	417.5
422.062	392.5
422.285	435.5
422.507	479.5
422.73	538.5
422.953	525.5
423.175	461.5
423.398	444.5
423.621	438.5
423.843	429.5
424.066	465.5
424.288	447.5
424.511	466.5
424.733	502.5
424.956	592.5
425.178	566.5
425.401	538.5
425.623	589.5
425.846	496.5
426.068	474.5
426.291	425.5
426.513	467.5
426.735	447.5
426.958	514.5
427.18	544.5
427.402	683.5
427.625	790.5
427.847	656.5
428.069	567.5
428.292	512.5
428.514	475.5
428.736	434.5
428.958	438.5
429.181	422.5
429.403	451.5
429.625	418.5
429.847	468.5
430.069	515.5
430.292	506.5
430.514	441.5
430.736	420.5
430.958	406.5
431.18	400.5
431.402	399.5
431.624	381.5
431.846	385.5
432.068	380.5
432.29	390.5
432.512	401.5
432.734	402.5
432.956	404.5
433.178	402.5
433.4	415.5
433.622	401.5
433.844	404.5
434.066	400.5
434.287	381.5
434.509	404.5
434.731	399.5
434.953	382.5
435.175	412.5
435.397	432.5
435.618	436.5
435.84	470.5
436.062	579.5
436.284	638.5
436.505	562.5
436.727	494.5
436.949	423.5
437.17	458.5
437.392	434.5
437.614	418.5
437.835	462.5
438.057	547.5
438.278	654.5
438.5	660.5
438.721	707.5
438.943	678.5
439.165	533.5
439.386	487.5
439.608	475.5
439.829	487.5
440.05	501.5
440.272	542.5
440.493	500.5
440.715	457.5
440.936	436.5
441.158	419.5
441.379	448.5
441.6	427.5
441.822	456.5
442.043	497.5
442.264	564.5
442.486	582.5
442.707	502.5
442.928	472.5
443.149	476.5
443.371	513.5
443.592	528.5
443.813	585.5
444.034	677.5
444.255	555.5
444.476	463.5
444.698	457.5
444.919	464.5
445.14	552.5
445.361	505.5
445.582	504.5
445.803	557.5
446.024	649.5
446.245	681.5
446.466	608.5
446.687	488.5
446.908	477.5
447.129	438.5
447.35	427.5
447.571	420.5
447.792	425.5
448.013	437.5
448.234	452.5
448.455	506.5
448.675	591.5
448.896	694.5
449.117	591.5
449.338	561.5
449.559	617.5
449.779	720.5
450	581.5
450.221	488.5
450.442	445.5
450.662	421.5
450.883	406.5
451.104	429.5
451.324	443.5
451.545	409.5
451.766	396.5
451.986	384.5
452.207	377.5
452.428	368.5
452.648	371.5
452.869	377.5
453.089	389.5
453.31	386.5
453.53	392.5
453.751	390.5
453.971	380.5
454.192	411.5
454.412	386.5
454.633	388.5
454.853	385.5
455.073	357.5
455.294	396.5
455.514	464.5
455.734	436.5
455.955	407.5
456.175	355.5
456.395	372.5
456.616	361.5
456.836	366.5
457.056	350.5
457.276	348.5
457.497	353.5
457.717	369.5
457.937	363.5
458.157	361.5
458.377	381.5
458.598	402.5
458.818	454.5
459.038	521.5
459.258	526.5
459.478	448.5
459.698	392.5
459.918	372.5
460.138	394.5
460.358	379.5
460.578	409.5
460.798	412.5
461.018	397.5
461.238	380.5
461.458	379.5
461.678	386.5
461.898	420.5
462.118	401.5
462.338	401.5
462.558	414.5
462.777	427.5
462.997	417.5
463.217	420.5
463.437	419.5
463.657	409.5
463.876	390.5
464.096	412.5
464.316	412.5
464.536	409.5
464.755	416.5
464.975	438.5
465.195	467.5
465.414	548.5
465.634	453.5
465.854	413.5
466.073	400.5
466.293	404.5
466.512	398.5
466.732	372.5
466.951	383.5
467.171	368.5
467.391	383.5
467.61	400.5
467.829	387.5
468.049	380.5
468.268	392.5
468.488	388.5
468.707	396.5
468.927	377.5
469.146	381.5
469.365	360.5
469.585	370.5
469.804	401.5
470.023	397.5
470.243	406.5
470.462	413.5
470.681	416.5
470.901	398.5
471.12	388.5
471.339	376.5
471.558	386.5
471.777	416.5
471.997	401.5
472.216	388.5
472.435	437.5
472.654	432.5
472.873	402.5
473.092	374.5
473.311	402.5
473.53	379.5
473.749	387.5
473.968	417.5
474.187	530.5
474.406	546.5
474.625	434.5
474.844	398.5
475.063	389.5
475.282	416.5
475.501	394.5
475.72	415.5
475.939	376.5
476.158	410.5
476.377	423.5
476.596	381.5
476.814	396.5
477.033	428.5
477.252	413.5
477.471	421.5
477.69	400.5
477.908	416.5
478.127	423.5
478.346	414.5
478.564	419.5
478.783	430.5
479.002	452.5
479.22	432.5
479.439	435.5
479.658	454.5
479.876	474.5
480.095	498.5
480.313	508.5
480.532	502.5
480.751	473.5
480.969	460.5
481.188	557.5
481.406	570.5
481.624	493.5
481.843	486.5
482.061	466.5
482.28	451.5
482.498	455.5
482.717	454.5
482.935	466.5
483.153	443.5
483.372	460.5
483.59	465.5
483.808	472.5
484.027	459.5
484.245	460.5
484.463	467.5
484.681	476.5
484.9	454.5
485.118	459.5
485.336	459.5
485.554	488.5
485.772	467.5
485.99	462.5
486.209	449.5
486.427	486.5
486.645	496.5
486.863	518.5
487.081	509.5
487.299	493.5
487.517	490.5
487.735	499.5
487.953	481.5
488.171	504.5
488.389	491.5
488.607	502.5
488.825	491.5
489.043	514.5
489.261	506.5
489.479	502.5
489.696	500.5
489.914	521.5
490.132	520.5
490.35	518.5
490.568	533.5
490.786	518.5
491.003	528.5
491.221	530.5
491.439	548.5
491.657	541.5
491.874	557.5
492.092	551.5
492.31	566.5
492.527	574.5
492.745	560.5
492.963	558.5
493.18	589.5
493.398	573.5
493.615	580.5
493.833	591.5
494.05	564.5
494.268	574.5
494.485	564.5
494.703	573.5
494.92	577.5
495.138	573.5
495.355	576.5
495.573	594.5
495.79	581.5
496.008	570.5
496.225	568.5
496.442	599.5
496.66	601.5
496.877	589.5
497.094	572.5
497.312	597.5
497.529	600.5
497.746	605.5
497.963	621.5
498.181	624.5
498.398	632.5
498.615	630.5
498.832	647.5
499.049	666.5
499.267	642.5
499.484	696.5
499.701	682.5
499.918	695.5
500.135	746.5
500.352	733.5
500.569	727.5
500.786	722.5
501.003	725.5
501.22	718.5
501.437	745.5
501.654	723.5
501.871	716.5
502.088	679.5
502.305	662.5
502.522	650.5
502.739	644.5
502.956	638.5
503.172	617.5
503.389	605.5
503.606	630.5
503.823	602.5
504.04	606.5
504.256	578.5
504.473	568.5
504.69	561.5
504.907	568.5
505.123	582.5
505.34	562.5
505.557	554.5
505.773	555.5
505.99	562.5
506.207	555.5
506.423	587.5
506.64	570.5
506.856	555.5
507.073	542.5
507.289	548.5
507.506	543.5
507.722	568.5
507.939	577.5
508.155	548.5
508.372	531.5
508.588	546.5
508.805	561.5
509.021	525.5
509.238	547.5
509.454	553.5
509.67	555.5
509.887	526.5
510.103	555.5
510.319	582.5
510.536	629.5
510.752	1092.5
510.968	870.5
511.184	561.5
511.401	532.5
511.617	534.5
511.833	513.5
512.049	534.5
512.265	522.5
512.481	515.5
512.698	504.5
512.914	516.5
513.13	514.5
513.346	509.5
513.562	508.5
513.778	530.5
513.994	505.5
514.21	556.5
514.426	548.5
514.642	580.5
514.858	624.5
515.074	660.5
515.29	802.5
515.506	1182.5
515.721	952.5
515.937	629.5
516.153	597.5
516.369	562.5
516.585	530.5
516.801	520.5
517.016	563.5
517.232	516.5
517.448	514.5
517.664	516.5
517.879	520.5
518.095	531.5
518.311	527.5
518.527	497.5
518.742	523.5
518.958	506.5
519.173	522.5
519.389	517.5
519.605	517.5
519.82	512.5
