Data from 1972.PennyLincolnUp.Lamp.En5.5.200Scan.071719.P1._HRD10591_15-29-10-844.txt Node
Date: Thu Jul 18 15:29:10 EDT 2019
User: cochatt
Spectrometer: HR+D1059
Trigger mode: 1
Integration Time (sec): 1.000000E-1
Scans to average: 1
Electric dark correction enabled: true
Nonlinearity correction enabled: false
Boxcar width: 0
XAxis mode: Wavelengths
Number of Pixels in Spectrum: 2048
>>>>>Begin Spectral Data<<<<<
223.165	-11.88
223.4	-11.88
223.635	-11.88
223.869	-21.88
224.104	-18.88
224.338	-18.88
224.573	-4.88
224.808	-25.88
225.042	-0.88
225.277	-0.88
225.511	6.12
225.746	10.12
225.98	4.12
226.215	0.12
226.449	14.12
226.683	14.12
226.918	32.12
227.152	23.12
227.387	27.12
227.621	32.12
227.856	40.12
228.09	52.12
228.324	60.12
228.559	55.12
228.793	72.12
229.027	96.12
229.262	118.12
229.496	124.12
229.73	162.12
229.964	173.12
230.199	157.12
230.433	122.12
230.667	120.12
230.901	101.12
231.136	108.12
231.37	116.12
231.604	111.12
231.838	98.12
232.072	96.12
232.306	127.12
232.541	127.12
232.775	119.12
233.009	103.12
233.243	114.12
233.477	114.12
233.711	112.12
233.945	124.12
234.179	112.12
234.413	110.12
234.647	126.12
234.881	119.12
235.115	120.12
235.349	129.12
235.583	137.12
235.817	127.12
236.051	119.12
236.285	136.12
236.519	136.12
236.753	129.12
236.987	167.12
237.221	190.12
237.455	260.12
237.689	203.12
237.922	152.12
238.156	130.12
238.39	126.12
238.624	130.12
238.858	132.12
239.091	129.12
239.325	126.12
239.559	139.12
239.793	130.12
240.027	130.12
240.26	151.12
240.494	146.12
240.728	159.12
240.961	166.12
241.195	146.12
241.429	135.12
241.662	130.12
241.896	155.12
242.13	139.12
242.363	145.12
242.597	131.12
242.83	148.12
243.064	127.12
243.298	132.12
243.531	143.12
243.765	149.12
243.998	141.12
244.232	134.12
244.465	138.12
244.699	144.12
244.932	141.12
245.166	141.12
245.399	142.12
245.633	141.12
245.866	157.12
246.099	149.12
246.333	153.12
246.566	160.12
246.8	153.12
247.033	157.12
247.266	166.12
247.5	162.12
247.733	168.12
247.966	173.12
248.2	192.12
248.433	178.12
248.666	180.12
248.899	183.12
249.133	196.12
249.366	221.12
249.599	222.12
249.832	195.12
250.066	172.12
250.299	196.12
250.532	202.12
250.765	221.12
250.998	243.12
251.231	250.12
251.465	239.12
251.698	226.12
251.931	203.12
252.164	205.12
252.397	208.12
252.63	219.12
252.863	212.12
253.096	220.12
253.329	218.12
253.562	226.12
253.795	242.12
254.028	220.12
254.261	232.12
254.494	217.12
254.727	266.12
254.96	308.12
255.193	303.12
255.426	258.12
255.659	239.12
255.892	249.12
256.124	252.12
256.357	270.12
256.59	248.12
256.823	226.12
257.056	223.12
257.289	228.12
257.521	235.12
257.754	221.12
257.987	224.12
258.22	223.12
258.452	207.12
258.685	215.12
258.918	228.12
259.151	208.12
259.383	221.12
259.616	225.12
259.849	243.12
260.081	257.12
260.314	284.12
260.547	284.12
260.779	274.12
261.012	244.12
261.244	237.12
261.477	250.12
261.71	266.12
261.942	263.12
262.175	248.12
262.407	263.12
262.64	215.12
262.872	213.12
263.105	220.12
263.337	211.12
263.57	219.12
263.802	212.12
264.035	218.12
264.267	219.12
264.499	204.12
264.732	220.12
264.964	215.12
265.197	215.12
265.429	204.12
265.661	233.12
265.894	214.12
266.126	211.12
266.358	212.12
266.591	216.12
266.823	255.12
267.055	239.12
267.287	228.12
267.52	247.12
267.752	234.12
267.984	224.12
268.216	236.12
268.448	227.12
268.681	219.12
268.913	244.12
269.145	262.12
269.377	280.12
269.609	290.12
269.841	264.12
270.073	268.12
270.306	312.12
270.538	338.12
270.77	341.12
271.002	323.12
271.234	320.12
271.466	327.12
271.698	332.12
271.93	340.12
272.162	334.12
272.394	314.12
272.626	314.12
272.858	309.12
273.09	276.12
273.322	290.12
273.553	285.12
273.785	261.12
274.017	278.12
274.249	278.12
274.481	274.12
274.713	285.12
274.945	273.12
275.176	277.12
275.408	294.12
275.64	283.12
275.872	265.12
276.104	276.12
276.335	252.12
276.567	267.12
276.799	299.12
277.031	323.12
277.262	318.12
277.494	322.12
277.726	343.12
277.957	290.12
278.189	272.12
278.421	268.12
278.652	284.12
278.884	294.12
279.115	262.12
279.347	294.12
279.579	272.12
279.81	275.12
280.042	274.12
280.273	271.12
280.505	276.12
280.736	256.12
280.968	259.12
281.199	249.12
281.431	263.12
281.662	263.12
281.894	263.12
282.125	279.12
282.356	292.12
282.588	316.12
282.819	340.12
283.051	302.12
283.282	287.12
283.513	271.12
283.745	259.12
283.976	272.12
284.207	266.12
284.439	276.12
284.67	292.12
284.901	283.12
285.132	279.12
285.364	282.12
285.595	280.12
285.826	274.12
286.057	269.12
286.288	292.12
286.52	264.12
286.751	267.12
286.982	283.12
287.213	283.12
287.444	277.12
287.675	276.12
287.906	294.12
288.138	287.12
288.369	306.12
288.6	318.12
288.831	296.12
289.062	278.12
289.293	282.12
289.524	287.12
289.755	279.12
289.986	269.12
290.217	272.12
290.448	296.12
290.679	294.12
290.91	280.12
291.141	279.12
291.371	276.12
291.602	271.12
291.833	277.12
292.064	296.12
292.295	297.12
292.526	274.12
292.757	273.12
292.987	269.12
293.218	273.12
293.449	306.12
293.68	293.12
293.91	288.12
294.141	294.12
294.372	278.12
294.603	291.12
294.833	277.12
295.064	287.12
295.295	279.12
295.525	289.12
295.756	282.12
295.987	293.12
296.217	318.12
296.448	345.12
296.679	314.12
296.909	288.12
297.14	270.12
297.37	287.12
297.601	295.12
297.831	283.12
298.062	288.12
298.292	282.12
298.523	301.12
298.753	299.12
298.984	286.12
299.214	287.12
299.445	286.12
299.675	295.12
299.905	290.12
300.136	321.12
300.366	292.12
300.597	285.12
300.827	295.12
301.057	314.12
301.288	319.12
301.518	327.12
301.748	317.12
301.979	323.12
302.209	315.12
302.439	311.12
302.669	316.12
302.9	318.12
303.13	314.12
303.36	332.12
303.59	334.12
303.82	324.12
304.051	323.12
304.281	348.12
304.511	310.12
304.741	318.12
304.971	302.12
305.201	309.12
305.431	327.12
305.661	317.12
305.891	310.12
306.121	323.12
306.352	344.12
306.582	339.12
306.812	333.12
307.042	351.12
307.272	327.12
307.502	329.12
307.731	319.12
307.961	320.12
308.191	339.12
308.421	330.12
308.651	315.12
308.881	334.12
309.111	328.12
309.341	350.12
309.571	346.12
309.8	336.12
310.03	365.12
310.26	351.12
310.49	360.12
310.72	401.12
310.949	386.12
311.179	405.12
311.409	399.12
311.639	366.12
311.868	388.12
312.098	387.12
312.328	394.12
312.557	410.12
312.787	426.12
313.017	427.12
313.246	403.12
313.476	376.12
313.706	359.12
313.935	374.12
314.165	395.12
314.394	410.12
314.624	400.12
314.853	391.12
315.083	382.12
315.312	381.12
315.542	382.12
315.771	356.12
316.001	378.12
316.23	379.12
316.46	384.12
316.689	388.12
316.919	379.12
317.148	387.12
317.377	400.12
317.607	388.12
317.836	386.12
318.065	367.12
318.295	380.12
318.524	386.12
318.753	381.12
318.983	381.12
319.212	390.12
319.441	392.12
319.67	388.12
319.9	384.12
320.129	382.12
320.358	369.12
320.587	366.12
320.816	396.12
321.046	406.12
321.275	423.12
321.504	408.12
321.733	419.12
321.962	439.12
322.191	428.12
322.42	450.12
322.649	458.12
322.878	493.12
323.108	490.12
323.337	524.12
323.566	558.12
323.795	588.12
324.024	650.12
324.253	820.12
324.482	1177.12
324.71	1898.12
324.939	2764.12
325.168	2428.12
325.397	1238.12
325.626	775.12
325.855	639.12
326.084	596.12
326.313	558.12
326.542	555.12
326.77	619.12
326.999	759.12
327.228	1078.12
327.457	1660.12
327.686	2093.12
327.914	1359.12
328.143	876.12
328.372	730.12
328.6	677.12
328.829	632.12
329.058	659.12
329.287	665.12
329.515	610.12
329.744	568.12
329.972	563.12
330.201	579.12
330.43	643.12
330.658	673.12
330.887	701.12
331.115	674.12
331.344	568.12
331.572	516.12
331.801	527.12
332.03	524.12
332.258	488.12
332.486	479.12
332.715	466.12
332.943	450.12
333.172	454.12
333.4	438.12
333.629	470.12
333.857	472.12
334.085	485.12
334.314	524.12
334.542	573.12
334.771	574.12
334.999	520.12
335.227	472.12
335.455	455.12
335.684	427.12
335.912	434.12
336.14	448.12
336.369	431.12
336.597	436.12
336.825	463.12
337.053	438.12
337.281	429.12
337.51	426.12
337.738	414.12
337.966	414.12
338.194	425.12
338.422	417.12
338.65	432.12
338.878	416.12
339.106	411.12
339.334	410.12
339.562	427.12
339.79	406.12
340.018	426.12
340.246	428.12
340.474	416.12
340.702	430.12
340.93	428.12
341.158	412.12
341.386	400.12
341.614	445.12
341.842	403.12
342.07	390.12
342.298	419.12
342.526	411.12
342.754	392.12
342.981	402.12
343.209	406.12
343.437	399.12
343.665	406.12
343.893	414.12
344.12	401.12
344.348	393.12
344.576	415.12
344.804	423.12
345.031	428.12
345.259	436.12
345.487	427.12
345.714	422.12
345.942	414.12
346.17	418.12
346.397	416.12
346.625	407.12
346.853	411.12
347.08	401.12
347.308	409.12
347.535	410.12
347.763	404.12
347.99	431.12
348.218	413.12
348.445	428.12
348.673	443.12
348.9	422.12
349.128	400.12
349.355	388.12
349.583	379.12
349.81	404.12
350.037	381.12
350.265	390.12
350.492	390.12
350.72	402.12
350.947	388.12
351.174	404.12
351.402	402.12
351.629	405.12
351.856	405.12
352.083	413.12
352.311	416.12
352.538	435.12
352.765	461.12
352.992	440.12
353.22	415.12
353.447	402.12
353.674	381.12
353.901	368.12
354.128	362.12
354.355	372.12
354.583	368.12
354.81	378.12
355.037	373.12
355.264	356.12
355.491	352.12
355.718	344.12
355.945	382.12
356.172	359.12
356.399	335.12
356.626	371.12
356.853	360.12
357.08	361.12
357.307	356.12
357.534	360.12
357.761	374.12
357.988	376.12
358.215	367.12
358.441	371.12
358.668	384.12
358.895	361.12
359.122	400.12
359.349	385.12
359.576	398.12
359.802	433.12
360.029	460.12
360.256	457.12
360.483	454.12
360.709	407.12
360.936	392.12
361.163	407.12
361.39	407.12
361.616	406.12
361.843	413.12
362.07	420.12
362.296	395.12
362.523	398.12
362.749	392.12
362.976	399.12
363.203	392.12
363.429	382.12
363.656	375.12
363.882	378.12
364.109	370.12
364.335	376.12
364.562	383.12
364.788	361.12
365.015	376.12
365.241	376.12
365.468	380.12
365.694	398.12
365.92	387.12
366.147	379.12
366.373	370.12
366.599	356.12
366.826	374.12
367.052	380.12
367.278	381.12
367.505	364.12
367.731	377.12
367.957	367.12
368.184	380.12
368.41	372.12
368.636	383.12
368.862	378.12
369.089	372.12
369.315	367.12
369.541	378.12
369.767	372.12
369.993	361.12
370.219	354.12
370.445	360.12
370.672	363.12
370.898	357.12
371.124	358.12
371.35	372.12
371.576	360.12
371.802	372.12
372.028	350.12
372.254	350.12
372.48	371.12
372.706	364.12
372.932	360.12
373.158	374.12
373.384	381.12
373.61	381.12
373.835	356.12
374.061	355.12
374.287	371.12
374.513	349.12
374.739	392.12
374.965	378.12
375.191	357.12
375.416	360.12
375.642	351.12
375.868	371.12
376.094	365.12
376.319	372.12
376.545	356.12
376.771	351.12
376.997	364.12
377.222	351.12
377.448	349.12
377.674	336.12
377.899	344.12
378.125	348.12
378.35	355.12
378.576	354.12
378.802	365.12
379.027	358.12
379.253	349.12
379.478	362.12
379.704	340.12
379.929	360.12
380.155	333.12
380.38	364.12
380.606	354.12
380.831	341.12
381.057	358.12
381.282	363.12
381.507	364.12
381.733	374.12
381.958	350.12
382.184	357.12
382.409	368.12
382.634	354.12
382.86	350.12
383.085	365.12
383.31	357.12
383.535	346.12
383.761	373.12
383.986	374.12
384.211	363.12
384.436	370.12
384.662	366.12
384.887	366.12
385.112	359.12
385.337	371.12
385.562	379.12
385.787	377.12
386.013	388.12
386.238	384.12
386.463	396.12
386.688	386.12
386.913	362.12
387.138	380.12
387.363	384.12
387.588	375.12
387.813	370.12
388.038	372.12
388.263	399.12
388.488	398.12
388.713	396.12
388.938	386.12
389.163	376.12
389.387	396.12
389.612	356.12
389.837	365.12
390.062	362.12
390.287	366.12
390.512	363.12
390.736	376.12
390.961	384.12
391.186	374.12
391.411	367.12
391.636	388.12
391.86	363.12
392.085	381.12
392.31	390.12
392.534	389.12
392.759	410.12
392.984	381.12
393.208	391.12
393.433	388.12
393.658	391.12
393.882	376.12
394.107	407.12
394.331	376.12
394.556	384.12
394.78	359.12
395.005	392.12
395.229	376.12
395.454	379.12
395.678	393.12
395.903	426.12
396.127	411.12
396.352	431.12
396.576	419.12
396.801	409.12
397.025	398.12
397.249	391.12
397.474	404.12
397.698	408.12
397.922	435.12
398.147	443.12
398.371	427.12
398.595	417.12
398.82	412.12
399.044	425.12
399.268	443.12
399.492	446.12
399.717	463.12
399.941	506.12
400.165	530.12
400.389	540.12
400.613	481.12
400.837	454.12
401.062	435.12
401.286	440.12
401.51	414.12
401.734	431.12
401.958	439.12
402.182	431.12
402.406	436.12
402.63	456.12
402.854	436.12
403.078	455.12
403.302	447.12
403.526	438.12
403.75	457.12
403.974	419.12
404.198	442.12
404.422	453.12
404.645	459.12
404.869	487.12
405.093	508.12
405.317	535.12
405.541	587.12
405.765	522.12
405.988	512.12
406.212	489.12
406.436	522.12
406.66	530.12
406.883	514.12
407.107	529.12
407.331	568.12
407.555	631.12
407.778	650.12
408.002	564.12
408.226	531.12
408.449	518.12
408.673	522.12
408.896	553.12
409.12	585.12
409.344	536.12
409.567	485.12
409.791	457.12
410.014	435.12
410.238	441.12
410.461	464.12
410.685	464.12
410.908	488.12
411.132	523.12
411.355	568.12
411.578	520.12
411.802	443.12
412.025	456.12
412.249	475.12
412.472	484.12
412.695	537.12
412.919	536.12
413.142	481.12
413.365	468.12
413.589	463.12
413.812	443.12
414.035	428.12
414.258	430.12
414.482	427.12
414.705	418.12
414.928	436.12
415.151	407.12
415.374	411.12
415.597	418.12
415.821	415.12
416.044	447.12
416.267	426.12
416.49	442.12
416.713	446.12
416.936	428.12
417.159	402.12
417.382	444.12
417.605	442.12
417.828	454.12
418.051	454.12
418.274	444.12
418.497	421.12
418.72	430.12
418.943	444.12
419.166	452.12
419.389	456.12
419.611	451.12
419.834	462.12
420.057	453.12
420.28	444.12
420.503	464.12
420.726	485.12
420.948	471.12
421.171	527.12
421.394	566.12
421.617	488.12
421.839	460.12
422.062	469.12
422.285	472.12
422.507	547.12
422.73	619.12
422.953	594.12
423.175	516.12
423.398	485.12
423.621	475.12
423.843	520.12
424.066	516.12
424.288	500.12
424.511	524.12
424.733	581.12
424.956	663.12
425.178	655.12
425.401	623.12
425.623	665.12
425.846	560.12
426.068	498.12
426.291	491.12
426.513	516.12
426.735	539.12
426.958	588.12
427.18	644.12
427.402	786.12
427.625	869.12
427.847	788.12
428.069	690.12
428.292	580.12
428.514	531.12
428.736	517.12
428.958	480.12
429.181	482.12
429.403	466.12
429.625	475.12
429.847	535.12
430.069	604.12
430.292	578.12
430.514	499.12
430.736	476.12
430.958	460.12
431.18	442.12
431.402	433.12
431.624	436.12
431.846	429.12
432.068	415.12
432.29	434.12
432.512	430.12
432.734	424.12
432.956	444.12
433.178	472.12
433.4	463.12
433.622	448.12
433.844	430.12
434.066	438.12
434.287	426.12
434.509	446.12
434.731	441.12
434.953	461.12
435.175	457.12
435.397	471.12
435.618	502.12
435.84	562.12
436.062	674.12
436.284	735.12
436.505	623.12
436.727	567.12
436.949	504.12
437.17	491.12
437.392	480.12
437.614	503.12
437.835	543.12
438.057	640.12
438.278	770.12
438.5	772.12
438.721	833.12
438.943	774.12
439.165	616.12
439.386	551.12
439.608	542.12
439.829	541.12
440.05	565.12
440.272	636.12
440.493	607.12
440.715	532.12
440.936	482.12
441.158	467.12
441.379	472.12
441.6	498.12
441.822	511.12
442.043	574.12
442.264	626.12
442.486	680.12
442.707	590.12
442.928	549.12
443.149	548.12
443.371	577.12
443.592	628.12
443.813	720.12
444.034	748.12
444.255	608.12
444.476	522.12
444.698	520.12
444.919	491.12
445.14	605.12
445.361	554.12
445.582	567.12
445.803	652.12
446.024	767.12
446.245	799.12
446.466	701.12
446.687	599.12
446.908	516.12
447.129	505.12
447.35	488.12
447.571	519.12
447.792	476.12
448.013	491.12
448.234	524.12
448.455	588.12
448.675	696.12
448.896	815.12
449.117	661.12
449.338	630.12
449.559	749.12
449.779	854.12
450	672.12
450.221	572.12
450.442	508.12
450.662	498.12
450.883	518.12
451.104	508.12
451.324	487.12
451.545	468.12
451.766	444.12
451.986	421.12
452.207	408.12
452.428	431.12
452.648	428.12
452.869	462.12
453.089	457.12
453.31	464.12
453.53	437.12
453.751	428.12
453.971	446.12
454.192	451.12
454.412	450.12
454.633	437.12
454.853	428.12
455.073	440.12
455.294	454.12
455.514	530.12
455.734	526.12
455.955	454.12
456.175	406.12
456.395	393.12
456.616	380.12
456.836	398.12
457.056	399.12
457.276	397.12
457.497	406.12
457.717	419.12
457.937	404.12
458.157	422.12
458.377	406.12
458.598	429.12
458.818	497.12
459.038	607.12
459.258	630.12
459.478	506.12
459.698	464.12
459.918	438.12
460.138	416.12
460.358	426.12
460.578	431.12
460.798	450.12
461.018	432.12
461.238	428.12
461.458	422.12
461.678	423.12
461.898	432.12
462.118	426.12
462.338	431.12
462.558	446.12
462.777	421.12
462.997	436.12
463.217	444.12
463.437	459.12
463.657	452.12
463.876	444.12
464.096	465.12
464.316	437.12
464.536	461.12
464.755	477.12
464.975	460.12
465.195	506.12
465.414	632.12
465.634	556.12
465.854	482.12
466.073	476.12
466.293	419.12
466.512	439.12
466.732	409.12
466.951	405.12
467.171	419.12
467.391	439.12
467.61	442.12
467.829	458.12
468.049	428.12
468.268	455.12
468.488	427.12
468.707	431.12
468.927	412.12
469.146	420.12
469.365	415.12
469.585	402.12
469.804	442.12
470.023	461.12
470.243	417.12
470.462	464.12
470.681	454.12
470.901	472.12
471.12	429.12
471.339	436.12
471.558	479.12
471.777	447.12
471.997	407.12
472.216	433.12
472.435	502.12
472.654	478.12
472.873	443.12
473.092	436.12
473.311	453.12
473.53	432.12
473.749	431.12
473.968	482.12
474.187	635.12
474.406	642.12
474.625	506.12
474.844	473.12
475.063	430.12
475.282	421.12
475.501	439.12
475.72	438.12
475.939	431.12
476.158	457.12
476.377	452.12
476.596	443.12
476.814	442.12
477.033	470.12
477.252	469.12
477.471	462.12
477.69	455.12
477.908	466.12
478.127	491.12
478.346	480.12
478.564	485.12
478.783	474.12
479.002	453.12
479.22	495.12
479.439	509.12
479.658	535.12
479.876	525.12
480.095	536.12
480.313	573.12
480.532	558.12
480.751	524.12
480.969	550.12
481.188	641.12
481.406	694.12
481.624	614.12
481.843	567.12
482.061	549.12
482.28	518.12
482.498	532.12
482.717	496.12
482.935	508.12
483.153	514.12
483.372	507.12
483.59	514.12
483.808	509.12
484.027	485.12
484.245	503.12
484.463	501.12
484.681	520.12
484.9	528.12
485.118	516.12
485.336	522.12
485.554	528.12
485.772	514.12
485.99	547.12
486.209	538.12
486.427	516.12
486.645	547.12
486.863	556.12
487.081	573.12
487.299	558.12
487.517	562.12
487.735	548.12
487.953	541.12
488.171	557.12
488.389	548.12
488.607	532.12
488.825	570.12
489.043	550.12
489.261	542.12
489.479	537.12
489.696	566.12
489.914	574.12
490.132	583.12
490.35	547.12
490.568	588.12
490.786	592.12
491.003	578.12
491.221	628.12
491.439	597.12
491.657	623.12
491.874	629.12
492.092	635.12
492.31	622.12
492.527	650.12
492.745	631.12
492.963	631.12
493.18	662.12
493.398	656.12
493.615	654.12
493.833	648.12
494.05	656.12
494.268	639.12
494.485	671.12
494.703	662.12
494.92	664.12
495.138	662.12
495.355	666.12
495.573	668.12
495.79	670.12
496.008	648.12
496.225	658.12
496.442	637.12
496.66	654.12
496.877	670.12
497.094	654.12
497.312	653.12
497.529	649.12
497.746	671.12
497.963	702.12
498.181	704.12
498.398	717.12
498.615	712.12
498.832	729.12
499.049	709.12
499.267	712.12
499.484	718.12
499.701	735.12
499.918	771.12
500.135	788.12
500.352	781.12
500.569	766.12
500.786	808.12
501.003	838.12
501.22	790.12
501.437	763.12
501.654	788.12
501.871	783.12
