Data from 1972.PennyLincolnUp.Lamp.En5.5.200Scan.071719.P1._HRD10591_15-28-23-843.txt Node
Date: Thu Jul 18 15:28:23 EDT 2019
User: cochatt
Spectrometer: HR+D1059
Trigger mode: 1
Integration Time (sec): 1.000000E-1
Scans to average: 1
Electric dark correction enabled: true
Nonlinearity correction enabled: false
Boxcar width: 0
XAxis mode: Wavelengths
Number of Pixels in Spectrum: 2048
>>>>>Begin Spectral Data<<<<<
223.165	-11.19
223.4	-11.19
223.635	-11.19
223.869	-18.19
224.104	-21.19
224.338	-10.19
224.573	-19.19
224.808	-13.19
225.042	-1.19
225.277	-7.19
225.511	2.81
225.746	10.81
225.98	-18.19
226.215	-2.19
226.449	20.81
226.683	25.81
226.918	36.81
227.152	24.81
227.387	30.81
227.621	39.81
227.856	37.81
228.09	41.81
228.324	43.81
228.559	61.81
228.793	64.81
229.027	105.81
229.262	133.81
229.496	121.81
229.73	143.81
229.964	165.81
230.199	136.81
230.433	120.81
230.667	120.81
230.901	128.81
231.136	102.81
231.37	116.81
231.604	104.81
231.838	119.81
232.072	117.81
232.306	119.81
232.541	119.81
232.775	123.81
233.009	114.81
233.243	110.81
233.477	97.81
233.711	113.81
233.945	119.81
234.179	129.81
234.413	117.81
234.647	126.81
234.881	122.81
235.115	115.81
235.349	141.81
235.583	140.81
235.817	122.81
236.051	133.81
236.285	121.81
236.519	125.81
236.753	141.81
236.987	147.81
237.221	211.81
237.455	266.81
237.689	191.81
237.922	157.81
238.156	144.81
238.39	134.81
238.624	121.81
238.858	133.81
239.091	139.81
239.325	124.81
239.559	119.81
239.793	133.81
240.027	141.81
240.26	134.81
240.494	166.81
240.728	152.81
240.961	159.81
241.195	149.81
241.429	137.81
241.662	148.81
241.896	131.81
242.13	127.81
242.363	124.81
242.597	141.81
242.83	152.81
243.064	147.81
243.298	144.81
243.531	132.81
243.765	160.81
243.998	146.81
244.232	149.81
244.465	157.81
244.699	147.81
244.932	146.81
245.166	152.81
245.399	135.81
245.633	148.81
245.866	145.81
246.099	143.81
246.333	150.81
246.566	145.81
246.8	152.81
247.033	165.81
247.266	160.81
247.5	153.81
247.733	157.81
247.966	186.81
248.2	188.81
248.433	181.81
248.666	177.81
248.899	197.81
249.133	211.81
249.366	205.81
249.599	199.81
249.832	186.81
250.066	185.81
250.299	195.81
250.532	205.81
250.765	223.81
250.998	236.81
251.231	246.81
251.465	222.81
251.698	212.81
251.931	196.81
252.164	212.81
252.397	209.81
252.63	212.81
252.863	215.81
253.096	226.81
253.329	239.81
253.562	233.81
253.795	241.81
254.028	219.81
254.261	229.81
254.494	216.81
254.727	272.81
254.96	311.81
255.193	270.81
255.426	271.81
255.659	249.81
255.892	242.81
256.124	275.81
256.357	257.81
256.59	239.81
256.823	230.81
257.056	220.81
257.289	237.81
257.521	225.81
257.754	222.81
257.987	226.81
258.22	222.81
258.452	206.81
258.685	231.81
258.918	219.81
259.151	218.81
259.383	219.81
259.616	244.81
259.849	259.81
260.081	239.81
260.314	244.81
260.547	277.81
260.779	272.81
261.012	247.81
261.244	241.81
261.477	259.81
261.71	230.81
261.942	225.81
262.175	268.81
262.407	245.81
262.64	230.81
262.872	241.81
263.105	211.81
263.337	226.81
263.57	227.81
263.802	236.81
264.035	215.81
264.267	222.81
264.499	214.81
264.732	233.81
264.964	221.81
265.197	210.81
265.429	205.81
265.661	229.81
265.894	217.81
266.126	217.81
266.358	221.81
266.591	208.81
266.823	231.81
267.055	229.81
267.287	245.81
267.52	225.81
267.752	237.81
267.984	214.81
268.216	239.81
268.448	249.81
268.681	230.81
268.913	280.81
269.145	279.81
269.377	300.81
269.609	281.81
269.841	297.81
270.073	294.81
270.306	305.81
270.538	332.81
270.77	327.81
271.002	318.81
271.234	335.81
271.466	325.81
271.698	335.81
271.93	348.81
272.162	340.81
272.394	330.81
272.626	328.81
272.858	314.81
273.09	284.81
273.322	274.81
273.553	301.81
273.785	283.81
274.017	281.81
274.249	272.81
274.481	281.81
274.713	277.81
274.945	294.81
275.176	279.81
275.408	259.81
275.64	280.81
275.872	268.81
276.104	286.81
276.335	280.81
276.567	305.81
276.799	305.81
277.031	332.81
277.262	340.81
277.494	341.81
277.726	327.81
277.957	315.81
278.189	292.81
278.421	289.81
278.652	286.81
278.884	294.81
279.115	272.81
279.347	280.81
279.579	270.81
279.81	273.81
280.042	285.81
280.273	276.81
280.505	281.81
280.736	275.81
280.968	273.81
281.199	270.81
281.431	290.81
281.662	262.81
281.894	279.81
282.125	265.81
282.356	287.81
282.588	317.81
282.819	333.81
283.051	289.81
283.282	273.81
283.513	267.81
283.745	261.81
283.976	269.81
284.207	294.81
284.439	294.81
284.67	290.81
284.901	264.81
285.132	290.81
285.364	294.81
285.595	287.81
285.826	298.81
286.057	282.81
286.288	280.81
286.52	268.81
286.751	284.81
286.982	299.81
287.213	272.81
287.444	283.81
287.675	307.81
287.906	298.81
288.138	301.81
288.369	308.81
288.6	305.81
288.831	298.81
289.062	318.81
289.293	311.81
289.524	298.81
289.755	299.81
289.986	295.81
290.217	285.81
290.448	305.81
290.679	287.81
290.91	286.81
291.141	275.81
291.371	285.81
291.602	288.81
291.833	298.81
292.064	285.81
292.295	297.81
292.526	289.81
292.757	263.81
292.987	299.81
293.218	279.81
293.449	293.81
293.68	326.81
293.91	301.81
294.141	288.81
294.372	291.81
294.603	288.81
294.833	300.81
295.064	301.81
295.295	290.81
295.525	292.81
295.756	305.81
295.987	325.81
296.217	354.81
296.448	342.81
296.679	309.81
296.909	301.81
297.14	291.81
297.37	302.81
297.601	287.81
297.831	294.81
298.062	287.81
298.292	298.81
298.523	308.81
298.753	297.81
298.984	292.81
299.214	303.81
299.445	312.81
299.675	299.81
299.905	334.81
300.136	311.81
300.366	278.81
300.597	298.81
300.827	319.81
301.057	313.81
301.288	338.81
301.518	325.81
301.748	322.81
301.979	324.81
302.209	329.81
302.439	317.81
302.669	316.81
302.9	336.81
303.13	334.81
303.36	325.81
303.59	337.81
303.82	337.81
304.051	329.81
304.281	341.81
304.511	328.81
304.741	333.81
304.971	317.81
305.201	310.81
305.431	342.81
305.661	320.81
305.891	320.81
306.121	315.81
306.352	346.81
306.582	329.81
306.812	317.81
307.042	332.81
307.272	311.81
307.502	345.81
307.731	318.81
307.961	352.81
308.191	341.81
308.421	338.81
308.651	331.81
308.881	345.81
309.111	355.81
309.341	363.81
309.571	363.81
309.8	378.81
310.03	365.81
310.26	396.81
310.49	399.81
310.72	400.81
310.949	428.81
311.179	430.81
311.409	399.81
311.639	378.81
311.868	377.81
312.098	391.81
312.328	413.81
312.557	414.81
312.787	439.81
313.017	460.81
313.246	403.81
313.476	389.81
313.706	389.81
313.935	403.81
314.165	433.81
314.394	422.81
314.624	421.81
314.853	389.81
315.083	393.81
315.312	390.81
315.542	383.81
315.771	391.81
316.001	379.81
316.23	397.81
316.46	382.81
316.689	381.81
316.919	387.81
317.148	405.81
317.377	394.81
317.607	377.81
317.836	389.81
318.065	397.81
318.295	372.81
318.524	383.81
318.753	377.81
318.983	376.81
319.212	369.81
319.441	397.81
319.67	398.81
319.9	389.81
320.129	380.81
320.358	403.81
320.587	423.81
320.816	399.81
321.046	433.81
321.275	420.81
321.504	389.81
321.733	414.81
321.962	412.81
322.191	457.81
322.42	439.81
322.649	480.81
322.878	484.81
323.108	515.81
323.337	545.81
323.566	566.81
323.795	601.81
324.024	675.81
324.253	817.81
324.482	1210.81
324.71	1943.81
324.939	2871.81
325.168	2462.81
325.397	1207.81
325.626	796.81
325.855	641.81
326.084	626.81
326.313	542.81
326.542	568.81
326.77	618.81
326.999	773.81
327.228	1085.81
327.457	1689.81
327.686	2122.81
327.914	1391.81
328.143	893.81
328.372	766.81
328.6	705.81
328.829	631.81
329.058	654.81
329.287	670.81
329.515	628.81
329.744	579.81
329.972	559.81
330.201	592.81
330.43	644.81
330.658	711.81
330.887	705.81
331.115	679.81
331.344	576.81
331.572	534.81
331.801	535.81
332.03	526.81
332.258	493.81
332.486	471.81
332.715	470.81
332.943	484.81
333.172	475.81
333.4	462.81
333.629	463.81
333.857	498.81
334.085	511.81
334.314	542.81
334.542	586.81
334.771	607.81
334.999	549.81
335.227	493.81
335.455	455.81
335.684	470.81
335.912	443.81
336.14	433.81
336.369	450.81
336.597	462.81
336.825	478.81
337.053	452.81
337.281	451.81
337.51	457.81
337.738	451.81
337.966	432.81
338.194	450.81
338.422	466.81
338.65	430.81
338.878	434.81
339.106	442.81
339.334	425.81
339.562	441.81
339.79	419.81
340.018	430.81
340.246	418.81
340.474	444.81
340.702	452.81
340.93	433.81
341.158	440.81
341.386	426.81
341.614	419.81
341.842	443.81
342.07	419.81
342.298	439.81
342.526	411.81
342.754	397.81
342.981	421.81
343.209	409.81
343.437	413.81
343.665	411.81
343.893	390.81
344.12	423.81
344.348	446.81
344.576	407.81
344.804	455.81
345.031	441.81
345.259	451.81
345.487	443.81
345.714	451.81
345.942	443.81
346.17	437.81
346.397	424.81
346.625	410.81
346.853	413.81
347.08	427.81
347.308	415.81
347.535	445.81
347.763	433.81
347.99	425.81
348.218	418.81
348.445	446.81
348.673	441.81
348.9	440.81
349.128	410.81
349.355	388.81
349.583	400.81
349.81	399.81
350.037	414.81
350.265	402.81
350.492	421.81
350.72	411.81
350.947	402.81
351.174	430.81
351.402	427.81
351.629	413.81
351.856	420.81
352.083	444.81
352.311	439.81
352.538	447.81
352.765	451.81
352.992	430.81
353.22	423.81
353.447	410.81
353.674	419.81
353.901	396.81
354.128	373.81
354.355	373.81
354.583	374.81
354.81	375.81
355.037	383.81
355.264	391.81
355.491	378.81
355.718	381.81
355.945	375.81
356.172	360.81
356.399	360.81
356.626	373.81
356.853	373.81
357.08	357.81
357.307	391.81
357.534	365.81
357.761	380.81
357.988	371.81
358.215	349.81
358.441	350.81
358.668	385.81
358.895	375.81
359.122	384.81
359.349	403.81
359.576	428.81
359.802	457.81
360.029	479.81
360.256	502.81
360.483	463.81
360.709	431.81
360.936	429.81
361.163	421.81
361.39	427.81
361.616	427.81
361.843	403.81
362.07	413.81
362.296	405.81
362.523	409.81
362.749	401.81
362.976	412.81
363.203	395.81
363.429	381.81
363.656	393.81
363.882	413.81
364.109	389.81
364.335	392.81
364.562	389.81
364.788	380.81
365.015	402.81
365.241	377.81
365.468	379.81
365.694	414.81
365.92	410.81
366.147	420.81
366.373	382.81
366.599	389.81
366.826	386.81
367.052	391.81
367.278	390.81
367.505	387.81
367.731	377.81
367.957	378.81
368.184	394.81
368.41	393.81
368.636	404.81
368.862	414.81
369.089	392.81
369.315	390.81
369.541	387.81
369.767	384.81
369.993	361.81
370.219	379.81
370.445	365.81
370.672	375.81
370.898	373.81
371.124	373.81
371.35	378.81
371.576	395.81
371.802	369.81
372.028	380.81
372.254	378.81
372.48	374.81
372.706	374.81
372.932	357.81
373.158	371.81
373.384	377.81
373.61	381.81
373.835	370.81
374.061	368.81
374.287	383.81
374.513	376.81
374.739	360.81
374.965	373.81
375.191	381.81
375.416	361.81
375.642	345.81
375.868	373.81
376.094	371.81
376.319	372.81
376.545	383.81
376.771	377.81
376.997	370.81
377.222	374.81
377.448	383.81
377.674	386.81
377.899	367.81
378.125	357.81
378.35	358.81
378.576	347.81
378.802	365.81
379.027	372.81
379.253	373.81
379.478	366.81
379.704	357.81
379.929	378.81
380.155	354.81
380.38	362.81
380.606	390.81
380.831	371.81
381.057	385.81
381.282	368.81
381.507	376.81
381.733	386.81
381.958	389.81
382.184	347.81
382.409	369.81
382.634	379.81
382.86	377.81
383.085	373.81
383.31	379.81
383.535	381.81
383.761	377.81
383.986	398.81
384.211	389.81
384.436	373.81
384.662	387.81
384.887	371.81
385.112	394.81
385.337	394.81
385.562	371.81
385.787	391.81
386.013	403.81
386.238	393.81
386.463	414.81
386.688	405.81
386.913	417.81
387.138	391.81
387.363	397.81
387.588	407.81
387.813	386.81
388.038	383.81
388.263	399.81
388.488	403.81
388.713	383.81
388.938	389.81
389.163	384.81
389.387	389.81
389.612	389.81
389.837	399.81
390.062	409.81
390.287	408.81
390.512	388.81
390.736	403.81
390.961	393.81
391.186	419.81
391.411	390.81
391.636	404.81
391.86	391.81
392.085	379.81
392.31	410.81
392.534	419.81
392.759	415.81
392.984	402.81
393.208	397.81
393.433	417.81
393.658	387.81
393.882	405.81
394.107	403.81
394.331	421.81
394.556	395.81
394.78	410.81
395.005	403.81
395.229	377.81
395.454	386.81
395.678	399.81
395.903	424.81
396.127	439.81
396.352	426.81
396.576	408.81
396.801	413.81
397.025	423.81
397.249	414.81
397.474	418.81
397.698	422.81
397.922	454.81
398.147	441.81
398.371	438.81
398.595	431.81
398.82	459.81
399.044	438.81
399.268	439.81
399.492	472.81
399.717	483.81
399.941	531.81
400.165	544.81
400.389	561.81
400.613	503.81
400.837	495.81
401.062	468.81
401.286	447.81
401.51	445.81
401.734	452.81
401.958	452.81
402.182	459.81
402.406	472.81
402.63	478.81
402.854	455.81
403.078	447.81
403.302	476.81
403.526	471.81
403.75	475.81
403.974	473.81
404.198	489.81
404.422	485.81
404.645	472.81
404.869	472.81
405.093	516.81
405.317	532.81
405.541	601.81
405.765	542.81
405.988	501.81
406.212	499.81
406.436	541.81
406.66	567.81
406.883	547.81
407.107	536.81
407.331	567.81
407.555	662.81
407.778	651.81
408.002	584.81
408.226	527.81
408.449	505.81
408.673	530.81
408.896	535.81
409.12	614.81
409.344	585.81
409.567	500.81
409.791	467.81
410.014	486.81
410.238	467.81
410.461	470.81
410.685	477.81
410.908	517.81
411.132	541.81
411.355	565.81
411.578	539.81
411.802	484.81
412.025	451.81
412.249	485.81
412.472	520.81
412.695	550.81
412.919	540.81
413.142	501.81
413.365	487.81
413.589	477.81
413.812	453.81
414.035	431.81
414.258	439.81
414.482	428.81
414.705	437.81
414.928	441.81
415.151	452.81
415.374	439.81
415.597	441.81
415.821	430.81
416.044	445.81
416.267	453.81
416.49	451.81
416.713	433.81
416.936	453.81
417.159	463.81
417.382	446.81
417.605	446.81
417.828	453.81
418.051	457.81
418.274	458.81
418.497	444.81
418.72	460.81
418.943	440.81
419.166	457.81
419.389	488.81
419.611	491.81
419.834	473.81
420.057	464.81
420.28	487.81
420.503	483.81
420.726	477.81
420.948	479.81
421.171	549.81
421.394	581.81
421.617	494.81
421.839	481.81
422.062	484.81
422.285	488.81
422.507	527.81
422.73	621.81
422.953	593.81
423.175	537.81
423.398	501.81
423.621	500.81
423.843	517.81
424.066	517.81
424.288	526.81
424.511	542.81
424.733	590.81
424.956	698.81
425.178	672.81
425.401	639.81
425.623	699.81
425.846	575.81
426.068	545.81
426.291	546.81
426.513	532.81
426.735	545.81
426.958	577.81
427.18	658.81
427.402	819.81
427.625	911.81
427.847	841.81
428.069	718.81
428.292	598.81
428.514	553.81
428.736	504.81
428.958	501.81
429.181	504.81
429.403	503.81
429.625	478.81
429.847	526.81
430.069	609.81
430.292	614.81
430.514	533.81
430.736	470.81
430.958	458.81
431.18	456.81
431.402	446.81
431.624	453.81
431.846	417.81
432.068	425.81
432.29	449.81
432.512	459.81
432.734	482.81
432.956	457.81
433.178	475.81
433.4	482.81
433.622	472.81
433.844	458.81
434.066	461.81
434.287	462.81
434.509	460.81
434.731	473.81
434.953	462.81
435.175	477.81
435.397	510.81
435.618	529.81
435.84	566.81
436.062	675.81
436.284	735.81
436.505	626.81
436.727	544.81
436.949	519.81
437.17	497.81
437.392	493.81
437.614	519.81
437.835	551.81
438.057	666.81
438.278	763.81
438.5	782.81
438.721	831.81
438.943	788.81
439.165	601.81
439.386	578.81
439.608	553.81
439.829	562.81
440.05	569.81
440.272	641.81
440.493	613.81
440.715	523.81
440.936	527.81
441.158	491.81
441.379	495.81
441.6	502.81
441.822	547.81
442.043	572.81
442.264	675.81
442.486	699.81
442.707	590.81
442.928	556.81
443.149	569.81
443.371	578.81
443.592	633.81
443.813	746.81
444.034	804.81
444.255	658.81
444.476	561.81
444.698	517.81
444.919	515.81
445.14	605.81
445.361	585.81
445.582	576.81
445.803	666.81
446.024	808.81
446.245	829.81
446.466	713.81
446.687	609.81
446.908	547.81
447.129	525.81
447.35	491.81
447.571	497.81
447.792	493.81
448.013	509.81
448.234	507.81
448.455	565.81
448.675	702.81
448.896	820.81
449.117	698.81
449.338	671.81
449.559	757.81
449.779	862.81
450	683.81
450.221	580.81
450.442	525.81
450.662	534.81
450.883	505.81
451.104	549.81
451.324	515.81
451.545	470.81
451.766	459.81
451.986	454.81
452.207	445.81
452.428	438.81
452.648	434.81
452.869	422.81
453.089	461.81
453.31	465.81
453.53	457.81
453.751	445.81
453.971	453.81
454.192	483.81
454.412	473.81
454.633	433.81
454.853	434.81
455.073	445.81
455.294	459.81
455.514	553.81
455.734	542.81
455.955	446.81
456.175	415.81
456.395	410.81
456.616	416.81
456.836	406.81
457.056	397.81
457.276	397.81
457.497	397.81
457.717	401.81
457.937	399.81
458.157	403.81
458.377	436.81
458.598	447.81
458.818	539.81
459.038	635.81
459.258	658.81
459.478	545.81
459.698	463.81
459.918	434.81
460.138	431.81
460.358	443.81
460.578	446.81
460.798	438.81
461.018	452.81
461.238	419.81
461.458	425.81
461.678	414.81
461.898	420.81
462.118	431.81
462.338	446.81
462.558	435.81
462.777	457.81
462.997	441.81
463.217	467.81
463.437	459.81
463.657	461.81
463.876	458.81
464.096	479.81
464.316	450.81
464.536	460.81
464.755	468.81
464.975	488.81
465.195	552.81
465.414	663.81
465.634	565.81
465.854	489.81
466.073	477.81
466.293	459.81
466.512	438.81
466.732	449.81
466.951	442.81
467.171	453.81
467.391	439.81
467.61	451.81
467.829	462.81
468.049	472.81
468.268	469.81
468.488	432.81
468.707	426.81
468.927	439.81
469.146	413.81
469.365	433.81
469.585	423.81
469.804	441.81
470.023	444.81
470.243	443.81
470.462	461.81
470.681	469.81
470.901	473.81
471.12	464.81
471.339	456.81
471.558	450.81
471.777	449.81
471.997	443.81
472.216	473.81
472.435	526.81
472.654	513.81
472.873	447.81
473.092	451.81
473.311	446.81
473.53	440.81
473.749	445.81
473.968	508.81
474.187	619.81
474.406	669.81
474.625	523.81
474.844	474.81
475.063	442.81
475.282	443.81
475.501	454.81
475.72	465.81
475.939	455.81
476.158	446.81
476.377	462.81
476.596	483.81
476.814	486.81
477.033	477.81
477.252	469.81
477.471	492.81
477.69	475.81
477.908	465.81
478.127	484.81
478.346	485.81
478.564	481.81
478.783	499.81
479.002	479.81
479.22	488.81
479.439	529.81
479.658	533.81
479.876	538.81
480.095	537.81
480.313	573.81
480.532	554.81
480.751	556.81
480.969	553.81
481.188	661.81
481.406	740.81
481.624	607.81
481.843	573.81
482.061	546.81
482.28	537.81
482.498	518.81
482.717	542.81
482.935	504.81
483.153	531.81
483.372	536.81
483.59	515.81
483.808	529.81
484.027	515.81
484.245	522.81
484.463	519.81
484.681	528.81
484.9	541.81
485.118	543.81
485.336	542.81
485.554	552.81
485.772	541.81
485.99	550.81
486.209	547.81
486.427	547.81
486.645	576.81
486.863	577.81
487.081	571.81
487.299	567.81
487.517	576.81
487.735	562.81
487.953	554.81
488.171	561.81
488.389	583.81
488.607	570.81
488.825	557.81
489.043	558.81
489.261	585.81
489.479	567.81
489.696	568.81
489.914	580.81
490.132	605.81
490.35	577.81
490.568	616.81
490.786	622.81
491.003	610.81
491.221	629.81
491.439	638.81
491.657	617.81
491.874	637.81
492.092	666.81
492.31	661.81
492.527	648.81
492.745	673.81
492.963	673.81
493.18	656.81
493.398	692.81
493.615	694.81
493.833	672.81
494.05	659.81
494.268	661.81
494.485	662.81
494.703	674.81
494.92	654.81
495.138	670.81
495.355	672.81
495.573	675.81
495.79	680.81
496.008	669.81
496.225	665.81
496.442	665.81
496.66	690.81
496.877	649.81
497.094	696.81
497.312	674.81
497.529	691.81
497.746	691.81
497.963	684.81
498.181	712.81
498.398	738.81
498.615	718.81
498.832	757.81
499.049	739.81
499.267	751.81
499.484	747.81
499.701	790.81
499.918	801.81
500.135	825.81
500.352	840.81
500.569	854.81
500.786	868.81
501.003	840.81
501.22	869.81
501.437	829.81
501.654	824.81
501.871	813.81
