Data from 1972.PennyLincolnUp.Lamp.En5.5.200Scan.071719.P1._HRD10591_15-27-44-844.txt Node
Date: Thu Jul 18 15:27:44 EDT 2019
User: cochatt
Spectrometer: HR+D1059
Trigger mode: 1
Integration Time (sec): 1.000000E-1
Scans to average: 1
Electric dark correction enabled: true
Nonlinearity correction enabled: false
Boxcar width: 0
XAxis mode: Wavelengths
Number of Pixels in Spectrum: 2048
>>>>>Begin Spectral Data<<<<<
223.165	-21.88
223.4	-21.88
223.635	-21.88
223.869	-24.88
224.104	-27.88
224.338	-12.88
224.573	-8.88
224.808	-7.88
225.042	-5.88
225.277	-7.88
225.511	-2.88
225.746	3.12
225.98	19.12
226.215	-5.88
226.449	10.12
226.683	36.12
226.918	25.12
227.152	33.12
227.387	29.12
227.621	43.12
227.856	41.12
228.09	49.12
228.324	46.12
228.559	56.12
228.793	68.12
229.027	103.12
229.262	96.12
229.496	112.12
229.73	132.12
229.964	150.12
230.199	131.12
230.433	127.12
230.667	123.12
230.901	124.12
231.136	122.12
231.37	117.12
231.604	114.12
231.838	125.12
232.072	104.12
232.306	122.12
232.541	117.12
232.775	108.12
233.009	122.12
233.243	120.12
233.477	105.12
233.711	112.12
233.945	119.12
234.179	122.12
234.413	122.12
234.647	128.12
234.881	125.12
235.115	110.12
235.349	125.12
235.583	122.12
235.817	129.12
236.051	141.12
236.285	123.12
236.519	145.12
236.753	120.12
236.987	147.12
237.221	198.12
237.455	248.12
237.689	201.12
237.922	160.12
238.156	146.12
238.39	145.12
238.624	140.12
238.858	136.12
239.091	128.12
239.325	139.12
239.559	130.12
239.793	123.12
240.027	133.12
240.26	145.12
240.494	157.12
240.728	141.12
240.961	145.12
241.195	143.12
241.429	139.12
241.662	138.12
241.896	152.12
242.13	140.12
242.363	138.12
242.597	135.12
242.83	138.12
243.064	145.12
243.298	136.12
243.531	136.12
243.765	137.12
243.998	141.12
244.232	132.12
244.465	149.12
244.699	142.12
244.932	135.12
245.166	143.12
245.399	153.12
245.633	147.12
245.866	156.12
246.099	152.12
246.333	154.12
246.566	161.12
246.8	146.12
247.033	153.12
247.266	150.12
247.5	160.12
247.733	154.12
247.966	176.12
248.2	180.12
248.433	172.12
248.666	171.12
248.899	190.12
249.133	185.12
249.366	208.12
249.599	196.12
249.832	190.12
250.066	182.12
250.299	194.12
250.532	206.12
250.765	212.12
250.998	217.12
251.231	213.12
251.465	230.12
251.698	206.12
251.931	207.12
252.164	200.12
252.397	216.12
252.63	212.12
252.863	214.12
253.096	229.12
253.329	228.12
253.562	242.12
253.795	231.12
254.028	216.12
254.261	221.12
254.494	229.12
254.727	250.12
254.96	276.12
255.193	276.12
255.426	256.12
255.659	240.12
255.892	234.12
256.124	222.12
256.357	228.12
256.59	247.12
256.823	231.12
257.056	216.12
257.289	205.12
257.521	225.12
257.754	210.12
257.987	208.12
258.22	212.12
258.452	229.12
258.685	209.12
258.918	214.12
259.151	214.12
259.383	229.12
259.616	214.12
259.849	224.12
260.081	238.12
260.314	253.12
260.547	276.12
260.779	254.12
261.012	231.12
261.244	232.12
261.477	220.12
261.71	228.12
261.942	246.12
262.175	249.12
262.407	228.12
262.64	216.12
262.872	214.12
263.105	225.12
263.337	202.12
263.57	215.12
263.802	213.12
264.035	203.12
264.267	191.12
264.499	205.12
264.732	211.12
264.964	221.12
265.197	210.12
265.429	206.12
265.661	195.12
265.894	209.12
266.126	209.12
266.358	208.12
266.591	222.12
266.823	206.12
267.055	220.12
267.287	224.12
267.52	218.12
267.752	229.12
267.984	237.12
268.216	216.12
268.448	225.12
268.681	233.12
268.913	241.12
269.145	267.12
269.377	272.12
269.609	286.12
269.841	267.12
270.073	256.12
270.306	299.12
270.538	318.12
270.77	318.12
271.002	299.12
271.234	302.12
271.466	300.12
271.698	314.12
271.93	309.12
272.162	313.12
272.394	308.12
272.626	318.12
272.858	273.12
273.09	269.12
273.322	288.12
273.553	273.12
273.785	265.12
274.017	261.12
274.249	262.12
274.481	266.12
274.713	258.12
274.945	255.12
275.176	263.12
275.408	252.12
275.64	260.12
275.872	262.12
276.104	264.12
276.335	273.12
276.567	285.12
276.799	278.12
277.031	294.12
277.262	305.12
277.494	335.12
277.726	303.12
277.957	298.12
278.189	289.12
278.421	279.12
278.652	274.12
278.884	244.12
279.115	248.12
279.347	276.12
279.579	261.12
279.81	254.12
280.042	257.12
280.273	263.12
280.505	271.12
280.736	257.12
280.968	272.12
281.199	257.12
281.431	256.12
281.662	241.12
281.894	272.12
282.125	251.12
282.356	275.12
282.588	295.12
282.819	303.12
283.051	265.12
283.282	252.12
283.513	265.12
283.745	263.12
283.976	284.12
284.207	277.12
284.439	262.12
284.67	258.12
284.901	259.12
285.132	281.12
285.364	264.12
285.595	262.12
285.826	273.12
286.057	260.12
286.288	244.12
286.52	267.12
286.751	255.12
286.982	259.12
287.213	268.12
287.444	273.12
287.675	274.12
287.906	293.12
288.138	290.12
288.369	286.12
288.6	281.12
288.831	270.12
289.062	262.12
289.293	259.12
289.524	277.12
289.755	264.12
289.986	285.12
290.217	264.12
290.448	297.12
290.679	261.12
290.91	269.12
291.141	286.12
291.371	268.12
291.602	268.12
291.833	264.12
292.064	250.12
292.295	263.12
292.526	247.12
292.757	281.12
292.987	268.12
293.218	278.12
293.449	274.12
293.68	282.12
293.91	270.12
294.141	274.12
294.372	274.12
294.603	278.12
294.833	282.12
295.064	290.12
295.295	280.12
295.525	290.12
295.756	275.12
295.987	295.12
296.217	318.12
296.448	319.12
296.679	289.12
296.909	271.12
297.14	271.12
297.37	287.12
297.601	273.12
297.831	287.12
298.062	284.12
298.292	278.12
298.523	282.12
298.753	302.12
298.984	292.12
299.214	293.12
299.445	304.12
299.675	277.12
299.905	302.12
300.136	303.12
300.366	298.12
300.597	283.12
300.827	290.12
301.057	315.12
301.288	309.12
301.518	286.12
301.748	316.12
301.979	301.12
302.209	295.12
302.439	304.12
302.669	323.12
302.9	303.12
303.13	295.12
303.36	305.12
303.59	296.12
303.82	314.12
304.051	288.12
304.281	304.12
304.511	305.12
304.741	306.12
304.971	313.12
305.201	313.12
305.431	301.12
305.661	312.12
305.891	304.12
306.121	306.12
306.352	324.12
306.582	302.12
306.812	319.12
307.042	326.12
307.272	326.12
307.502	319.12
307.731	319.12
307.961	320.12
308.191	298.12
308.421	316.12
308.651	323.12
308.881	298.12
309.111	316.12
309.341	324.12
309.571	329.12
309.8	348.12
310.03	334.12
310.26	366.12
310.49	357.12
310.72	365.12
310.949	400.12
311.179	398.12
311.409	377.12
311.639	343.12
311.868	352.12
312.098	358.12
312.328	354.12
312.557	405.12
312.787	412.12
313.017	410.12
313.246	381.12
313.476	377.12
313.706	382.12
313.935	373.12
314.165	373.12
314.394	391.12
314.624	387.12
314.853	381.12
315.083	382.12
315.312	387.12
315.542	361.12
315.771	359.12
316.001	349.12
316.23	351.12
316.46	357.12
316.689	365.12
316.919	366.12
317.148	369.12
317.377	382.12
317.607	377.12
317.836	367.12
318.065	356.12
318.295	354.12
318.524	350.12
318.753	363.12
318.983	366.12
319.212	368.12
319.441	374.12
319.67	376.12
319.9	369.12
320.129	382.12
320.358	369.12
320.587	342.12
320.816	377.12
321.046	369.12
321.275	367.12
321.504	382.12
321.733	378.12
321.962	378.12
322.191	415.12
322.42	437.12
322.649	449.12
322.878	454.12
323.108	456.12
323.337	486.12
323.566	521.12
323.795	568.12
324.024	642.12
324.253	733.12
324.482	1067.12
324.71	1652.12
324.939	2499.12
325.168	2180.12
325.397	1084.12
325.626	727.12
325.855	582.12
326.084	524.12
326.313	516.12
326.542	536.12
326.77	571.12
326.999	696.12
327.228	954.12
327.457	1491.12
327.686	1822.12
327.914	1234.12
328.143	784.12
328.372	686.12
328.6	642.12
328.829	614.12
329.058	609.12
329.287	602.12
329.515	585.12
329.744	524.12
329.972	500.12
330.201	518.12
330.43	592.12
330.658	620.12
330.887	632.12
331.115	602.12
331.344	522.12
331.572	494.12
331.801	486.12
332.03	477.12
332.258	454.12
332.486	433.12
332.715	415.12
332.943	427.12
333.172	443.12
333.4	447.12
333.629	428.12
333.857	448.12
334.085	461.12
334.314	481.12
334.542	529.12
334.771	554.12
334.999	484.12
335.227	460.12
335.455	432.12
335.684	414.12
335.912	430.12
336.14	406.12
336.369	437.12
336.597	429.12
336.825	419.12
337.053	400.12
337.281	396.12
337.51	407.12
337.738	402.12
337.966	414.12
338.194	420.12
338.422	394.12
338.65	407.12
338.878	397.12
339.106	400.12
339.334	398.12
339.562	399.12
339.79	394.12
340.018	386.12
340.246	408.12
340.474	410.12
340.702	402.12
340.93	388.12
341.158	386.12
341.386	391.12
341.614	396.12
341.842	410.12
342.07	376.12
342.298	392.12
342.526	388.12
342.754	359.12
342.981	362.12
343.209	366.12
343.437	386.12
343.665	382.12
343.893	408.12
344.12	388.12
344.348	393.12
344.576	391.12
344.804	400.12
345.031	413.12
345.259	413.12
345.487	413.12
345.714	414.12
345.942	385.12
346.17	396.12
346.397	397.12
346.625	388.12
346.853	392.12
347.08	390.12
347.308	396.12
347.535	384.12
347.763	414.12
347.99	415.12
348.218	409.12
348.445	413.12
348.673	405.12
348.9	387.12
349.128	371.12
349.355	375.12
349.583	371.12
349.81	394.12
350.037	366.12
350.265	379.12
350.492	376.12
350.72	391.12
350.947	390.12
351.174	406.12
351.402	407.12
351.629	394.12
351.856	403.12
352.083	390.12
352.311	422.12
352.538	407.12
352.765	412.12
352.992	392.12
353.22	411.12
353.447	395.12
353.674	376.12
353.901	359.12
354.128	378.12
354.355	375.12
354.583	358.12
354.81	356.12
355.037	373.12
355.264	352.12
355.491	362.12
355.718	352.12
355.945	366.12
356.172	341.12
356.399	352.12
356.626	354.12
356.853	372.12
357.08	344.12
357.307	356.12
357.534	368.12
357.761	348.12
357.988	367.12
358.215	356.12
358.441	350.12
358.668	343.12
358.895	366.12
359.122	369.12
359.349	374.12
359.576	384.12
359.802	403.12
360.029	426.12
360.256	480.12
360.483	424.12
360.709	400.12
360.936	393.12
361.163	385.12
361.39	386.12
361.616	377.12
361.843	378.12
362.07	375.12
362.296	360.12
362.523	377.12
362.749	392.12
362.976	373.12
363.203	369.12
363.429	383.12
363.656	370.12
363.882	339.12
364.109	373.12
364.335	376.12
364.562	378.12
364.788	356.12
365.015	364.12
365.241	370.12
365.468	380.12
365.694	359.12
365.92	377.12
366.147	361.12
366.373	365.12
366.599	361.12
366.826	370.12
367.052	357.12
367.278	375.12
367.505	349.12
367.731	350.12
367.957	361.12
368.184	372.12
368.41	381.12
368.636	380.12
368.862	386.12
369.089	373.12
369.315	344.12
369.541	357.12
369.767	338.12
369.993	367.12
370.219	348.12
370.445	345.12
370.672	366.12
370.898	348.12
371.124	361.12
371.35	363.12
371.576	348.12
371.802	368.12
372.028	352.12
372.254	358.12
372.48	364.12
372.706	347.12
372.932	349.12
373.158	365.12
373.384	348.12
373.61	343.12
373.835	365.12
374.061	351.12
374.287	348.12
374.513	362.12
374.739	344.12
374.965	372.12
375.191	357.12
375.416	359.12
375.642	368.12
375.868	354.12
376.094	357.12
376.319	335.12
376.545	358.12
376.771	350.12
376.997	352.12
377.222	335.12
377.448	357.12
377.674	353.12
377.899	361.12
378.125	346.12
378.35	347.12
378.576	369.12
378.802	337.12
379.027	349.12
379.253	328.12
379.478	357.12
379.704	361.12
379.929	349.12
380.155	345.12
380.38	350.12
380.606	343.12
380.831	353.12
381.057	376.12
381.282	328.12
381.507	355.12
381.733	350.12
381.958	361.12
382.184	366.12
382.409	349.12
382.634	375.12
382.86	366.12
383.085	356.12
383.31	352.12
383.535	357.12
383.761	364.12
383.986	360.12
384.211	362.12
384.436	353.12
384.662	367.12
384.887	358.12
385.112	358.12
385.337	366.12
385.562	378.12
385.787	366.12
386.013	374.12
386.238	385.12
386.463	377.12
386.688	389.12
386.913	366.12
387.138	380.12
387.363	384.12
387.588	365.12
387.813	369.12
388.038	364.12
388.263	372.12
388.488	358.12
388.713	365.12
388.938	374.12
389.163	386.12
389.387	391.12
389.612	375.12
389.837	379.12
390.062	372.12
390.287	366.12
390.512	372.12
390.736	356.12
390.961	369.12
391.186	360.12
391.411	369.12
391.636	379.12
391.86	369.12
392.085	372.12
392.31	365.12
392.534	376.12
392.759	368.12
392.984	369.12
393.208	369.12
393.433	389.12
393.658	396.12
393.882	389.12
394.107	360.12
394.331	383.12
394.556	368.12
394.78	369.12
395.005	369.12
395.229	366.12
395.454	401.12
395.678	382.12
395.903	398.12
396.127	420.12
396.352	440.12
396.576	381.12
396.801	379.12
397.025	421.12
397.249	399.12
397.474	393.12
397.698	403.12
397.922	399.12
398.147	423.12
398.371	408.12
398.595	429.12
398.82	403.12
399.044	419.12
399.268	432.12
399.492	441.12
399.717	453.12
399.941	484.12
400.165	525.12
400.389	562.12
400.613	477.12
400.837	443.12
401.062	431.12
401.286	414.12
401.51	423.12
401.734	443.12
401.958	414.12
402.182	426.12
402.406	435.12
402.63	423.12
402.854	452.12
403.078	438.12
403.302	461.12
403.526	466.12
403.75	436.12
403.974	435.12
404.198	427.12
404.422	438.12
404.645	451.12
404.869	459.12
405.093	477.12
405.317	521.12
405.541	544.12
405.765	506.12
405.988	484.12
406.212	487.12
406.436	484.12
406.66	511.12
406.883	490.12
407.107	504.12
407.331	545.12
407.555	601.12
407.778	586.12
408.002	520.12
408.226	487.12
408.449	489.12
408.673	508.12
408.896	534.12
409.12	556.12
409.344	497.12
409.567	458.12
409.791	441.12
410.014	434.12
410.238	424.12
410.461	434.12
410.685	444.12
410.908	446.12
411.132	510.12
411.355	543.12
411.578	502.12
411.802	454.12
412.025	439.12
412.249	450.12
412.472	472.12
412.695	524.12
412.919	507.12
413.142	453.12
413.365	431.12
413.589	427.12
413.812	428.12
414.035	430.12
414.258	436.12
414.482	408.12
414.705	409.12
414.928	401.12
415.151	414.12
415.374	398.12
415.597	413.12
415.821	430.12
416.044	413.12
416.267	417.12
416.49	409.12
416.713	401.12
416.936	397.12
417.159	423.12
417.382	417.12
417.605	424.12
417.828	425.12
418.051	448.12
418.274	452.12
418.497	445.12
418.72	412.12
418.943	407.12
419.166	437.12
419.389	448.12
419.611	439.12
419.834	441.12
420.057	437.12
420.28	449.12
420.503	429.12
420.726	445.12
420.948	466.12
421.171	501.12
421.394	527.12
421.617	475.12
421.839	438.12
422.062	454.12
422.285	472.12
422.507	516.12
422.73	594.12
422.953	555.12
423.175	482.12
423.398	485.12
423.621	461.12
423.843	508.12
424.066	492.12
424.288	466.12
424.511	509.12
424.733	542.12
424.956	629.12
425.178	608.12
425.401	625.12
425.623	631.12
425.846	550.12
426.068	476.12
426.291	477.12
426.513	510.12
426.735	513.12
426.958	557.12
427.18	623.12
427.402	740.12
427.625	823.12
427.847	744.12
428.069	652.12
428.292	549.12
428.514	493.12
428.736	487.12
428.958	465.12
429.181	452.12
429.403	450.12
429.625	466.12
429.847	496.12
430.069	566.12
430.292	568.12
430.514	489.12
430.736	456.12
430.958	436.12
431.18	446.12
431.402	423.12
431.624	436.12
431.846	419.12
432.068	389.12
432.29	409.12
432.512	420.12
432.734	436.12
432.956	424.12
433.178	442.12
433.4	441.12
433.622	428.12
433.844	426.12
434.066	402.12
434.287	412.12
434.509	412.12
434.731	445.12
434.953	430.12
435.175	454.12
435.397	481.12
435.618	491.12
435.84	528.12
436.062	623.12
436.284	705.12
436.505	560.12
436.727	536.12
436.949	472.12
437.17	442.12
437.392	442.12
437.614	480.12
437.835	507.12
438.057	628.12
438.278	708.12
438.5	716.12
438.721	781.12
438.943	733.12
439.165	588.12
439.386	524.12
439.608	520.12
439.829	499.12
440.05	538.12
440.272	581.12
440.493	554.12
440.715	505.12
440.936	472.12
441.158	469.12
441.379	454.12
441.6	472.12
441.822	461.12
442.043	535.12
442.264	600.12
442.486	673.12
442.707	552.12
442.928	495.12
443.149	510.12
443.371	541.12
443.592	581.12
443.813	652.12
444.034	723.12
444.255	577.12
444.476	513.12
444.698	486.12
444.919	481.12
445.14	610.12
445.361	552.12
445.582	556.12
445.803	612.12
446.024	713.12
446.245	714.12
446.466	665.12
446.687	558.12
446.908	507.12
447.129	470.12
447.35	458.12
447.571	479.12
447.792	453.12
448.013	468.12
448.234	493.12
448.455	538.12
448.675	638.12
448.896	737.12
449.117	642.12
449.338	609.12
449.559	714.12
449.779	808.12
450	630.12
450.221	516.12
450.442	478.12
450.662	483.12
450.883	484.12
451.104	478.12
451.324	470.12
451.545	438.12
451.766	446.12
451.986	419.12
452.207	403.12
452.428	409.12
452.648	414.12
452.869	418.12
453.089	413.12
453.31	432.12
453.53	417.12
453.751	417.12
453.971	415.12
454.192	433.12
454.412	421.12
454.633	424.12
454.853	406.12
455.073	397.12
455.294	442.12
455.514	512.12
455.734	487.12
455.955	418.12
456.175	390.12
456.395	390.12
456.616	390.12
456.836	384.12
457.056	410.12
457.276	374.12
457.497	375.12
457.717	396.12
457.937	376.12
458.157	368.12
458.377	401.12
458.598	449.12
458.818	481.12
459.038	584.12
459.258	589.12
459.478	488.12
459.698	444.12
459.918	432.12
460.138	414.12
460.358	416.12
460.578	421.12
460.798	447.12
461.018	432.12
461.238	418.12
461.458	398.12
461.678	403.12
461.898	413.12
462.118	420.12
462.338	433.12
462.558	398.12
462.777	425.12
462.997	402.12
463.217	417.12
463.437	439.12
463.657	436.12
463.876	445.12
464.096	444.12
464.316	437.12
464.536	456.12
464.755	451.12
464.975	450.12
465.195	513.12
465.414	575.12
465.634	525.12
465.854	459.12
466.073	432.12
466.293	424.12
466.512	418.12
466.732	401.12
466.951	416.12
467.171	414.12
467.391	414.12
467.61	439.12
467.829	431.12
468.049	440.12
468.268	406.12
468.488	420.12
468.707	401.12
468.927	405.12
469.146	426.12
469.365	419.12
469.585	385.12
469.804	410.12
470.023	421.12
470.243	414.12
470.462	407.12
470.681	417.12
470.901	418.12
471.12	420.12
471.339	416.12
471.558	430.12
471.777	422.12
471.997	405.12
472.216	426.12
472.435	475.12
472.654	459.12
472.873	429.12
473.092	414.12
473.311	417.12
473.53	420.12
473.749	422.12
473.968	464.12
474.187	600.12
474.406	609.12
474.625	498.12
474.844	464.12
475.063	450.12
475.282	421.12
475.501	441.12
475.72	433.12
475.939	439.12
476.158	427.12
476.377	413.12
476.596	419.12
476.814	438.12
477.033	457.12
477.252	445.12
477.471	420.12
477.69	437.12
477.908	450.12
478.127	439.12
478.346	449.12
478.564	454.12
478.783	462.12
479.002	469.12
479.22	478.12
479.439	494.12
479.658	496.12
479.876	529.12
480.095	479.12
480.313	542.12
480.532	502.12
480.751	511.12
480.969	516.12
481.188	598.12
481.406	664.12
481.624	552.12
481.843	510.12
482.061	521.12
482.28	492.12
482.498	500.12
482.717	476.12
482.935	514.12
483.153	493.12
483.372	507.12
483.59	494.12
483.808	518.12
484.027	485.12
484.245	494.12
484.463	487.12
484.681	518.12
484.9	506.12
485.118	496.12
485.336	491.12
485.554	493.12
485.772	514.12
485.99	492.12
486.209	504.12
486.427	502.12
486.645	540.12
486.863	553.12
487.081	548.12
487.299	553.12
487.517	521.12
487.735	527.12
487.953	530.12
488.171	541.12
488.389	542.12
488.607	541.12
488.825	518.12
489.043	535.12
489.261	552.12
489.479	516.12
489.696	548.12
489.914	587.12
490.132	549.12
490.35	565.12
490.568	550.12
490.786	571.12
491.003	548.12
491.221	577.12
491.439	560.12
491.657	587.12
491.874	591.12
492.092	600.12
492.31	612.12
492.527	588.12
492.745	602.12
492.963	606.12
493.18	615.12
493.398	609.12
493.615	600.12
493.833	631.12
494.05	604.12
494.268	644.12
494.485	588.12
494.703	620.12
494.92	626.12
495.138	605.12
495.355	603.12
495.573	639.12
495.79	625.12
496.008	625.12
496.225	634.12
496.442	630.12
496.66	613.12
496.877	622.12
497.094	630.12
497.312	629.12
497.529	634.12
497.746	642.12
497.963	632.12
498.181	680.12
498.398	671.12
498.615	696.12
498.832	689.12
499.049	670.12
499.267	697.12
499.484	703.12
499.701	728.12
499.918	726.12
500.135	770.12
500.352	773.12
500.569	790.12
500.786	795.12
501.003	772.12
501.22	770.12
501.437	744.12
501.654	732.12
501.871	749.12
