Data from 1972.PennyLincolnUp.Lamp.En5.5.200Scan.071719.P1._HRD10591_15-29-00-844.txt Node
Date: Thu Jul 18 15:29:00 EDT 2019
User: cochatt
Spectrometer: HR+D1059
Trigger mode: 1
Integration Time (sec): 1.000000E-1
Scans to average: 1
Electric dark correction enabled: true
Nonlinearity correction enabled: false
Boxcar width: 0
XAxis mode: Wavelengths
Number of Pixels in Spectrum: 2048
>>>>>Begin Spectral Data<<<<<
223.165	-13.44
223.4	-13.44
223.635	-13.44
223.869	-16.44
224.104	-14.44
224.338	-18.44
224.573	-9.44
224.808	-15.44
225.042	2.56
225.277	-11.44
225.511	-5.44
225.746	5.56
225.98	-6.44
226.215	8.56
226.449	24.56
226.683	7.56
226.918	27.56
227.152	34.56
227.387	34.56
227.621	37.56
227.856	41.56
228.09	44.56
228.324	46.56
228.559	61.56
228.793	62.56
229.027	101.56
229.262	114.56
229.496	123.56
229.73	131.56
229.964	169.56
230.199	141.56
230.433	118.56
230.667	118.56
230.901	112.56
231.136	106.56
231.37	124.56
231.604	114.56
231.838	94.56
232.072	105.56
232.306	115.56
232.541	112.56
232.775	124.56
233.009	107.56
233.243	106.56
233.477	118.56
233.711	117.56
233.945	123.56
234.179	110.56
234.413	135.56
234.647	130.56
234.881	114.56
235.115	112.56
235.349	115.56
235.583	127.56
235.817	126.56
236.051	127.56
236.285	127.56
236.519	136.56
236.753	131.56
236.987	156.56
237.221	192.56
237.455	250.56
237.689	192.56
237.922	145.56
238.156	143.56
238.39	141.56
238.624	124.56
238.858	124.56
239.091	115.56
239.325	128.56
239.559	137.56
239.793	131.56
240.027	139.56
240.26	139.56
240.494	182.56
240.728	166.56
240.961	162.56
241.195	156.56
241.429	151.56
241.662	129.56
241.896	141.56
242.13	150.56
242.363	157.56
242.597	134.56
242.83	118.56
243.064	132.56
243.298	141.56
243.531	143.56
243.765	146.56
243.998	140.56
244.232	142.56
244.465	160.56
244.699	135.56
244.932	144.56
245.166	145.56
245.399	140.56
245.633	160.56
245.866	148.56
246.099	158.56
246.333	147.56
246.566	158.56
246.8	154.56
247.033	141.56
247.266	165.56
247.5	164.56
247.733	184.56
247.966	177.56
248.2	181.56
248.433	178.56
248.666	184.56
248.899	204.56
249.133	212.56
249.366	212.56
249.599	199.56
249.832	178.56
250.066	180.56
250.299	184.56
250.532	203.56
250.765	226.56
250.998	252.56
251.231	229.56
251.465	230.56
251.698	210.56
251.931	215.56
252.164	214.56
252.397	212.56
252.63	210.56
252.863	223.56
253.096	214.56
253.329	241.56
253.562	244.56
253.795	235.56
254.028	235.56
254.261	232.56
254.494	254.56
254.727	247.56
254.96	306.56
255.193	277.56
255.426	279.56
255.659	225.56
255.892	242.56
256.124	250.56
256.357	242.56
256.59	244.56
256.823	234.56
257.056	225.56
257.289	232.56
257.521	221.56
257.754	229.56
257.987	236.56
258.22	221.56
258.452	229.56
258.685	222.56
258.918	223.56
259.151	221.56
259.383	231.56
259.616	227.56
259.849	234.56
260.081	255.56
260.314	274.56
260.547	275.56
260.779	264.56
261.012	243.56
261.244	215.56
261.477	248.56
261.71	236.56
261.942	216.56
262.175	261.56
262.407	259.56
262.64	242.56
262.872	227.56
263.105	221.56
263.337	218.56
263.57	218.56
263.802	214.56
264.035	212.56
264.267	206.56
264.499	224.56
264.732	221.56
264.964	228.56
265.197	228.56
265.429	222.56
265.661	201.56
265.894	220.56
266.126	216.56
266.358	210.56
266.591	214.56
266.823	221.56
267.055	223.56
267.287	243.56
267.52	228.56
267.752	229.56
267.984	225.56
268.216	218.56
268.448	251.56
268.681	261.56
268.913	250.56
269.145	275.56
269.377	283.56
269.609	284.56
269.841	275.56
270.073	298.56
270.306	317.56
270.538	323.56
270.77	333.56
271.002	316.56
271.234	326.56
271.466	314.56
271.698	323.56
271.93	340.56
272.162	346.56
272.394	329.56
272.626	324.56
272.858	318.56
273.09	299.56
273.322	295.56
273.553	281.56
273.785	290.56
274.017	284.56
274.249	289.56
274.481	279.56
274.713	274.56
274.945	253.56
275.176	279.56
275.408	265.56
275.64	276.56
275.872	270.56
276.104	286.56
276.335	262.56
276.567	283.56
276.799	317.56
277.031	336.56
277.262	332.56
277.494	348.56
277.726	326.56
277.957	305.56
278.189	310.56
278.421	295.56
278.652	298.56
278.884	270.56
279.115	264.56
279.347	286.56
279.579	259.56
279.81	271.56
280.042	263.56
280.273	291.56
280.505	285.56
280.736	302.56
280.968	290.56
281.199	261.56
281.431	250.56
281.662	270.56
281.894	290.56
282.125	266.56
282.356	309.56
282.588	322.56
282.819	331.56
283.051	280.56
283.282	262.56
283.513	272.56
283.745	271.56
283.976	293.56
284.207	280.56
284.439	302.56
284.67	280.56
284.901	282.56
285.132	278.56
285.364	287.56
285.595	284.56
285.826	287.56
286.057	280.56
286.288	272.56
286.52	286.56
286.751	280.56
286.982	299.56
287.213	279.56
287.444	271.56
287.675	283.56
287.906	295.56
288.138	295.56
288.369	310.56
288.6	325.56
288.831	298.56
289.062	308.56
289.293	302.56
289.524	278.56
289.755	287.56
289.986	283.56
290.217	271.56
290.448	282.56
290.679	282.56
290.91	289.56
291.141	292.56
291.371	287.56
291.602	276.56
291.833	302.56
292.064	282.56
292.295	273.56
292.526	299.56
292.757	280.56
292.987	273.56
293.218	288.56
293.449	283.56
293.68	290.56
293.91	301.56
294.141	294.56
294.372	292.56
294.603	279.56
294.833	296.56
295.064	281.56
295.295	284.56
295.525	275.56
295.756	309.56
295.987	314.56
296.217	338.56
296.448	353.56
296.679	310.56
296.909	296.56
297.14	297.56
297.37	292.56
297.601	317.56
297.831	304.56
298.062	286.56
298.292	279.56
298.523	311.56
298.753	286.56
298.984	310.56
299.214	314.56
299.445	309.56
299.675	292.56
299.905	311.56
300.136	313.56
300.366	288.56
300.597	320.56
300.827	316.56
301.057	310.56
301.288	314.56
301.518	323.56
301.748	314.56
301.979	314.56
302.209	321.56
302.439	318.56
302.669	324.56
302.9	331.56
303.13	324.56
303.36	339.56
303.59	333.56
303.82	349.56
304.051	334.56
304.281	346.56
304.511	336.56
304.741	309.56
304.971	327.56
305.201	316.56
305.431	341.56
305.661	319.56
305.891	349.56
306.121	343.56
306.352	337.56
306.582	327.56
306.812	327.56
307.042	324.56
307.272	337.56
307.502	326.56
307.731	340.56
307.961	335.56
308.191	338.56
308.421	328.56
308.651	325.56
308.881	339.56
309.111	351.56
309.341	352.56
309.571	392.56
309.8	346.56
310.03	360.56
310.26	399.56
310.49	380.56
310.72	410.56
310.949	420.56
311.179	439.56
311.409	408.56
311.639	400.56
311.868	386.56
312.098	397.56
312.328	404.56
312.557	447.56
312.787	439.56
313.017	444.56
313.246	399.56
313.476	389.56
313.706	384.56
313.935	410.56
314.165	388.56
314.394	424.56
314.624	415.56
314.853	396.56
315.083	404.56
315.312	400.56
315.542	370.56
315.771	375.56
316.001	354.56
316.23	361.56
316.46	375.56
316.689	388.56
316.919	383.56
317.148	401.56
317.377	420.56
317.607	406.56
317.836	391.56
318.065	383.56
318.295	379.56
318.524	395.56
318.753	384.56
318.983	394.56
319.212	379.56
319.441	382.56
319.67	401.56
319.9	394.56
320.129	381.56
320.358	389.56
320.587	390.56
320.816	405.56
321.046	409.56
321.275	425.56
321.504	415.56
321.733	412.56
321.962	425.56
322.191	440.56
322.42	460.56
322.649	491.56
322.878	493.56
323.108	526.56
323.337	557.56
323.566	589.56
323.795	604.56
324.024	674.56
324.253	838.56
324.482	1238.56
324.71	1976.56
324.939	2902.56
325.168	2508.56
325.397	1297.56
325.626	805.56
325.855	660.56
326.084	582.56
326.313	575.56
326.542	586.56
326.77	642.56
326.999	788.56
327.228	1111.56
327.457	1739.56
327.686	2170.56
327.914	1434.56
328.143	899.56
328.372	765.56
328.6	714.56
328.829	684.56
329.058	668.56
329.287	702.56
329.515	640.56
329.744	591.56
329.972	588.56
330.201	612.56
330.43	682.56
330.658	696.56
330.887	724.56
331.115	716.56
331.344	592.56
331.572	530.56
331.801	532.56
332.03	535.56
332.258	517.56
332.486	483.56
332.715	456.56
332.943	459.56
333.172	446.56
333.4	471.56
333.629	470.56
333.857	484.56
334.085	481.56
334.314	538.56
334.542	580.56
334.771	613.56
334.999	542.56
335.227	528.56
335.455	451.56
335.684	477.56
335.912	463.56
336.14	438.56
336.369	463.56
336.597	470.56
336.825	455.56
337.053	442.56
337.281	440.56
337.51	420.56
337.738	436.56
337.966	426.56
338.194	446.56
338.422	455.56
338.65	443.56
338.878	433.56
339.106	413.56
339.334	419.56
339.562	426.56
339.79	435.56
340.018	439.56
340.246	421.56
340.474	447.56
340.702	429.56
340.93	414.56
341.158	447.56
341.386	419.56
341.614	433.56
341.842	432.56
342.07	426.56
342.298	424.56
342.526	404.56
342.754	404.56
342.981	411.56
343.209	382.56
343.437	384.56
343.665	414.56
343.893	416.56
344.12	385.56
344.348	415.56
344.576	442.56
344.804	444.56
345.031	423.56
345.259	455.56
345.487	441.56
345.714	419.56
345.942	428.56
346.17	415.56
346.397	419.56
346.625	415.56
346.853	410.56
347.08	415.56
347.308	428.56
347.535	420.56
347.763	436.56
347.99	426.56
348.218	438.56
348.445	432.56
348.673	439.56
348.9	427.56
349.128	422.56
349.355	407.56
349.583	395.56
349.81	398.56
350.037	399.56
350.265	391.56
350.492	400.56
350.72	420.56
350.947	419.56
351.174	434.56
351.402	424.56
351.629	430.56
351.856	426.56
352.083	441.56
352.311	453.56
352.538	456.56
352.765	443.56
352.992	427.56
353.22	433.56
353.447	423.56
353.674	406.56
353.901	392.56
354.128	398.56
354.355	371.56
354.583	367.56
354.81	366.56
355.037	386.56
355.264	385.56
355.491	382.56
355.718	377.56
355.945	366.56
356.172	375.56
356.399	358.56
356.626	364.56
356.853	379.56
357.08	345.56
357.307	373.56
357.534	369.56
357.761	359.56
357.988	387.56
358.215	358.56
358.441	378.56
358.668	386.56
358.895	382.56
359.122	388.56
359.349	402.56
359.576	423.56
359.802	450.56
360.029	483.56
360.256	498.56
360.483	476.56
360.709	424.56
360.936	418.56
361.163	390.56
361.39	421.56
361.616	447.56
361.843	413.56
362.07	416.56
362.296	421.56
362.523	402.56
362.749	398.56
362.976	421.56
363.203	411.56
363.429	375.56
363.656	386.56
363.882	404.56
364.109	373.56
364.335	373.56
364.562	382.56
364.788	399.56
365.015	392.56
365.241	413.56
365.468	420.56
365.694	390.56
365.92	408.56
366.147	387.56
366.373	384.56
366.599	384.56
366.826	372.56
367.052	357.56
367.278	360.56
367.505	385.56
367.731	383.56
367.957	392.56
368.184	380.56
368.41	383.56
368.636	405.56
368.862	408.56
369.089	407.56
369.315	374.56
369.541	384.56
369.767	394.56
369.993	395.56
370.219	383.56
370.445	373.56
370.672	363.56
370.898	367.56
371.124	376.56
371.35	377.56
371.576	383.56
371.802	371.56
372.028	363.56
372.254	376.56
372.48	354.56
372.706	376.56
372.932	364.56
373.158	373.56
373.384	364.56
373.61	372.56
373.835	390.56
374.061	391.56
374.287	373.56
374.513	380.56
374.739	395.56
374.965	355.56
375.191	376.56
375.416	378.56
375.642	378.56
375.868	359.56
376.094	371.56
376.319	360.56
376.545	360.56
376.771	375.56
376.997	359.56
377.222	360.56
377.448	357.56
377.674	392.56
377.899	358.56
378.125	367.56
378.35	359.56
378.576	343.56
378.802	358.56
379.027	358.56
379.253	363.56
379.478	358.56
379.704	363.56
379.929	356.56
380.155	375.56
380.38	374.56
380.606	375.56
380.831	376.56
381.057	359.56
381.282	368.56
381.507	359.56
381.733	397.56
381.958	372.56
382.184	364.56
382.409	374.56
382.634	368.56
382.86	375.56
383.085	354.56
383.31	364.56
383.535	347.56
383.761	375.56
383.986	390.56
384.211	370.56
384.436	355.56
384.662	390.56
384.887	395.56
385.112	372.56
385.337	390.56
385.562	385.56
385.787	388.56
386.013	419.56
386.238	401.56
386.463	406.56
386.688	392.56
386.913	401.56
387.138	391.56
387.363	380.56
387.588	388.56
387.813	383.56
388.038	399.56
388.263	384.56
388.488	373.56
388.713	400.56
388.938	368.56
389.163	405.56
389.387	406.56
389.612	386.56
389.837	392.56
390.062	406.56
390.287	354.56
390.512	384.56
390.736	388.56
390.961	373.56
391.186	372.56
391.411	390.56
391.636	387.56
391.86	390.56
392.085	377.56
392.31	381.56
392.534	400.56
392.759	394.56
392.984	389.56
393.208	385.56
393.433	406.56
393.658	380.56
393.882	393.56
394.107	384.56
394.331	389.56
394.556	392.56
394.78	401.56
395.005	388.56
395.229	391.56
395.454	391.56
395.678	404.56
395.903	401.56
396.127	439.56
396.352	443.56
396.576	399.56
396.801	392.56
397.025	405.56
397.249	408.56
397.474	410.56
397.698	429.56
397.922	437.56
398.147	440.56
398.371	456.56
398.595	457.56
398.82	448.56
399.044	446.56
399.268	434.56
399.492	458.56
399.717	461.56
399.941	500.56
400.165	516.56
400.389	543.56
400.613	512.56
400.837	475.56
401.062	465.56
401.286	440.56
401.51	468.56
401.734	437.56
401.958	450.56
402.182	439.56
402.406	456.56
402.63	451.56
402.854	452.56
403.078	450.56
403.302	458.56
403.526	473.56
403.75	482.56
403.974	460.56
404.198	436.56
404.422	467.56
404.645	473.56
404.869	476.56
405.093	491.56
405.317	564.56
405.541	581.56
405.765	530.56
405.988	519.56
406.212	530.56
406.436	532.56
406.66	538.56
406.883	509.56
407.107	528.56
407.331	564.56
407.555	645.56
407.778	645.56
408.002	588.56
408.226	528.56
408.449	523.56
408.673	512.56
408.896	543.56
409.12	602.56
409.344	544.56
409.567	496.56
409.791	486.56
410.014	456.56
410.238	475.56
410.461	448.56
410.685	483.56
410.908	486.56
411.132	526.56
411.355	571.56
411.578	520.56
411.802	488.56
412.025	475.56
412.249	488.56
412.472	500.56
412.695	540.56
412.919	541.56
413.142	486.56
413.365	469.56
413.589	474.56
413.812	461.56
414.035	437.56
414.258	440.56
414.482	436.56
414.705	440.56
414.928	453.56
415.151	431.56
415.374	445.56
415.597	454.56
415.821	442.56
416.044	407.56
416.267	456.56
416.49	456.56
416.713	462.56
416.936	429.56
417.159	414.56
417.382	450.56
417.605	438.56
417.828	451.56
418.051	447.56
418.274	458.56
418.497	443.56
418.72	446.56
418.943	442.56
419.166	464.56
419.389	451.56
419.611	473.56
419.834	490.56
420.057	473.56
420.28	469.56
420.503	481.56
420.726	479.56
420.948	470.56
421.171	544.56
421.394	547.56
421.617	518.56
421.839	482.56
422.062	466.56
422.285	481.56
422.507	554.56
422.73	642.56
422.953	608.56
423.175	538.56
423.398	492.56
423.621	475.56
423.843	505.56
424.066	510.56
424.288	511.56
424.511	528.56
424.733	599.56
424.956	668.56
425.178	654.56
425.401	664.56
425.623	676.56
425.846	571.56
426.068	532.56
426.291	531.56
426.513	504.56
426.735	539.56
426.958	576.56
427.18	709.56
427.402	808.56
427.625	915.56
427.847	824.56
428.069	702.56
428.292	614.56
428.514	539.56
428.736	525.56
428.958	500.56
429.181	500.56
429.403	470.56
429.625	505.56
429.847	540.56
430.069	648.56
430.292	599.56
430.514	514.56
430.736	495.56
430.958	464.56
431.18	455.56
431.402	458.56
431.624	438.56
431.846	444.56
432.068	431.56
432.29	439.56
432.512	449.56
432.734	475.56
432.956	468.56
433.178	467.56
433.4	468.56
433.622	448.56
433.844	452.56
434.066	426.56
434.287	426.56
434.509	461.56
434.731	444.56
434.953	461.56
435.175	470.56
435.397	519.56
435.618	540.56
435.84	572.56
436.062	675.56
436.284	738.56
436.505	610.56
436.727	564.56
436.949	520.56
437.17	512.56
437.392	488.56
437.614	516.56
437.835	555.56
438.057	661.56
438.278	767.56
438.5	768.56
438.721	847.56
438.943	802.56
439.165	632.56
439.386	572.56
439.608	566.56
439.829	555.56
440.05	592.56
440.272	671.56
440.493	600.56
440.715	527.56
440.936	525.56
441.158	484.56
441.379	483.56
441.6	491.56
441.822	523.56
442.043	580.56
442.264	676.56
442.486	711.56
442.707	597.56
442.928	553.56
443.149	559.56
443.371	564.56
443.592	620.56
443.813	706.56
444.034	762.56
444.255	653.56
444.476	547.56
444.698	532.56
444.919	512.56
445.14	620.56
445.361	587.56
445.582	588.56
445.803	649.56
446.024	806.56
446.245	797.56
446.466	720.56
446.687	606.56
446.908	547.56
447.129	507.56
447.35	479.56
447.571	504.56
447.792	493.56
448.013	480.56
448.234	527.56
448.455	574.56
448.675	704.56
448.896	825.56
449.117	696.56
449.338	638.56
449.559	784.56
449.779	865.56
450	708.56
450.221	564.56
450.442	520.56
450.662	488.56
450.883	515.56
451.104	562.56
451.324	522.56
451.545	489.56
451.766	448.56
451.986	451.56
452.207	426.56
452.428	414.56
452.648	458.56
452.869	454.56
453.089	464.56
453.31	468.56
453.53	444.56
453.751	464.56
453.971	434.56
454.192	456.56
454.412	444.56
454.633	436.56
454.853	438.56
455.073	413.56
455.294	476.56
455.514	540.56
455.734	538.56
455.955	437.56
456.175	424.56
456.395	419.56
456.616	428.56
456.836	393.56
457.056	396.56
457.276	391.56
457.497	421.56
457.717	402.56
457.937	405.56
458.157	398.56
458.377	429.56
458.598	442.56
458.818	522.56
459.038	622.56
459.258	646.56
459.478	504.56
459.698	460.56
459.918	443.56
460.138	429.56
460.358	455.56
460.578	427.56
460.798	447.56
461.018	438.56
461.238	429.56
461.458	441.56
461.678	422.56
461.898	448.56
462.118	450.56
462.338	426.56
462.558	461.56
462.777	439.56
462.997	448.56
463.217	447.56
463.437	444.56
463.657	460.56
463.876	463.56
464.096	479.56
464.316	460.56
464.536	462.56
464.755	453.56
464.975	487.56
465.195	544.56
465.414	645.56
465.634	540.56
465.854	477.56
466.073	471.56
466.293	458.56
466.512	440.56
466.732	430.56
466.951	425.56
467.171	428.56
467.391	433.56
467.61	442.56
467.829	456.56
468.049	464.56
468.268	442.56
468.488	431.56
468.707	431.56
468.927	437.56
469.146	428.56
469.365	416.56
469.585	406.56
469.804	444.56
470.023	452.56
470.243	456.56
470.462	454.56
470.681	480.56
470.901	467.56
471.12	451.56
471.339	461.56
471.558	442.56
471.777	458.56
471.997	419.56
472.216	442.56
472.435	514.56
472.654	498.56
472.873	461.56
473.092	426.56
473.311	436.56
473.53	445.56
473.749	470.56
473.968	498.56
474.187	617.56
474.406	647.56
474.625	525.56
474.844	464.56
475.063	460.56
475.282	467.56
475.501	446.56
475.72	470.56
475.939	453.56
476.158	440.56
476.377	448.56
476.596	448.56
476.814	478.56
477.033	483.56
477.252	479.56
477.471	468.56
477.69	463.56
477.908	470.56
478.127	458.56
478.346	476.56
478.564	480.56
478.783	486.56
479.002	495.56
479.22	500.56
479.439	536.56
479.658	547.56
479.876	553.56
480.095	550.56
480.313	570.56
480.532	567.56
480.751	542.56
480.969	568.56
481.188	646.56
481.406	702.56
481.624	601.56
481.843	566.56
482.061	535.56
482.28	527.56
482.498	503.56
482.717	533.56
482.935	516.56
483.153	526.56
483.372	520.56
483.59	518.56
483.808	526.56
484.027	521.56
484.245	515.56
484.463	542.56
484.681	551.56
484.9	538.56
485.118	520.56
485.336	518.56
485.554	541.56
485.772	534.56
485.99	567.56
486.209	549.56
486.427	560.56
486.645	558.56
486.863	597.56
487.081	580.56
487.299	555.56
487.517	570.56
487.735	554.56
487.953	550.56
488.171	558.56
488.389	550.56
488.607	544.56
488.825	562.56
489.043	560.56
489.261	549.56
489.479	557.56
489.696	552.56
489.914	571.56
490.132	580.56
490.35	566.56
490.568	583.56
490.786	571.56
491.003	598.56
491.221	604.56
491.439	609.56
491.657	648.56
491.874	648.56
492.092	656.56
492.31	644.56
492.527	679.56
492.745	663.56
492.963	650.56
493.18	654.56
493.398	665.56
493.615	688.56
493.833	667.56
494.05	662.56
494.268	672.56
494.485	669.56
494.703	699.56
494.92	666.56
495.138	665.56
495.355	683.56
495.573	696.56
495.79	664.56
496.008	666.56
496.225	667.56
496.442	659.56
496.66	684.56
496.877	662.56
497.094	672.56
497.312	668.56
497.529	708.56
497.746	706.56
497.963	686.56
498.181	708.56
498.398	719.56
498.615	718.56
498.832	720.56
499.049	724.56
499.267	727.56
499.484	730.56
499.701	772.56
499.918	774.56
500.135	789.56
500.352	822.56
500.569	830.56
500.786	846.56
501.003	837.56
501.22	821.56
501.437	820.56
501.654	786.56
501.871	820.56
