Data from 1972.PennyLincolnUp.Lamp.En5.5.200Scan.071719.P1._HRD10591_15-29-16-844.txt Node
Date: Thu Jul 18 15:29:16 EDT 2019
User: cochatt
Spectrometer: HR+D1059
Trigger mode: 1
Integration Time (sec): 1.000000E-1
Scans to average: 1
Electric dark correction enabled: true
Nonlinearity correction enabled: false
Boxcar width: 0
XAxis mode: Wavelengths
Number of Pixels in Spectrum: 2048
>>>>>Begin Spectral Data<<<<<
223.165	-13.5
223.4	-13.5
223.635	-13.5
223.869	-11.5
224.104	-17.5
224.338	-19.5
224.573	-15.5
224.808	-11.5
225.042	-12.5
225.277	-11.5
225.511	14.5
225.746	13.5
225.98	20.5
226.215	15.5
226.449	0.5
226.683	14.5
226.918	6.5
227.152	27.5
227.387	36.5
227.621	41.5
227.856	28.5
228.09	43.5
228.324	46.5
228.559	67.5
228.793	69.5
229.027	96.5
229.262	100.5
229.496	130.5
229.73	132.5
229.964	186.5
230.199	134.5
230.433	126.5
230.667	116.5
230.901	122.5
231.136	117.5
231.37	107.5
231.604	112.5
231.838	104.5
232.072	116.5
232.306	113.5
232.541	107.5
232.775	116.5
233.009	102.5
233.243	102.5
233.477	107.5
233.711	108.5
233.945	108.5
234.179	104.5
234.413	124.5
234.647	107.5
234.881	120.5
235.115	134.5
235.349	116.5
235.583	133.5
235.817	108.5
236.051	136.5
236.285	146.5
236.519	142.5
236.753	133.5
236.987	150.5
237.221	198.5
237.455	248.5
237.689	200.5
237.922	146.5
238.156	141.5
238.39	139.5
238.624	117.5
238.858	131.5
239.091	110.5
239.325	133.5
239.559	126.5
239.793	143.5
240.027	140.5
240.26	159.5
240.494	174.5
240.728	173.5
240.961	167.5
241.195	153.5
241.429	170.5
241.662	145.5
241.896	138.5
242.13	126.5
242.363	132.5
242.597	136.5
242.83	140.5
243.064	161.5
243.298	141.5
243.531	154.5
243.765	154.5
243.998	135.5
244.232	135.5
244.465	139.5
244.699	139.5
244.932	147.5
245.166	134.5
245.399	146.5
245.633	153.5
245.866	155.5
246.099	130.5
246.333	137.5
246.566	148.5
246.8	175.5
247.033	150.5
247.266	150.5
247.5	169.5
247.733	171.5
247.966	170.5
248.2	173.5
248.433	179.5
248.666	185.5
248.899	204.5
249.133	208.5
249.366	229.5
249.599	195.5
249.832	187.5
250.066	196.5
250.299	182.5
250.532	209.5
250.765	226.5
250.998	245.5
251.231	242.5
251.465	228.5
251.698	222.5
251.931	226.5
252.164	193.5
252.397	202.5
252.63	206.5
252.863	212.5
253.096	246.5
253.329	232.5
253.562	227.5
253.795	231.5
254.028	214.5
254.261	237.5
254.494	230.5
254.727	277.5
254.96	306.5
255.193	298.5
255.426	281.5
255.659	241.5
255.892	257.5
256.124	249.5
256.357	254.5
256.59	250.5
256.823	235.5
257.056	220.5
257.289	220.5
257.521	234.5
257.754	218.5
257.987	220.5
258.22	218.5
258.452	232.5
258.685	210.5
258.918	200.5
259.151	223.5
259.383	220.5
259.616	214.5
259.849	236.5
260.081	252.5
260.314	275.5
260.547	287.5
260.779	261.5
261.012	263.5
261.244	235.5
261.477	251.5
261.71	256.5
261.942	246.5
262.175	264.5
262.407	253.5
262.64	233.5
262.872	220.5
263.105	221.5
263.337	235.5
263.57	231.5
263.802	228.5
264.035	217.5
264.267	218.5
264.499	212.5
264.732	217.5
264.964	211.5
265.197	221.5
265.429	222.5
265.661	215.5
265.894	222.5
266.126	228.5
266.358	226.5
266.591	220.5
266.823	231.5
267.055	236.5
267.287	243.5
267.52	235.5
267.752	240.5
267.984	228.5
268.216	228.5
268.448	239.5
268.681	250.5
268.913	254.5
269.145	269.5
269.377	288.5
269.609	288.5
269.841	290.5
270.073	281.5
270.306	299.5
270.538	326.5
270.77	331.5
271.002	312.5
271.234	301.5
271.466	326.5
271.698	323.5
271.93	321.5
272.162	345.5
272.394	338.5
272.626	307.5
272.858	315.5
273.09	301.5
273.322	290.5
273.553	263.5
273.785	282.5
274.017	285.5
274.249	288.5
274.481	274.5
274.713	281.5
274.945	284.5
275.176	289.5
275.408	272.5
275.64	278.5
275.872	281.5
276.104	276.5
276.335	273.5
276.567	276.5
276.799	295.5
277.031	312.5
277.262	346.5
277.494	364.5
277.726	316.5
277.957	312.5
278.189	285.5
278.421	279.5
278.652	295.5
278.884	279.5
279.115	295.5
279.347	279.5
279.579	290.5
279.81	268.5
280.042	274.5
280.273	296.5
280.505	284.5
280.736	277.5
280.968	270.5
281.199	255.5
281.431	261.5
281.662	275.5
281.894	281.5
282.125	283.5
282.356	293.5
282.588	311.5
282.819	321.5
283.051	282.5
283.282	281.5
283.513	276.5
283.745	273.5
283.976	282.5
284.207	304.5
284.439	267.5
284.67	299.5
284.901	295.5
285.132	286.5
285.364	272.5
285.595	282.5
285.826	277.5
286.057	286.5
286.288	310.5
286.52	283.5
286.751	264.5
286.982	270.5
287.213	284.5
287.444	279.5
287.675	284.5
287.906	308.5
288.138	297.5
288.369	327.5
288.6	305.5
288.831	308.5
289.062	292.5
289.293	298.5
289.524	296.5
289.755	292.5
289.986	282.5
290.217	276.5
290.448	284.5
290.679	280.5
290.91	285.5
291.141	279.5
291.371	280.5
291.602	277.5
291.833	293.5
292.064	298.5
292.295	293.5
292.526	285.5
292.757	306.5
292.987	280.5
293.218	272.5
293.449	288.5
293.68	284.5
293.91	305.5
294.141	291.5
294.372	284.5
294.603	285.5
294.833	306.5
295.064	297.5
295.295	292.5
295.525	309.5
295.756	293.5
295.987	302.5
296.217	352.5
296.448	343.5
296.679	307.5
296.909	303.5
297.14	290.5
297.37	302.5
297.601	317.5
297.831	313.5
298.062	304.5
298.292	299.5
298.523	301.5
298.753	301.5
298.984	290.5
299.214	308.5
299.445	305.5
299.675	308.5
299.905	295.5
300.136	326.5
300.366	308.5
300.597	320.5
300.827	331.5
301.057	330.5
301.288	332.5
301.518	335.5
301.748	329.5
301.979	324.5
302.209	318.5
302.439	323.5
302.669	328.5
302.9	337.5
303.13	327.5
303.36	331.5
303.59	332.5
303.82	333.5
304.051	357.5
304.281	322.5
304.511	314.5
304.741	316.5
304.971	308.5
305.201	317.5
305.431	336.5
305.661	324.5
305.891	315.5
306.121	323.5
306.352	341.5
306.582	324.5
306.812	335.5
307.042	340.5
307.272	340.5
307.502	353.5
307.731	345.5
307.961	314.5
308.191	332.5
308.421	325.5
308.651	341.5
308.881	343.5
309.111	349.5
309.341	321.5
309.571	357.5
309.8	369.5
310.03	374.5
310.26	373.5
310.49	410.5
310.72	412.5
310.949	430.5
311.179	411.5
311.409	398.5
311.639	401.5
311.868	381.5
312.098	397.5
312.328	403.5
312.557	434.5
312.787	445.5
313.017	429.5
313.246	389.5
313.476	382.5
313.706	396.5
313.935	404.5
314.165	403.5
314.394	401.5
314.624	407.5
314.853	420.5
315.083	390.5
315.312	416.5
315.542	360.5
315.771	383.5
316.001	382.5
316.23	381.5
316.46	378.5
316.689	387.5
316.919	400.5
317.148	412.5
317.377	388.5
317.607	390.5
317.836	381.5
318.065	393.5
318.295	382.5
318.524	390.5
318.753	379.5
318.983	384.5
319.212	382.5
319.441	389.5
319.67	395.5
319.9	403.5
320.129	392.5
320.358	394.5
320.587	413.5
320.816	383.5
321.046	417.5
321.275	411.5
321.504	419.5
321.733	436.5
321.962	425.5
322.191	429.5
322.42	461.5
322.649	466.5
322.878	499.5
323.108	516.5
323.337	551.5
323.566	563.5
323.795	598.5
324.024	693.5
324.253	842.5
324.482	1228.5
324.71	1962.5
324.939	2894.5
325.168	2536.5
325.397	1238.5
325.626	806.5
325.855	653.5
326.084	608.5
326.313	574.5
326.542	564.5
326.77	649.5
326.999	741.5
327.228	1106.5
327.457	1746.5
327.686	2128.5
327.914	1420.5
328.143	893.5
328.372	753.5
328.6	704.5
328.829	676.5
329.058	669.5
329.287	692.5
329.515	628.5
329.744	600.5
329.972	606.5
330.201	605.5
330.43	641.5
330.658	681.5
330.887	729.5
331.115	682.5
331.344	580.5
331.572	530.5
331.801	537.5
332.03	539.5
332.258	483.5
332.486	467.5
332.715	482.5
332.943	478.5
333.172	474.5
333.4	468.5
333.629	477.5
333.857	492.5
334.085	514.5
334.314	545.5
334.542	589.5
334.771	618.5
334.999	539.5
335.227	493.5
335.455	467.5
335.684	461.5
335.912	440.5
336.14	437.5
336.369	452.5
336.597	448.5
336.825	452.5
337.053	449.5
337.281	425.5
337.51	436.5
337.738	434.5
337.966	428.5
338.194	454.5
338.422	434.5
338.65	427.5
338.878	427.5
339.106	418.5
339.334	402.5
339.562	437.5
339.79	412.5
340.018	436.5
340.246	444.5
340.474	440.5
340.702	426.5
340.93	444.5
341.158	440.5
341.386	428.5
341.614	414.5
341.842	437.5
342.07	410.5
342.298	413.5
342.526	412.5
342.754	416.5
342.981	403.5
343.209	402.5
343.437	410.5
343.665	413.5
343.893	418.5
344.12	409.5
344.348	425.5
344.576	429.5
344.804	418.5
345.031	428.5
345.259	458.5
345.487	456.5
345.714	450.5
345.942	428.5
346.17	420.5
346.397	417.5
346.625	430.5
346.853	406.5
347.08	424.5
347.308	447.5
347.535	431.5
347.763	442.5
347.99	431.5
348.218	448.5
348.445	438.5
348.673	449.5
348.9	419.5
349.128	407.5
349.355	398.5
349.583	397.5
349.81	407.5
350.037	390.5
350.265	388.5
350.492	409.5
350.72	378.5
350.947	394.5
351.174	426.5
351.402	442.5
351.629	445.5
351.856	434.5
352.083	410.5
352.311	456.5
352.538	444.5
352.765	440.5
352.992	444.5
353.22	430.5
353.447	419.5
353.674	406.5
353.901	396.5
354.128	392.5
354.355	382.5
354.583	390.5
354.81	374.5
355.037	389.5
355.264	376.5
355.491	382.5
355.718	375.5
355.945	370.5
356.172	355.5
356.399	374.5
356.626	378.5
356.853	359.5
357.08	370.5
357.307	370.5
357.534	373.5
357.761	379.5
357.988	377.5
358.215	369.5
358.441	376.5
358.668	386.5
358.895	380.5
359.122	403.5
359.349	391.5
359.576	410.5
359.802	442.5
360.029	473.5
360.256	487.5
360.483	467.5
360.709	418.5
360.936	428.5
361.163	408.5
361.39	426.5
361.616	443.5
361.843	398.5
362.07	397.5
362.296	385.5
362.523	402.5
362.749	392.5
362.976	414.5
363.203	437.5
363.429	396.5
363.656	390.5
363.882	364.5
364.109	381.5
364.335	377.5
364.562	383.5
364.788	385.5
365.015	397.5
365.241	386.5
365.468	364.5
365.694	404.5
365.92	412.5
366.147	390.5
366.373	396.5
366.599	385.5
366.826	370.5
367.052	379.5
367.278	398.5
367.505	387.5
367.731	396.5
367.957	377.5
368.184	394.5
368.41	370.5
368.636	403.5
368.862	412.5
369.089	407.5
369.315	372.5
369.541	398.5
369.767	359.5
369.993	368.5
370.219	376.5
370.445	370.5
370.672	382.5
370.898	366.5
371.124	370.5
371.35	371.5
371.576	367.5
371.802	367.5
372.028	371.5
372.254	374.5
372.48	366.5
372.706	346.5
372.932	370.5
373.158	380.5
373.384	379.5
373.61	380.5
373.835	373.5
374.061	366.5
374.287	374.5
374.513	382.5
374.739	381.5
374.965	370.5
375.191	368.5
375.416	380.5
375.642	350.5
375.868	358.5
376.094	382.5
376.319	364.5
376.545	376.5
376.771	355.5
376.997	365.5
377.222	354.5
377.448	363.5
377.674	369.5
377.899	367.5
378.125	370.5
378.35	358.5
378.576	353.5
378.802	361.5
379.027	364.5
379.253	360.5
379.478	370.5
379.704	376.5
379.929	371.5
380.155	365.5
380.38	382.5
380.606	350.5
380.831	369.5
381.057	380.5
381.282	368.5
381.507	380.5
381.733	369.5
381.958	364.5
382.184	370.5
382.409	374.5
382.634	366.5
382.86	380.5
383.085	364.5
383.31	395.5
383.535	384.5
383.761	389.5
383.986	379.5
384.211	362.5
384.436	378.5
384.662	391.5
384.887	402.5
385.112	388.5
385.337	386.5
385.562	390.5
385.787	405.5
386.013	390.5
386.238	402.5
386.463	390.5
386.688	374.5
386.913	376.5
387.138	375.5
387.363	382.5
387.588	390.5
387.813	395.5
388.038	385.5
388.263	378.5
388.488	390.5
388.713	386.5
388.938	392.5
389.163	394.5
389.387	416.5
389.612	395.5
389.837	395.5
390.062	389.5
390.287	385.5
390.512	380.5
390.736	374.5
390.961	397.5
391.186	390.5
391.411	375.5
391.636	396.5
391.86	392.5
392.085	380.5
392.31	405.5
392.534	399.5
392.759	399.5
392.984	397.5
393.208	385.5
393.433	393.5
393.658	404.5
393.882	392.5
394.107	398.5
394.331	407.5
394.556	383.5
394.78	388.5
395.005	395.5
395.229	391.5
395.454	399.5
395.678	439.5
395.903	414.5
396.127	450.5
396.352	433.5
396.576	416.5
396.801	397.5
397.025	411.5
397.249	385.5
397.474	398.5
397.698	416.5
397.922	449.5
398.147	453.5
398.371	446.5
398.595	410.5
398.82	435.5
399.044	425.5
399.268	462.5
399.492	459.5
399.717	513.5
399.941	525.5
400.165	536.5
400.389	550.5
400.613	516.5
400.837	481.5
401.062	437.5
401.286	452.5
401.51	460.5
401.734	444.5
401.958	449.5
402.182	453.5
402.406	469.5
402.63	453.5
402.854	472.5
403.078	466.5
403.302	453.5
403.526	481.5
403.75	475.5
403.974	456.5
404.198	450.5
404.422	456.5
404.645	465.5
404.869	477.5
405.093	504.5
405.317	577.5
405.541	594.5
405.765	528.5
405.988	485.5
406.212	498.5
406.436	541.5
406.66	538.5
406.883	519.5
407.107	525.5
407.331	599.5
407.555	634.5
407.778	643.5
408.002	556.5
408.226	553.5
408.449	531.5
408.673	512.5
408.896	540.5
409.12	587.5
409.344	545.5
409.567	514.5
409.791	475.5
410.014	488.5
410.238	480.5
410.461	487.5
410.685	472.5
410.908	491.5
411.132	529.5
411.355	570.5
411.578	551.5
411.802	476.5
412.025	453.5
412.249	508.5
412.472	513.5
412.695	549.5
412.919	534.5
413.142	483.5
413.365	467.5
413.589	453.5
413.812	451.5
414.035	430.5
414.258	434.5
414.482	425.5
414.705	435.5
414.928	427.5
415.151	423.5
415.374	421.5
415.597	434.5
415.821	427.5
416.044	464.5
416.267	434.5
416.49	452.5
416.713	429.5
416.936	436.5
417.159	445.5
417.382	465.5
417.605	437.5
417.828	469.5
418.051	488.5
418.274	452.5
418.497	458.5
418.72	439.5
418.943	434.5
419.166	443.5
419.389	497.5
419.611	461.5
419.834	456.5
420.057	443.5
420.28	474.5
420.503	482.5
420.726	457.5
420.948	491.5
421.171	544.5
421.394	560.5
421.617	514.5
421.839	476.5
422.062	462.5
422.285	486.5
422.507	522.5
422.73	645.5
422.953	616.5
423.175	541.5
423.398	500.5
423.621	482.5
423.843	533.5
424.066	507.5
424.288	509.5
424.511	539.5
424.733	604.5
424.956	685.5
425.178	654.5
425.401	654.5
425.623	682.5
425.846	572.5
426.068	541.5
426.291	527.5
426.513	522.5
426.735	534.5
426.958	569.5
427.18	693.5
427.402	795.5
427.625	932.5
427.847	810.5
428.069	664.5
428.292	607.5
428.514	515.5
428.736	513.5
428.958	518.5
429.181	477.5
429.403	484.5
429.625	498.5
429.847	536.5
430.069	609.5
430.292	598.5
430.514	497.5
430.736	499.5
430.958	488.5
431.18	455.5
431.402	427.5
431.624	434.5
431.846	426.5
432.068	451.5
432.29	421.5
432.512	450.5
432.734	454.5
432.956	463.5
433.178	482.5
433.4	476.5
433.622	452.5
433.844	449.5
434.066	462.5
434.287	440.5
434.509	456.5
434.731	448.5
434.953	466.5
435.175	491.5
435.397	491.5
435.618	527.5
435.84	574.5
436.062	668.5
436.284	769.5
436.505	626.5
436.727	565.5
436.949	524.5
437.17	502.5
437.392	476.5
437.614	488.5
437.835	533.5
438.057	666.5
438.278	773.5
438.5	770.5
438.721	843.5
438.943	785.5
439.165	626.5
439.386	569.5
439.608	565.5
439.829	553.5
440.05	578.5
440.272	647.5
440.493	610.5
440.715	532.5
440.936	499.5
441.158	493.5
441.379	496.5
441.6	500.5
441.822	544.5
442.043	570.5
442.264	667.5
442.486	720.5
442.707	606.5
442.928	541.5
443.149	547.5
443.371	585.5
443.592	601.5
443.813	729.5
444.034	778.5
444.255	631.5
444.476	549.5
444.698	508.5
444.919	495.5
445.14	622.5
445.361	587.5
445.582	575.5
445.803	705.5
446.024	797.5
446.245	820.5
446.466	711.5
446.687	604.5
446.908	543.5
447.129	510.5
447.35	498.5
447.571	481.5
447.792	496.5
448.013	498.5
448.234	537.5
448.455	560.5
448.675	704.5
448.896	840.5
449.117	672.5
449.338	650.5
449.559	760.5
449.779	861.5
450	700.5
450.221	570.5
450.442	518.5
450.662	504.5
450.883	497.5
451.104	524.5
451.324	522.5
451.545	470.5
451.766	466.5
451.986	424.5
452.207	403.5
452.428	416.5
452.648	408.5
452.869	414.5
453.089	452.5
453.31	484.5
453.53	469.5
453.751	440.5
453.971	452.5
454.192	485.5
454.412	467.5
454.633	442.5
454.853	418.5
455.073	450.5
455.294	478.5
455.514	555.5
455.734	540.5
455.955	455.5
456.175	410.5
456.395	400.5
456.616	384.5
456.836	401.5
457.056	400.5
457.276	407.5
457.497	428.5
457.717	414.5
457.937	395.5
458.157	427.5
458.377	427.5
458.598	447.5
458.818	523.5
459.038	612.5
459.258	628.5
459.478	513.5
459.698	467.5
459.918	449.5
460.138	446.5
460.358	441.5
460.578	437.5
460.798	425.5
461.018	429.5
461.238	445.5
461.458	439.5
461.678	441.5
461.898	446.5
462.118	442.5
462.338	439.5
462.558	447.5
462.777	451.5
462.997	459.5
463.217	448.5
463.437	474.5
463.657	445.5
463.876	439.5
464.096	451.5
464.316	458.5
464.536	478.5
464.755	469.5
464.975	499.5
465.195	558.5
465.414	638.5
465.634	536.5
465.854	498.5
466.073	461.5
466.293	456.5
466.512	438.5
466.732	436.5
466.951	450.5
467.171	436.5
467.391	443.5
467.61	466.5
467.829	461.5
468.049	440.5
468.268	448.5
468.488	432.5
468.707	426.5
468.927	442.5
469.146	412.5
469.365	425.5
469.585	416.5
469.804	414.5
470.023	460.5
470.243	450.5
470.462	443.5
470.681	454.5
470.901	459.5
471.12	446.5
471.339	445.5
471.558	444.5
471.777	436.5
471.997	448.5
472.216	424.5
472.435	531.5
472.654	477.5
472.873	443.5
473.092	453.5
473.311	429.5
473.53	450.5
473.749	476.5
473.968	508.5
474.187	640.5
474.406	682.5
474.625	502.5
474.844	460.5
475.063	435.5
475.282	456.5
475.501	455.5
475.72	461.5
475.939	430.5
476.158	469.5
476.377	456.5
476.596	453.5
476.814	470.5
477.033	477.5
477.252	462.5
477.471	485.5
477.69	477.5
477.908	460.5
478.127	477.5
478.346	462.5
478.564	482.5
478.783	500.5
479.002	485.5
479.22	487.5
479.439	508.5
479.658	520.5
479.876	511.5
480.095	549.5
480.313	588.5
480.532	568.5
480.751	529.5
480.969	544.5
481.188	652.5
481.406	714.5
481.624	600.5
481.843	555.5
482.061	537.5
482.28	544.5
482.498	514.5
482.717	541.5
482.935	520.5
483.153	516.5
483.372	513.5
483.59	521.5
483.808	534.5
484.027	520.5
484.245	534.5
484.463	539.5
484.681	526.5
484.9	518.5
485.118	536.5
485.336	558.5
485.554	520.5
485.772	532.5
485.99	538.5
486.209	544.5
486.427	537.5
486.645	564.5
486.863	598.5
487.081	589.5
487.299	605.5
487.517	549.5
487.735	543.5
487.953	517.5
488.171	575.5
488.389	568.5
488.607	562.5
488.825	565.5
489.043	571.5
489.261	590.5
489.479	576.5
489.696	559.5
489.914	561.5
490.132	573.5
490.35	569.5
490.568	622.5
490.786	605.5
491.003	620.5
491.221	618.5
491.439	628.5
491.657	646.5
491.874	635.5
492.092	638.5
492.31	637.5
492.527	637.5
492.745	653.5
492.963	645.5
493.18	666.5
493.398	679.5
493.615	672.5
493.833	665.5
494.05	691.5
494.268	689.5
494.485	661.5
494.703	645.5
494.92	683.5
495.138	662.5
495.355	650.5
495.573	685.5
495.79	685.5
496.008	680.5
496.225	667.5
496.442	666.5
496.66	657.5
496.877	669.5
497.094	668.5
497.312	653.5
497.529	663.5
497.746	688.5
497.963	718.5
498.181	706.5
498.398	709.5
498.615	695.5
498.832	722.5
499.049	727.5
499.267	745.5
499.484	768.5
499.701	800.5
499.918	779.5
500.135	802.5
500.352	807.5
500.569	814.5
500.786	836.5
501.003	811.5
501.22	823.5
501.437	798.5
501.654	810.5
501.871	818.5
502.088	802.5
502.305	753.5
502.522	730.5
502.739	701.5
502.956	701.5
503.172	686.5
503.389	682.5
503.606	692.5
503.823	695.5
504.04	704.5
504.256	677.5
504.473	674.5
504.69	667.5
504.907	666.5
505.123	661.5
505.34	672.5
505.557	635.5
505.773	652.5
505.99	659.5
506.207	666.5
506.423	668.5
506.64	661.5
506.856	659.5
507.073	635.5
507.289	651.5
507.506	662.5
507.722	676.5
507.939	680.5
508.155	634.5
508.372	634.5
508.588	632.5
508.805	616.5
509.021	615.5
509.238	654.5
509.454	638.5
509.67	634.5
509.887	631.5
510.103	626.5
510.319	655.5
510.536	773.5
510.752	1394.5
510.968	1083.5
511.184	683.5
511.401	642.5
511.617	600.5
511.833	625.5
512.049	621.5
512.265	607.5
512.481	621.5
512.698	605.5
512.914	587.5
513.13	613.5
513.346	588.5
513.562	614.5
513.778	614.5
513.994	612.5
514.21	635.5
514.426	676.5
514.642	729.5
514.858	744.5
515.074	826.5
515.29	988.5
515.506	1537.5
515.721	1214.5
515.937	776.5
516.153	698.5
516.369	659.5
516.585	648.5
516.801	667.5
517.016	620.5
517.232	628.5
517.448	612.5
517.664	616.5
517.879	607.5
518.095	596.5
518.311	592.5
518.527	602.5
518.742	608.5
518.958	597.5
519.173	615.5
519.389	577.5
519.605	595.5
519.82	618.5
