Data from 1972.PennyLincolnUp.Lamp.En5.5.200Scan.071719.P1._HRD10591_15-29-18-844.txt Node
Date: Thu Jul 18 15:29:18 EDT 2019
User: cochatt
Spectrometer: HR+D1059
Trigger mode: 1
Integration Time (sec): 1.000000E-1
Scans to average: 1
Electric dark correction enabled: true
Nonlinearity correction enabled: false
Boxcar width: 0
XAxis mode: Wavelengths
Number of Pixels in Spectrum: 2048
>>>>>Begin Spectral Data<<<<<
223.165	-7.88
223.4	-7.88
223.635	-7.88
223.869	-15.88
224.104	-22.88
224.338	-8.88
224.573	-8.88
224.808	-12.88
225.042	-11.88
225.277	-10.88
225.511	8.12
225.746	-4.88
225.98	-0.88
226.215	13.12
226.449	20.12
226.683	23.12
226.918	24.12
227.152	17.12
227.387	42.12
227.621	37.12
227.856	51.12
228.09	40.12
228.324	40.12
228.559	58.12
228.793	71.12
229.027	82.12
229.262	113.12
229.496	130.12
229.73	136.12
229.964	164.12
230.199	140.12
230.433	119.12
230.667	125.12
230.901	117.12
231.136	121.12
231.37	117.12
231.604	124.12
231.838	112.12
232.072	131.12
232.306	121.12
232.541	116.12
232.775	107.12
233.009	121.12
233.243	109.12
233.477	119.12
233.711	112.12
233.945	127.12
234.179	127.12
234.413	123.12
234.647	112.12
234.881	108.12
235.115	121.12
235.349	123.12
235.583	128.12
235.817	129.12
236.051	129.12
236.285	133.12
236.519	131.12
236.753	140.12
236.987	159.12
237.221	208.12
237.455	261.12
237.689	201.12
237.922	159.12
238.156	153.12
238.39	134.12
238.624	127.12
238.858	133.12
239.091	130.12
239.325	132.12
239.559	132.12
239.793	122.12
240.027	141.12
240.26	140.12
240.494	165.12
240.728	160.12
240.961	145.12
241.195	155.12
241.429	143.12
241.662	120.12
241.896	135.12
242.13	135.12
242.363	148.12
242.597	145.12
242.83	139.12
243.064	132.12
243.298	123.12
243.531	147.12
243.765	145.12
243.998	139.12
244.232	152.12
244.465	134.12
244.699	149.12
244.932	152.12
245.166	137.12
245.399	144.12
245.633	145.12
245.866	146.12
246.099	173.12
246.333	152.12
246.566	145.12
246.8	145.12
247.033	151.12
247.266	151.12
247.5	167.12
247.733	154.12
247.966	177.12
248.2	188.12
248.433	160.12
248.666	183.12
248.899	187.12
249.133	200.12
249.366	212.12
249.599	220.12
249.832	185.12
250.066	186.12
250.299	204.12
250.532	205.12
250.765	216.12
250.998	220.12
251.231	260.12
251.465	244.12
251.698	212.12
251.931	201.12
252.164	212.12
252.397	203.12
252.63	223.12
252.863	218.12
253.096	240.12
253.329	225.12
253.562	226.12
253.795	231.12
254.028	214.12
254.261	223.12
254.494	246.12
254.727	267.12
254.96	312.12
255.193	315.12
255.426	267.12
255.659	244.12
255.892	263.12
256.124	256.12
256.357	259.12
256.59	254.12
256.823	225.12
257.056	232.12
257.289	237.12
257.521	229.12
257.754	226.12
257.987	229.12
258.22	207.12
258.452	214.12
258.685	207.12
258.918	238.12
259.151	237.12
259.383	241.12
259.616	224.12
259.849	233.12
260.081	253.12
260.314	270.12
260.547	282.12
260.779	266.12
261.012	251.12
261.244	244.12
261.477	251.12
261.71	221.12
261.942	242.12
262.175	260.12
262.407	241.12
262.64	222.12
262.872	228.12
263.105	221.12
263.337	226.12
263.57	208.12
263.802	209.12
264.035	198.12
264.267	219.12
264.499	212.12
264.732	219.12
264.964	229.12
265.197	217.12
265.429	214.12
265.661	236.12
265.894	223.12
266.126	240.12
266.358	207.12
266.591	223.12
266.823	229.12
267.055	227.12
267.287	239.12
267.52	231.12
267.752	239.12
267.984	245.12
268.216	242.12
268.448	245.12
268.681	240.12
268.913	249.12
269.145	280.12
269.377	295.12
269.609	289.12
269.841	298.12
270.073	277.12
270.306	291.12
270.538	334.12
270.77	333.12
271.002	335.12
271.234	316.12
271.466	327.12
271.698	330.12
271.93	327.12
272.162	362.12
272.394	354.12
272.626	327.12
272.858	326.12
273.09	294.12
273.322	290.12
273.553	271.12
273.785	291.12
274.017	281.12
274.249	292.12
274.481	299.12
274.713	280.12
274.945	276.12
275.176	295.12
275.408	289.12
275.64	282.12
275.872	264.12
276.104	274.12
276.335	279.12
276.567	280.12
276.799	293.12
277.031	349.12
277.262	340.12
277.494	346.12
277.726	313.12
277.957	330.12
278.189	317.12
278.421	277.12
278.652	291.12
278.884	278.12
279.115	239.12
279.347	277.12
279.579	277.12
279.81	258.12
280.042	240.12
280.273	273.12
280.505	267.12
280.736	274.12
280.968	265.12
281.199	265.12
281.431	261.12
281.662	270.12
281.894	270.12
282.125	282.12
282.356	305.12
282.588	320.12
282.819	332.12
283.051	281.12
283.282	284.12
283.513	292.12
283.745	294.12
283.976	280.12
284.207	287.12
284.439	286.12
284.67	290.12
284.901	284.12
285.132	288.12
285.364	283.12
285.595	273.12
285.826	281.12
286.057	297.12
286.288	294.12
286.52	273.12
286.751	283.12
286.982	267.12
287.213	286.12
287.444	276.12
287.675	285.12
287.906	286.12
288.138	302.12
288.369	293.12
288.6	300.12
288.831	311.12
289.062	295.12
289.293	275.12
289.524	300.12
289.755	309.12
289.986	308.12
290.217	288.12
290.448	279.12
290.679	290.12
290.91	263.12
291.141	290.12
291.371	289.12
291.602	287.12
291.833	280.12
292.064	286.12
292.295	281.12
292.526	290.12
292.757	306.12
292.987	292.12
293.218	283.12
293.449	292.12
293.68	291.12
293.91	297.12
294.141	290.12
294.372	292.12
294.603	295.12
294.833	296.12
295.064	289.12
295.295	300.12
295.525	294.12
295.756	319.12
295.987	307.12
296.217	312.12
296.448	327.12
296.679	309.12
296.909	281.12
297.14	284.12
297.37	299.12
297.601	291.12
297.831	292.12
298.062	284.12
298.292	314.12
298.523	301.12
298.753	307.12
298.984	311.12
299.214	307.12
299.445	312.12
299.675	312.12
299.905	322.12
300.136	311.12
300.366	321.12
300.597	308.12
300.827	311.12
301.057	315.12
301.288	337.12
301.518	318.12
301.748	316.12
301.979	316.12
302.209	323.12
302.439	321.12
302.669	345.12
302.9	340.12
303.13	305.12
303.36	326.12
303.59	322.12
303.82	335.12
304.051	343.12
304.281	321.12
304.511	312.12
304.741	304.12
304.971	300.12
305.201	305.12
305.431	324.12
305.661	331.12
305.891	312.12
306.121	347.12
306.352	311.12
306.582	328.12
306.812	334.12
307.042	325.12
307.272	330.12
307.502	335.12
307.731	316.12
307.961	317.12
308.191	339.12
308.421	328.12
308.651	327.12
308.881	351.12
309.111	360.12
309.341	354.12
309.571	361.12
309.8	361.12
310.03	373.12
310.26	383.12
310.49	364.12
310.72	399.12
310.949	416.12
311.179	430.12
311.409	405.12
311.639	387.12
311.868	372.12
312.098	393.12
312.328	421.12
312.557	440.12
312.787	436.12
313.017	431.12
313.246	392.12
313.476	384.12
313.706	391.12
313.935	384.12
314.165	414.12
314.394	409.12
314.624	420.12
314.853	383.12
315.083	376.12
315.312	393.12
315.542	381.12
315.771	373.12
316.001	365.12
316.23	368.12
316.46	380.12
316.689	381.12
316.919	393.12
317.148	385.12
317.377	380.12
317.607	388.12
317.836	415.12
318.065	381.12
318.295	389.12
318.524	387.12
318.753	361.12
318.983	391.12
319.212	383.12
319.441	373.12
319.67	396.12
319.9	405.12
320.129	383.12
320.358	385.12
320.587	404.12
320.816	391.12
321.046	405.12
321.275	413.12
321.504	405.12
321.733	413.12
321.962	428.12
322.191	436.12
322.42	445.12
322.649	479.12
322.878	483.12
323.108	509.12
323.337	527.12
323.566	554.12
323.795	605.12
324.024	683.12
324.253	841.12
324.482	1242.12
324.71	1915.12
324.939	2849.12
325.168	2478.12
325.397	1237.12
325.626	803.12
325.855	639.12
326.084	595.12
326.313	560.12
326.542	569.12
326.77	622.12
326.999	779.12
327.228	1078.12
327.457	1670.12
327.686	2111.12
327.914	1397.12
328.143	872.12
328.372	746.12
328.6	682.12
328.829	643.12
329.058	673.12
329.287	680.12
329.515	640.12
329.744	571.12
329.972	579.12
330.201	599.12
330.43	679.12
330.658	693.12
330.887	740.12
331.115	688.12
331.344	558.12
331.572	533.12
331.801	535.12
332.03	525.12
332.258	496.12
332.486	490.12
332.715	480.12
332.943	463.12
333.172	468.12
333.4	454.12
333.629	465.12
333.857	480.12
334.085	503.12
334.314	538.12
334.542	581.12
334.771	605.12
334.999	535.12
335.227	495.12
335.455	472.12
335.684	438.12
335.912	452.12
336.14	461.12
336.369	458.12
336.597	445.12
336.825	445.12
337.053	431.12
337.281	441.12
337.51	454.12
337.738	443.12
337.966	413.12
338.194	423.12
338.422	422.12
338.65	440.12
338.878	428.12
339.106	433.12
339.334	424.12
339.562	424.12
339.79	426.12
340.018	416.12
340.246	426.12
340.474	449.12
340.702	432.12
340.93	420.12
341.158	420.12
341.386	423.12
341.614	421.12
341.842	445.12
342.07	433.12
342.298	402.12
342.526	399.12
342.754	430.12
342.981	417.12
343.209	399.12
343.437	403.12
343.665	416.12
343.893	405.12
344.12	415.12
344.348	425.12
344.576	434.12
344.804	435.12
345.031	441.12
345.259	466.12
345.487	450.12
345.714	445.12
345.942	399.12
346.17	431.12
346.397	415.12
346.625	424.12
346.853	409.12
347.08	419.12
347.308	407.12
347.535	431.12
347.763	419.12
347.99	424.12
348.218	456.12
348.445	431.12
348.673	435.12
348.9	417.12
349.128	402.12
349.355	409.12
349.583	399.12
349.81	409.12
350.037	391.12
350.265	393.12
350.492	379.12
350.72	396.12
350.947	413.12
351.174	420.12
351.402	441.12
351.629	432.12
351.856	408.12
352.083	420.12
352.311	423.12
352.538	431.12
352.765	446.12
352.992	412.12
353.22	421.12
353.447	411.12
353.674	404.12
353.901	388.12
354.128	386.12
354.355	385.12
354.583	389.12
354.81	392.12
355.037	381.12
355.264	368.12
355.491	375.12
355.718	379.12
355.945	375.12
356.172	369.12
356.399	358.12
356.626	362.12
356.853	355.12
357.08	365.12
357.307	377.12
357.534	363.12
357.761	375.12
357.988	355.12
358.215	363.12
358.441	376.12
358.668	379.12
358.895	377.12
359.122	388.12
359.349	381.12
359.576	415.12
359.802	441.12
360.029	473.12
360.256	509.12
360.483	447.12
360.709	431.12
360.936	412.12
361.163	429.12
361.39	421.12
361.616	414.12
361.843	403.12
362.07	416.12
362.296	415.12
362.523	407.12
362.749	377.12
362.976	392.12
363.203	395.12
363.429	391.12
363.656	400.12
363.882	379.12
364.109	348.12
364.335	374.12
364.562	375.12
364.788	374.12
365.015	385.12
365.241	384.12
365.468	402.12
365.694	391.12
365.92	413.12
366.147	390.12
366.373	385.12
366.599	372.12
366.826	371.12
367.052	396.12
367.278	379.12
367.505	361.12
367.731	397.12
367.957	389.12
368.184	367.12
368.41	393.12
368.636	413.12
368.862	383.12
369.089	384.12
369.315	375.12
369.541	378.12
369.767	379.12
369.993	373.12
370.219	380.12
370.445	373.12
370.672	361.12
370.898	364.12
371.124	360.12
371.35	384.12
371.576	369.12
371.802	343.12
372.028	368.12
372.254	348.12
372.48	374.12
372.706	361.12
372.932	351.12
373.158	345.12
373.384	381.12
373.61	360.12
373.835	365.12
374.061	385.12
374.287	379.12
374.513	364.12
374.739	355.12
374.965	368.12
375.191	375.12
375.416	391.12
375.642	375.12
375.868	381.12
376.094	370.12
376.319	357.12
376.545	371.12
376.771	365.12
376.997	361.12
377.222	343.12
377.448	381.12
377.674	379.12
377.899	372.12
378.125	357.12
378.35	335.12
378.576	363.12
378.802	364.12
379.027	361.12
379.253	370.12
379.478	347.12
379.704	353.12
379.929	379.12
380.155	364.12
380.38	369.12
380.606	367.12
380.831	377.12
381.057	371.12
381.282	359.12
381.507	349.12
381.733	347.12
381.958	350.12
382.184	354.12
382.409	374.12
382.634	389.12
382.86	368.12
383.085	381.12
383.31	373.12
383.535	364.12
383.761	389.12
383.986	381.12
384.211	360.12
384.436	387.12
384.662	367.12
384.887	381.12
385.112	368.12
385.337	362.12
385.562	368.12
385.787	397.12
386.013	384.12
386.238	397.12
386.463	389.12
386.688	407.12
386.913	397.12
387.138	381.12
387.363	376.12
387.588	379.12
387.813	387.12
388.038	392.12
388.263	391.12
388.488	387.12
388.713	376.12
388.938	401.12
389.163	379.12
389.387	383.12
389.612	391.12
389.837	360.12
390.062	394.12
390.287	388.12
390.512	378.12
390.736	375.12
390.961	348.12
391.186	393.12
391.411	407.12
391.636	386.12
391.86	384.12
392.085	389.12
392.31	404.12
392.534	385.12
392.759	375.12
392.984	380.12
393.208	395.12
393.433	389.12
393.658	378.12
393.882	381.12
394.107	379.12
394.331	395.12
394.556	402.12
394.78	392.12
395.005	384.12
395.229	379.12
395.454	402.12
395.678	396.12
395.903	417.12
396.127	430.12
396.352	428.12
396.576	423.12
396.801	409.12
397.025	401.12
397.249	403.12
397.474	413.12
397.698	402.12
397.922	428.12
398.147	456.12
398.371	460.12
398.595	427.12
398.82	423.12
399.044	418.12
399.268	436.12
399.492	447.12
399.717	471.12
399.941	515.12
400.165	548.12
400.389	560.12
400.613	509.12
400.837	450.12
401.062	455.12
401.286	443.12
401.51	434.12
401.734	429.12
401.958	451.12
402.182	453.12
402.406	468.12
402.63	456.12
402.854	443.12
403.078	441.12
403.302	441.12
403.526	462.12
403.75	437.12
403.974	455.12
404.198	451.12
404.422	475.12
404.645	458.12
404.869	469.12
405.093	504.12
405.317	561.12
405.541	581.12
405.765	550.12
405.988	517.12
406.212	532.12
406.436	525.12
406.66	557.12
406.883	517.12
407.107	520.12
407.331	565.12
407.555	666.12
407.778	649.12
408.002	584.12
408.226	515.12
408.449	514.12
408.673	512.12
408.896	549.12
409.12	584.12
409.344	552.12
409.567	509.12
409.791	471.12
410.014	461.12
410.238	481.12
410.461	472.12
410.685	475.12
410.908	481.12
411.132	524.12
411.355	565.12
411.578	524.12
411.802	501.12
412.025	454.12
412.249	485.12
412.472	477.12
412.695	529.12
412.919	558.12
413.142	475.12
413.365	462.12
413.589	453.12
413.812	451.12
414.035	450.12
414.258	437.12
414.482	441.12
414.705	432.12
414.928	433.12
415.151	427.12
415.374	421.12
415.597	419.12
415.821	412.12
416.044	427.12
416.267	452.12
416.49	431.12
416.713	416.12
416.936	444.12
417.159	440.12
417.382	449.12
417.605	443.12
417.828	457.12
418.051	486.12
418.274	463.12
418.497	445.12
418.72	452.12
418.943	431.12
419.166	480.12
419.389	473.12
419.611	473.12
419.834	444.12
420.057	464.12
420.28	466.12
420.503	453.12
420.726	479.12
420.948	466.12
421.171	535.12
421.394	542.12
421.617	480.12
421.839	479.12
422.062	470.12
422.285	464.12
422.507	559.12
422.73	645.12
422.953	603.12
423.175	511.12
423.398	470.12
423.621	484.12
423.843	536.12
424.066	506.12
424.288	521.12
424.511	523.12
424.733	599.12
424.956	691.12
425.178	637.12
425.401	644.12
425.623	662.12
425.846	584.12
426.068	543.12
426.291	505.12
426.513	523.12
426.735	535.12
426.958	586.12
427.18	660.12
427.402	801.12
427.625	908.12
427.847	807.12
428.069	690.12
428.292	608.12
428.514	539.12
428.736	520.12
428.958	501.12
429.181	511.12
429.403	496.12
429.625	507.12
429.847	537.12
430.069	593.12
430.292	609.12
430.514	511.12
430.736	472.12
430.958	456.12
431.18	441.12
431.402	449.12
431.624	437.12
431.846	407.12
432.068	429.12
432.29	427.12
432.512	445.12
432.734	466.12
432.956	459.12
433.178	469.12
433.4	452.12
433.622	464.12
433.844	445.12
434.066	443.12
434.287	457.12
434.509	436.12
434.731	443.12
434.953	458.12
435.175	493.12
435.397	513.12
435.618	493.12
435.84	552.12
436.062	666.12
436.284	738.12
436.505	625.12
436.727	547.12
436.949	517.12
437.17	496.12
437.392	486.12
437.614	500.12
437.835	547.12
438.057	651.12
438.278	753.12
438.5	748.12
438.721	823.12
438.943	780.12
439.165	617.12
439.386	567.12
439.608	572.12
439.829	537.12
440.05	588.12
440.272	641.12
440.493	591.12
440.715	534.12
440.936	495.12
441.158	484.12
441.379	473.12
441.6	501.12
441.822	532.12
442.043	555.12
442.264	650.12
442.486	706.12
442.707	612.12
442.928	537.12
443.149	553.12
443.371	583.12
443.592	614.12
443.813	687.12
444.034	775.12
444.255	645.12
444.476	547.12
444.698	503.12
444.919	512.12
445.14	612.12
445.361	584.12
445.582	543.12
445.803	646.12
446.024	801.12
446.245	776.12
446.466	712.12
446.687	599.12
446.908	545.12
447.129	507.12
447.35	479.12
447.571	480.12
447.792	494.12
448.013	500.12
448.234	519.12
448.455	574.12
448.675	680.12
448.896	825.12
449.117	661.12
449.338	643.12
449.559	750.12
449.779	865.12
450	678.12
450.221	557.12
450.442	494.12
450.662	504.12
450.883	505.12
451.104	523.12
451.324	484.12
451.545	465.12
451.766	448.12
451.986	461.12
452.207	435.12
452.428	423.12
452.648	458.12
452.869	430.12
453.089	463.12
453.31	463.12
453.53	449.12
453.751	454.12
453.971	453.12
454.192	486.12
454.412	468.12
454.633	451.12
454.853	428.12
455.073	441.12
455.294	471.12
455.514	551.12
455.734	523.12
455.955	442.12
456.175	407.12
456.395	401.12
456.616	409.12
456.836	413.12
457.056	382.12
457.276	383.12
457.497	386.12
457.717	395.12
457.937	394.12
458.157	399.12
458.377	423.12
458.598	463.12
458.818	523.12
459.038	615.12
459.258	651.12
459.478	517.12
459.698	462.12
459.918	450.12
460.138	428.12
460.358	437.12
460.578	416.12
460.798	435.12
461.018	431.12
461.238	422.12
461.458	440.12
461.678	428.12
461.898	416.12
462.118	428.12
462.338	453.12
462.558	443.12
462.777	447.12
462.997	449.12
463.217	466.12
463.437	466.12
463.657	457.12
463.876	450.12
464.096	451.12
464.316	454.12
464.536	467.12
464.755	459.12
464.975	471.12
465.195	539.12
465.414	637.12
465.634	571.12
465.854	471.12
466.073	478.12
466.293	459.12
466.512	425.12
466.732	439.12
466.951	420.12
467.171	421.12
467.391	425.12
467.61	436.12
467.829	460.12
468.049	442.12
468.268	452.12
468.488	411.12
468.707	411.12
468.927	424.12
469.146	412.12
469.365	409.12
469.585	416.12
469.804	437.12
470.023	440.12
470.243	443.12
470.462	447.12
470.681	465.12
470.901	457.12
471.12	443.12
471.339	439.12
471.558	450.12
471.777	438.12
471.997	441.12
472.216	458.12
472.435	514.12
472.654	510.12
472.873	464.12
473.092	428.12
473.311	430.12
473.53	456.12
473.749	445.12
473.968	480.12
474.187	603.12
474.406	644.12
474.625	523.12
474.844	464.12
475.063	448.12
475.282	452.12
475.501	448.12
475.72	427.12
475.939	448.12
476.158	458.12
476.377	446.12
476.596	459.12
476.814	466.12
477.033	461.12
477.252	470.12
477.471	459.12
477.69	457.12
477.908	435.12
478.127	476.12
478.346	462.12
478.564	462.12
478.783	471.12
479.002	481.12
479.22	492.12
479.439	525.12
479.658	536.12
479.876	543.12
480.095	537.12
480.313	544.12
480.532	552.12
480.751	536.12
480.969	550.12
481.188	631.12
481.406	676.12
481.624	590.12
481.843	544.12
482.061	537.12
482.28	542.12
482.498	522.12
482.717	532.12
482.935	518.12
483.153	539.12
483.372	503.12
483.59	518.12
483.808	523.12
484.027	499.12
484.245	524.12
484.463	501.12
484.681	544.12
484.9	536.12
485.118	521.12
485.336	518.12
485.554	537.12
485.772	550.12
485.99	543.12
486.209	552.12
486.427	542.12
486.645	554.12
486.863	582.12
487.081	571.12
487.299	567.12
487.517	571.12
487.735	562.12
487.953	560.12
488.171	549.12
488.389	559.12
488.607	546.12
488.825	558.12
489.043	565.12
489.261	559.12
489.479	551.12
489.696	585.12
489.914	579.12
490.132	581.12
490.35	572.12
490.568	593.12
490.786	571.12
491.003	589.12
491.221	620.12
491.439	634.12
491.657	647.12
491.874	653.12
492.092	657.12
492.31	652.12
492.527	651.12
492.745	655.12
492.963	658.12
493.18	659.12
493.398	688.12
493.615	672.12
493.833	691.12
494.05	656.12
494.268	671.12
494.485	659.12
494.703	676.12
494.92	659.12
495.138	679.12
495.355	664.12
495.573	673.12
495.79	660.12
496.008	667.12
496.225	651.12
496.442	654.12
496.66	640.12
496.877	661.12
497.094	656.12
497.312	687.12
497.529	667.12
497.746	697.12
497.963	675.12
498.181	715.12
498.398	715.12
498.615	712.12
498.832	703.12
499.049	716.12
499.267	739.12
499.484	737.12
499.701	746.12
499.918	783.12
500.135	812.12
500.352	814.12
500.569	829.12
500.786	827.12
501.003	804.12
501.22	825.12
501.437	802.12
501.654	825.12
501.871	815.12
