Data from 1972.PennyLincolnUp.Lamp.En5.5.200Scan.071719.P1._HRD10591_15-28-03-843.txt Node
Date: Thu Jul 18 15:28:03 EDT 2019
User: cochatt
Spectrometer: HR+D1059
Trigger mode: 1
Integration Time (sec): 1.000000E-1
Scans to average: 1
Electric dark correction enabled: true
Nonlinearity correction enabled: false
Boxcar width: 0
XAxis mode: Wavelengths
Number of Pixels in Spectrum: 2048
>>>>>Begin Spectral Data<<<<<
223.165	-3.88
223.4	-3.88
223.635	-3.88
223.869	-29.88
224.104	-13.88
224.338	-11.88
224.573	-8.88
224.808	-7.88
225.042	-7.88
225.277	8.12
225.511	-9.88
225.746	-3.88
225.98	0.12
226.215	17.12
226.449	7.12
226.683	19.12
226.918	22.12
227.152	24.12
227.387	35.12
227.621	48.12
227.856	46.12
228.09	52.12
228.324	45.12
228.559	45.12
228.793	77.12
229.027	107.12
229.262	103.12
229.496	112.12
229.73	135.12
229.964	169.12
230.199	140.12
230.433	122.12
230.667	124.12
230.901	118.12
231.136	103.12
231.37	101.12
231.604	105.12
231.838	104.12
232.072	112.12
232.306	108.12
232.541	118.12
232.775	108.12
233.009	99.12
233.243	122.12
233.477	116.12
233.711	105.12
233.945	119.12
234.179	120.12
234.413	107.12
234.647	120.12
234.881	124.12
235.115	119.12
235.349	109.12
235.583	125.12
235.817	128.12
236.051	129.12
236.285	125.12
236.519	121.12
236.753	125.12
236.987	156.12
237.221	185.12
237.455	241.12
237.689	208.12
237.922	147.12
238.156	132.12
238.39	130.12
238.624	130.12
238.858	128.12
239.091	131.12
239.325	126.12
239.559	133.12
239.793	117.12
240.027	128.12
240.26	151.12
240.494	163.12
240.728	141.12
240.961	146.12
241.195	144.12
241.429	138.12
241.662	138.12
241.896	144.12
242.13	134.12
242.363	135.12
242.597	147.12
242.83	140.12
243.064	132.12
243.298	141.12
243.531	132.12
243.765	136.12
243.998	142.12
244.232	153.12
244.465	139.12
244.699	146.12
244.932	143.12
245.166	141.12
245.399	164.12
245.633	160.12
245.866	142.12
246.099	137.12
246.333	159.12
246.566	143.12
246.8	142.12
247.033	157.12
247.266	153.12
247.5	182.12
247.733	176.12
247.966	178.12
248.2	180.12
248.433	172.12
248.666	182.12
248.899	172.12
249.133	188.12
249.366	216.12
249.599	194.12
249.832	185.12
250.066	185.12
250.299	184.12
250.532	192.12
250.765	217.12
250.998	238.12
251.231	228.12
251.465	236.12
251.698	224.12
251.931	229.12
252.164	208.12
252.397	212.12
252.63	209.12
252.863	213.12
253.096	222.12
253.329	233.12
253.562	226.12
253.795	228.12
254.028	223.12
254.261	217.12
254.494	236.12
254.727	270.12
254.96	327.12
255.193	283.12
255.426	247.12
255.659	242.12
255.892	248.12
256.124	257.12
256.357	256.12
256.59	234.12
256.823	220.12
257.056	226.12
257.289	208.12
257.521	222.12
257.754	216.12
257.987	208.12
258.22	210.12
258.452	232.12
258.685	220.12
258.918	212.12
259.151	224.12
259.383	244.12
259.616	217.12
259.849	227.12
260.081	241.12
260.314	250.12
260.547	288.12
260.779	257.12
261.012	228.12
261.244	229.12
261.477	240.12
261.71	221.12
261.942	229.12
262.175	241.12
262.407	244.12
262.64	227.12
262.872	233.12
263.105	207.12
263.337	220.12
263.57	216.12
263.802	217.12
264.035	210.12
264.267	239.12
264.499	230.12
264.732	218.12
264.964	222.12
265.197	214.12
265.429	219.12
265.661	225.12
265.894	213.12
266.126	224.12
266.358	220.12
266.591	216.12
266.823	236.12
267.055	227.12
267.287	232.12
267.52	222.12
267.752	227.12
267.984	231.12
268.216	232.12
268.448	245.12
268.681	233.12
268.913	259.12
269.145	260.12
269.377	293.12
269.609	292.12
269.841	268.12
270.073	277.12
270.306	306.12
270.538	333.12
270.77	333.12
271.002	309.12
271.234	313.12
271.466	299.12
271.698	311.12
271.93	336.12
272.162	341.12
272.394	333.12
272.626	334.12
272.858	308.12
273.09	289.12
273.322	301.12
273.553	275.12
273.785	270.12
274.017	275.12
274.249	286.12
274.481	268.12
274.713	283.12
274.945	279.12
275.176	279.12
275.408	263.12
275.64	276.12
275.872	266.12
276.104	267.12
276.335	271.12
276.567	286.12
276.799	313.12
277.031	328.12
277.262	332.12
277.494	333.12
277.726	313.12
277.957	296.12
278.189	292.12
278.421	277.12
278.652	273.12
278.884	297.12
279.115	268.12
279.347	278.12
279.579	253.12
279.81	270.12
280.042	281.12
280.273	284.12
280.505	269.12
280.736	263.12
280.968	266.12
281.199	270.12
281.431	261.12
281.662	273.12
281.894	262.12
282.125	291.12
282.356	277.12
282.588	313.12
282.819	315.12
283.051	284.12
283.282	274.12
283.513	272.12
283.745	285.12
283.976	269.12
284.207	288.12
284.439	296.12
284.67	283.12
284.901	257.12
285.132	269.12
285.364	296.12
285.595	286.12
285.826	276.12
286.057	290.12
286.288	285.12
286.52	275.12
286.751	277.12
286.982	276.12
287.213	266.12
287.444	275.12
287.675	292.12
287.906	280.12
288.138	294.12
288.369	312.12
288.6	302.12
288.831	309.12
289.062	281.12
289.293	289.12
289.524	291.12
289.755	291.12
289.986	281.12
290.217	266.12
290.448	277.12
290.679	296.12
290.91	274.12
291.141	288.12
291.371	286.12
291.602	299.12
291.833	284.12
292.064	277.12
292.295	306.12
292.526	283.12
292.757	280.12
292.987	302.12
293.218	289.12
293.449	301.12
293.68	291.12
293.91	290.12
294.141	299.12
294.372	277.12
294.603	273.12
294.833	282.12
295.064	261.12
295.295	286.12
295.525	268.12
295.756	312.12
295.987	328.12
296.217	328.12
296.448	342.12
296.679	297.12
296.909	294.12
297.14	311.12
297.37	304.12
297.601	297.12
297.831	278.12
298.062	292.12
298.292	310.12
298.523	308.12
298.753	298.12
298.984	284.12
299.214	290.12
299.445	301.12
299.675	307.12
299.905	318.12
300.136	308.12
300.366	295.12
300.597	294.12
300.827	312.12
301.057	326.12
301.288	338.12
301.518	321.12
301.748	303.12
301.979	319.12
302.209	321.12
302.439	323.12
302.669	351.12
302.9	302.12
303.13	299.12
303.36	333.12
303.59	338.12
303.82	333.12
304.051	349.12
304.281	329.12
304.511	302.12
304.741	324.12
304.971	340.12
305.201	310.12
305.431	324.12
305.661	341.12
305.891	319.12
306.121	322.12
306.352	334.12
306.582	340.12
306.812	321.12
307.042	332.12
307.272	337.12
307.502	352.12
307.731	330.12
307.961	341.12
308.191	316.12
308.421	337.12
308.651	334.12
308.881	320.12
309.111	343.12
309.341	358.12
309.571	345.12
309.8	350.12
310.03	374.12
310.26	378.12
310.49	409.12
310.72	419.12
310.949	398.12
311.179	409.12
311.409	373.12
311.639	379.12
311.868	394.12
312.098	394.12
312.328	396.12
312.557	412.12
312.787	421.12
313.017	424.12
313.246	402.12
313.476	394.12
313.706	396.12
313.935	390.12
314.165	402.12
314.394	397.12
314.624	405.12
314.853	398.12
315.083	387.12
315.312	370.12
315.542	374.12
315.771	347.12
316.001	380.12
316.23	352.12
316.46	376.12
316.689	389.12
316.919	404.12
317.148	409.12
317.377	390.12
317.607	394.12
317.836	381.12
318.065	379.12
318.295	380.12
318.524	371.12
318.753	366.12
318.983	392.12
319.212	372.12
319.441	394.12
319.67	396.12
319.9	408.12
320.129	376.12
320.358	375.12
320.587	392.12
320.816	397.12
321.046	406.12
321.275	409.12
321.504	399.12
321.733	429.12
321.962	437.12
322.191	448.12
322.42	427.12
322.649	475.12
322.878	475.12
323.108	500.12
323.337	532.12
323.566	554.12
323.795	609.12
324.024	661.12
324.253	811.12
324.482	1166.12
324.71	1879.12
324.939	2710.12
325.168	2343.12
325.397	1212.12
325.626	778.12
325.855	629.12
326.084	572.12
326.313	550.12
326.542	584.12
326.77	629.12
326.999	711.12
327.228	1064.12
327.457	1615.12
327.686	1997.12
327.914	1329.12
328.143	844.12
328.372	685.12
328.6	658.12
328.829	624.12
329.058	635.12
329.287	650.12
329.515	651.12
329.744	565.12
329.972	568.12
330.201	598.12
330.43	629.12
330.658	668.12
330.887	674.12
331.115	685.12
331.344	585.12
331.572	527.12
331.801	523.12
332.03	517.12
332.258	500.12
332.486	476.12
332.715	449.12
332.943	467.12
333.172	453.12
333.4	479.12
333.629	464.12
333.857	474.12
334.085	496.12
334.314	512.12
334.542	576.12
334.771	571.12
334.999	554.12
335.227	496.12
335.455	446.12
335.684	455.12
335.912	437.12
336.14	434.12
336.369	432.12
336.597	461.12
336.825	461.12
337.053	439.12
337.281	443.12
337.51	438.12
337.738	434.12
337.966	435.12
338.194	449.12
338.422	424.12
338.65	442.12
338.878	448.12
339.106	428.12
339.334	435.12
339.562	413.12
339.79	425.12
340.018	413.12
340.246	437.12
340.474	454.12
340.702	419.12
340.93	429.12
341.158	426.12
341.386	409.12
341.614	437.12
341.842	424.12
342.07	410.12
342.298	420.12
342.526	411.12
342.754	401.12
342.981	398.12
343.209	395.12
343.437	436.12
343.665	398.12
343.893	436.12
344.12	414.12
344.348	410.12
344.576	429.12
344.804	425.12
345.031	449.12
345.259	444.12
345.487	445.12
345.714	437.12
345.942	429.12
346.17	436.12
346.397	397.12
346.625	420.12
346.853	412.12
347.08	420.12
347.308	402.12
347.535	433.12
347.763	439.12
347.99	428.12
348.218	406.12
348.445	418.12
348.673	436.12
348.9	422.12
349.128	408.12
349.355	404.12
349.583	406.12
349.81	388.12
350.037	402.12
350.265	398.12
350.492	390.12
350.72	385.12
350.947	424.12
351.174	429.12
351.402	458.12
351.629	411.12
351.856	428.12
352.083	423.12
352.311	421.12
352.538	441.12
352.765	434.12
352.992	422.12
353.22	424.12
353.447	432.12
353.674	407.12
353.901	396.12
354.128	387.12
354.355	404.12
354.583	388.12
354.81	388.12
355.037	380.12
355.264	381.12
355.491	377.12
355.718	381.12
355.945	375.12
356.172	360.12
356.399	386.12
356.626	368.12
356.853	359.12
357.08	350.12
357.307	388.12
357.534	364.12
357.761	370.12
357.988	372.12
358.215	378.12
358.441	364.12
358.668	388.12
358.895	384.12
359.122	370.12
359.349	387.12
359.576	419.12
359.802	437.12
360.029	466.12
360.256	488.12
360.483	455.12
360.709	428.12
360.936	430.12
361.163	407.12
361.39	426.12
361.616	403.12
361.843	417.12
362.07	412.12
362.296	430.12
362.523	391.12
362.749	420.12
362.976	408.12
363.203	406.12
363.429	390.12
363.656	375.12
363.882	384.12
364.109	391.12
364.335	402.12
364.562	376.12
364.788	382.12
365.015	398.12
365.241	394.12
365.468	412.12
365.694	386.12
365.92	373.12
366.147	395.12
366.373	373.12
366.599	376.12
366.826	376.12
367.052	355.12
367.278	384.12
367.505	404.12
367.731	386.12
367.957	378.12
368.184	396.12
368.41	388.12
368.636	393.12
368.862	416.12
369.089	380.12
369.315	397.12
369.541	376.12
369.767	368.12
369.993	370.12
370.219	371.12
370.445	389.12
370.672	381.12
370.898	378.12
371.124	383.12
371.35	376.12
371.576	379.12
371.802	365.12
372.028	380.12
372.254	382.12
372.48	355.12
372.706	362.12
372.932	378.12
373.158	366.12
373.384	364.12
373.61	396.12
373.835	358.12
374.061	378.12
374.287	376.12
374.513	377.12
374.739	373.12
374.965	373.12
375.191	356.12
375.416	396.12
375.642	384.12
375.868	371.12
376.094	360.12
376.319	365.12
376.545	375.12
376.771	347.12
376.997	336.12
377.222	372.12
377.448	376.12
377.674	354.12
377.899	363.12
378.125	375.12
378.35	358.12
378.576	369.12
378.802	350.12
379.027	380.12
379.253	378.12
379.478	356.12
379.704	372.12
379.929	361.12
380.155	352.12
380.38	376.12
380.606	371.12
380.831	364.12
381.057	379.12
381.282	346.12
381.507	363.12
381.733	374.12
381.958	377.12
382.184	386.12
382.409	375.12
382.634	373.12
382.86	385.12
383.085	382.12
383.31	377.12
383.535	386.12
383.761	383.12
383.986	388.12
384.211	365.12
384.436	365.12
384.662	384.12
384.887	376.12
385.112	368.12
385.337	378.12
385.562	408.12
385.787	375.12
386.013	385.12
386.238	403.12
386.463	407.12
386.688	409.12
386.913	401.12
387.138	389.12
387.363	389.12
387.588	385.12
387.813	377.12
388.038	387.12
388.263	384.12
388.488	377.12
388.713	395.12
388.938	394.12
389.163	415.12
389.387	398.12
389.612	410.12
389.837	389.12
390.062	380.12
390.287	392.12
390.512	391.12
390.736	393.12
390.961	390.12
391.186	397.12
391.411	390.12
391.636	393.12
391.86	377.12
392.085	379.12
392.31	399.12
392.534	406.12
392.759	392.12
392.984	388.12
393.208	410.12
393.433	417.12
393.658	399.12
393.882	383.12
394.107	375.12
394.331	385.12
394.556	413.12
394.78	382.12
395.005	390.12
395.229	402.12
395.454	391.12
395.678	390.12
395.903	401.12
396.127	444.12
396.352	446.12
396.576	425.12
396.801	403.12
397.025	414.12
397.249	432.12
397.474	433.12
397.698	426.12
397.922	429.12
398.147	426.12
398.371	438.12
398.595	429.12
398.82	424.12
399.044	439.12
399.268	439.12
399.492	455.12
399.717	490.12
399.941	504.12
400.165	530.12
400.389	543.12
400.613	502.12
400.837	470.12
401.062	458.12
401.286	429.12
401.51	458.12
401.734	454.12
401.958	430.12
402.182	449.12
402.406	462.12
402.63	478.12
402.854	449.12
403.078	455.12
403.302	456.12
403.526	450.12
403.75	469.12
403.974	461.12
404.198	491.12
404.422	475.12
404.645	462.12
404.869	478.12
405.093	496.12
405.317	566.12
405.541	587.12
405.765	515.12
405.988	507.12
406.212	519.12
406.436	532.12
406.66	538.12
406.883	542.12
407.107	540.12
407.331	553.12
407.555	646.12
407.778	634.12
408.002	595.12
408.226	524.12
408.449	532.12
408.673	524.12
408.896	560.12
409.12	589.12
409.344	560.12
409.567	480.12
409.791	496.12
410.014	461.12
410.238	468.12
410.461	450.12
410.685	476.12
410.908	492.12
411.132	505.12
411.355	566.12
411.578	526.12
411.802	463.12
412.025	459.12
412.249	476.12
412.472	484.12
412.695	569.12
412.919	539.12
413.142	507.12
413.365	482.12
413.589	458.12
413.812	458.12
414.035	435.12
414.258	460.12
414.482	418.12
414.705	465.12
414.928	427.12
415.151	418.12
415.374	415.12
415.597	432.12
415.821	442.12
416.044	463.12
416.267	443.12
416.49	452.12
416.713	448.12
416.936	442.12
417.159	424.12
417.382	444.12
417.605	459.12
417.828	448.12
418.051	477.12
418.274	470.12
418.497	447.12
418.72	442.12
418.943	428.12
419.166	458.12
419.389	471.12
419.611	477.12
419.834	486.12
420.057	478.12
420.28	461.12
420.503	494.12
420.726	444.12
420.948	472.12
421.171	528.12
421.394	553.12
421.617	491.12
421.839	466.12
422.062	477.12
422.285	481.12
422.507	550.12
422.73	654.12
422.953	604.12
423.175	512.12
423.398	482.12
423.621	487.12
423.843	504.12
424.066	526.12
424.288	493.12
424.511	520.12
424.733	586.12
424.956	680.12
425.178	641.12
425.401	653.12
425.623	689.12
425.846	584.12
426.068	526.12
426.291	531.12
426.513	531.12
426.735	558.12
426.958	552.12
427.18	652.12
427.402	784.12
427.625	871.12
427.847	811.12
428.069	705.12
428.292	613.12
428.514	532.12
428.736	529.12
428.958	486.12
429.181	459.12
429.403	446.12
429.625	488.12
429.847	541.12
430.069	601.12
430.292	605.12
430.514	513.12
430.736	479.12
430.958	462.12
431.18	432.12
431.402	443.12
431.624	437.12
431.846	425.12
432.068	426.12
432.29	453.12
432.512	440.12
432.734	452.12
432.956	441.12
433.178	446.12
433.4	471.12
433.622	460.12
433.844	436.12
434.066	450.12
434.287	427.12
434.509	454.12
434.731	448.12
434.953	470.12
435.175	486.12
435.397	490.12
435.618	538.12
435.84	560.12
436.062	658.12
436.284	758.12
436.505	626.12
436.727	542.12
436.949	516.12
437.17	487.12
437.392	490.12
437.614	494.12
437.835	549.12
438.057	661.12
438.278	740.12
438.5	729.12
438.721	824.12
438.943	754.12
439.165	621.12
439.386	526.12
439.608	566.12
439.829	547.12
440.05	580.12
440.272	645.12
440.493	586.12
440.715	528.12
440.936	498.12
441.158	464.12
441.379	477.12
441.6	475.12
441.822	520.12
442.043	567.12
442.264	644.12
442.486	694.12
442.707	580.12
442.928	550.12
443.149	564.12
443.371	560.12
443.592	616.12
443.813	745.12
444.034	784.12
444.255	609.12
444.476	539.12
444.698	527.12
444.919	513.12
445.14	622.12
445.361	587.12
445.582	549.12
445.803	642.12
446.024	784.12
446.245	769.12
446.466	701.12
446.687	604.12
446.908	538.12
447.129	520.12
447.35	489.12
447.571	476.12
447.792	487.12
448.013	477.12
448.234	492.12
448.455	576.12
448.675	682.12
448.896	813.12
449.117	669.12
449.338	647.12
449.559	765.12
449.779	849.12
450	681.12
450.221	572.12
450.442	509.12
450.662	490.12
450.883	510.12
451.104	510.12
451.324	501.12
451.545	474.12
451.766	442.12
451.986	437.12
452.207	453.12
452.428	423.12
452.648	447.12
452.869	436.12
453.089	426.12
453.31	452.12
453.53	450.12
453.751	437.12
453.971	430.12
454.192	484.12
454.412	448.12
454.633	430.12
454.853	422.12
455.073	446.12
455.294	471.12
455.514	530.12
455.734	515.12
455.955	426.12
456.175	426.12
456.395	409.12
456.616	394.12
456.836	410.12
457.056	411.12
457.276	398.12
457.497	400.12
457.717	380.12
457.937	418.12
458.157	412.12
458.377	410.12
458.598	452.12
458.818	516.12
459.038	620.12
459.258	627.12
459.478	538.12
459.698	461.12
459.918	437.12
460.138	433.12
460.358	445.12
460.578	458.12
460.798	442.12
461.018	459.12
461.238	447.12
461.458	449.12
461.678	436.12
461.898	457.12
462.118	442.12
462.338	426.12
462.558	443.12
462.777	445.12
462.997	456.12
463.217	454.12
463.437	466.12
463.657	464.12
463.876	486.12
464.096	439.12
464.316	461.12
464.536	470.12
464.755	470.12
464.975	482.12
465.195	564.12
465.414	645.12
465.634	564.12
465.854	486.12
466.073	450.12
466.293	451.12
466.512	412.12
466.732	452.12
466.951	434.12
467.171	440.12
467.391	438.12
467.61	451.12
467.829	471.12
468.049	450.12
468.268	464.12
468.488	418.12
468.707	429.12
468.927	421.12
469.146	419.12
469.365	405.12
469.585	402.12
469.804	456.12
470.023	448.12
470.243	435.12
470.462	431.12
470.681	465.12
470.901	457.12
471.12	467.12
471.339	427.12
471.558	451.12
471.777	441.12
471.997	430.12
472.216	441.12
472.435	484.12
472.654	467.12
472.873	465.12
473.092	435.12
473.311	445.12
473.53	442.12
473.749	440.12
473.968	485.12
474.187	617.12
474.406	639.12
474.625	510.12
474.844	488.12
475.063	465.12
475.282	459.12
475.501	448.12
475.72	460.12
475.939	451.12
476.158	454.12
476.377	475.12
476.596	434.12
476.814	482.12
477.033	482.12
477.252	460.12
477.471	474.12
477.69	467.12
477.908	457.12
478.127	477.12
478.346	476.12
478.564	501.12
478.783	483.12
479.002	495.12
479.22	518.12
479.439	502.12
479.658	528.12
479.876	534.12
480.095	520.12
480.313	584.12
480.532	550.12
480.751	554.12
480.969	568.12
481.188	630.12
481.406	686.12
481.624	610.12
481.843	576.12
482.061	529.12
482.28	537.12
482.498	529.12
482.717	535.12
482.935	550.12
483.153	522.12
483.372	525.12
483.59	519.12
483.808	538.12
484.027	516.12
484.245	511.12
484.463	522.12
484.681	533.12
484.9	527.12
485.118	544.12
485.336	527.12
485.554	547.12
485.772	536.12
485.99	547.12
486.209	534.12
486.427	554.12
486.645	577.12
486.863	569.12
487.081	584.12
487.299	561.12
487.517	570.12
487.735	545.12
487.953	565.12
488.171	572.12
488.389	556.12
488.607	577.12
488.825	551.12
489.043	587.12
489.261	574.12
489.479	566.12
489.696	571.12
489.914	596.12
490.132	585.12
490.35	560.12
490.568	573.12
490.786	607.12
491.003	610.12
491.221	602.12
491.439	626.12
491.657	626.12
491.874	643.12
492.092	634.12
492.31	648.12
492.527	651.12
492.745	653.12
492.963	664.12
493.18	661.12
493.398	646.12
493.615	650.12
493.833	653.12
494.05	652.12
494.268	652.12
494.485	635.12
494.703	650.12
494.92	666.12
495.138	650.12
495.355	658.12
495.573	656.12
495.79	656.12
496.008	659.12
496.225	641.12
496.442	654.12
496.66	664.12
496.877	652.12
497.094	669.12
497.312	678.12
497.529	676.12
497.746	680.12
497.963	675.12
498.181	702.12
498.398	716.12
498.615	682.12
498.832	708.12
499.049	723.12
499.267	728.12
499.484	768.12
499.701	771.12
499.918	784.12
500.135	809.12
500.352	805.12
500.569	818.12
500.786	849.12
501.003	826.12
501.22	848.12
501.437	807.12
501.654	800.12
501.871	811.12
