Data from 1972.PennyLincolnUp.Lamp.En5.5.200Scan.071719.P1._HRD10591_15-26-55-843.txt Node
Date: Thu Jul 18 15:26:55 EDT 2019
User: cochatt
Spectrometer: HR+D1059
Trigger mode: 1
Integration Time (sec): 1.000000E-1
Scans to average: 1
Electric dark correction enabled: true
Nonlinearity correction enabled: false
Boxcar width: 0
XAxis mode: Wavelengths
Number of Pixels in Spectrum: 2048
>>>>>Begin Spectral Data<<<<<
223.165	-13.88
223.4	-13.88
223.635	-13.88
223.869	-18.88
224.104	2.12
224.338	-20.88
224.573	-19.88
224.808	-6.88
225.042	-13.88
225.277	-11.88
225.511	7.12
225.746	-4.88
225.98	8.12
226.215	21.12
226.449	9.12
226.683	15.12
226.918	19.12
227.152	29.12
227.387	27.12
227.621	30.12
227.856	50.12
228.09	53.12
228.324	58.12
228.559	46.12
228.793	66.12
229.027	82.12
229.262	101.12
229.496	99.12
229.73	102.12
229.964	127.12
230.199	101.12
230.433	102.12
230.667	107.12
230.901	103.12
231.136	107.12
231.37	115.12
231.604	95.12
231.838	105.12
232.072	103.12
232.306	89.12
232.541	114.12
232.775	98.12
233.009	103.12
233.243	98.12
233.477	104.12
233.711	92.12
233.945	108.12
234.179	90.12
234.413	111.12
234.647	113.12
234.881	116.12
235.115	110.12
235.349	109.12
235.583	111.12
235.817	115.12
236.051	113.12
236.285	108.12
236.519	114.12
236.753	115.12
236.987	127.12
237.221	160.12
237.455	197.12
237.689	141.12
237.922	128.12
238.156	117.12
238.39	129.12
238.624	131.12
238.858	121.12
239.091	104.12
239.325	128.12
239.559	111.12
239.793	101.12
240.027	117.12
240.26	119.12
240.494	125.12
240.728	121.12
240.961	119.12
241.195	140.12
241.429	132.12
241.662	129.12
241.896	126.12
242.13	114.12
242.363	115.12
242.597	128.12
242.83	124.12
243.064	118.12
243.298	121.12
243.531	142.12
243.765	136.12
243.998	137.12
244.232	145.12
244.465	122.12
244.699	110.12
244.932	130.12
245.166	124.12
245.399	128.12
245.633	123.12
245.866	135.12
246.099	126.12
246.333	135.12
246.566	139.12
246.8	134.12
247.033	146.12
247.266	146.12
247.5	136.12
247.733	166.12
247.966	148.12
248.2	141.12
248.433	166.12
248.666	157.12
248.899	144.12
249.133	167.12
249.366	186.12
249.599	146.12
249.832	168.12
250.066	167.12
250.299	152.12
250.532	168.12
250.765	176.12
250.998	191.12
251.231	188.12
251.465	183.12
251.698	174.12
251.931	161.12
252.164	164.12
252.397	167.12
252.63	174.12
252.863	180.12
253.096	201.12
253.329	187.12
253.562	192.12
253.795	185.12
254.028	171.12
254.261	190.12
254.494	192.12
254.727	216.12
254.96	225.12
255.193	228.12
255.426	213.12
255.659	192.12
255.892	211.12
256.124	189.12
256.357	205.12
256.59	206.12
256.823	191.12
257.056	180.12
257.289	180.12
257.521	184.12
257.754	167.12
257.987	180.12
258.22	203.12
258.452	172.12
258.685	198.12
258.918	186.12
259.151	175.12
259.383	194.12
259.616	167.12
259.849	192.12
260.081	194.12
260.314	203.12
260.547	202.12
260.779	204.12
261.012	202.12
261.244	193.12
261.477	186.12
261.71	180.12
261.942	203.12
262.175	202.12
262.407	191.12
262.64	176.12
262.872	185.12
263.105	176.12
263.337	191.12
263.57	166.12
263.802	180.12
264.035	184.12
264.267	183.12
264.499	186.12
264.732	201.12
264.964	181.12
265.197	169.12
265.429	167.12
265.661	187.12
265.894	186.12
266.126	181.12
266.358	188.12
266.591	184.12
266.823	206.12
267.055	188.12
267.287	182.12
267.52	202.12
267.752	173.12
267.984	197.12
268.216	191.12
268.448	206.12
268.681	207.12
268.913	188.12
269.145	223.12
269.377	220.12
269.609	217.12
269.841	218.12
270.073	218.12
270.306	242.12
270.538	257.12
270.77	247.12
271.002	260.12
271.234	255.12
271.466	234.12
271.698	234.12
271.93	245.12
272.162	246.12
272.394	238.12
272.626	233.12
272.858	243.12
273.09	226.12
273.322	224.12
273.553	225.12
273.785	214.12
274.017	207.12
274.249	223.12
274.481	229.12
274.713	224.12
274.945	213.12
275.176	219.12
275.408	217.12
275.64	228.12
275.872	230.12
276.104	219.12
276.335	236.12
276.567	223.12
276.799	227.12
277.031	268.12
277.262	242.12
277.494	270.12
277.726	243.12
277.957	240.12
278.189	231.12
278.421	216.12
278.652	228.12
278.884	227.12
279.115	216.12
279.347	212.12
279.579	217.12
279.81	219.12
280.042	218.12
280.273	205.12
280.505	220.12
280.736	217.12
280.968	205.12
281.199	215.12
281.431	218.12
281.662	233.12
281.894	203.12
282.125	215.12
282.356	222.12
282.588	233.12
282.819	220.12
283.051	230.12
283.282	209.12
283.513	207.12
283.745	213.12
283.976	234.12
284.207	228.12
284.439	231.12
284.67	224.12
284.901	194.12
285.132	231.12
285.364	227.12
285.595	231.12
285.826	217.12
286.057	232.12
286.288	231.12
286.52	228.12
286.751	215.12
286.982	226.12
287.213	213.12
287.444	227.12
287.675	215.12
287.906	226.12
288.138	247.12
288.369	255.12
288.6	254.12
288.831	232.12
289.062	220.12
289.293	247.12
289.524	244.12
289.755	223.12
289.986	227.12
290.217	250.12
290.448	235.12
290.679	235.12
290.91	230.12
291.141	231.12
291.371	235.12
291.602	262.12
291.833	230.12
292.064	222.12
292.295	243.12
292.526	211.12
292.757	231.12
292.987	210.12
293.218	231.12
293.449	248.12
293.68	235.12
293.91	218.12
294.141	219.12
294.372	239.12
294.603	226.12
294.833	239.12
295.064	226.12
295.295	231.12
295.525	249.12
295.756	231.12
295.987	244.12
296.217	264.12
296.448	256.12
296.679	243.12
296.909	221.12
297.14	256.12
297.37	229.12
297.601	252.12
297.831	249.12
298.062	233.12
298.292	242.12
298.523	243.12
298.753	261.12
298.984	237.12
299.214	246.12
299.445	232.12
299.675	217.12
299.905	247.12
300.136	262.12
300.366	254.12
300.597	234.12
300.827	232.12
301.057	259.12
301.288	272.12
301.518	256.12
301.748	262.12
301.979	258.12
302.209	245.12
302.439	246.12
302.669	250.12
302.9	260.12
303.13	252.12
303.36	265.12
303.59	264.12
303.82	246.12
304.051	267.12
304.281	262.12
304.511	251.12
304.741	254.12
304.971	247.12
305.201	246.12
305.431	260.12
305.661	260.12
305.891	265.12
306.121	245.12
306.352	273.12
306.582	255.12
306.812	257.12
307.042	258.12
307.272	248.12
307.502	266.12
307.731	280.12
307.961	283.12
308.191	256.12
308.421	263.12
308.651	267.12
308.881	264.12
309.111	274.12
309.341	279.12
309.571	286.12
309.8	280.12
310.03	270.12
310.26	295.12
310.49	295.12
310.72	296.12
310.949	283.12
311.179	314.12
311.409	291.12
311.639	296.12
311.868	293.12
312.098	305.12
312.328	299.12
312.557	314.12
312.787	320.12
313.017	307.12
313.246	306.12
313.476	285.12
313.706	296.12
313.935	296.12
314.165	298.12
314.394	306.12
314.624	312.12
314.853	303.12
315.083	309.12
315.312	302.12
315.542	280.12
315.771	284.12
316.001	288.12
316.23	291.12
316.46	300.12
316.689	294.12
316.919	303.12
317.148	307.12
317.377	312.12
317.607	313.12
317.836	318.12
318.065	294.12
318.295	296.12
318.524	309.12
318.753	297.12
318.983	283.12
319.212	284.12
319.441	294.12
319.67	301.12
319.9	282.12
320.129	294.12
320.358	318.12
320.587	314.12
320.816	332.12
321.046	318.12
321.275	315.12
321.504	310.12
321.733	303.12
321.962	317.12
322.191	326.12
322.42	328.12
322.649	331.12
322.878	344.12
323.108	349.12
323.337	373.12
323.566	359.12
323.795	384.12
324.024	408.12
324.253	519.12
324.482	711.12
324.71	1082.12
324.939	1567.12
325.168	1424.12
325.397	711.12
325.626	496.12
325.855	400.12
326.084	401.12
326.313	360.12
326.542	378.12
326.77	420.12
326.999	474.12
327.228	652.12
327.457	934.12
327.686	1212.12
327.914	822.12
328.143	530.12
328.372	467.12
328.6	454.12
328.829	424.12
329.058	409.12
329.287	414.12
329.515	420.12
329.744	394.12
329.972	366.12
330.201	393.12
330.43	401.12
330.658	444.12
330.887	438.12
331.115	440.12
331.344	380.12
331.572	353.12
331.801	361.12
332.03	380.12
332.258	352.12
332.486	345.12
332.715	326.12
332.943	342.12
333.172	342.12
333.4	340.12
333.629	350.12
333.857	343.12
334.085	373.12
334.314	362.12
334.542	378.12
334.771	402.12
334.999	388.12
335.227	371.12
335.455	340.12
335.684	355.12
335.912	326.12
336.14	334.12
336.369	347.12
336.597	320.12
336.825	345.12
337.053	338.12
337.281	327.12
337.51	332.12
337.738	338.12
337.966	348.12
338.194	344.12
338.422	329.12
338.65	327.12
338.878	315.12
339.106	325.12
339.334	343.12
339.562	321.12
339.79	338.12
340.018	324.12
340.246	343.12
340.474	331.12
340.702	321.12
340.93	343.12
341.158	335.12
341.386	330.12
341.614	328.12
341.842	325.12
342.07	335.12
342.298	320.12
342.526	332.12
342.754	320.12
342.981	311.12
343.209	310.12
343.437	311.12
343.665	325.12
343.893	323.12
344.12	348.12
344.348	328.12
344.576	335.12
344.804	317.12
345.031	350.12
345.259	346.12
345.487	339.12
345.714	334.12
345.942	318.12
346.17	321.12
346.397	329.12
346.625	327.12
346.853	327.12
347.08	326.12
347.308	314.12
347.535	318.12
347.763	339.12
347.99	334.12
348.218	301.12
348.445	317.12
348.673	340.12
348.9	300.12
349.128	304.12
349.355	299.12
349.583	311.12
349.81	303.12
350.037	323.12
350.265	326.12
350.492	301.12
350.72	301.12
350.947	308.12
351.174	327.12
351.402	321.12
351.629	326.12
351.856	298.12
352.083	327.12
352.311	331.12
352.538	331.12
352.765	328.12
352.992	330.12
353.22	316.12
353.447	312.12
353.674	315.12
353.901	318.12
354.128	318.12
354.355	296.12
354.583	308.12
354.81	294.12
355.037	294.12
355.264	319.12
355.491	295.12
355.718	299.12
355.945	294.12
356.172	301.12
356.399	286.12
356.626	297.12
356.853	308.12
357.08	303.12
357.307	318.12
357.534	303.12
357.761	312.12
357.988	300.12
358.215	293.12
358.441	295.12
358.668	291.12
358.895	319.12
359.122	299.12
359.349	303.12
359.576	327.12
359.802	307.12
360.029	351.12
360.256	357.12
360.483	357.12
360.709	329.12
360.936	317.12
361.163	309.12
361.39	308.12
361.616	318.12
361.843	302.12
362.07	331.12
362.296	324.12
362.523	322.12
362.749	324.12
362.976	304.12
363.203	312.12
363.429	314.12
363.656	298.12
363.882	290.12
364.109	299.12
364.335	294.12
364.562	322.12
364.788	310.12
365.015	313.12
365.241	311.12
365.468	330.12
365.694	312.12
365.92	324.12
366.147	307.12
366.373	298.12
366.599	302.12
366.826	295.12
367.052	315.12
367.278	306.12
367.505	308.12
367.731	308.12
367.957	317.12
368.184	315.12
368.41	294.12
368.636	320.12
368.862	310.12
369.089	294.12
369.315	307.12
369.541	317.12
369.767	319.12
369.993	314.12
370.219	307.12
370.445	306.12
370.672	312.12
370.898	284.12
371.124	314.12
371.35	309.12
371.576	298.12
371.802	297.12
372.028	307.12
372.254	315.12
372.48	303.12
372.706	321.12
372.932	302.12
373.158	310.12
373.384	317.12
373.61	304.12
373.835	323.12
374.061	320.12
374.287	305.12
374.513	321.12
374.739	325.12
374.965	306.12
375.191	310.12
375.416	311.12
375.642	323.12
375.868	322.12
376.094	310.12
376.319	308.12
376.545	309.12
376.771	295.12
376.997	302.12
377.222	308.12
377.448	308.12
377.674	322.12
377.899	299.12
378.125	288.12
378.35	304.12
378.576	307.12
378.802	306.12
379.027	308.12
379.253	302.12
379.478	312.12
379.704	294.12
379.929	296.12
380.155	308.12
380.38	293.12
380.606	295.12
380.831	315.12
381.057	314.12
381.282	318.12
381.507	308.12
381.733	303.12
381.958	318.12
382.184	314.12
382.409	312.12
382.634	331.12
382.86	303.12
383.085	318.12
383.31	308.12
383.535	332.12
383.761	323.12
383.986	310.12
384.211	314.12
384.436	326.12
384.662	322.12
384.887	313.12
385.112	331.12
385.337	321.12
385.562	324.12
385.787	328.12
386.013	343.12
386.238	320.12
386.463	323.12
386.688	329.12
386.913	316.12
387.138	327.12
387.363	328.12
387.588	322.12
387.813	327.12
388.038	336.12
388.263	329.12
388.488	343.12
388.713	321.12
388.938	329.12
389.163	325.12
389.387	331.12
389.612	325.12
389.837	323.12
390.062	333.12
390.287	342.12
390.512	333.12
390.736	330.12
390.961	332.12
391.186	314.12
391.411	315.12
391.636	330.12
391.86	339.12
392.085	336.12
392.31	335.12
392.534	331.12
392.759	335.12
392.984	346.12
393.208	354.12
393.433	362.12
393.658	360.12
393.882	317.12
394.107	329.12
394.331	316.12
394.556	353.12
394.78	314.12
395.005	338.12
395.229	328.12
395.454	322.12
395.678	340.12
395.903	347.12
396.127	361.12
396.352	389.12
396.576	338.12
396.801	332.12
397.025	367.12
397.249	349.12
397.474	344.12
397.698	342.12
397.922	367.12
398.147	376.12
398.371	389.12
398.595	357.12
398.82	360.12
399.044	369.12
399.268	382.12
399.492	375.12
399.717	398.12
399.941	404.12
400.165	446.12
400.389	464.12
400.613	427.12
400.837	415.12
401.062	359.12
401.286	351.12
401.51	375.12
401.734	367.12
401.958	375.12
402.182	366.12
402.406	376.12
402.63	363.12
402.854	362.12
403.078	387.12
403.302	375.12
403.526	391.12
403.75	398.12
403.974	391.12
404.198	377.12
404.422	413.12
404.645	384.12
404.869	382.12
405.093	405.12
405.317	425.12
405.541	488.12
405.765	429.12
405.988	411.12
406.212	394.12
406.436	416.12
406.66	441.12
406.883	420.12
407.107	416.12
407.331	430.12
407.555	487.12
407.778	519.12
408.002	466.12
408.226	442.12
408.449	423.12
408.673	402.12
408.896	426.12
409.12	470.12
409.344	444.12
409.567	386.12
409.791	397.12
410.014	402.12
410.238	388.12
410.461	394.12
410.685	379.12
410.908	407.12
411.132	417.12
411.355	460.12
411.578	422.12
411.802	411.12
412.025	383.12
412.249	395.12
412.472	412.12
412.695	434.12
412.919	413.12
413.142	397.12
413.365	372.12
413.589	366.12
413.812	379.12
414.035	355.12
414.258	354.12
414.482	350.12
414.705	360.12
414.928	361.12
415.151	365.12
415.374	373.12
415.597	354.12
415.821	354.12
416.044	363.12
416.267	362.12
416.49	364.12
416.713	365.12
416.936	361.12
417.159	345.12
417.382	349.12
417.605	363.12
417.828	390.12
418.051	381.12
418.274	379.12
418.497	360.12
418.72	373.12
418.943	354.12
419.166	357.12
419.389	403.12
419.611	382.12
419.834	378.12
420.057	380.12
420.28	389.12
420.503	370.12
420.726	388.12
420.948	396.12
421.171	412.12
421.394	438.12
421.617	409.12
421.839	378.12
422.062	383.12
422.285	390.12
422.507	440.12
422.73	494.12
422.953	463.12
423.175	416.12
423.398	410.12
423.621	386.12
423.843	382.12
424.066	422.12
424.288	418.12
424.511	442.12
424.733	472.12
424.956	533.12
425.178	516.12
425.401	498.12
425.623	522.12
425.846	460.12
426.068	427.12
426.291	411.12
426.513	397.12
426.735	435.12
426.958	444.12
427.18	534.12
427.402	596.12
427.625	664.12
427.847	565.12
428.069	484.12
428.292	448.12
428.514	409.12
428.736	403.12
428.958	394.12
429.181	384.12
429.403	395.12
429.625	403.12
429.847	420.12
430.069	478.12
430.292	470.12
430.514	407.12
430.736	394.12
430.958	379.12
431.18	372.12
431.402	365.12
431.624	361.12
431.846	362.12
432.068	346.12
432.29	345.12
432.512	360.12
432.734	359.12
432.956	357.12
433.178	374.12
433.4	387.12
433.622	374.12
433.844	340.12
434.066	363.12
434.287	374.12
434.509	372.12
434.731	363.12
434.953	366.12
435.175	388.12
435.397	406.12
435.618	421.12
435.84	447.12
436.062	522.12
436.284	586.12
436.505	489.12
436.727	423.12
436.949	398.12
437.17	407.12
437.392	384.12
437.614	395.12
437.835	426.12
438.057	494.12
438.278	575.12
438.5	568.12
438.721	629.12
438.943	611.12
439.165	466.12
439.386	427.12
439.608	402.12
439.829	418.12
440.05	450.12
440.272	478.12
440.493	460.12
440.715	418.12
440.936	398.12
441.158	390.12
441.379	382.12
441.6	392.12
441.822	420.12
442.043	428.12
442.264	511.12
442.486	549.12
442.707	463.12
442.928	418.12
443.149	417.12
443.371	449.12
443.592	480.12
443.813	562.12
444.034	611.12
444.255	493.12
444.476	419.12
444.698	412.12
444.919	427.12
445.14	497.12
445.361	452.12
445.582	451.12
445.803	507.12
446.024	568.12
446.245	595.12
446.466	508.12
446.687	448.12
446.908	412.12
447.129	398.12
447.35	388.12
447.571	403.12
447.792	392.12
448.013	396.12
448.234	410.12
448.455	416.12
448.675	515.12
448.896	620.12
449.117	549.12
449.338	500.12
449.559	576.12
449.779	647.12
450	511.12
450.221	451.12
450.442	406.12
450.662	390.12
450.883	375.12
451.104	395.12
451.324	396.12
451.545	374.12
451.766	360.12
451.986	339.12
452.207	364.12
452.428	351.12
452.648	354.12
452.869	336.12
453.089	340.12
453.31	359.12
453.53	330.12
453.751	348.12
453.971	347.12
454.192	365.12
454.412	372.12
454.633	344.12
454.853	322.12
455.073	344.12
455.294	348.12
455.514	406.12
455.734	400.12
455.955	347.12
456.175	316.12
456.395	310.12
456.616	324.12
456.836	313.12
457.056	327.12
457.276	314.12
457.497	340.12
457.717	339.12
457.937	344.12
458.157	327.12
458.377	334.12
458.598	328.12
458.818	384.12
459.038	439.12
459.258	444.12
459.478	382.12
459.698	363.12
459.918	365.12
460.138	371.12
460.358	370.12
460.578	359.12
460.798	384.12
461.018	364.12
461.238	374.12
461.458	350.12
461.678	356.12
461.898	370.12
462.118	374.12
462.338	354.12
462.558	368.12
462.777	403.12
462.997	404.12
463.217	390.12
463.437	396.12
463.657	387.12
463.876	393.12
464.096	385.12
464.316	393.12
464.536	392.12
464.755	401.12
464.975	401.12
465.195	421.12
465.414	468.12
465.634	406.12
465.854	390.12
466.073	358.12
466.293	365.12
466.512	360.12
466.732	362.12
466.951	352.12
467.171	352.12
467.391	353.12
467.61	353.12
467.829	349.12
468.049	355.12
468.268	364.12
468.488	358.12
468.707	352.12
468.927	372.12
469.146	346.12
469.365	354.12
469.585	333.12
469.804	367.12
470.023	376.12
470.243	368.12
470.462	351.12
470.681	357.12
470.901	360.12
471.12	348.12
471.339	348.12
471.558	366.12
471.777	371.12
471.997	365.12
472.216	373.12
472.435	388.12
472.654	379.12
472.873	371.12
473.092	378.12
473.311	343.12
473.53	364.12
473.749	371.12
473.968	385.12
474.187	461.12
474.406	478.12
474.625	399.12
474.844	377.12
475.063	352.12
475.282	370.12
475.501	357.12
475.72	376.12
475.939	358.12
476.158	368.12
476.377	380.12
476.596	378.12
476.814	367.12
477.033	392.12
477.252	395.12
477.471	397.12
477.69	389.12
477.908	403.12
478.127	390.12
478.346	406.12
478.564	400.12
478.783	394.12
479.002	401.12
479.22	399.12
479.439	421.12
479.658	422.12
479.876	432.12
480.095	434.12
480.313	442.12
480.532	459.12
480.751	436.12
480.969	447.12
481.188	482.12
481.406	498.12
481.624	442.12
481.843	430.12
482.061	437.12
482.28	410.12
482.498	418.12
482.717	419.12
482.935	443.12
483.153	430.12
483.372	422.12
483.59	418.12
483.808	429.12
484.027	405.12
484.245	430.12
484.463	428.12
484.681	419.12
484.9	423.12
485.118	425.12
485.336	443.12
485.554	412.12
485.772	448.12
485.99	444.12
486.209	413.12
486.427	419.12
486.645	453.12
486.863	462.12
487.081	446.12
487.299	442.12
487.517	451.12
487.735	470.12
487.953	445.12
488.171	462.12
488.389	443.12
488.607	450.12
488.825	458.12
489.043	464.12
489.261	476.12
489.479	461.12
489.696	470.12
489.914	472.12
490.132	478.12
490.35	485.12
490.568	474.12
490.786	490.12
491.003	489.12
491.221	489.12
491.439	498.12
491.657	500.12
491.874	500.12
492.092	498.12
492.31	505.12
492.527	516.12
492.745	493.12
492.963	512.12
493.18	511.12
493.398	518.12
493.615	502.12
493.833	516.12
494.05	518.12
494.268	515.12
494.485	512.12
494.703	514.12
494.92	541.12
495.138	543.12
495.355	520.12
495.573	522.12
495.79	540.12
496.008	529.12
496.225	522.12
496.442	536.12
496.66	521.12
496.877	536.12
497.094	532.12
497.312	526.12
497.529	549.12
497.746	548.12
497.963	558.12
498.181	566.12
498.398	564.12
498.615	584.12
498.832	572.12
499.049	594.12
499.267	591.12
499.484	609.12
499.701	627.12
499.918	655.12
500.135	660.12
500.352	677.12
500.569	690.12
500.786	672.12
501.003	703.12
501.22	674.12
501.437	655.12
501.654	657.12
501.871	644.12
502.088	635.12
