Data from 1972.PennyLincolnUp.Lamp.En5.5.200Scan.071719.P1._HRD10591_15-29-25-845.txt Node
Date: Thu Jul 18 15:29:25 EDT 2019
User: cochatt
Spectrometer: HR+D1059
Trigger mode: 1
Integration Time (sec): 1.000000E-1
Scans to average: 1
Electric dark correction enabled: true
Nonlinearity correction enabled: false
Boxcar width: 0
XAxis mode: Wavelengths
Number of Pixels in Spectrum: 2048
>>>>>Begin Spectral Data<<<<<
223.165	-12.69
223.4	-12.69
223.635	-12.69
223.869	-11.69
224.104	-13.69
224.338	-18.69
224.573	-10.69
224.808	1.31
225.042	-15.69
225.277	-8.69
225.511	1.31
225.746	8.31
225.98	7.31
226.215	16.31
226.449	17.31
226.683	18.31
226.918	10.31
227.152	11.31
227.387	14.31
227.621	19.31
227.856	38.31
228.09	58.31
228.324	32.31
228.559	55.31
228.793	59.31
229.027	103.31
229.262	117.31
229.496	135.31
229.73	129.31
229.964	165.31
230.199	152.31
230.433	113.31
230.667	129.31
230.901	115.31
231.136	111.31
231.37	123.31
231.604	104.31
231.838	112.31
232.072	101.31
232.306	114.31
232.541	121.31
232.775	106.31
233.009	122.31
233.243	137.31
233.477	121.31
233.711	108.31
233.945	119.31
234.179	117.31
234.413	120.31
234.647	119.31
234.881	113.31
235.115	115.31
235.349	119.31
235.583	124.31
235.817	126.31
236.051	132.31
236.285	121.31
236.519	130.31
236.753	132.31
236.987	146.31
237.221	207.31
237.455	250.31
237.689	193.31
237.922	143.31
238.156	150.31
238.39	131.31
238.624	126.31
238.858	149.31
239.091	125.31
239.325	121.31
239.559	139.31
239.793	126.31
240.027	132.31
240.26	133.31
240.494	151.31
240.728	162.31
240.961	162.31
241.195	146.31
241.429	131.31
241.662	136.31
241.896	140.31
242.13	148.31
242.363	137.31
242.597	140.31
242.83	139.31
243.064	140.31
243.298	138.31
243.531	130.31
243.765	138.31
243.998	136.31
244.232	129.31
244.465	155.31
244.699	129.31
244.932	147.31
245.166	138.31
245.399	157.31
245.633	164.31
245.866	139.31
246.099	149.31
246.333	133.31
246.566	140.31
246.8	171.31
247.033	153.31
247.266	157.31
247.5	160.31
247.733	164.31
247.966	179.31
248.2	172.31
248.433	172.31
248.666	175.31
248.899	187.31
249.133	211.31
249.366	220.31
249.599	198.31
249.832	173.31
250.066	193.31
250.299	186.31
250.532	210.31
250.765	210.31
250.998	231.31
251.231	248.31
251.465	228.31
251.698	220.31
251.931	205.31
252.164	198.31
252.397	191.31
252.63	234.31
252.863	225.31
253.096	209.31
253.329	244.31
253.562	223.31
253.795	235.31
254.028	244.31
254.261	232.31
254.494	253.31
254.727	295.31
254.96	300.31
255.193	297.31
255.426	274.31
255.659	252.31
255.892	248.31
256.124	267.31
256.357	247.31
256.59	250.31
256.823	218.31
257.056	216.31
257.289	227.31
257.521	208.31
257.754	220.31
257.987	229.31
258.22	227.31
258.452	208.31
258.685	209.31
258.918	210.31
259.151	229.31
259.383	243.31
259.616	239.31
259.849	231.31
260.081	239.31
260.314	263.31
260.547	265.31
260.779	248.31
261.012	244.31
261.244	234.31
261.477	243.31
261.71	255.31
261.942	232.31
262.175	258.31
262.407	241.31
262.64	241.31
262.872	224.31
263.105	219.31
263.337	229.31
263.57	234.31
263.802	214.31
264.035	222.31
264.267	228.31
264.499	221.31
264.732	216.31
264.964	219.31
265.197	211.31
265.429	200.31
265.661	210.31
265.894	222.31
266.126	224.31
266.358	230.31
266.591	224.31
266.823	231.31
267.055	230.31
267.287	227.31
267.52	231.31
267.752	228.31
267.984	234.31
268.216	216.31
268.448	214.31
268.681	228.31
268.913	241.31
269.145	267.31
269.377	292.31
269.609	267.31
269.841	295.31
270.073	274.31
270.306	284.31
270.538	335.31
270.77	325.31
271.002	327.31
271.234	303.31
271.466	312.31
271.698	336.31
271.93	341.31
272.162	314.31
272.394	324.31
272.626	300.31
272.858	325.31
273.09	288.31
273.322	287.31
273.553	267.31
273.785	275.31
274.017	281.31
274.249	266.31
274.481	271.31
274.713	273.31
274.945	276.31
275.176	268.31
275.408	284.31
275.64	267.31
275.872	262.31
276.104	287.31
276.335	272.31
276.567	276.31
276.799	301.31
277.031	307.31
277.262	325.31
277.494	329.31
277.726	295.31
277.957	299.31
278.189	282.31
278.421	267.31
278.652	290.31
278.884	281.31
279.115	273.31
279.347	270.31
279.579	278.31
279.81	265.31
280.042	282.31
280.273	270.31
280.505	267.31
280.736	275.31
280.968	270.31
281.199	274.31
281.431	269.31
281.662	251.31
281.894	261.31
282.125	273.31
282.356	280.31
282.588	313.31
282.819	301.31
283.051	278.31
283.282	274.31
283.513	284.31
283.745	281.31
283.976	271.31
284.207	264.31
284.439	269.31
284.67	290.31
284.901	274.31
285.132	296.31
285.364	267.31
285.595	279.31
285.826	287.31
286.057	264.31
286.288	263.31
286.52	280.31
286.751	258.31
286.982	249.31
287.213	268.31
287.444	273.31
287.675	279.31
287.906	291.31
288.138	309.31
288.369	290.31
288.6	297.31
288.831	278.31
289.062	295.31
289.293	305.31
289.524	277.31
289.755	298.31
289.986	294.31
290.217	285.31
290.448	273.31
290.679	276.31
290.91	281.31
291.141	287.31
291.371	267.31
291.602	260.31
291.833	295.31
292.064	269.31
292.295	269.31
292.526	283.31
292.757	293.31
292.987	270.31
293.218	295.31
293.449	284.31
293.68	275.31
293.91	264.31
294.141	278.31
294.372	284.31
294.603	267.31
294.833	286.31
295.064	295.31
295.295	288.31
295.525	296.31
295.756	283.31
295.987	306.31
296.217	327.31
296.448	347.31
296.679	298.31
296.909	277.31
297.14	296.31
297.37	301.31
297.601	301.31
297.831	276.31
298.062	293.31
298.292	307.31
298.523	293.31
298.753	284.31
298.984	293.31
299.214	310.31
299.445	289.31
299.675	303.31
299.905	292.31
300.136	274.31
300.366	303.31
300.597	287.31
300.827	306.31
301.057	301.31
301.288	339.31
301.518	328.31
301.748	304.31
301.979	298.31
302.209	303.31
302.439	335.31
302.669	329.31
302.9	303.31
303.13	323.31
303.36	313.31
303.59	326.31
303.82	332.31
304.051	331.31
304.281	328.31
304.511	316.31
304.741	317.31
304.971	312.31
305.201	314.31
305.431	346.31
305.661	337.31
305.891	328.31
306.121	331.31
306.352	336.31
306.582	330.31
306.812	307.31
307.042	321.31
307.272	333.31
307.502	315.31
307.731	324.31
307.961	320.31
308.191	332.31
308.421	337.31
308.651	319.31
308.881	351.31
309.111	340.31
309.341	327.31
309.571	340.31
309.8	360.31
310.03	371.31
310.26	381.31
310.49	383.31
310.72	380.31
310.949	402.31
311.179	426.31
311.409	389.31
311.639	380.31
311.868	405.31
312.098	381.31
312.328	400.31
312.557	426.31
312.787	437.31
313.017	443.31
313.246	420.31
313.476	381.31
313.706	390.31
313.935	392.31
314.165	417.31
314.394	398.31
314.624	388.31
314.853	401.31
315.083	375.31
315.312	353.31
315.542	379.31
315.771	359.31
316.001	369.31
316.23	371.31
316.46	361.31
316.689	371.31
316.919	393.31
317.148	381.31
317.377	403.31
317.607	385.31
317.836	384.31
318.065	385.31
318.295	373.31
318.524	369.31
318.753	372.31
318.983	362.31
319.212	375.31
319.441	376.31
319.67	393.31
319.9	378.31
320.129	406.31
320.358	390.31
320.587	383.31
320.816	376.31
321.046	411.31
321.275	396.31
321.504	393.31
321.733	394.31
321.962	421.31
322.191	447.31
322.42	442.31
322.649	472.31
322.878	476.31
323.108	486.31
323.337	520.31
323.566	540.31
323.795	598.31
324.024	649.31
324.253	805.31
324.482	1213.31
324.71	1906.31
324.939	2793.31
325.168	2357.31
325.397	1201.31
325.626	778.31
325.855	637.31
326.084	581.31
326.313	565.31
326.542	552.31
326.77	632.31
326.999	750.31
327.228	1072.31
327.457	1658.31
327.686	2026.31
327.914	1363.31
328.143	866.31
328.372	724.31
328.6	668.31
328.829	644.31
329.058	641.31
329.287	643.31
329.515	592.31
329.744	565.31
329.972	547.31
330.201	586.31
330.43	632.31
330.658	674.31
330.887	705.31
331.115	653.31
331.344	565.31
331.572	503.31
331.801	511.31
332.03	497.31
332.258	505.31
332.486	452.31
332.715	444.31
332.943	448.31
333.172	482.31
333.4	444.31
333.629	462.31
333.857	497.31
334.085	516.31
334.314	531.31
334.542	553.31
334.771	597.31
334.999	519.31
335.227	464.31
335.455	451.31
335.684	447.31
335.912	443.31
336.14	429.31
336.369	407.31
336.597	439.31
336.825	461.31
337.053	415.31
337.281	420.31
337.51	413.31
337.738	431.31
337.966	447.31
338.194	443.31
338.422	428.31
338.65	440.31
338.878	437.31
339.106	414.31
339.334	436.31
339.562	407.31
339.79	412.31
340.018	417.31
340.246	425.31
340.474	432.31
340.702	431.31
340.93	415.31
341.158	403.31
341.386	405.31
341.614	418.31
341.842	419.31
342.07	415.31
342.298	411.31
342.526	425.31
342.754	409.31
342.981	423.31
343.209	393.31
343.437	418.31
343.665	416.31
343.893	391.31
344.12	412.31
344.348	404.31
344.576	410.31
344.804	428.31
345.031	443.31
345.259	448.31
345.487	448.31
345.714	431.31
345.942	409.31
346.17	408.31
346.397	422.31
346.625	405.31
346.853	385.31
347.08	409.31
347.308	399.31
347.535	403.31
347.763	415.31
347.99	396.31
348.218	410.31
348.445	435.31
348.673	432.31
348.9	404.31
349.128	398.31
349.355	407.31
349.583	393.31
349.81	374.31
350.037	387.31
350.265	381.31
350.492	407.31
350.72	392.31
350.947	395.31
351.174	419.31
351.402	417.31
351.629	413.31
351.856	419.31
352.083	431.31
352.311	424.31
352.538	428.31
352.765	428.31
352.992	388.31
353.22	396.31
353.447	401.31
353.674	393.31
353.901	386.31
354.128	375.31
354.355	377.31
354.583	382.31
354.81	370.31
355.037	368.31
355.264	355.31
355.491	377.31
355.718	350.31
355.945	362.31
356.172	363.31
356.399	347.31
356.626	356.31
356.853	368.31
357.08	369.31
357.307	372.31
357.534	351.31
357.761	365.31
357.988	365.31
358.215	366.31
358.441	349.31
358.668	367.31
358.895	371.31
359.122	378.31
359.349	381.31
359.576	404.31
359.802	445.31
360.029	485.31
360.256	473.31
360.483	454.31
360.709	416.31
360.936	419.31
361.163	423.31
361.39	413.31
361.616	415.31
361.843	384.31
362.07	401.31
362.296	393.31
362.523	403.31
362.749	405.31
362.976	411.31
363.203	385.31
363.429	377.31
363.656	377.31
363.882	386.31
364.109	383.31
364.335	381.31
364.562	379.31
364.788	385.31
365.015	392.31
365.241	381.31
365.468	374.31
365.694	380.31
365.92	398.31
366.147	371.31
366.373	350.31
366.599	385.31
366.826	347.31
367.052	362.31
367.278	352.31
367.505	369.31
367.731	367.31
367.957	379.31
368.184	370.31
368.41	361.31
368.636	375.31
368.862	390.31
369.089	394.31
369.315	380.31
369.541	378.31
369.767	375.31
369.993	377.31
370.219	353.31
370.445	383.31
370.672	373.31
370.898	344.31
371.124	377.31
371.35	368.31
371.576	364.31
371.802	345.31
372.028	353.31
372.254	371.31
372.48	348.31
372.706	357.31
372.932	360.31
373.158	359.31
373.384	380.31
373.61	369.31
373.835	357.31
374.061	369.31
374.287	365.31
374.513	356.31
374.739	371.31
374.965	376.31
375.191	385.31
375.416	364.31
375.642	364.31
375.868	371.31
376.094	348.31
376.319	339.31
376.545	354.31
376.771	368.31
376.997	355.31
377.222	355.31
377.448	351.31
377.674	362.31
377.899	348.31
378.125	332.31
378.35	349.31
378.576	354.31
378.802	345.31
379.027	344.31
379.253	356.31
379.478	337.31
379.704	362.31
379.929	346.31
380.155	361.31
380.38	364.31
380.606	363.31
380.831	343.31
381.057	358.31
381.282	373.31
381.507	364.31
381.733	357.31
381.958	340.31
382.184	373.31
382.409	373.31
382.634	359.31
382.86	369.31
383.085	379.31
383.31	390.31
383.535	389.31
383.761	363.31
383.986	381.31
384.211	359.31
384.436	373.31
384.662	372.31
384.887	382.31
385.112	373.31
385.337	367.31
385.562	380.31
385.787	363.31
386.013	380.31
386.238	399.31
386.463	368.31
386.688	371.31
386.913	364.31
387.138	377.31
387.363	379.31
387.588	389.31
387.813	376.31
388.038	373.31
388.263	376.31
388.488	369.31
388.713	384.31
388.938	394.31
389.163	383.31
389.387	394.31
389.612	379.31
389.837	384.31
390.062	397.31
390.287	393.31
390.512	384.31
390.736	390.31
390.961	376.31
391.186	367.31
391.411	394.31
391.636	389.31
391.86	379.31
392.085	377.31
392.31	396.31
392.534	384.31
392.759	387.31
392.984	381.31
393.208	383.31
393.433	375.31
393.658	370.31
393.882	383.31
394.107	379.31
394.331	381.31
394.556	378.31
394.78	379.31
395.005	372.31
395.229	408.31
395.454	379.31
395.678	398.31
395.903	410.31
396.127	417.31
396.352	428.31
396.576	404.31
396.801	390.31
397.025	405.31
397.249	377.31
397.474	403.31
397.698	407.31
397.922	426.31
398.147	407.31
398.371	442.31
398.595	433.31
398.82	419.31
399.044	430.31
399.268	439.31
399.492	427.31
399.717	465.31
399.941	496.31
400.165	531.31
400.389	539.31
400.613	495.31
400.837	471.31
401.062	449.31
401.286	444.31
401.51	452.31
401.734	436.31
401.958	433.31
402.182	444.31
402.406	463.31
402.63	449.31
402.854	441.31
403.078	439.31
403.302	455.31
403.526	433.31
403.75	461.31
403.974	443.31
404.198	435.31
404.422	432.31
404.645	468.31
404.869	483.31
405.093	491.31
405.317	551.31
405.541	546.31
405.765	529.31
405.988	474.31
406.212	496.31
406.436	529.31
406.66	533.31
406.883	497.31
407.107	519.31
407.331	561.31
407.555	621.31
407.778	631.31
408.002	572.31
408.226	527.31
408.449	513.31
408.673	522.31
408.896	543.31
409.12	580.31
409.344	550.31
409.567	484.31
409.791	467.31
410.014	461.31
410.238	445.31
410.461	458.31
410.685	462.31
410.908	471.31
411.132	521.31
411.355	551.31
411.578	522.31
411.802	491.31
412.025	458.31
412.249	450.31
412.472	485.31
412.695	562.31
412.919	529.31
413.142	471.31
413.365	463.31
413.589	431.31
413.812	444.31
414.035	444.31
414.258	418.31
414.482	420.31
414.705	408.31
414.928	410.31
415.151	424.31
415.374	426.31
415.597	433.31
415.821	431.31
416.044	440.31
416.267	444.31
416.49	435.31
416.713	412.31
416.936	439.31
417.159	421.31
417.382	428.31
417.605	444.31
417.828	454.31
418.051	458.31
418.274	438.31
418.497	423.31
418.72	428.31
418.943	432.31
419.166	451.31
419.389	429.31
419.611	439.31
419.834	458.31
420.057	442.31
420.28	449.31
420.503	469.31
420.726	460.31
420.948	480.31
421.171	509.31
421.394	563.31
421.617	488.31
421.839	475.31
422.062	483.31
422.285	483.31
422.507	536.31
422.73	633.31
422.953	593.31
423.175	517.31
423.398	499.31
423.621	480.31
423.843	498.31
424.066	509.31
424.288	512.31
424.511	517.31
424.733	602.31
424.956	671.31
425.178	633.31
425.401	654.31
425.623	653.31
425.846	561.31
426.068	502.31
426.291	503.31
426.513	512.31
426.735	524.31
426.958	575.31
427.18	661.31
427.402	769.31
427.625	908.31
427.847	784.31
428.069	689.31
428.292	616.31
428.514	513.31
428.736	496.31
428.958	499.31
429.181	455.31
429.403	461.31
429.625	474.31
429.847	499.31
430.069	600.31
430.292	599.31
430.514	509.31
430.736	466.31
430.958	460.31
431.18	444.31
431.402	448.31
431.624	418.31
431.846	436.31
432.068	409.31
432.29	425.31
432.512	438.31
432.734	443.31
432.956	454.31
433.178	450.31
433.4	449.31
433.622	458.31
433.844	432.31
434.066	418.31
434.287	437.31
434.509	437.31
434.731	434.31
434.953	455.31
435.175	472.31
435.397	499.31
435.618	500.31
435.84	566.31
436.062	639.31
436.284	752.31
436.505	604.31
436.727	552.31
436.949	517.31
437.17	480.31
437.392	467.31
437.614	485.31
437.835	521.31
438.057	647.31
438.278	768.31
438.5	732.31
438.721	809.31
438.943	754.31
439.165	603.31
439.386	558.31
439.608	530.31
439.829	562.31
440.05	578.31
440.272	617.31
440.493	577.31
440.715	536.31
440.936	476.31
441.158	465.31
441.379	459.31
441.6	473.31
441.822	496.31
442.043	567.31
442.264	666.31
442.486	717.31
442.707	589.31
442.928	522.31
443.149	519.31
443.371	579.31
443.592	605.31
443.813	670.31
444.034	759.31
444.255	609.31
444.476	522.31
444.698	504.31
444.919	483.31
445.14	585.31
445.361	560.31
445.582	572.31
445.803	636.31
446.024	770.31
446.245	763.31
446.466	712.31
446.687	581.31
446.908	535.31
447.129	482.31
447.35	472.31
447.571	465.31
447.792	464.31
448.013	495.31
448.234	517.31
448.455	569.31
448.675	684.31
448.896	813.31
449.117	688.31
449.338	635.31
449.559	743.31
449.779	834.31
450	697.31
450.221	555.31
450.442	516.31
450.662	490.31
450.883	510.31
451.104	509.31
451.324	501.31
451.545	479.31
451.766	437.31
451.986	445.31
452.207	427.31
452.428	418.31
452.648	427.31
452.869	434.31
453.089	426.31
453.31	450.31
453.53	421.31
453.751	437.31
453.971	431.31
454.192	473.31
454.412	451.31
454.633	422.31
454.853	423.31
455.073	436.31
455.294	451.31
455.514	534.31
455.734	522.31
455.955	449.31
456.175	398.31
456.395	393.31
456.616	393.31
456.836	386.31
457.056	395.31
457.276	389.31
457.497	397.31
457.717	399.31
457.937	391.31
458.157	401.31
458.377	407.31
458.598	438.31
458.818	514.31
459.038	590.31
459.258	594.31
459.478	525.31
459.698	454.31
459.918	428.31
460.138	425.31
460.358	421.31
460.578	420.31
460.798	427.31
461.018	439.31
461.238	419.31
461.458	412.31
461.678	396.31
461.898	413.31
462.118	430.31
462.338	431.31
462.558	439.31
462.777	449.31
462.997	468.31
463.217	424.31
463.437	463.31
463.657	444.31
463.876	447.31
464.096	453.31
464.316	432.31
464.536	482.31
464.755	456.31
464.975	480.31
465.195	535.31
465.414	630.31
465.634	550.31
465.854	491.31
466.073	481.31
466.293	423.31
466.512	432.31
466.732	439.31
466.951	439.31
467.171	414.31
467.391	432.31
467.61	439.31
467.829	470.31
468.049	439.31
468.268	440.31
468.488	424.31
468.707	432.31
468.927	398.31
469.146	392.31
469.365	411.31
469.585	406.31
469.804	440.31
470.023	443.31
470.243	440.31
470.462	445.31
470.681	456.31
470.901	435.31
471.12	441.31
471.339	427.31
471.558	431.31
471.777	443.31
471.997	446.31
472.216	466.31
472.435	506.31
472.654	498.31
472.873	439.31
473.092	420.31
473.311	420.31
473.53	448.31
473.749	440.31
473.968	489.31
474.187	607.31
474.406	659.31
474.625	505.31
474.844	456.31
475.063	463.31
475.282	450.31
475.501	435.31
475.72	444.31
475.939	446.31
476.158	433.31
476.377	432.31
476.596	448.31
476.814	451.31
477.033	467.31
477.252	475.31
477.471	467.31
477.69	466.31
477.908	454.31
478.127	471.31
478.346	466.31
478.564	487.31
478.783	475.31
479.002	474.31
479.22	483.31
479.439	479.31
479.658	499.31
479.876	510.31
480.095	548.31
480.313	572.31
480.532	517.31
480.751	511.31
480.969	548.31
481.188	618.31
481.406	701.31
481.624	588.31
481.843	551.31
482.061	531.31
482.28	536.31
482.498	500.31
482.717	512.31
482.935	527.31
483.153	500.31
483.372	500.31
483.59	517.31
483.808	499.31
484.027	532.31
484.245	521.31
484.463	513.31
484.681	532.31
484.9	522.31
485.118	531.31
485.336	521.31
485.554	527.31
485.772	544.31
485.99	525.31
486.209	551.31
486.427	528.31
486.645	537.31
486.863	573.31
487.081	571.31
487.299	545.31
487.517	561.31
487.735	551.31
487.953	546.31
488.171	541.31
488.389	565.31
488.607	543.31
488.825	577.31
489.043	541.31
489.261	543.31
489.479	536.31
489.696	581.31
489.914	573.31
490.132	555.31
490.35	590.31
490.568	559.31
490.786	588.31
491.003	583.31
491.221	608.31
491.439	615.31
491.657	612.31
491.874	625.31
492.092	641.31
492.31	652.31
492.527	641.31
492.745	637.31
492.963	647.31
493.18	639.31
493.398	664.31
493.615	651.31
493.833	670.31
494.05	678.31
494.268	663.31
494.485	630.31
494.703	645.31
494.92	651.31
495.138	661.31
495.355	635.31
495.573	650.31
495.79	658.31
496.008	652.31
496.225	660.31
496.442	649.31
496.66	661.31
496.877	632.31
497.094	635.31
497.312	659.31
497.529	671.31
497.746	681.31
497.963	687.31
498.181	679.31
498.398	712.31
498.615	692.31
498.832	699.31
499.049	691.31
499.267	712.31
499.484	730.31
499.701	769.31
499.918	769.31
500.135	776.31
500.352	808.31
500.569	783.31
500.786	787.31
501.003	809.31
501.22	791.31
501.437	785.31
501.654	793.31
501.871	806.31
