Data from 1972.PennyLincolnUp.Lamp.En5.5.200Scan.071719.P1._HRD10591_15-28-22-844.txt Node
Date: Thu Jul 18 15:28:22 EDT 2019
User: cochatt
Spectrometer: HR+D1059
Trigger mode: 1
Integration Time (sec): 1.000000E-1
Scans to average: 1
Electric dark correction enabled: true
Nonlinearity correction enabled: false
Boxcar width: 0
XAxis mode: Wavelengths
Number of Pixels in Spectrum: 2048
>>>>>Begin Spectral Data<<<<<
223.165	-9.19
223.4	-9.19
223.635	-9.19
223.869	-11.19
224.104	-11.19
224.338	-18.19
224.573	-18.19
224.808	-13.19
225.042	-4.19
225.277	-7.19
225.511	-15.19
225.746	18.81
225.98	0.81
226.215	12.81
226.449	5.81
226.683	15.81
226.918	29.81
227.152	23.81
227.387	29.81
227.621	43.81
227.856	36.81
228.09	46.81
228.324	43.81
228.559	59.81
228.793	62.81
229.027	105.81
229.262	109.81
229.496	127.81
229.73	133.81
229.964	175.81
230.199	128.81
230.433	117.81
230.667	127.81
230.901	127.81
231.136	115.81
231.37	113.81
231.604	126.81
231.838	112.81
232.072	132.81
232.306	119.81
232.541	121.81
232.775	130.81
233.009	121.81
233.243	120.81
233.477	104.81
233.711	112.81
233.945	121.81
234.179	111.81
234.413	114.81
234.647	124.81
234.881	130.81
235.115	115.81
235.349	131.81
235.583	129.81
235.817	123.81
236.051	131.81
236.285	129.81
236.519	147.81
236.753	139.81
236.987	145.81
237.221	194.81
237.455	277.81
237.689	204.81
237.922	143.81
238.156	142.81
238.39	132.81
238.624	137.81
238.858	138.81
239.091	124.81
239.325	128.81
239.559	138.81
239.793	136.81
240.027	130.81
240.26	140.81
240.494	162.81
240.728	159.81
240.961	157.81
241.195	156.81
241.429	146.81
241.662	136.81
241.896	132.81
242.13	142.81
242.363	135.81
242.597	160.81
242.83	134.81
243.064	148.81
243.298	158.81
243.531	131.81
243.765	148.81
243.998	136.81
244.232	133.81
244.465	133.81
244.699	153.81
244.932	160.81
245.166	144.81
245.399	149.81
245.633	166.81
245.866	147.81
246.099	130.81
246.333	148.81
246.566	144.81
246.8	142.81
247.033	154.81
247.266	167.81
247.5	157.81
247.733	185.81
247.966	172.81
248.2	164.81
248.433	172.81
248.666	174.81
248.899	205.81
249.133	196.81
249.366	227.81
249.599	213.81
249.832	188.81
250.066	186.81
250.299	173.81
250.532	195.81
250.765	205.81
250.998	242.81
251.231	245.81
251.465	223.81
251.698	228.81
251.931	205.81
252.164	218.81
252.397	204.81
252.63	216.81
252.863	198.81
253.096	236.81
253.329	233.81
253.562	234.81
253.795	219.81
254.028	239.81
254.261	228.81
254.494	233.81
254.727	261.81
254.96	286.81
255.193	304.81
255.426	262.81
255.659	246.81
255.892	236.81
256.124	249.81
256.357	244.81
256.59	240.81
256.823	227.81
257.056	216.81
257.289	210.81
257.521	214.81
257.754	214.81
257.987	212.81
258.22	218.81
258.452	205.81
258.685	229.81
258.918	214.81
259.151	211.81
259.383	227.81
259.616	217.81
259.849	254.81
260.081	238.81
260.314	276.81
260.547	275.81
260.779	244.81
261.012	246.81
261.244	228.81
261.477	246.81
261.71	229.81
261.942	256.81
262.175	262.81
262.407	240.81
262.64	235.81
262.872	215.81
263.105	214.81
263.337	226.81
263.57	206.81
263.802	211.81
264.035	229.81
264.267	231.81
264.499	205.81
264.732	218.81
264.964	220.81
265.197	217.81
265.429	211.81
265.661	224.81
265.894	215.81
266.126	218.81
266.358	212.81
266.591	233.81
266.823	224.81
267.055	223.81
267.287	242.81
267.52	233.81
267.752	230.81
267.984	221.81
268.216	246.81
268.448	235.81
268.681	236.81
268.913	244.81
269.145	262.81
269.377	299.81
269.609	278.81
269.841	289.81
270.073	286.81
270.306	316.81
270.538	332.81
270.77	336.81
271.002	315.81
271.234	298.81
271.466	317.81
271.698	341.81
271.93	324.81
272.162	349.81
272.394	350.81
272.626	335.81
272.858	293.81
273.09	309.81
273.322	287.81
273.553	271.81
273.785	261.81
274.017	271.81
274.249	262.81
274.481	273.81
274.713	278.81
274.945	267.81
275.176	271.81
275.408	285.81
275.64	272.81
275.872	272.81
276.104	275.81
276.335	280.81
276.567	295.81
276.799	293.81
277.031	337.81
277.262	327.81
277.494	342.81
277.726	332.81
277.957	300.81
278.189	310.81
278.421	283.81
278.652	270.81
278.884	269.81
279.115	286.81
279.347	280.81
279.579	282.81
279.81	271.81
280.042	268.81
280.273	263.81
280.505	262.81
280.736	276.81
280.968	266.81
281.199	282.81
281.431	268.81
281.662	263.81
281.894	280.81
282.125	283.81
282.356	291.81
282.588	319.81
282.819	330.81
283.051	279.81
283.282	263.81
283.513	278.81
283.745	287.81
283.976	288.81
284.207	266.81
284.439	293.81
284.67	282.81
284.901	274.81
285.132	285.81
285.364	280.81
285.595	277.81
285.826	283.81
286.057	288.81
286.288	294.81
286.52	282.81
286.751	276.81
286.982	263.81
287.213	281.81
287.444	292.81
287.675	295.81
287.906	290.81
288.138	289.81
288.369	311.81
288.6	307.81
288.831	326.81
289.062	278.81
289.293	288.81
289.524	276.81
289.755	287.81
289.986	287.81
290.217	290.81
290.448	296.81
290.679	282.81
290.91	280.81
291.141	287.81
291.371	268.81
291.602	290.81
291.833	278.81
292.064	289.81
292.295	274.81
292.526	298.81
292.757	302.81
292.987	293.81
293.218	296.81
293.449	268.81
293.68	293.81
293.91	282.81
294.141	278.81
294.372	294.81
294.603	291.81
294.833	284.81
295.064	302.81
295.295	300.81
295.525	271.81
295.756	292.81
295.987	314.81
296.217	319.81
296.448	333.81
296.679	313.81
296.909	291.81
297.14	301.81
297.37	316.81
297.601	320.81
297.831	302.81
298.062	299.81
298.292	297.81
298.523	307.81
298.753	318.81
298.984	268.81
299.214	317.81
299.445	314.81
299.675	294.81
299.905	312.81
300.136	315.81
300.366	300.81
300.597	290.81
300.827	314.81
301.057	306.81
301.288	294.81
301.518	301.81
301.748	316.81
301.979	315.81
302.209	314.81
302.439	328.81
302.669	320.81
302.9	334.81
303.13	309.81
303.36	338.81
303.59	324.81
303.82	335.81
304.051	322.81
304.281	329.81
304.511	307.81
304.741	325.81
304.971	313.81
305.201	333.81
305.431	315.81
305.661	320.81
305.891	330.81
306.121	321.81
306.352	342.81
306.582	351.81
306.812	335.81
307.042	339.81
307.272	340.81
307.502	336.81
307.731	325.81
307.961	345.81
308.191	313.81
308.421	323.81
308.651	326.81
308.881	343.81
309.111	340.81
309.341	348.81
309.571	363.81
309.8	367.81
310.03	365.81
310.26	383.81
310.49	401.81
310.72	410.81
310.949	421.81
311.179	408.81
311.409	386.81
311.639	398.81
311.868	384.81
312.098	391.81
312.328	402.81
312.557	414.81
312.787	452.81
313.017	440.81
313.246	392.81
313.476	389.81
313.706	384.81
313.935	383.81
314.165	398.81
314.394	414.81
314.624	411.81
314.853	384.81
315.083	398.81
315.312	374.81
315.542	392.81
315.771	381.81
316.001	380.81
316.23	365.81
316.46	362.81
316.689	382.81
316.919	384.81
317.148	398.81
317.377	398.81
317.607	400.81
317.836	408.81
318.065	396.81
318.295	380.81
318.524	391.81
318.753	380.81
318.983	357.81
319.212	400.81
319.441	402.81
319.67	397.81
319.9	376.81
320.129	388.81
320.358	397.81
320.587	394.81
320.816	401.81
321.046	412.81
321.275	424.81
321.504	414.81
321.733	406.81
321.962	436.81
322.191	444.81
322.42	438.81
322.649	487.81
322.878	483.81
323.108	479.81
323.337	535.81
323.566	540.81
323.795	582.81
324.024	627.81
324.253	834.81
324.482	1185.81
324.71	1892.81
324.939	2828.81
325.168	2473.81
325.397	1226.81
325.626	801.81
325.855	662.81
326.084	582.81
326.313	566.81
326.542	562.81
326.77	623.81
326.999	740.81
327.228	1060.81
327.457	1662.81
327.686	2098.81
327.914	1422.81
328.143	866.81
328.372	726.81
328.6	676.81
328.829	648.81
329.058	677.81
329.287	696.81
329.515	614.81
329.744	572.81
329.972	559.81
330.201	618.81
330.43	617.81
330.658	676.81
330.887	717.81
331.115	674.81
331.344	586.81
331.572	536.81
331.801	530.81
332.03	527.81
332.258	501.81
332.486	488.81
332.715	466.81
332.943	488.81
333.172	456.81
333.4	473.81
333.629	465.81
333.857	482.81
334.085	500.81
334.314	525.81
334.542	573.81
334.771	585.81
334.999	541.81
335.227	488.81
335.455	459.81
335.684	436.81
335.912	462.81
336.14	450.81
336.369	437.81
336.597	451.81
336.825	464.81
337.053	430.81
337.281	439.81
337.51	427.81
337.738	434.81
337.966	436.81
338.194	444.81
338.422	432.81
338.65	423.81
338.878	449.81
339.106	432.81
339.334	411.81
339.562	408.81
339.79	415.81
340.018	430.81
340.246	426.81
340.474	428.81
340.702	431.81
340.93	425.81
341.158	448.81
341.386	418.81
341.614	435.81
341.842	433.81
342.07	410.81
342.298	424.81
342.526	423.81
342.754	408.81
342.981	395.81
343.209	410.81
343.437	431.81
343.665	417.81
343.893	406.81
344.12	423.81
344.348	404.81
344.576	434.81
344.804	448.81
345.031	461.81
345.259	463.81
345.487	454.81
345.714	452.81
345.942	431.81
346.17	415.81
346.397	408.81
346.625	419.81
346.853	392.81
347.08	409.81
347.308	434.81
347.535	430.81
347.763	420.81
347.99	440.81
348.218	437.81
348.445	437.81
348.673	445.81
348.9	415.81
349.128	429.81
349.355	396.81
349.583	406.81
349.81	398.81
350.037	407.81
350.265	386.81
350.492	414.81
350.72	420.81
350.947	399.81
351.174	428.81
351.402	430.81
351.629	422.81
351.856	426.81
352.083	419.81
352.311	425.81
352.538	445.81
352.765	446.81
352.992	437.81
353.22	422.81
353.447	427.81
353.674	403.81
353.901	405.81
354.128	396.81
354.355	382.81
354.583	371.81
354.81	383.81
355.037	387.81
355.264	372.81
355.491	386.81
355.718	374.81
355.945	374.81
356.172	393.81
356.399	361.81
356.626	362.81
356.853	377.81
357.08	349.81
357.307	366.81
357.534	384.81
357.761	371.81
357.988	367.81
358.215	382.81
358.441	372.81
358.668	381.81
358.895	390.81
359.122	364.81
359.349	403.81
359.576	412.81
359.802	451.81
360.029	480.81
360.256	477.81
360.483	452.81
360.709	431.81
360.936	417.81
361.163	409.81
361.39	410.81
361.616	420.81
361.843	427.81
362.07	417.81
362.296	427.81
362.523	412.81
362.749	389.81
362.976	390.81
363.203	402.81
363.429	391.81
363.656	382.81
363.882	378.81
364.109	383.81
364.335	392.81
364.562	379.81
364.788	375.81
365.015	375.81
365.241	388.81
365.468	385.81
365.694	389.81
365.92	407.81
366.147	399.81
366.373	382.81
366.599	377.81
366.826	392.81
367.052	378.81
367.278	386.81
367.505	378.81
367.731	364.81
367.957	372.81
368.184	406.81
368.41	386.81
368.636	394.81
368.862	409.81
369.089	413.81
369.315	372.81
369.541	384.81
369.767	383.81
369.993	383.81
370.219	393.81
370.445	392.81
370.672	386.81
370.898	356.81
371.124	384.81
371.35	379.81
371.576	376.81
371.802	372.81
372.028	357.81
372.254	365.81
372.48	354.81
372.706	366.81
372.932	365.81
373.158	380.81
373.384	378.81
373.61	363.81
373.835	379.81
374.061	367.81
374.287	378.81
374.513	372.81
374.739	385.81
374.965	368.81
375.191	374.81
375.416	381.81
375.642	357.81
375.868	360.81
376.094	367.81
376.319	379.81
376.545	390.81
376.771	364.81
376.997	380.81
377.222	360.81
377.448	370.81
377.674	354.81
377.899	355.81
378.125	377.81
378.35	371.81
378.576	363.81
378.802	368.81
379.027	370.81
379.253	370.81
379.478	372.81
379.704	369.81
379.929	373.81
380.155	374.81
380.38	367.81
380.606	375.81
380.831	374.81
381.057	374.81
381.282	364.81
381.507	378.81
381.733	354.81
381.958	336.81
382.184	374.81
382.409	384.81
382.634	370.81
382.86	388.81
383.085	372.81
383.31	381.81
383.535	379.81
383.761	388.81
383.986	377.81
384.211	383.81
384.436	391.81
384.662	380.81
384.887	395.81
385.112	382.81
385.337	386.81
385.562	377.81
385.787	387.81
386.013	406.81
386.238	416.81
386.463	428.81
386.688	388.81
386.913	389.81
387.138	392.81
387.363	396.81
387.588	406.81
387.813	391.81
388.038	391.81
388.263	384.81
388.488	379.81
388.713	403.81
388.938	390.81
389.163	415.81
389.387	390.81
389.612	407.81
389.837	383.81
390.062	392.81
390.287	406.81
390.512	399.81
390.736	380.81
390.961	407.81
391.186	399.81
391.411	388.81
391.636	388.81
391.86	411.81
392.085	386.81
392.31	368.81
392.534	413.81
392.759	406.81
392.984	380.81
393.208	389.81
393.433	397.81
393.658	421.81
393.882	404.81
394.107	397.81
394.331	400.81
394.556	404.81
394.78	398.81
395.005	400.81
395.229	399.81
395.454	406.81
395.678	422.81
395.903	437.81
396.127	431.81
396.352	431.81
396.576	430.81
396.801	399.81
397.025	415.81
397.249	409.81
397.474	420.81
397.698	424.81
397.922	431.81
398.147	433.81
398.371	474.81
398.595	419.81
398.82	446.81
399.044	450.81
399.268	453.81
399.492	471.81
399.717	488.81
399.941	500.81
400.165	539.81
400.389	568.81
400.613	494.81
400.837	467.81
401.062	477.81
401.286	439.81
401.51	450.81
401.734	445.81
401.958	449.81
402.182	419.81
402.406	462.81
402.63	453.81
402.854	479.81
403.078	447.81
403.302	464.81
403.526	488.81
403.75	499.81
403.974	458.81
404.198	468.81
404.422	458.81
404.645	478.81
404.869	506.81
405.093	510.81
405.317	575.81
405.541	585.81
405.765	546.81
405.988	506.81
406.212	511.81
406.436	549.81
406.66	550.81
406.883	485.81
407.107	518.81
407.331	568.81
407.555	635.81
407.778	660.81
408.002	576.81
408.226	524.81
408.449	506.81
408.673	542.81
408.896	551.81
409.12	601.81
409.344	588.81
409.567	495.81
409.791	475.81
410.014	459.81
410.238	462.81
410.461	483.81
410.685	465.81
410.908	488.81
411.132	526.81
411.355	581.81
411.578	538.81
411.802	490.81
412.025	472.81
412.249	484.81
412.472	506.81
412.695	557.81
412.919	531.81
413.142	474.81
413.365	466.81
413.589	459.81
413.812	455.81
414.035	447.81
414.258	460.81
414.482	444.81
414.705	443.81
414.928	463.81
415.151	444.81
415.374	430.81
415.597	449.81
415.821	419.81
416.044	438.81
416.267	432.81
416.49	439.81
416.713	446.81
416.936	454.81
417.159	459.81
417.382	442.81
417.605	479.81
417.828	459.81
418.051	470.81
418.274	487.81
418.497	448.81
418.72	450.81
418.943	440.81
419.166	464.81
419.389	484.81
419.611	476.81
419.834	457.81
420.057	480.81
420.28	493.81
420.503	498.81
420.726	472.81
420.948	494.81
421.171	543.81
421.394	586.81
421.617	496.81
421.839	458.81
422.062	484.81
422.285	495.81
422.507	545.81
422.73	644.81
422.953	614.81
423.175	515.81
423.398	503.81
423.621	503.81
423.843	496.81
424.066	508.81
424.288	496.81
424.511	526.81
424.733	605.81
424.956	662.81
425.178	639.81
425.401	634.81
425.623	683.81
425.846	587.81
426.068	531.81
426.291	521.81
426.513	547.81
426.735	542.81
426.958	574.81
427.18	644.81
427.402	814.81
427.625	922.81
427.847	800.81
428.069	674.81
428.292	592.81
428.514	564.81
428.736	531.81
428.958	507.81
429.181	513.81
429.403	496.81
429.625	506.81
429.847	530.81
430.069	583.81
430.292	604.81
430.514	512.81
430.736	486.81
430.958	484.81
431.18	446.81
431.402	449.81
431.624	453.81
431.846	458.81
432.068	456.81
432.29	438.81
432.512	465.81
432.734	455.81
432.956	447.81
433.178	447.81
433.4	474.81
433.622	440.81
433.844	462.81
434.066	432.81
434.287	425.81
434.509	477.81
434.731	455.81
434.953	484.81
435.175	476.81
435.397	493.81
435.618	543.81
435.84	580.81
436.062	708.81
436.284	742.81
436.505	602.81
436.727	566.81
436.949	500.81
437.17	505.81
437.392	504.81
437.614	527.81
437.835	558.81
438.057	663.81
438.278	778.81
438.5	762.81
438.721	836.81
438.943	815.81
439.165	599.81
439.386	566.81
439.608	564.81
439.829	551.81
440.05	595.81
440.272	654.81
440.493	604.81
440.715	524.81
440.936	508.81
441.158	490.81
441.379	499.81
441.6	515.81
441.822	549.81
442.043	557.81
442.264	674.81
442.486	700.81
442.707	587.81
442.928	554.81
443.149	546.81
443.371	589.81
443.592	604.81
443.813	731.81
444.034	770.81
444.255	638.81
444.476	564.81
444.698	516.81
444.919	510.81
445.14	595.81
445.361	572.81
445.582	567.81
445.803	655.81
446.024	798.81
446.245	776.81
446.466	710.81
446.687	614.81
446.908	549.81
447.129	508.81
447.35	516.81
447.571	485.81
447.792	510.81
448.013	486.81
448.234	517.81
448.455	588.81
448.675	727.81
448.896	809.81
449.117	692.81
449.338	660.81
449.559	744.81
449.779	870.81
450	714.81
450.221	580.81
450.442	527.81
450.662	511.81
450.883	514.81
451.104	515.81
451.324	498.81
451.545	484.81
451.766	441.81
451.986	438.81
452.207	436.81
452.428	452.81
452.648	430.81
452.869	452.81
453.089	447.81
453.31	460.81
453.53	452.81
453.751	439.81
453.971	440.81
454.192	482.81
454.412	472.81
454.633	473.81
454.853	430.81
455.073	422.81
455.294	483.81
455.514	548.81
455.734	532.81
455.955	454.81
456.175	418.81
456.395	425.81
456.616	407.81
456.836	391.81
457.056	378.81
457.276	389.81
457.497	402.81
457.717	412.81
457.937	399.81
458.157	428.81
458.377	405.81
458.598	444.81
458.818	524.81
459.038	625.81
459.258	630.81
459.478	522.81
459.698	453.81
459.918	427.81
460.138	460.81
460.358	452.81
460.578	430.81
460.798	436.81
461.018	446.81
461.238	442.81
461.458	448.81
461.678	425.81
461.898	446.81
462.118	446.81
462.338	429.81
462.558	453.81
462.777	466.81
462.997	454.81
463.217	488.81
463.437	476.81
463.657	454.81
463.876	446.81
464.096	464.81
464.316	481.81
464.536	467.81
464.755	467.81
464.975	492.81
465.195	524.81
465.414	617.81
465.634	557.81
465.854	495.81
466.073	455.81
466.293	447.81
466.512	444.81
466.732	438.81
466.951	425.81
467.171	426.81
467.391	429.81
467.61	447.81
467.829	454.81
468.049	447.81
468.268	475.81
468.488	436.81
468.707	436.81
468.927	425.81
469.146	430.81
469.365	420.81
469.585	438.81
469.804	420.81
470.023	452.81
470.243	455.81
470.462	439.81
470.681	482.81
470.901	476.81
471.12	430.81
471.339	451.81
471.558	472.81
471.777	451.81
471.997	440.81
472.216	453.81
472.435	496.81
472.654	479.81
472.873	452.81
473.092	429.81
473.311	442.81
473.53	438.81
473.749	462.81
473.968	514.81
474.187	610.81
474.406	638.81
474.625	523.81
474.844	478.81
475.063	442.81
475.282	449.81
475.501	456.81
475.72	458.81
475.939	462.81
476.158	475.81
476.377	466.81
476.596	462.81
476.814	450.81
477.033	471.81
477.252	464.81
477.471	455.81
477.69	471.81
477.908	479.81
478.127	477.81
478.346	476.81
478.564	455.81
478.783	470.81
479.002	519.81
479.22	489.81
479.439	517.81
479.658	513.81
479.876	563.81
480.095	559.81
480.313	577.81
480.532	547.81
480.751	534.81
480.969	572.81
481.188	635.81
481.406	678.81
481.624	601.81
481.843	574.81
482.061	551.81
482.28	518.81
482.498	528.81
482.717	528.81
482.935	517.81
483.153	513.81
483.372	523.81
483.59	546.81
483.808	517.81
484.027	516.81
484.245	538.81
484.463	524.81
484.681	548.81
484.9	534.81
485.118	551.81
485.336	522.81
485.554	564.81
485.772	534.81
485.99	556.81
486.209	537.81
486.427	567.81
486.645	566.81
486.863	572.81
487.081	596.81
487.299	556.81
487.517	566.81
487.735	565.81
487.953	568.81
488.171	576.81
488.389	567.81
488.607	560.81
488.825	580.81
489.043	572.81
489.261	586.81
489.479	573.81
489.696	568.81
489.914	571.81
490.132	592.81
490.35	586.81
490.568	596.81
490.786	607.81
491.003	602.81
491.221	648.81
491.439	626.81
491.657	615.81
491.874	632.81
492.092	634.81
492.31	656.81
492.527	655.81
492.745	677.81
492.963	668.81
493.18	655.81
493.398	697.81
493.615	667.81
493.833	646.81
494.05	692.81
494.268	649.81
494.485	676.81
494.703	667.81
494.92	671.81
495.138	651.81
495.355	671.81
495.573	674.81
495.79	656.81
496.008	653.81
496.225	676.81
496.442	683.81
496.66	638.81
496.877	648.81
497.094	674.81
497.312	676.81
497.529	678.81
497.746	703.81
497.963	700.81
498.181	700.81
498.398	730.81
498.615	740.81
498.832	732.81
499.049	686.81
499.267	739.81
499.484	762.81
499.701	773.81
499.918	808.81
500.135	797.81
500.352	810.81
500.569	831.81
500.786	838.81
501.003	843.81
501.22	809.81
501.437	833.81
501.654	816.81
501.871	838.81
