Data from 1972.PennyLincolnUp.Lamp.En5.5.200Scan.071719.P1._HRD10591_15-27-18-843.txt Node
Date: Thu Jul 18 15:27:18 EDT 2019
User: cochatt
Spectrometer: HR+D1059
Trigger mode: 1
Integration Time (sec): 1.000000E-1
Scans to average: 1
Electric dark correction enabled: true
Nonlinearity correction enabled: false
Boxcar width: 0
XAxis mode: Wavelengths
Number of Pixels in Spectrum: 2048
>>>>>Begin Spectral Data<<<<<
223.165	-14.56
223.4	-14.56
223.635	-14.56
223.869	-22.56
224.104	-5.56
224.338	-11.56
224.573	-10.56
224.808	-7.56
225.042	2.44
225.277	6.44
225.511	-10.56
225.746	-0.56
225.98	-5.56
226.215	17.44
226.449	18.44
226.683	8.44
226.918	4.44
227.152	31.44
227.387	31.44
227.621	41.44
227.856	43.44
228.09	46.44
228.324	56.44
228.559	51.44
228.793	76.44
229.027	91.44
229.262	101.44
229.496	116.44
229.73	126.44
229.964	162.44
230.199	129.44
230.433	108.44
230.667	97.44
230.901	113.44
231.136	102.44
231.37	97.44
231.604	103.44
231.838	115.44
232.072	116.44
232.306	104.44
232.541	111.44
232.775	118.44
233.009	100.44
233.243	92.44
233.477	119.44
233.711	106.44
233.945	99.44
234.179	106.44
234.413	119.44
234.647	107.44
234.881	96.44
235.115	109.44
235.349	106.44
235.583	118.44
235.817	113.44
236.051	110.44
236.285	94.44
236.519	121.44
236.753	137.44
236.987	148.44
237.221	177.44
237.455	219.44
237.689	188.44
237.922	135.44
238.156	133.44
238.39	132.44
238.624	122.44
238.858	125.44
239.091	129.44
239.325	122.44
239.559	134.44
239.793	119.44
240.027	124.44
240.26	138.44
240.494	149.44
240.728	141.44
240.961	131.44
241.195	144.44
241.429	135.44
241.662	131.44
241.896	131.44
242.13	135.44
242.363	130.44
242.597	131.44
242.83	133.44
243.064	128.44
243.298	121.44
243.531	115.44
243.765	134.44
243.998	139.44
244.232	135.44
244.465	153.44
244.699	131.44
244.932	139.44
245.166	132.44
245.399	129.44
245.633	134.44
245.866	138.44
246.099	138.44
246.333	142.44
246.566	132.44
246.8	133.44
247.033	141.44
247.266	159.44
247.5	157.44
247.733	151.44
247.966	164.44
248.2	177.44
248.433	168.44
248.666	162.44
248.899	169.44
249.133	189.44
249.366	180.44
249.599	179.44
249.832	181.44
250.066	176.44
250.299	172.44
250.532	183.44
250.765	197.44
250.998	207.44
251.231	206.44
251.465	201.44
251.698	194.44
251.931	193.44
252.164	180.44
252.397	181.44
252.63	191.44
252.863	191.44
253.096	187.44
253.329	221.44
253.562	209.44
253.795	228.44
254.028	207.44
254.261	214.44
254.494	217.44
254.727	250.44
254.96	256.44
255.193	236.44
255.426	233.44
255.659	229.44
255.892	212.44
256.124	226.44
256.357	232.44
256.59	208.44
256.823	202.44
257.056	208.44
257.289	207.44
257.521	190.44
257.754	196.44
257.987	189.44
258.22	194.44
258.452	202.44
258.685	206.44
258.918	205.44
259.151	201.44
259.383	202.44
259.616	211.44
259.849	220.44
260.081	235.44
260.314	233.44
260.547	250.44
260.779	244.44
261.012	226.44
261.244	222.44
261.477	211.44
261.71	213.44
261.942	225.44
262.175	213.44
262.407	219.44
262.64	204.44
262.872	230.44
263.105	212.44
263.337	205.44
263.57	187.44
263.802	193.44
264.035	200.44
264.267	206.44
264.499	215.44
264.732	188.44
264.964	200.44
265.197	212.44
265.429	199.44
265.661	197.44
265.894	203.44
266.126	192.44
266.358	208.44
266.591	208.44
266.823	219.44
267.055	199.44
267.287	210.44
267.52	216.44
267.752	215.44
267.984	213.44
268.216	222.44
268.448	207.44
268.681	211.44
268.913	245.44
269.145	268.44
269.377	268.44
269.609	260.44
269.841	258.44
270.073	263.44
270.306	272.44
270.538	290.44
270.77	300.44
271.002	282.44
271.234	277.44
271.466	295.44
271.698	297.44
271.93	288.44
272.162	283.44
272.394	293.44
272.626	283.44
272.858	270.44
273.09	262.44
273.322	255.44
273.553	250.44
273.785	247.44
274.017	239.44
274.249	252.44
274.481	245.44
274.713	250.44
274.945	270.44
275.176	256.44
275.408	263.44
275.64	239.44
275.872	255.44
276.104	241.44
276.335	231.44
276.567	255.44
276.799	302.44
277.031	298.44
277.262	301.44
277.494	303.44
277.726	279.44
277.957	256.44
278.189	259.44
278.421	249.44
278.652	264.44
278.884	258.44
279.115	252.44
279.347	252.44
279.579	254.44
279.81	252.44
280.042	228.44
280.273	233.44
280.505	246.44
280.736	255.44
280.968	249.44
281.199	252.44
281.431	247.44
281.662	251.44
281.894	255.44
282.125	254.44
282.356	288.44
282.588	282.44
282.819	289.44
283.051	253.44
283.282	275.44
283.513	263.44
283.745	244.44
283.976	261.44
284.207	265.44
284.439	255.44
284.67	254.44
284.901	253.44
285.132	247.44
285.364	248.44
285.595	257.44
285.826	245.44
286.057	262.44
286.288	247.44
286.52	275.44
286.751	244.44
286.982	254.44
287.213	268.44
287.444	257.44
287.675	265.44
287.906	266.44
288.138	257.44
288.369	269.44
288.6	283.44
288.831	267.44
289.062	268.44
289.293	264.44
289.524	246.44
289.755	250.44
289.986	262.44
290.217	277.44
290.448	254.44
290.679	279.44
290.91	264.44
291.141	267.44
291.371	261.44
291.602	250.44
291.833	265.44
292.064	274.44
292.295	265.44
292.526	257.44
292.757	253.44
292.987	262.44
293.218	264.44
293.449	275.44
293.68	244.44
293.91	264.44
294.141	260.44
294.372	244.44
294.603	266.44
294.833	269.44
295.064	249.44
295.295	259.44
295.525	267.44
295.756	285.44
295.987	263.44
296.217	298.44
296.448	286.44
296.679	287.44
296.909	263.44
297.14	274.44
297.37	263.44
297.601	256.44
297.831	277.44
298.062	275.44
298.292	277.44
298.523	281.44
298.753	277.44
298.984	263.44
299.214	285.44
299.445	287.44
299.675	271.44
299.905	277.44
300.136	282.44
300.366	283.44
300.597	273.44
300.827	273.44
301.057	297.44
301.288	309.44
301.518	281.44
301.748	285.44
301.979	307.44
302.209	293.44
302.439	277.44
302.669	284.44
302.9	268.44
303.13	282.44
303.36	284.44
303.59	294.44
303.82	309.44
304.051	280.44
304.281	283.44
304.511	278.44
304.741	280.44
304.971	296.44
305.201	293.44
305.431	289.44
305.661	291.44
305.891	298.44
306.121	298.44
306.352	308.44
306.582	308.44
306.812	300.44
307.042	296.44
307.272	293.44
307.502	310.44
307.731	299.44
307.961	306.44
308.191	297.44
308.421	288.44
308.651	280.44
308.881	314.44
309.111	298.44
309.341	318.44
309.571	313.44
309.8	337.44
310.03	310.44
310.26	352.44
310.49	349.44
310.72	355.44
310.949	369.44
311.179	370.44
311.409	332.44
311.639	357.44
311.868	347.44
312.098	350.44
312.328	330.44
312.557	359.44
312.787	377.44
313.017	366.44
313.246	345.44
313.476	335.44
313.706	338.44
313.935	346.44
314.165	351.44
314.394	384.44
314.624	378.44
314.853	359.44
315.083	353.44
315.312	330.44
315.542	321.44
315.771	350.44
316.001	343.44
316.23	346.44
316.46	342.44
316.689	335.44
316.919	331.44
317.148	356.44
317.377	356.44
317.607	378.44
317.836	355.44
318.065	342.44
318.295	342.44
318.524	331.44
318.753	329.44
318.983	334.44
319.212	340.44
319.441	350.44
319.67	354.44
319.9	368.44
320.129	336.44
320.358	333.44
320.587	346.44
320.816	358.44
321.046	369.44
321.275	364.44
321.504	356.44
321.733	382.44
321.962	379.44
322.191	379.44
322.42	393.44
322.649	418.44
322.878	430.44
323.108	458.44
323.337	455.44
323.566	459.44
323.795	495.44
324.024	551.44
324.253	671.44
324.482	965.44
324.71	1490.44
324.939	2148.44
325.168	1939.44
325.397	961.44
325.626	604.44
325.855	533.44
326.084	483.44
326.313	494.44
326.542	496.44
326.77	531.44
326.999	625.44
327.228	869.44
327.457	1326.44
327.686	1672.44
327.914	1121.44
328.143	699.44
328.372	602.44
328.6	569.44
328.829	541.44
329.058	571.44
329.287	548.44
329.515	519.44
329.744	482.44
329.972	473.44
330.201	499.44
330.43	545.44
330.658	524.44
330.887	591.44
331.115	561.44
331.344	501.44
331.572	460.44
331.801	447.44
332.03	449.44
332.258	414.44
332.486	420.44
332.715	417.44
332.943	404.44
333.172	402.44
333.4	402.44
333.629	421.44
333.857	421.44
334.085	425.44
334.314	442.44
334.542	489.44
334.771	482.44
334.999	450.44
335.227	439.44
335.455	395.44
335.684	395.44
335.912	406.44
336.14	380.44
336.369	393.44
336.597	409.44
336.825	429.44
337.053	413.44
337.281	399.44
337.51	382.44
337.738	390.44
337.966	383.44
338.194	388.44
338.422	380.44
338.65	365.44
338.878	381.44
339.106	383.44
339.334	387.44
339.562	391.44
339.79	387.44
340.018	387.44
340.246	404.44
340.474	398.44
340.702	407.44
340.93	373.44
341.158	372.44
341.386	375.44
341.614	383.44
341.842	378.44
342.07	373.44
342.298	371.44
342.526	367.44
342.754	372.44
342.981	369.44
343.209	358.44
343.437	371.44
343.665	373.44
343.893	377.44
344.12	380.44
344.348	378.44
344.576	396.44
344.804	400.44
345.031	394.44
345.259	399.44
345.487	393.44
345.714	385.44
345.942	389.44
346.17	354.44
346.397	366.44
346.625	395.44
346.853	386.44
347.08	360.44
347.308	365.44
347.535	365.44
347.763	377.44
347.99	374.44
348.218	389.44
348.445	391.44
348.673	374.44
348.9	358.44
349.128	351.44
349.355	370.44
349.583	373.44
349.81	367.44
350.037	337.44
350.265	339.44
350.492	358.44
350.72	366.44
350.947	351.44
351.174	373.44
351.402	379.44
351.629	374.44
351.856	367.44
352.083	379.44
352.311	376.44
352.538	385.44
352.765	385.44
352.992	386.44
353.22	377.44
353.447	375.44
353.674	354.44
353.901	355.44
354.128	374.44
354.355	338.44
354.583	331.44
354.81	340.44
355.037	360.44
355.264	329.44
355.491	340.44
355.718	338.44
355.945	344.44
356.172	349.44
356.399	339.44
356.626	354.44
356.853	346.44
357.08	357.44
357.307	342.44
357.534	326.44
357.761	324.44
357.988	344.44
358.215	359.44
358.441	340.44
358.668	350.44
358.895	373.44
359.122	350.44
359.349	353.44
359.576	373.44
359.802	391.44
360.029	426.44
360.256	429.44
360.483	395.44
360.709	371.44
360.936	370.44
361.163	370.44
361.39	353.44
361.616	374.44
361.843	347.44
362.07	372.44
362.296	397.44
362.523	369.44
362.749	374.44
362.976	374.44
363.203	357.44
363.429	349.44
363.656	359.44
363.882	361.44
364.109	337.44
364.335	362.44
364.562	343.44
364.788	343.44
365.015	373.44
365.241	362.44
365.468	366.44
365.694	364.44
365.92	352.44
366.147	359.44
366.373	341.44
366.599	333.44
366.826	347.44
367.052	338.44
367.278	353.44
367.505	353.44
367.731	331.44
367.957	347.44
368.184	362.44
368.41	348.44
368.636	364.44
368.862	362.44
369.089	335.44
369.315	343.44
369.541	356.44
369.767	362.44
369.993	353.44
370.219	362.44
370.445	350.44
370.672	346.44
370.898	327.44
371.124	330.44
371.35	318.44
371.576	345.44
371.802	343.44
372.028	338.44
372.254	343.44
372.48	324.44
372.706	331.44
372.932	355.44
373.158	353.44
373.384	340.44
373.61	338.44
373.835	347.44
374.061	329.44
374.287	327.44
374.513	350.44
374.739	333.44
374.965	334.44
375.191	351.44
375.416	341.44
375.642	341.44
375.868	343.44
376.094	346.44
376.319	347.44
376.545	349.44
376.771	357.44
376.997	333.44
377.222	327.44
377.448	347.44
377.674	343.44
377.899	331.44
378.125	333.44
378.35	351.44
378.576	350.44
378.802	356.44
379.027	334.44
379.253	346.44
379.478	343.44
379.704	339.44
379.929	339.44
380.155	341.44
380.38	339.44
380.606	341.44
380.831	332.44
381.057	357.44
381.282	353.44
381.507	343.44
381.733	353.44
381.958	331.44
382.184	337.44
382.409	328.44
382.634	340.44
382.86	342.44
383.085	333.44
383.31	365.44
383.535	359.44
383.761	327.44
383.986	342.44
384.211	357.44
384.436	351.44
384.662	364.44
384.887	361.44
385.112	364.44
385.337	360.44
385.562	383.44
385.787	365.44
386.013	375.44
386.238	357.44
386.463	372.44
386.688	358.44
386.913	349.44
387.138	389.44
387.363	360.44
387.588	362.44
387.813	355.44
388.038	360.44
388.263	369.44
388.488	371.44
388.713	355.44
388.938	373.44
389.163	375.44
389.387	396.44
389.612	381.44
389.837	364.44
390.062	372.44
390.287	363.44
390.512	365.44
390.736	355.44
390.961	371.44
391.186	359.44
391.411	370.44
391.636	371.44
391.86	354.44
392.085	395.44
392.31	373.44
392.534	382.44
392.759	375.44
392.984	352.44
393.208	387.44
393.433	393.44
393.658	388.44
393.882	369.44
394.107	356.44
394.331	349.44
394.556	350.44
394.78	381.44
395.005	380.44
395.229	366.44
395.454	383.44
395.678	395.44
395.903	382.44
396.127	414.44
396.352	393.44
396.576	385.44
396.801	414.44
397.025	377.44
397.249	401.44
397.474	383.44
397.698	385.44
397.922	395.44
398.147	394.44
398.371	414.44
398.595	413.44
398.82	381.44
399.044	419.44
399.268	421.44
399.492	455.44
399.717	449.44
399.941	480.44
400.165	507.44
400.389	515.44
400.613	475.44
400.837	430.44
401.062	435.44
401.286	408.44
401.51	409.44
401.734	408.44
401.958	406.44
402.182	426.44
402.406	426.44
402.63	419.44
402.854	428.44
403.078	415.44
403.302	428.44
403.526	420.44
403.75	435.44
403.974	428.44
404.198	400.44
404.422	428.44
404.645	439.44
404.869	449.44
405.093	494.44
405.317	509.44
405.541	548.44
405.765	487.44
405.988	464.44
406.212	470.44
406.436	482.44
406.66	501.44
406.883	502.44
407.107	518.44
407.331	527.44
407.555	575.44
407.778	607.44
408.002	521.44
408.226	493.44
408.449	476.44
408.673	489.44
408.896	530.44
409.12	558.44
409.344	484.44
409.567	448.44
409.791	449.44
410.014	459.44
410.238	445.44
410.461	437.44
410.685	438.44
410.908	454.44
411.132	487.44
411.355	514.44
411.578	491.44
411.802	450.44
412.025	450.44
412.249	448.44
412.472	452.44
412.695	498.44
412.919	482.44
413.142	451.44
413.365	411.44
413.589	420.44
413.812	410.44
414.035	403.44
414.258	435.44
414.482	408.44
414.705	389.44
414.928	405.44
415.151	420.44
415.374	396.44
415.597	422.44
415.821	411.44
416.044	389.44
416.267	405.44
416.49	395.44
416.713	391.44
416.936	390.44
417.159	399.44
417.382	403.44
417.605	427.44
417.828	411.44
418.051	422.44
418.274	409.44
418.497	409.44
418.72	406.44
418.943	397.44
419.166	430.44
419.389	447.44
419.611	436.44
419.834	407.44
420.057	429.44
420.28	441.44
420.503	454.44
420.726	417.44
420.948	459.44
421.171	476.44
421.394	497.44
421.617	451.44
421.839	435.44
422.062	443.44
422.285	415.44
422.507	492.44
422.73	560.44
422.953	567.44
423.175	482.44
423.398	462.44
423.621	433.44
423.843	477.44
424.066	470.44
424.288	469.44
424.511	475.44
424.733	545.44
424.956	605.44
425.178	596.44
425.401	588.44
425.623	616.44
425.846	522.44
426.068	473.44
426.291	481.44
426.513	477.44
426.735	469.44
426.958	539.44
427.18	617.44
427.402	718.44
427.625	769.44
427.847	689.44
428.069	603.44
428.292	561.44
428.514	455.44
428.736	438.44
428.958	457.44
429.181	447.44
429.403	415.44
429.625	444.44
429.847	479.44
430.069	537.44
430.292	547.44
430.514	448.44
430.736	454.44
430.958	415.44
431.18	441.44
431.402	413.44
431.624	397.44
431.846	406.44
432.068	394.44
432.29	396.44
432.512	407.44
432.734	429.44
432.956	419.44
433.178	427.44
433.4	427.44
433.622	409.44
433.844	399.44
434.066	392.44
434.287	402.44
434.509	428.44
434.731	416.44
434.953	414.44
435.175	427.44
435.397	454.44
435.618	481.44
435.84	514.44
436.062	611.44
436.284	647.44
436.505	551.44
436.727	499.44
436.949	472.44
437.17	453.44
437.392	431.44
437.614	471.44
437.835	475.44
438.057	570.44
438.278	687.44
438.5	693.44
438.721	755.44
438.943	708.44
439.165	527.44
439.386	494.44
439.608	478.44
439.829	505.44
440.05	511.44
440.272	572.44
440.493	512.44
440.715	457.44
440.936	434.44
441.158	448.44
441.379	440.44
441.6	453.44
441.822	470.44
442.043	515.44
442.264	610.44
442.486	650.44
442.707	541.44
442.928	480.44
443.149	481.44
443.371	530.44
443.592	582.44
443.813	655.44
444.034	700.44
444.255	573.44
444.476	495.44
444.698	487.44
444.919	454.44
445.14	559.44
445.361	544.44
445.582	528.44
445.803	572.44
446.024	674.44
446.245	681.44
446.466	647.44
446.687	521.44
446.908	502.44
447.129	471.44
447.35	456.44
447.571	436.44
447.792	433.44
448.013	435.44
448.234	487.44
448.455	494.44
448.675	608.44
448.896	711.44
449.117	605.44
449.338	584.44
449.559	665.44
449.779	739.44
450	629.44
450.221	498.44
450.442	475.44
450.662	459.44
450.883	434.44
451.104	466.44
451.324	471.44
451.545	441.44
451.766	413.44
451.986	397.44
452.207	388.44
452.428	393.44
452.648	391.44
452.869	382.44
453.089	421.44
453.31	417.44
453.53	413.44
453.751	394.44
453.971	403.44
454.192	400.44
454.412	411.44
454.633	395.44
454.853	379.44
455.073	384.44
455.294	391.44
455.514	490.44
455.734	469.44
455.955	400.44
456.175	380.44
456.395	376.44
456.616	372.44
456.836	369.44
457.056	377.44
457.276	350.44
457.497	371.44
457.717	364.44
457.937	381.44
458.157	376.44
458.377	366.44
458.598	409.44
458.818	441.44
459.038	558.44
459.258	554.44
459.478	450.44
459.698	403.44
459.918	413.44
460.138	395.44
460.358	400.44
460.578	401.44
460.798	405.44
461.018	414.44
461.238	417.44
461.458	417.44
461.678	395.44
461.898	397.44
462.118	394.44
462.338	431.44
462.558	417.44
462.777	441.44
462.997	433.44
463.217	428.44
463.437	427.44
463.657	413.44
463.876	426.44
464.096	421.44
464.316	429.44
464.536	440.44
464.755	421.44
464.975	457.44
465.195	489.44
465.414	580.44
465.634	486.44
465.854	460.44
466.073	417.44
466.293	416.44
466.512	407.44
466.732	419.44
466.951	402.44
467.171	393.44
467.391	389.44
467.61	398.44
467.829	409.44
468.049	402.44
468.268	415.44
468.488	400.44
468.707	390.44
468.927	366.44
469.146	377.44
469.365	397.44
469.585	383.44
469.804	395.44
470.023	407.44
470.243	417.44
470.462	425.44
470.681	439.44
470.901	407.44
471.12	406.44
471.339	399.44
471.558	400.44
471.777	419.44
471.997	400.44
472.216	406.44
472.435	463.44
472.654	438.44
472.873	404.44
473.092	412.44
473.311	414.44
473.53	411.44
473.749	418.44
473.968	448.44
474.187	559.44
474.406	575.44
474.625	460.44
474.844	429.44
475.063	396.44
475.282	398.44
475.501	413.44
475.72	397.44
475.939	428.44
476.158	420.44
476.377	418.44
476.596	425.44
476.814	435.44
477.033	449.44
477.252	452.44
477.471	453.44
477.69	430.44
477.908	433.44
478.127	448.44
478.346	439.44
478.564	455.44
478.783	441.44
479.002	455.44
479.22	480.44
479.439	488.44
479.658	478.44
479.876	501.44
480.095	487.44
480.313	505.44
480.532	507.44
480.751	466.44
480.969	518.44
481.188	581.44
481.406	618.44
481.624	537.44
481.843	501.44
482.061	490.44
482.28	480.44
482.498	482.44
482.717	494.44
482.935	490.44
483.153	474.44
483.372	483.44
483.59	486.44
483.808	490.44
484.027	490.44
484.245	466.44
484.463	476.44
484.681	497.44
484.9	479.44
485.118	491.44
485.336	503.44
485.554	496.44
485.772	491.44
485.99	503.44
486.209	496.44
486.427	487.44
486.645	522.44
486.863	534.44
487.081	514.44
487.299	497.44
487.517	501.44
487.735	498.44
487.953	526.44
488.171	543.44
488.389	525.44
488.607	499.44
488.825	518.44
489.043	527.44
489.261	511.44
489.479	494.44
489.696	525.44
489.914	499.44
490.132	525.44
490.35	510.44
490.568	552.44
490.786	552.44
491.003	570.44
491.221	561.44
491.439	558.44
491.657	581.44
491.874	565.44
492.092	572.44
492.31	605.44
492.527	587.44
492.745	588.44
492.963	593.44
493.18	590.44
493.398	615.44
493.615	600.44
493.833	563.44
494.05	588.44
494.268	605.44
494.485	589.44
494.703	584.44
494.92	609.44
495.138	602.44
495.355	598.44
495.573	615.44
495.79	606.44
496.008	604.44
496.225	574.44
496.442	609.44
496.66	619.44
496.877	604.44
497.094	614.44
497.312	632.44
497.529	641.44
497.746	633.44
497.963	655.44
498.181	653.44
498.398	662.44
498.615	655.44
498.832	674.44
499.049	681.44
499.267	692.44
499.484	676.44
499.701	705.44
499.918	734.44
500.135	726.44
500.352	787.44
500.569	777.44
500.786	768.44
501.003	774.44
501.22	778.44
501.437	744.44
501.654	741.44
501.871	749.44
502.088	709.44
