Data from 1972.PennyLincolnUp.Lamp.En5.5.200Scan.071719.P1._HRD10591_15-28-01-843.txt Node
Date: Thu Jul 18 15:28:01 EDT 2019
User: cochatt
Spectrometer: HR+D1059
Trigger mode: 1
Integration Time (sec): 1.000000E-1
Scans to average: 1
Electric dark correction enabled: true
Nonlinearity correction enabled: false
Boxcar width: 0
XAxis mode: Wavelengths
Number of Pixels in Spectrum: 2048
>>>>>Begin Spectral Data<<<<<
223.165	-5.75
223.4	-5.75
223.635	-5.75
223.869	-7.75
224.104	-23.75
224.338	-1.75
224.573	-15.75
224.808	-21.75
225.042	-8.75
225.277	-3.75
225.511	-6.75
225.746	1.25
225.98	-5.75
226.215	13.25
226.449	14.25
226.683	20.25
226.918	26.25
227.152	26.25
227.387	30.25
227.621	29.25
227.856	39.25
228.09	38.25
228.324	46.25
228.559	50.25
228.793	80.25
229.027	102.25
229.262	113.25
229.496	118.25
229.73	143.25
229.964	166.25
230.199	140.25
230.433	145.25
230.667	118.25
230.901	120.25
231.136	139.25
231.37	123.25
231.604	100.25
231.838	118.25
232.072	104.25
232.306	115.25
232.541	109.25
232.775	117.25
233.009	110.25
233.243	128.25
233.477	140.25
233.711	113.25
233.945	104.25
234.179	104.25
234.413	115.25
234.647	104.25
234.881	117.25
235.115	141.25
235.349	131.25
235.583	126.25
235.817	104.25
236.051	129.25
236.285	122.25
236.519	140.25
236.753	123.25
236.987	137.25
237.221	196.25
237.455	247.25
237.689	212.25
237.922	146.25
238.156	136.25
238.39	132.25
238.624	133.25
238.858	130.25
239.091	139.25
239.325	130.25
239.559	126.25
239.793	134.25
240.027	138.25
240.26	155.25
240.494	168.25
240.728	172.25
240.961	149.25
241.195	152.25
241.429	158.25
241.662	145.25
241.896	146.25
242.13	134.25
242.363	123.25
242.597	134.25
242.83	136.25
243.064	147.25
243.298	141.25
243.531	129.25
243.765	153.25
243.998	138.25
244.232	150.25
244.465	151.25
244.699	146.25
244.932	147.25
245.166	154.25
245.399	149.25
245.633	143.25
245.866	146.25
246.099	152.25
246.333	146.25
246.566	155.25
246.8	170.25
247.033	154.25
247.266	156.25
247.5	162.25
247.733	186.25
247.966	179.25
248.2	161.25
248.433	173.25
248.666	189.25
248.899	199.25
249.133	219.25
249.366	232.25
249.599	217.25
249.832	203.25
250.066	179.25
250.299	179.25
250.532	199.25
250.765	202.25
250.998	225.25
251.231	236.25
251.465	225.25
251.698	223.25
251.931	201.25
252.164	196.25
252.397	213.25
252.63	202.25
252.863	193.25
253.096	231.25
253.329	251.25
253.562	246.25
253.795	239.25
254.028	227.25
254.261	232.25
254.494	240.25
254.727	279.25
254.96	306.25
255.193	288.25
255.426	284.25
255.659	238.25
255.892	254.25
256.124	257.25
256.357	255.25
256.59	242.25
256.823	213.25
257.056	231.25
257.289	238.25
257.521	222.25
257.754	208.25
257.987	232.25
258.22	211.25
258.452	206.25
258.685	207.25
258.918	233.25
259.151	224.25
259.383	226.25
259.616	226.25
259.849	227.25
260.081	232.25
260.314	265.25
260.547	256.25
260.779	258.25
261.012	245.25
261.244	242.25
261.477	238.25
261.71	221.25
261.942	236.25
262.175	246.25
262.407	240.25
262.64	221.25
262.872	216.25
263.105	224.25
263.337	240.25
263.57	208.25
263.802	222.25
264.035	226.25
264.267	229.25
264.499	230.25
264.732	211.25
264.964	202.25
265.197	224.25
265.429	216.25
265.661	209.25
265.894	226.25
266.126	226.25
266.358	221.25
266.591	221.25
266.823	238.25
267.055	224.25
267.287	251.25
267.52	232.25
267.752	241.25
267.984	246.25
268.216	247.25
268.448	239.25
268.681	244.25
268.913	239.25
269.145	275.25
269.377	299.25
269.609	283.25
269.841	288.25
270.073	272.25
270.306	293.25
270.538	323.25
270.77	337.25
271.002	332.25
271.234	321.25
271.466	321.25
271.698	321.25
271.93	331.25
272.162	323.25
272.394	321.25
272.626	322.25
272.858	302.25
273.09	284.25
273.322	298.25
273.553	276.25
273.785	282.25
274.017	251.25
274.249	264.25
274.481	265.25
274.713	283.25
274.945	278.25
275.176	276.25
275.408	283.25
275.64	265.25
275.872	275.25
276.104	287.25
276.335	278.25
276.567	294.25
276.799	307.25
277.031	323.25
277.262	334.25
277.494	324.25
277.726	326.25
277.957	308.25
278.189	284.25
278.421	278.25
278.652	277.25
278.884	286.25
279.115	265.25
279.347	260.25
279.579	263.25
279.81	270.25
280.042	270.25
280.273	254.25
280.505	286.25
280.736	272.25
280.968	266.25
281.199	265.25
281.431	280.25
281.662	281.25
281.894	278.25
282.125	271.25
282.356	297.25
282.588	315.25
282.819	316.25
283.051	302.25
283.282	272.25
283.513	272.25
283.745	275.25
283.976	286.25
284.207	289.25
284.439	284.25
284.67	266.25
284.901	264.25
285.132	286.25
285.364	286.25
285.595	280.25
285.826	276.25
286.057	292.25
286.288	272.25
286.52	278.25
286.751	283.25
286.982	288.25
287.213	280.25
287.444	277.25
287.675	282.25
287.906	289.25
288.138	311.25
288.369	302.25
288.6	314.25
288.831	292.25
289.062	292.25
289.293	281.25
289.524	295.25
289.755	299.25
289.986	287.25
290.217	280.25
290.448	292.25
290.679	299.25
290.91	279.25
291.141	272.25
291.371	288.25
291.602	290.25
291.833	295.25
292.064	287.25
292.295	287.25
292.526	290.25
292.757	295.25
292.987	286.25
293.218	282.25
293.449	289.25
293.68	287.25
293.91	283.25
294.141	277.25
294.372	284.25
294.603	280.25
294.833	295.25
295.064	291.25
295.295	282.25
295.525	294.25
295.756	295.25
295.987	310.25
296.217	337.25
296.448	338.25
296.679	302.25
296.909	303.25
297.14	291.25
297.37	297.25
297.601	310.25
297.831	284.25
298.062	314.25
298.292	282.25
298.523	306.25
298.753	290.25
298.984	292.25
299.214	306.25
299.445	303.25
299.675	294.25
299.905	307.25
300.136	299.25
300.366	310.25
300.597	328.25
300.827	304.25
301.057	327.25
301.288	322.25
301.518	319.25
301.748	321.25
301.979	318.25
302.209	312.25
302.439	328.25
302.669	326.25
302.9	305.25
303.13	315.25
303.36	300.25
303.59	329.25
303.82	342.25
304.051	349.25
304.281	317.25
304.511	299.25
304.741	296.25
304.971	327.25
305.201	323.25
305.431	319.25
305.661	314.25
305.891	297.25
306.121	320.25
306.352	327.25
306.582	336.25
306.812	323.25
307.042	316.25
307.272	335.25
307.502	337.25
307.731	335.25
307.961	327.25
308.191	327.25
308.421	334.25
308.651	330.25
308.881	321.25
309.111	334.25
309.341	343.25
309.571	361.25
309.8	367.25
310.03	377.25
310.26	378.25
310.49	395.25
310.72	398.25
310.949	400.25
311.179	403.25
311.409	380.25
311.639	386.25
311.868	387.25
312.098	375.25
312.328	389.25
312.557	411.25
312.787	416.25
313.017	397.25
313.246	393.25
313.476	368.25
313.706	372.25
313.935	393.25
314.165	390.25
314.394	391.25
314.624	420.25
314.853	402.25
315.083	366.25
315.312	390.25
315.542	361.25
315.771	353.25
316.001	376.25
316.23	374.25
316.46	361.25
316.689	361.25
316.919	395.25
317.148	386.25
317.377	386.25
317.607	371.25
317.836	373.25
318.065	371.25
318.295	374.25
318.524	382.25
318.753	358.25
318.983	374.25
319.212	368.25
319.441	386.25
319.67	420.25
319.9	360.25
320.129	377.25
320.358	396.25
320.587	402.25
320.816	400.25
321.046	420.25
321.275	410.25
321.504	401.25
321.733	416.25
321.962	418.25
322.191	437.25
322.42	447.25
322.649	468.25
322.878	494.25
323.108	492.25
323.337	486.25
323.566	532.25
323.795	572.25
324.024	632.25
324.253	774.25
324.482	1136.25
324.71	1786.25
324.939	2547.25
325.168	2318.25
325.397	1162.25
325.626	748.25
325.855	617.25
326.084	569.25
326.313	541.25
326.542	528.25
326.77	587.25
326.999	715.25
327.228	1024.25
327.457	1574.25
327.686	1978.25
327.914	1298.25
328.143	824.25
328.372	690.25
328.6	674.25
328.829	619.25
329.058	654.25
329.287	638.25
329.515	593.25
329.744	545.25
329.972	529.25
330.201	574.25
330.43	604.25
330.658	655.25
330.887	690.25
331.115	666.25
331.344	561.25
331.572	514.25
331.801	506.25
332.03	494.25
332.258	492.25
332.486	454.25
332.715	448.25
332.943	473.25
333.172	450.25
333.4	461.25
333.629	474.25
333.857	472.25
334.085	489.25
334.314	503.25
334.542	568.25
334.771	568.25
334.999	497.25
335.227	467.25
335.455	470.25
335.684	456.25
335.912	455.25
336.14	420.25
336.369	426.25
336.597	452.25
336.825	451.25
337.053	455.25
337.281	433.25
337.51	458.25
337.738	429.25
337.966	427.25
338.194	421.25
338.422	433.25
338.65	427.25
338.878	416.25
339.106	412.25
339.334	416.25
339.562	410.25
339.79	422.25
340.018	416.25
340.246	420.25
340.474	428.25
340.702	432.25
340.93	409.25
341.158	439.25
341.386	422.25
341.614	418.25
341.842	426.25
342.07	404.25
342.298	425.25
342.526	419.25
342.754	406.25
342.981	396.25
343.209	408.25
343.437	413.25
343.665	416.25
343.893	407.25
344.12	423.25
344.348	414.25
344.576	431.25
344.804	427.25
345.031	428.25
345.259	460.25
345.487	442.25
345.714	423.25
345.942	405.25
346.17	420.25
346.397	422.25
346.625	412.25
346.853	405.25
347.08	394.25
347.308	435.25
347.535	428.25
347.763	423.25
347.99	427.25
348.218	439.25
348.445	427.25
348.673	430.25
348.9	405.25
349.128	404.25
349.355	393.25
349.583	408.25
349.81	420.25
350.037	403.25
350.265	387.25
350.492	388.25
350.72	386.25
350.947	408.25
351.174	425.25
351.402	443.25
351.629	418.25
351.856	426.25
352.083	423.25
352.311	446.25
352.538	443.25
352.765	423.25
352.992	431.25
353.22	398.25
353.447	397.25
353.674	391.25
353.901	391.25
354.128	378.25
354.355	359.25
354.583	388.25
354.81	398.25
355.037	388.25
355.264	387.25
355.491	366.25
355.718	368.25
355.945	373.25
356.172	362.25
356.399	360.25
356.626	386.25
356.853	390.25
357.08	375.25
357.307	388.25
357.534	360.25
357.761	366.25
357.988	376.25
358.215	374.25
358.441	386.25
358.668	385.25
358.895	371.25
359.122	392.25
359.349	402.25
359.576	395.25
359.802	434.25
360.029	464.25
360.256	468.25
360.483	456.25
360.709	424.25
360.936	414.25
361.163	396.25
361.39	419.25
361.616	409.25
361.843	420.25
362.07	411.25
362.296	399.25
362.523	396.25
362.749	394.25
362.976	383.25
363.203	386.25
363.429	379.25
363.656	416.25
363.882	370.25
364.109	371.25
364.335	398.25
364.562	382.25
364.788	347.25
365.015	383.25
365.241	390.25
365.468	387.25
365.694	409.25
365.92	408.25
366.147	381.25
366.373	384.25
366.599	402.25
366.826	387.25
367.052	371.25
367.278	380.25
367.505	381.25
367.731	372.25
367.957	382.25
368.184	375.25
368.41	396.25
368.636	398.25
368.862	401.25
369.089	394.25
369.315	369.25
369.541	375.25
369.767	385.25
369.993	388.25
370.219	379.25
370.445	369.25
370.672	398.25
370.898	364.25
371.124	371.25
371.35	363.25
371.576	355.25
371.802	353.25
372.028	363.25
372.254	366.25
372.48	375.25
372.706	382.25
372.932	363.25
373.158	358.25
373.384	372.25
373.61	367.25
373.835	387.25
374.061	379.25
374.287	360.25
374.513	379.25
374.739	400.25
374.965	388.25
375.191	344.25
375.416	380.25
375.642	360.25
375.868	378.25
376.094	382.25
376.319	384.25
376.545	364.25
376.771	377.25
376.997	363.25
377.222	354.25
377.448	361.25
377.674	376.25
377.899	370.25
378.125	369.25
378.35	375.25
378.576	361.25
378.802	363.25
379.027	371.25
379.253	370.25
379.478	360.25
379.704	362.25
379.929	355.25
380.155	359.25
380.38	371.25
380.606	358.25
380.831	374.25
381.057	362.25
381.282	358.25
381.507	363.25
381.733	359.25
381.958	366.25
382.184	378.25
382.409	386.25
382.634	383.25
382.86	382.25
383.085	372.25
383.31	380.25
383.535	377.25
383.761	386.25
383.986	400.25
384.211	372.25
384.436	375.25
384.662	388.25
384.887	387.25
385.112	385.25
385.337	366.25
385.562	404.25
385.787	376.25
386.013	390.25
386.238	390.25
386.463	395.25
386.688	400.25
386.913	395.25
387.138	396.25
387.363	402.25
387.588	394.25
387.813	389.25
388.038	386.25
388.263	405.25
388.488	380.25
388.713	375.25
388.938	392.25
389.163	390.25
389.387	380.25
389.612	374.25
389.837	406.25
390.062	389.25
390.287	410.25
390.512	388.25
390.736	377.25
390.961	387.25
391.186	387.25
391.411	405.25
391.636	390.25
391.86	372.25
392.085	388.25
392.31	389.25
392.534	392.25
392.759	401.25
392.984	398.25
393.208	397.25
393.433	413.25
393.658	414.25
393.882	403.25
394.107	398.25
394.331	402.25
394.556	383.25
394.78	407.25
395.005	392.25
395.229	404.25
395.454	394.25
395.678	411.25
395.903	392.25
396.127	430.25
396.352	438.25
396.576	426.25
396.801	412.25
397.025	423.25
397.249	430.25
397.474	395.25
397.698	404.25
397.922	439.25
398.147	441.25
398.371	445.25
398.595	416.25
398.82	433.25
399.044	429.25
399.268	431.25
399.492	468.25
399.717	474.25
399.941	502.25
400.165	555.25
400.389	528.25
400.613	522.25
400.837	459.25
401.062	452.25
401.286	447.25
401.51	446.25
401.734	460.25
401.958	442.25
402.182	447.25
402.406	452.25
402.63	448.25
402.854	434.25
403.078	448.25
403.302	467.25
403.526	482.25
403.75	445.25
403.974	459.25
404.198	440.25
404.422	460.25
404.645	480.25
404.869	505.25
405.093	526.25
405.317	542.25
405.541	579.25
405.765	555.25
405.988	525.25
406.212	520.25
406.436	532.25
406.66	542.25
406.883	499.25
407.107	541.25
407.331	564.25
407.555	622.25
407.778	615.25
408.002	577.25
408.226	518.25
408.449	503.25
408.673	527.25
408.896	530.25
409.12	580.25
409.344	557.25
409.567	502.25
409.791	532.25
410.014	471.25
410.238	450.25
410.461	477.25
410.685	464.25
410.908	475.25
411.132	518.25
411.355	545.25
411.578	543.25
411.802	478.25
412.025	473.25
412.249	484.25
412.472	492.25
412.695	537.25
412.919	540.25
413.142	493.25
413.365	473.25
413.589	456.25
413.812	438.25
414.035	436.25
414.258	438.25
414.482	437.25
414.705	445.25
414.928	450.25
415.151	433.25
415.374	430.25
415.597	433.25
415.821	441.25
416.044	430.25
416.267	442.25
416.49	430.25
416.713	429.25
416.936	442.25
417.159	419.25
417.382	440.25
417.605	419.25
417.828	438.25
418.051	476.25
418.274	460.25
418.497	441.25
418.72	440.25
418.943	445.25
419.166	450.25
419.389	461.25
419.611	489.25
419.834	470.25
420.057	481.25
420.28	452.25
420.503	468.25
420.726	457.25
420.948	473.25
421.171	522.25
421.394	560.25
421.617	500.25
421.839	474.25
422.062	482.25
422.285	492.25
422.507	545.25
422.73	605.25
422.953	585.25
423.175	530.25
423.398	488.25
423.621	490.25
423.843	504.25
424.066	514.25
424.288	492.25
424.511	528.25
424.733	588.25
424.956	661.25
425.178	654.25
425.401	631.25
425.623	668.25
425.846	583.25
426.068	532.25
426.291	529.25
426.513	532.25
426.735	522.25
426.958	575.25
427.18	682.25
427.402	778.25
427.625	865.25
427.847	793.25
428.069	676.25
428.292	603.25
428.514	526.25
428.736	496.25
428.958	514.25
429.181	503.25
429.403	486.25
429.625	491.25
429.847	523.25
430.069	601.25
430.292	593.25
430.514	497.25
430.736	453.25
430.958	448.25
431.18	456.25
431.402	459.25
431.624	446.25
431.846	442.25
432.068	443.25
432.29	448.25
432.512	427.25
432.734	458.25
432.956	458.25
433.178	485.25
433.4	473.25
433.622	451.25
433.844	440.25
434.066	438.25
434.287	442.25
434.509	446.25
434.731	457.25
434.953	478.25
435.175	479.25
435.397	486.25
435.618	501.25
435.84	552.25
436.062	642.25
436.284	738.25
436.505	638.25
436.727	550.25
436.949	504.25
437.17	489.25
437.392	484.25
437.614	518.25
437.835	552.25
438.057	641.25
438.278	730.25
438.5	737.25
438.721	826.25
438.943	775.25
439.165	606.25
439.386	555.25
439.608	525.25
439.829	550.25
440.05	576.25
440.272	644.25
440.493	596.25
440.715	515.25
440.936	488.25
441.158	470.25
441.379	466.25
441.6	495.25
441.822	526.25
442.043	558.25
442.264	629.25
442.486	682.25
442.707	623.25
442.928	531.25
443.149	558.25
443.371	556.25
443.592	609.25
443.813	678.25
444.034	754.25
444.255	627.25
444.476	535.25
444.698	504.25
444.919	518.25
445.14	606.25
445.361	576.25
445.582	573.25
445.803	672.25
446.024	762.25
446.245	754.25
446.466	698.25
446.687	591.25
446.908	539.25
447.129	497.25
447.35	500.25
447.571	483.25
447.792	499.25
448.013	499.25
448.234	514.25
448.455	567.25
448.675	683.25
448.896	809.25
449.117	685.25
449.338	625.25
449.559	758.25
449.779	836.25
450	683.25
450.221	548.25
450.442	503.25
450.662	474.25
450.883	479.25
451.104	497.25
451.324	498.25
451.545	468.25
451.766	462.25
451.986	435.25
452.207	425.25
452.428	434.25
452.648	427.25
452.869	444.25
453.089	434.25
453.31	451.25
453.53	430.25
453.751	444.25
453.971	445.25
454.192	456.25
454.412	447.25
454.633	433.25
454.853	433.25
455.073	411.25
455.294	477.25
455.514	546.25
455.734	519.25
455.955	435.25
456.175	412.25
456.395	423.25
456.616	404.25
456.836	405.25
457.056	400.25
457.276	387.25
457.497	399.25
457.717	411.25
457.937	403.25
458.157	410.25
458.377	419.25
458.598	424.25
458.818	506.25
459.038	614.25
459.258	613.25
459.478	515.25
459.698	472.25
459.918	436.25
460.138	433.25
460.358	455.25
460.578	429.25
460.798	443.25
461.018	439.25
461.238	426.25
461.458	438.25
461.678	432.25
461.898	432.25
462.118	419.25
462.338	438.25
462.558	446.25
462.777	443.25
462.997	455.25
463.217	467.25
463.437	433.25
463.657	463.25
463.876	477.25
464.096	445.25
464.316	469.25
464.536	496.25
464.755	448.25
464.975	463.25
465.195	531.25
465.414	621.25
465.634	544.25
465.854	492.25
466.073	468.25
466.293	434.25
466.512	456.25
466.732	430.25
466.951	438.25
467.171	426.25
467.391	435.25
467.61	444.25
467.829	455.25
468.049	435.25
468.268	480.25
468.488	432.25
468.707	424.25
468.927	410.25
469.146	428.25
469.365	429.25
469.585	422.25
469.804	430.25
470.023	427.25
470.243	432.25
470.462	451.25
470.681	449.25
470.901	451.25
471.12	443.25
471.339	450.25
471.558	444.25
471.777	454.25
471.997	433.25
472.216	440.25
472.435	500.25
472.654	490.25
472.873	448.25
473.092	429.25
473.311	431.25
473.53	420.25
473.749	469.25
473.968	523.25
474.187	642.25
474.406	660.25
474.625	506.25
474.844	482.25
475.063	456.25
475.282	458.25
475.501	446.25
475.72	448.25
475.939	451.25
476.158	447.25
476.377	455.25
476.596	434.25
476.814	459.25
477.033	481.25
477.252	482.25
477.471	465.25
477.69	467.25
477.908	483.25
478.127	478.25
478.346	466.25
478.564	482.25
478.783	472.25
479.002	485.25
479.22	494.25
479.439	493.25
479.658	522.25
479.876	514.25
480.095	542.25
480.313	554.25
480.532	554.25
480.751	532.25
480.969	546.25
481.188	620.25
481.406	684.25
481.624	588.25
481.843	538.25
482.061	546.25
482.28	540.25
482.498	512.25
482.717	515.25
482.935	532.25
483.153	550.25
483.372	486.25
483.59	509.25
483.808	513.25
484.027	527.25
484.245	520.25
484.463	495.25
484.681	536.25
484.9	535.25
485.118	540.25
485.336	541.25
485.554	525.25
485.772	536.25
485.99	561.25
486.209	555.25
486.427	553.25
486.645	553.25
486.863	573.25
487.081	568.25
487.299	560.25
487.517	556.25
487.735	546.25
487.953	559.25
488.171	548.25
488.389	567.25
488.607	542.25
488.825	568.25
489.043	565.25
489.261	543.25
489.479	553.25
489.696	558.25
489.914	576.25
490.132	580.25
490.35	610.25
490.568	593.25
490.786	598.25
491.003	602.25
491.221	634.25
491.439	624.25
491.657	646.25
491.874	648.25
492.092	648.25
492.31	634.25
492.527	660.25
492.745	650.25
492.963	632.25
493.18	647.25
493.398	679.25
493.615	676.25
493.833	648.25
494.05	650.25
494.268	672.25
494.485	654.25
494.703	669.25
494.92	651.25
495.138	655.25
495.355	673.25
495.573	644.25
495.79	688.25
496.008	688.25
496.225	638.25
496.442	632.25
496.66	641.25
496.877	637.25
497.094	655.25
497.312	661.25
497.529	691.25
497.746	680.25
497.963	664.25
498.181	716.25
498.398	712.25
498.615	714.25
498.832	731.25
499.049	716.25
499.267	731.25
499.484	749.25
499.701	738.25
499.918	750.25
500.135	777.25
500.352	816.25
500.569	826.25
500.786	830.25
501.003	816.25
501.22	816.25
501.437	822.25
501.654	786.25
501.871	805.25
