Data from 1972.PennyLincolnUp.Lamp.En5.5.200Scan.071719.P1._HRD10591_15-29-27-844.txt Node
Date: Thu Jul 18 15:29:27 EDT 2019
User: cochatt
Spectrometer: HR+D1059
Trigger mode: 1
Integration Time (sec): 1.000000E-1
Scans to average: 1
Electric dark correction enabled: true
Nonlinearity correction enabled: false
Boxcar width: 0
XAxis mode: Wavelengths
Number of Pixels in Spectrum: 2048
>>>>>Begin Spectral Data<<<<<
223.165	-19.81
223.4	-19.81
223.635	-19.81
223.869	-13.81
224.104	-30.81
224.338	-17.81
224.573	-9.81
224.808	-19.81
225.042	-4.81
225.277	8.19
225.511	7.19
225.746	8.19
225.98	7.19
226.215	9.19
226.449	10.19
226.683	15.19
226.918	22.19
227.152	29.19
227.387	45.19
227.621	38.19
227.856	44.19
228.09	33.19
228.324	26.19
228.559	55.19
228.793	84.19
229.027	107.19
229.262	110.19
229.496	126.19
229.73	134.19
229.964	172.19
230.199	133.19
230.433	111.19
230.667	106.19
230.901	117.19
231.136	118.19
231.37	121.19
231.604	107.19
231.838	102.19
232.072	100.19
232.306	117.19
232.541	119.19
232.775	106.19
233.009	111.19
233.243	115.19
233.477	117.19
233.711	104.19
233.945	124.19
234.179	120.19
234.413	108.19
234.647	115.19
234.881	117.19
235.115	107.19
235.349	125.19
235.583	115.19
235.817	127.19
236.051	135.19
236.285	125.19
236.519	131.19
236.753	141.19
236.987	149.19
237.221	178.19
237.455	249.19
237.689	207.19
237.922	151.19
238.156	153.19
238.39	132.19
238.624	136.19
238.858	140.19
239.091	136.19
239.325	129.19
239.559	130.19
239.793	135.19
240.027	154.19
240.26	150.19
240.494	153.19
240.728	139.19
240.961	144.19
241.195	140.19
241.429	134.19
241.662	133.19
241.896	141.19
242.13	126.19
242.363	131.19
242.597	127.19
242.83	122.19
243.064	129.19
243.298	147.19
243.531	126.19
243.765	147.19
243.998	156.19
244.232	139.19
244.465	138.19
244.699	144.19
244.932	125.19
245.166	150.19
245.399	149.19
245.633	155.19
245.866	155.19
246.099	150.19
246.333	134.19
246.566	141.19
246.8	139.19
247.033	152.19
247.266	163.19
247.5	157.19
247.733	164.19
247.966	179.19
248.2	183.19
248.433	174.19
248.666	187.19
248.899	197.19
249.133	214.19
249.366	223.19
249.599	219.19
249.832	196.19
250.066	190.19
250.299	187.19
250.532	203.19
250.765	214.19
250.998	231.19
251.231	249.19
251.465	230.19
251.698	211.19
251.931	198.19
252.164	201.19
252.397	212.19
252.63	220.19
252.863	222.19
253.096	223.19
253.329	236.19
253.562	245.19
253.795	239.19
254.028	238.19
254.261	243.19
254.494	236.19
254.727	267.19
254.96	305.19
255.193	291.19
255.426	275.19
255.659	251.19
255.892	247.19
256.124	246.19
256.357	254.19
256.59	245.19
256.823	242.19
257.056	227.19
257.289	218.19
257.521	232.19
257.754	228.19
257.987	226.19
258.22	231.19
258.452	202.19
258.685	211.19
258.918	204.19
259.151	231.19
259.383	228.19
259.616	223.19
259.849	236.19
260.081	261.19
260.314	258.19
260.547	272.19
260.779	263.19
261.012	241.19
261.244	232.19
261.477	234.19
261.71	241.19
261.942	241.19
262.175	232.19
262.407	234.19
262.64	223.19
262.872	219.19
263.105	218.19
263.337	202.19
263.57	214.19
263.802	222.19
264.035	238.19
264.267	219.19
264.499	219.19
264.732	218.19
264.964	212.19
265.197	206.19
265.429	211.19
265.661	227.19
265.894	205.19
266.126	219.19
266.358	236.19
266.591	226.19
266.823	242.19
267.055	237.19
267.287	238.19
267.52	227.19
267.752	230.19
267.984	234.19
268.216	224.19
268.448	226.19
268.681	245.19
268.913	242.19
269.145	269.19
269.377	294.19
269.609	289.19
269.841	289.19
270.073	284.19
270.306	311.19
270.538	334.19
270.77	339.19
271.002	330.19
271.234	291.19
271.466	322.19
271.698	344.19
271.93	339.19
272.162	331.19
272.394	330.19
272.626	292.19
272.858	297.19
273.09	283.19
273.322	290.19
273.553	270.19
273.785	287.19
274.017	279.19
274.249	265.19
274.481	253.19
274.713	260.19
274.945	296.19
275.176	285.19
275.408	286.19
275.64	276.19
275.872	293.19
276.104	282.19
276.335	294.19
276.567	275.19
276.799	290.19
277.031	336.19
277.262	345.19
277.494	346.19
277.726	336.19
277.957	300.19
278.189	283.19
278.421	276.19
278.652	269.19
278.884	270.19
279.115	259.19
279.347	268.19
279.579	274.19
279.81	283.19
280.042	275.19
280.273	271.19
280.505	266.19
280.736	278.19
280.968	260.19
281.199	275.19
281.431	268.19
281.662	253.19
281.894	288.19
282.125	286.19
282.356	260.19
282.588	298.19
282.819	329.19
283.051	302.19
283.282	273.19
283.513	272.19
283.745	273.19
283.976	262.19
284.207	290.19
284.439	251.19
284.67	280.19
284.901	263.19
285.132	251.19
285.364	275.19
285.595	273.19
285.826	289.19
286.057	261.19
286.288	275.19
286.52	279.19
286.751	284.19
286.982	287.19
287.213	277.19
287.444	283.19
287.675	271.19
287.906	281.19
288.138	297.19
288.369	299.19
288.6	292.19
288.831	300.19
289.062	299.19
289.293	308.19
289.524	309.19
289.755	274.19
289.986	288.19
290.217	291.19
290.448	270.19
290.679	293.19
290.91	277.19
291.141	285.19
291.371	293.19
291.602	282.19
291.833	264.19
292.064	296.19
292.295	289.19
292.526	285.19
292.757	305.19
292.987	300.19
293.218	289.19
293.449	271.19
293.68	286.19
293.91	283.19
294.141	293.19
294.372	277.19
294.603	275.19
294.833	291.19
295.064	279.19
295.295	283.19
295.525	293.19
295.756	287.19
295.987	321.19
296.217	335.19
296.448	332.19
296.679	290.19
296.909	281.19
297.14	304.19
297.37	280.19
297.601	299.19
297.831	279.19
298.062	289.19
298.292	290.19
298.523	281.19
298.753	281.19
298.984	298.19
299.214	299.19
299.445	296.19
299.675	298.19
299.905	301.19
300.136	298.19
300.366	284.19
300.597	304.19
300.827	324.19
301.057	338.19
301.288	332.19
301.518	324.19
301.748	301.19
301.979	309.19
302.209	312.19
302.439	329.19
302.669	321.19
302.9	329.19
303.13	318.19
303.36	315.19
303.59	324.19
303.82	335.19
304.051	321.19
304.281	334.19
304.511	313.19
304.741	329.19
304.971	313.19
305.201	346.19
305.431	315.19
305.661	332.19
305.891	324.19
306.121	336.19
306.352	327.19
306.582	330.19
306.812	341.19
307.042	339.19
307.272	330.19
307.502	322.19
307.731	328.19
307.961	307.19
308.191	334.19
308.421	327.19
308.651	341.19
308.881	330.19
309.111	347.19
309.341	343.19
309.571	375.19
309.8	353.19
310.03	365.19
310.26	372.19
310.49	385.19
310.72	404.19
310.949	406.19
311.179	400.19
311.409	386.19
311.639	389.19
311.868	379.19
312.098	385.19
312.328	405.19
312.557	429.19
312.787	433.19
313.017	415.19
313.246	407.19
313.476	374.19
313.706	378.19
313.935	383.19
314.165	425.19
314.394	410.19
314.624	406.19
314.853	399.19
315.083	397.19
315.312	363.19
315.542	365.19
315.771	353.19
316.001	353.19
316.23	365.19
316.46	362.19
316.689	383.19
316.919	382.19
317.148	399.19
317.377	392.19
317.607	395.19
317.836	387.19
318.065	377.19
318.295	371.19
318.524	383.19
318.753	364.19
318.983	367.19
319.212	377.19
319.441	372.19
319.67	399.19
319.9	387.19
320.129	370.19
320.358	376.19
320.587	382.19
320.816	397.19
321.046	415.19
321.275	413.19
321.504	393.19
321.733	421.19
321.962	423.19
322.191	456.19
322.42	450.19
322.649	480.19
322.878	492.19
323.108	513.19
323.337	515.19
323.566	578.19
323.795	610.19
324.024	659.19
324.253	815.19
324.482	1225.19
324.71	1893.19
324.939	2841.19
325.168	2432.19
325.397	1226.19
325.626	797.19
325.855	618.19
326.084	587.19
326.313	560.19
326.542	569.19
326.77	642.19
326.999	757.19
327.228	1073.19
327.457	1689.19
327.686	2090.19
327.914	1403.19
328.143	875.19
328.372	773.19
328.6	703.19
328.829	655.19
329.058	657.19
329.287	667.19
329.515	642.19
329.744	562.19
329.972	560.19
330.201	574.19
330.43	632.19
330.658	682.19
330.887	711.19
331.115	675.19
331.344	571.19
331.572	521.19
331.801	544.19
332.03	521.19
332.258	486.19
332.486	480.19
332.715	464.19
332.943	459.19
333.172	454.19
333.4	472.19
333.629	478.19
333.857	463.19
334.085	486.19
334.314	531.19
334.542	595.19
334.771	593.19
334.999	534.19
335.227	497.19
335.455	463.19
335.684	443.19
335.912	463.19
336.14	431.19
336.369	423.19
336.597	439.19
336.825	449.19
337.053	433.19
337.281	422.19
337.51	421.19
337.738	437.19
337.966	441.19
338.194	433.19
338.422	418.19
338.65	426.19
338.878	441.19
339.106	426.19
339.334	437.19
339.562	418.19
339.79	429.19
340.018	415.19
340.246	439.19
340.474	430.19
340.702	439.19
340.93	448.19
341.158	409.19
341.386	451.19
341.614	407.19
341.842	434.19
342.07	407.19
342.298	417.19
342.526	416.19
342.754	398.19
342.981	389.19
343.209	394.19
343.437	400.19
343.665	397.19
343.893	419.19
344.12	433.19
344.348	400.19
344.576	423.19
344.804	437.19
345.031	437.19
345.259	464.19
345.487	456.19
345.714	435.19
345.942	424.19
346.17	413.19
346.397	405.19
346.625	403.19
346.853	431.19
347.08	422.19
347.308	405.19
347.535	421.19
347.763	421.19
347.99	429.19
348.218	419.19
348.445	416.19
348.673	402.19
348.9	403.19
349.128	418.19
349.355	376.19
349.583	378.19
349.81	388.19
350.037	403.19
350.265	395.19
350.492	389.19
350.72	383.19
350.947	398.19
351.174	411.19
351.402	437.19
351.629	411.19
351.856	413.19
352.083	424.19
352.311	441.19
352.538	427.19
352.765	433.19
352.992	412.19
353.22	419.19
353.447	417.19
353.674	400.19
353.901	394.19
354.128	382.19
354.355	382.19
354.583	382.19
354.81	378.19
355.037	382.19
355.264	364.19
355.491	373.19
355.718	353.19
355.945	373.19
356.172	353.19
356.399	361.19
356.626	376.19
356.853	348.19
357.08	363.19
357.307	361.19
357.534	370.19
357.761	379.19
357.988	385.19
358.215	348.19
358.441	381.19
358.668	403.19
358.895	372.19
359.122	389.19
359.349	387.19
359.576	385.19
359.802	422.19
360.029	485.19
360.256	473.19
360.483	455.19
360.709	439.19
360.936	420.19
361.163	408.19
361.39	413.19
361.616	427.19
361.843	423.19
362.07	410.19
362.296	416.19
362.523	415.19
362.749	393.19
362.976	389.19
363.203	406.19
363.429	380.19
363.656	400.19
363.882	395.19
364.109	394.19
364.335	404.19
364.562	373.19
364.788	387.19
365.015	387.19
365.241	395.19
365.468	396.19
365.694	377.19
365.92	394.19
366.147	399.19
366.373	391.19
366.599	390.19
366.826	372.19
367.052	390.19
367.278	396.19
367.505	371.19
367.731	365.19
367.957	381.19
368.184	390.19
368.41	396.19
368.636	389.19
368.862	409.19
369.089	383.19
369.315	356.19
369.541	375.19
369.767	376.19
369.993	391.19
370.219	373.19
370.445	364.19
370.672	356.19
370.898	380.19
371.124	359.19
371.35	358.19
371.576	367.19
371.802	360.19
372.028	364.19
372.254	363.19
372.48	351.19
372.706	372.19
372.932	385.19
373.158	355.19
373.384	384.19
373.61	366.19
373.835	372.19
374.061	387.19
374.287	361.19
374.513	391.19
374.739	379.19
374.965	375.19
375.191	382.19
375.416	363.19
375.642	363.19
375.868	361.19
376.094	362.19
376.319	365.19
376.545	370.19
376.771	366.19
376.997	367.19
377.222	363.19
377.448	350.19
377.674	361.19
377.899	369.19
378.125	362.19
378.35	377.19
378.576	331.19
378.802	373.19
379.027	355.19
379.253	366.19
379.478	354.19
379.704	359.19
379.929	363.19
380.155	371.19
380.38	373.19
380.606	358.19
380.831	358.19
381.057	358.19
381.282	335.19
381.507	356.19
381.733	362.19
381.958	360.19
382.184	372.19
382.409	369.19
382.634	372.19
382.86	367.19
383.085	371.19
383.31	341.19
383.535	357.19
383.761	346.19
383.986	369.19
384.211	360.19
384.436	371.19
384.662	385.19
384.887	386.19
385.112	381.19
385.337	369.19
385.562	377.19
385.787	393.19
386.013	402.19
386.238	401.19
386.463	375.19
386.688	394.19
386.913	373.19
387.138	374.19
387.363	375.19
387.588	361.19
387.813	377.19
388.038	378.19
388.263	383.19
388.488	396.19
388.713	379.19
388.938	381.19
389.163	375.19
389.387	388.19
389.612	386.19
389.837	371.19
390.062	393.19
390.287	395.19
390.512	384.19
390.736	386.19
390.961	374.19
391.186	376.19
391.411	393.19
391.636	383.19
391.86	403.19
392.085	409.19
392.31	375.19
392.534	389.19
392.759	397.19
392.984	379.19
393.208	400.19
393.433	393.19
393.658	395.19
393.882	376.19
394.107	400.19
394.331	382.19
394.556	389.19
394.78	393.19
395.005	405.19
395.229	414.19
395.454	409.19
395.678	385.19
395.903	392.19
396.127	435.19
396.352	431.19
396.576	395.19
396.801	391.19
397.025	401.19
397.249	411.19
397.474	398.19
397.698	383.19
397.922	422.19
398.147	449.19
398.371	454.19
398.595	437.19
398.82	416.19
399.044	430.19
399.268	445.19
399.492	448.19
399.717	465.19
399.941	495.19
400.165	545.19
400.389	557.19
400.613	481.19
400.837	461.19
401.062	458.19
401.286	460.19
401.51	448.19
401.734	441.19
401.958	427.19
402.182	457.19
402.406	453.19
402.63	460.19
402.854	454.19
403.078	466.19
403.302	428.19
403.526	479.19
403.75	470.19
403.974	485.19
404.198	459.19
404.422	428.19
404.645	455.19
404.869	452.19
405.093	485.19
405.317	527.19
405.541	579.19
405.765	546.19
405.988	481.19
406.212	489.19
406.436	527.19
406.66	529.19
406.883	503.19
407.107	536.19
407.331	576.19
407.555	631.19
407.778	635.19
408.002	555.19
408.226	532.19
408.449	512.19
408.673	519.19
408.896	536.19
409.12	590.19
409.344	573.19
409.567	481.19
409.791	452.19
410.014	454.19
410.238	442.19
410.461	451.19
410.685	473.19
410.908	500.19
411.132	515.19
411.355	561.19
411.578	530.19
411.802	449.19
412.025	470.19
412.249	462.19
412.472	502.19
412.695	564.19
412.919	532.19
413.142	486.19
413.365	487.19
413.589	462.19
413.812	440.19
414.035	417.19
414.258	426.19
414.482	409.19
414.705	420.19
414.928	430.19
415.151	422.19
415.374	433.19
415.597	435.19
415.821	436.19
416.044	439.19
416.267	438.19
416.49	458.19
416.713	437.19
416.936	436.19
417.159	415.19
417.382	445.19
417.605	436.19
417.828	430.19
418.051	457.19
418.274	472.19
418.497	437.19
418.72	412.19
418.943	461.19
419.166	461.19
419.389	481.19
419.611	440.19
419.834	446.19
420.057	460.19
420.28	474.19
420.503	483.19
420.726	446.19
420.948	468.19
421.171	513.19
421.394	549.19
421.617	484.19
421.839	475.19
422.062	474.19
422.285	483.19
422.507	535.19
422.73	648.19
422.953	597.19
423.175	509.19
423.398	499.19
423.621	494.19
423.843	517.19
424.066	495.19
424.288	503.19
424.511	540.19
424.733	588.19
424.956	691.19
425.178	665.19
425.401	662.19
425.623	671.19
425.846	550.19
426.068	515.19
426.291	514.19
426.513	497.19
426.735	525.19
426.958	572.19
427.18	654.19
427.402	795.19
427.625	866.19
427.847	821.19
428.069	713.19
428.292	590.19
428.514	529.19
428.736	472.19
428.958	503.19
429.181	505.19
429.403	481.19
429.625	487.19
429.847	517.19
430.069	605.19
430.292	595.19
430.514	490.19
430.736	493.19
430.958	455.19
431.18	462.19
431.402	454.19
431.624	414.19
431.846	435.19
432.068	431.19
432.29	449.19
432.512	446.19
432.734	469.19
432.956	443.19
433.178	443.19
433.4	484.19
433.622	465.19
433.844	435.19
434.066	430.19
434.287	436.19
434.509	437.19
434.731	434.19
434.953	465.19
435.175	466.19
435.397	513.19
435.618	539.19
435.84	547.19
436.062	669.19
436.284	724.19
436.505	622.19
436.727	549.19
436.949	519.19
437.17	477.19
437.392	501.19
437.614	485.19
437.835	552.19
438.057	655.19
438.278	762.19
438.5	742.19
438.721	825.19
438.943	769.19
439.165	632.19
439.386	546.19
439.608	565.19
439.829	543.19
440.05	576.19
440.272	653.19
440.493	613.19
440.715	532.19
440.936	504.19
441.158	499.19
441.379	465.19
441.6	502.19
441.822	520.19
442.043	586.19
442.264	671.19
442.486	689.19
442.707	618.19
442.928	549.19
443.149	571.19
443.371	582.19
443.592	608.19
443.813	710.19
444.034	781.19
444.255	621.19
444.476	561.19
444.698	522.19
444.919	503.19
445.14	595.19
445.361	571.19
445.582	591.19
445.803	666.19
446.024	785.19
446.245	804.19
446.466	723.19
446.687	595.19
446.908	541.19
447.129	524.19
447.35	492.19
447.571	495.19
447.792	475.19
448.013	501.19
448.234	527.19
448.455	597.19
448.675	696.19
448.896	791.19
449.117	682.19
449.338	647.19
449.559	751.19
449.779	867.19
450	669.19
450.221	567.19
450.442	494.19
450.662	508.19
450.883	487.19
451.104	488.19
451.324	505.19
451.545	483.19
451.766	435.19
451.986	433.19
452.207	445.19
452.428	428.19
452.648	452.19
452.869	438.19
453.089	464.19
453.31	478.19
453.53	456.19
453.751	440.19
453.971	438.19
454.192	472.19
454.412	450.19
454.633	465.19
454.853	427.19
455.073	449.19
455.294	495.19
455.514	542.19
455.734	546.19
455.955	432.19
456.175	409.19
456.395	397.19
456.616	395.19
456.836	399.19
457.056	399.19
457.276	382.19
457.497	398.19
457.717	396.19
457.937	387.19
458.157	409.19
458.377	413.19
458.598	427.19
458.818	501.19
459.038	616.19
459.258	632.19
459.478	524.19
459.698	446.19
459.918	438.19
460.138	424.19
460.358	425.19
460.578	441.19
460.798	458.19
461.018	459.19
461.238	438.19
461.458	428.19
461.678	439.19
461.898	431.19
462.118	426.19
462.338	433.19
462.558	430.19
462.777	459.19
462.997	443.19
463.217	441.19
463.437	460.19
463.657	449.19
463.876	462.19
464.096	449.19
464.316	445.19
464.536	449.19
464.755	456.19
464.975	471.19
465.195	549.19
465.414	638.19
465.634	554.19
465.854	483.19
466.073	451.19
466.293	452.19
466.512	434.19
466.732	447.19
466.951	440.19
467.171	418.19
467.391	446.19
467.61	443.19
467.829	447.19
468.049	456.19
468.268	452.19
468.488	421.19
468.707	408.19
468.927	413.19
469.146	439.19
469.365	413.19
469.585	415.19
469.804	445.19
470.023	427.19
470.243	441.19
470.462	449.19
470.681	449.19
470.901	475.19
471.12	454.19
471.339	437.19
471.558	419.19
471.777	454.19
471.997	435.19
472.216	451.19
472.435	485.19
472.654	477.19
472.873	449.19
473.092	426.19
473.311	441.19
473.53	429.19
473.749	444.19
473.968	490.19
474.187	613.19
474.406	649.19
474.625	525.19
474.844	480.19
475.063	446.19
475.282	443.19
475.501	450.19
475.72	459.19
475.939	434.19
476.158	453.19
476.377	458.19
476.596	443.19
476.814	447.19
477.033	477.19
477.252	453.19
477.471	455.19
477.69	456.19
477.908	450.19
478.127	486.19
478.346	473.19
478.564	465.19
478.783	468.19
479.002	485.19
479.22	493.19
479.439	515.19
479.658	545.19
479.876	536.19
480.095	554.19
480.313	569.19
480.532	535.19
480.751	522.19
480.969	540.19
481.188	646.19
481.406	697.19
481.624	597.19
481.843	543.19
482.061	526.19
482.28	547.19
482.498	545.19
482.717	521.19
482.935	524.19
483.153	525.19
483.372	523.19
483.59	544.19
483.808	500.19
484.027	501.19
484.245	517.19
484.463	520.19
484.681	534.19
484.9	519.19
485.118	515.19
485.336	528.19
485.554	543.19
485.772	538.19
485.99	514.19
486.209	544.19
486.427	549.19
486.645	540.19
486.863	557.19
487.081	556.19
487.299	550.19
487.517	564.19
487.735	537.19
487.953	559.19
488.171	546.19
488.389	534.19
488.607	554.19
488.825	573.19
489.043	571.19
489.261	575.19
489.479	550.19
489.696	577.19
489.914	591.19
490.132	579.19
490.35	598.19
490.568	588.19
490.786	598.19
491.003	605.19
491.221	606.19
491.439	620.19
491.657	637.19
491.874	663.19
492.092	655.19
492.31	663.19
492.527	659.19
492.745	671.19
492.963	674.19
493.18	672.19
493.398	663.19
493.615	653.19
493.833	661.19
494.05	664.19
494.268	668.19
494.485	652.19
494.703	662.19
494.92	658.19
495.138	638.19
495.355	663.19
495.573	668.19
495.79	665.19
496.008	668.19
496.225	655.19
496.442	646.19
496.66	656.19
496.877	679.19
497.094	669.19
497.312	685.19
497.529	670.19
497.746	671.19
497.963	699.19
498.181	694.19
498.398	719.19
498.615	710.19
498.832	699.19
499.049	695.19
499.267	744.19
499.484	742.19
499.701	769.19
499.918	761.19
500.135	805.19
500.352	814.19
500.569	818.19
500.786	808.19
501.003	830.19
501.22	798.19
501.437	779.19
501.654	797.19
501.871	809.19
