Data from 1972.PennyLincolnUp.Lamp.En5.5.200Scan.071719.P1._HRD10591_15-27-43-843.txt Node
Date: Thu Jul 18 15:27:43 EDT 2019
User: cochatt
Spectrometer: HR+D1059
Trigger mode: 1
Integration Time (sec): 1.000000E-1
Scans to average: 1
Electric dark correction enabled: true
Nonlinearity correction enabled: false
Boxcar width: 0
XAxis mode: Wavelengths
Number of Pixels in Spectrum: 2048
>>>>>Begin Spectral Data<<<<<
223.165	-4.75
223.4	-4.75
223.635	-4.75
223.869	-31.75
224.104	-14.75
224.338	1.25
224.573	-20.75
224.808	-8.75
225.042	-7.75
225.277	-7.75
225.511	-12.75
225.746	7.25
225.98	5.25
226.215	21.25
226.449	5.25
226.683	17.25
226.918	30.25
227.152	21.25
227.387	43.25
227.621	41.25
227.856	52.25
228.09	41.25
228.324	63.25
228.559	44.25
228.793	59.25
229.027	110.25
229.262	114.25
229.496	127.25
229.73	135.25
229.964	175.25
230.199	155.25
230.433	117.25
230.667	116.25
230.901	110.25
231.136	117.25
231.37	125.25
231.604	114.25
231.838	114.25
232.072	127.25
232.306	103.25
232.541	103.25
232.775	125.25
233.009	129.25
233.243	102.25
233.477	123.25
233.711	124.25
233.945	120.25
234.179	120.25
234.413	121.25
234.647	117.25
234.881	111.25
235.115	111.25
235.349	123.25
235.583	115.25
235.817	123.25
236.051	124.25
236.285	126.25
236.519	128.25
236.753	140.25
236.987	151.25
237.221	198.25
237.455	241.25
237.689	189.25
237.922	141.25
238.156	144.25
238.39	132.25
238.624	127.25
238.858	127.25
239.091	142.25
239.325	121.25
239.559	133.25
239.793	122.25
240.027	140.25
240.26	137.25
240.494	155.25
240.728	154.25
240.961	159.25
241.195	150.25
241.429	132.25
241.662	137.25
241.896	131.25
242.13	138.25
242.363	128.25
242.597	132.25
242.83	128.25
243.064	133.25
243.298	142.25
243.531	146.25
243.765	143.25
243.998	132.25
244.232	138.25
244.465	140.25
244.699	151.25
244.932	155.25
245.166	160.25
245.399	147.25
245.633	139.25
245.866	149.25
246.099	155.25
246.333	144.25
246.566	153.25
246.8	152.25
247.033	137.25
247.266	156.25
247.5	155.25
247.733	175.25
247.966	182.25
248.2	184.25
248.433	158.25
248.666	177.25
248.899	188.25
249.133	195.25
249.366	216.25
249.599	211.25
249.832	201.25
250.066	192.25
250.299	187.25
250.532	176.25
250.765	218.25
250.998	204.25
251.231	235.25
251.465	218.25
251.698	212.25
251.931	214.25
252.164	200.25
252.397	203.25
252.63	183.25
252.863	198.25
253.096	225.25
253.329	222.25
253.562	237.25
253.795	211.25
254.028	214.25
254.261	229.25
254.494	236.25
254.727	273.25
254.96	300.25
255.193	267.25
255.426	250.25
255.659	240.25
255.892	230.25
256.124	248.25
256.357	251.25
256.59	241.25
256.823	211.25
257.056	224.25
257.289	221.25
257.521	215.25
257.754	211.25
257.987	217.25
258.22	225.25
258.452	217.25
258.685	218.25
258.918	226.25
259.151	229.25
259.383	233.25
259.616	216.25
259.849	235.25
260.081	221.25
260.314	274.25
260.547	271.25
260.779	252.25
261.012	240.25
261.244	237.25
261.477	224.25
261.71	219.25
261.942	234.25
262.175	250.25
262.407	232.25
262.64	227.25
262.872	217.25
263.105	226.25
263.337	219.25
263.57	212.25
263.802	204.25
264.035	232.25
264.267	223.25
264.499	211.25
264.732	235.25
264.964	221.25
265.197	220.25
265.429	219.25
265.661	227.25
265.894	232.25
266.126	220.25
266.358	203.25
266.591	211.25
266.823	237.25
267.055	234.25
267.287	247.25
267.52	227.25
267.752	213.25
267.984	227.25
268.216	228.25
268.448	217.25
268.681	246.25
268.913	247.25
269.145	269.25
269.377	253.25
269.609	278.25
269.841	275.25
270.073	277.25
270.306	301.25
270.538	330.25
270.77	319.25
271.002	308.25
271.234	303.25
271.466	311.25
271.698	297.25
271.93	335.25
272.162	311.25
272.394	314.25
272.626	312.25
272.858	295.25
273.09	282.25
273.322	273.25
273.553	271.25
273.785	279.25
274.017	273.25
274.249	260.25
274.481	266.25
274.713	284.25
274.945	287.25
275.176	261.25
275.408	272.25
275.64	272.25
275.872	262.25
276.104	266.25
276.335	262.25
276.567	264.25
276.799	271.25
277.031	323.25
277.262	316.25
277.494	339.25
277.726	285.25
277.957	268.25
278.189	285.25
278.421	277.25
278.652	288.25
278.884	292.25
279.115	268.25
279.347	259.25
279.579	260.25
279.81	249.25
280.042	273.25
280.273	251.25
280.505	265.25
280.736	256.25
280.968	282.25
281.199	263.25
281.431	271.25
281.662	269.25
281.894	251.25
282.125	248.25
282.356	291.25
282.588	325.25
282.819	316.25
283.051	284.25
283.282	281.25
283.513	260.25
283.745	291.25
283.976	287.25
284.207	274.25
284.439	271.25
284.67	265.25
284.901	279.25
285.132	276.25
285.364	259.25
285.595	281.25
285.826	271.25
286.057	288.25
286.288	267.25
286.52	265.25
286.751	286.25
286.982	253.25
287.213	267.25
287.444	287.25
287.675	279.25
287.906	297.25
288.138	304.25
288.369	319.25
288.6	302.25
288.831	310.25
289.062	303.25
289.293	291.25
289.524	288.25
289.755	286.25
289.986	273.25
290.217	263.25
290.448	271.25
290.679	280.25
290.91	279.25
291.141	275.25
291.371	273.25
291.602	265.25
291.833	280.25
292.064	273.25
292.295	266.25
292.526	279.25
292.757	282.25
292.987	293.25
293.218	267.25
293.449	277.25
293.68	273.25
293.91	278.25
294.141	293.25
294.372	286.25
294.603	270.25
294.833	280.25
295.064	280.25
295.295	284.25
295.525	297.25
295.756	287.25
295.987	294.25
296.217	304.25
296.448	309.25
296.679	286.25
296.909	287.25
297.14	285.25
297.37	277.25
297.601	280.25
297.831	286.25
298.062	285.25
298.292	273.25
298.523	302.25
298.753	297.25
298.984	290.25
299.214	285.25
299.445	286.25
299.675	314.25
299.905	307.25
300.136	294.25
300.366	283.25
300.597	288.25
300.827	279.25
301.057	311.25
301.288	300.25
301.518	324.25
301.748	318.25
301.979	301.25
302.209	321.25
302.439	323.25
302.669	313.25
302.9	311.25
303.13	302.25
303.36	301.25
303.59	316.25
303.82	329.25
304.051	332.25
304.281	315.25
304.511	302.25
304.741	309.25
304.971	286.25
305.201	299.25
305.431	315.25
305.661	319.25
305.891	304.25
306.121	302.25
306.352	319.25
306.582	311.25
306.812	321.25
307.042	324.25
307.272	325.25
307.502	301.25
307.731	325.25
307.961	326.25
308.191	318.25
308.421	341.25
308.651	323.25
308.881	326.25
309.111	336.25
309.341	321.25
309.571	339.25
309.8	363.25
310.03	363.25
310.26	366.25
310.49	387.25
310.72	381.25
310.949	392.25
311.179	419.25
311.409	376.25
311.639	355.25
311.868	353.25
312.098	367.25
312.328	383.25
312.557	388.25
312.787	414.25
313.017	407.25
313.246	378.25
313.476	374.25
313.706	373.25
313.935	379.25
314.165	381.25
314.394	394.25
314.624	401.25
314.853	397.25
315.083	375.25
315.312	375.25
315.542	375.25
315.771	367.25
316.001	361.25
316.23	376.25
316.46	363.25
316.689	375.25
316.919	368.25
317.148	397.25
317.377	381.25
317.607	377.25
317.836	368.25
318.065	376.25
318.295	375.25
318.524	380.25
318.753	355.25
318.983	373.25
319.212	363.25
319.441	397.25
319.67	372.25
319.9	368.25
320.129	373.25
320.358	384.25
320.587	370.25
320.816	397.25
321.046	387.25
321.275	400.25
321.504	397.25
321.733	394.25
321.962	412.25
322.191	429.25
322.42	452.25
322.649	447.25
322.878	457.25
323.108	493.25
323.337	513.25
323.566	534.25
323.795	568.25
324.024	608.25
324.253	755.25
324.482	1129.25
324.71	1749.25
324.939	2590.25
325.168	2243.25
325.397	1149.25
325.626	732.25
325.855	615.25
326.084	563.25
326.313	545.25
326.542	537.25
326.77	583.25
326.999	695.25
327.228	1014.25
327.457	1529.25
327.686	1923.25
327.914	1258.25
328.143	797.25
328.372	736.25
328.6	652.25
328.829	608.25
329.058	612.25
329.287	639.25
329.515	595.25
329.744	553.25
329.972	512.25
330.201	538.25
330.43	599.25
330.658	638.25
330.887	647.25
331.115	644.25
331.344	575.25
331.572	484.25
331.801	505.25
332.03	487.25
332.258	459.25
332.486	440.25
332.715	421.25
332.943	416.25
333.172	450.25
333.4	462.25
333.629	459.25
333.857	475.25
334.085	494.25
334.314	499.25
334.542	569.25
334.771	577.25
334.999	484.25
335.227	471.25
335.455	466.25
335.684	456.25
335.912	435.25
336.14	427.25
336.369	445.25
336.597	447.25
336.825	443.25
337.053	432.25
337.281	419.25
337.51	400.25
337.738	428.25
337.966	431.25
338.194	441.25
338.422	432.25
338.65	423.25
338.878	412.25
339.106	412.25
339.334	400.25
339.562	403.25
339.79	406.25
340.018	411.25
340.246	401.25
340.474	414.25
340.702	411.25
340.93	407.25
341.158	406.25
341.386	417.25
341.614	413.25
341.842	406.25
342.07	405.25
342.298	407.25
342.526	400.25
342.754	403.25
342.981	395.25
343.209	394.25
343.437	399.25
343.665	401.25
343.893	412.25
344.12	396.25
344.348	399.25
344.576	389.25
344.804	411.25
345.031	413.25
345.259	449.25
345.487	431.25
345.714	449.25
345.942	417.25
346.17	412.25
346.397	388.25
346.625	399.25
346.853	385.25
347.08	393.25
347.308	423.25
347.535	417.25
347.763	414.25
347.99	411.25
348.218	426.25
348.445	402.25
348.673	425.25
348.9	417.25
349.128	396.25
349.355	404.25
349.583	391.25
349.81	371.25
350.037	367.25
350.265	400.25
350.492	385.25
350.72	380.25
350.947	396.25
351.174	411.25
351.402	415.25
351.629	411.25
351.856	413.25
352.083	422.25
352.311	425.25
352.538	432.25
352.765	413.25
352.992	413.25
353.22	388.25
353.447	387.25
353.674	404.25
353.901	376.25
354.128	382.25
354.355	369.25
354.583	364.25
354.81	380.25
355.037	373.25
355.264	357.25
355.491	352.25
355.718	358.25
355.945	365.25
356.172	375.25
356.399	364.25
356.626	335.25
356.853	357.25
357.08	382.25
357.307	352.25
357.534	367.25
357.761	373.25
357.988	361.25
358.215	373.25
358.441	377.25
358.668	383.25
358.895	363.25
359.122	381.25
359.349	377.25
359.576	399.25
359.802	419.25
360.029	462.25
360.256	465.25
360.483	462.25
360.709	417.25
360.936	405.25
361.163	415.25
361.39	399.25
361.616	421.25
361.843	399.25
362.07	392.25
362.296	411.25
362.523	415.25
362.749	402.25
362.976	383.25
363.203	377.25
363.429	371.25
363.656	373.25
363.882	380.25
364.109	371.25
364.335	381.25
364.562	367.25
364.788	362.25
365.015	359.25
365.241	385.25
365.468	381.25
365.694	382.25
365.92	394.25
366.147	367.25
366.373	387.25
366.599	366.25
366.826	366.25
367.052	370.25
367.278	348.25
367.505	379.25
367.731	373.25
367.957	365.25
368.184	368.25
368.41	385.25
368.636	397.25
368.862	407.25
369.089	385.25
369.315	355.25
369.541	389.25
369.767	377.25
369.993	377.25
370.219	394.25
370.445	379.25
370.672	369.25
370.898	358.25
371.124	361.25
371.35	365.25
371.576	375.25
371.802	356.25
372.028	366.25
372.254	366.25
372.48	356.25
372.706	347.25
372.932	352.25
373.158	349.25
373.384	372.25
373.61	363.25
373.835	363.25
374.061	372.25
374.287	361.25
374.513	360.25
374.739	363.25
374.965	373.25
375.191	379.25
375.416	365.25
375.642	360.25
375.868	374.25
376.094	369.25
376.319	364.25
376.545	362.25
376.771	374.25
376.997	367.25
377.222	375.25
377.448	367.25
377.674	348.25
377.899	347.25
378.125	360.25
378.35	358.25
378.576	359.25
378.802	358.25
379.027	349.25
379.253	347.25
379.478	367.25
379.704	339.25
379.929	378.25
380.155	342.25
380.38	349.25
380.606	368.25
380.831	356.25
381.057	351.25
381.282	362.25
381.507	364.25
381.733	334.25
381.958	356.25
382.184	376.25
382.409	379.25
382.634	372.25
382.86	369.25
383.085	370.25
383.31	391.25
383.535	369.25
383.761	373.25
383.986	375.25
384.211	378.25
384.436	385.25
384.662	389.25
384.887	379.25
385.112	368.25
385.337	397.25
385.562	375.25
385.787	377.25
386.013	381.25
386.238	389.25
386.463	391.25
386.688	414.25
386.913	373.25
387.138	391.25
387.363	383.25
387.588	393.25
387.813	383.25
388.038	381.25
388.263	371.25
388.488	366.25
388.713	379.25
388.938	381.25
389.163	381.25
389.387	386.25
389.612	392.25
389.837	378.25
390.062	397.25
390.287	367.25
390.512	381.25
390.736	379.25
390.961	375.25
391.186	368.25
391.411	393.25
391.636	389.25
391.86	395.25
392.085	383.25
392.31	395.25
392.534	400.25
392.759	391.25
392.984	379.25
393.208	403.25
393.433	404.25
393.658	405.25
393.882	385.25
394.107	381.25
394.331	396.25
394.556	387.25
394.78	381.25
395.005	388.25
395.229	367.25
395.454	400.25
395.678	400.25
395.903	399.25
396.127	420.25
396.352	413.25
396.576	411.25
396.801	401.25
397.025	380.25
397.249	391.25
397.474	401.25
397.698	408.25
397.922	396.25
398.147	427.25
398.371	441.25
398.595	425.25
398.82	438.25
399.044	453.25
399.268	448.25
399.492	458.25
399.717	463.25
399.941	496.25
400.165	523.25
400.389	542.25
400.613	508.25
400.837	464.25
401.062	439.25
401.286	432.25
401.51	440.25
401.734	443.25
401.958	447.25
402.182	446.25
402.406	460.25
402.63	450.25
402.854	448.25
403.078	436.25
403.302	443.25
403.526	451.25
403.75	472.25
403.974	440.25
404.198	441.25
404.422	458.25
404.645	436.25
404.869	456.25
405.093	481.25
405.317	550.25
405.541	562.25
405.765	537.25
405.988	491.25
406.212	524.25
406.436	527.25
406.66	543.25
406.883	494.25
407.107	539.25
407.331	584.25
407.555	625.25
407.778	640.25
408.002	547.25
408.226	529.25
408.449	508.25
408.673	532.25
408.896	547.25
409.12	584.25
409.344	554.25
409.567	502.25
409.791	475.25
410.014	457.25
410.238	453.25
410.461	465.25
410.685	468.25
410.908	492.25
411.132	532.25
411.355	550.25
411.578	519.25
411.802	475.25
412.025	487.25
412.249	473.25
412.472	490.25
412.695	536.25
412.919	522.25
413.142	473.25
413.365	461.25
413.589	464.25
413.812	448.25
414.035	436.25
414.258	426.25
414.482	435.25
414.705	412.25
414.928	442.25
415.151	416.25
415.374	415.25
415.597	418.25
415.821	429.25
416.044	441.25
416.267	424.25
416.49	411.25
416.713	431.25
416.936	430.25
417.159	411.25
417.382	428.25
417.605	417.25
417.828	450.25
418.051	455.25
418.274	469.25
418.497	423.25
418.72	436.25
418.943	444.25
419.166	450.25
419.389	467.25
419.611	479.25
419.834	453.25
420.057	458.25
420.28	454.25
420.503	461.25
420.726	453.25
420.948	475.25
421.171	505.25
421.394	535.25
421.617	469.25
421.839	463.25
422.062	443.25
422.285	436.25
422.507	543.25
422.73	610.25
422.953	608.25
423.175	501.25
423.398	481.25
423.621	473.25
423.843	493.25
424.066	475.25
424.288	494.25
424.511	516.25
424.733	579.25
424.956	633.25
425.178	619.25
425.401	636.25
425.623	638.25
425.846	556.25
426.068	514.25
426.291	524.25
426.513	510.25
426.735	516.25
426.958	579.25
427.18	659.25
427.402	787.25
427.625	884.25
427.847	778.25
428.069	668.25
428.292	579.25
428.514	495.25
428.736	493.25
428.958	490.25
429.181	475.25
429.403	465.25
429.625	469.25
429.847	505.25
430.069	581.25
430.292	592.25
430.514	499.25
430.736	478.25
430.958	469.25
431.18	451.25
431.402	442.25
431.624	443.25
431.846	431.25
432.068	426.25
432.29	427.25
432.512	424.25
432.734	444.25
432.956	448.25
433.178	459.25
433.4	456.25
433.622	448.25
433.844	445.25
434.066	450.25
434.287	437.25
434.509	423.25
434.731	439.25
434.953	445.25
435.175	466.25
435.397	499.25
435.618	495.25
435.84	556.25
436.062	645.25
436.284	741.25
436.505	591.25
436.727	520.25
436.949	473.25
437.17	473.25
437.392	470.25
437.614	480.25
437.835	535.25
438.057	627.25
438.278	725.25
438.5	709.25
438.721	807.25
438.943	764.25
439.165	589.25
439.386	560.25
439.608	529.25
439.829	527.25
440.05	577.25
440.272	622.25
440.493	569.25
440.715	495.25
440.936	465.25
441.158	462.25
441.379	479.25
441.6	493.25
441.822	526.25
442.043	555.25
442.264	643.25
442.486	661.25
442.707	591.25
442.928	537.25
443.149	532.25
443.371	563.25
443.592	593.25
443.813	683.25
444.034	761.25
444.255	611.25
444.476	532.25
444.698	517.25
444.919	529.25
445.14	645.25
445.361	587.25
445.582	557.25
445.803	639.25
446.024	743.25
446.245	731.25
446.466	673.25
446.687	589.25
446.908	521.25
447.129	502.25
447.35	487.25
447.571	477.25
447.792	471.25
448.013	487.25
448.234	506.25
448.455	552.25
448.675	675.25
448.896	779.25
449.117	680.25
449.338	629.25
449.559	745.25
449.779	840.25
450	648.25
450.221	545.25
450.442	502.25
450.662	486.25
450.883	464.25
451.104	503.25
451.324	486.25
451.545	459.25
451.766	450.25
451.986	425.25
452.207	417.25
452.428	419.25
452.648	416.25
452.869	433.25
453.089	448.25
453.31	444.25
453.53	406.25
453.751	420.25
453.971	428.25
454.192	453.25
454.412	433.25
454.633	411.25
454.853	416.25
455.073	428.25
455.294	445.25
455.514	531.25
455.734	492.25
455.955	425.25
456.175	416.25
456.395	383.25
456.616	378.25
456.836	414.25
457.056	408.25
457.276	378.25
457.497	398.25
457.717	381.25
457.937	391.25
458.157	415.25
458.377	428.25
458.598	439.25
458.818	477.25
459.038	588.25
459.258	601.25
459.478	493.25
459.698	432.25
459.918	444.25
460.138	441.25
460.358	438.25
460.578	437.25
460.798	436.25
461.018	431.25
461.238	419.25
461.458	424.25
461.678	415.25
461.898	423.25
462.118	409.25
462.338	431.25
462.558	447.25
462.777	451.25
462.997	447.25
463.217	461.25
463.437	456.25
463.657	446.25
463.876	442.25
464.096	460.25
464.316	439.25
464.536	451.25
464.755	470.25
464.975	468.25
465.195	544.25
465.414	606.25
465.634	526.25
465.854	477.25
466.073	454.25
466.293	443.25
466.512	440.25
466.732	439.25
466.951	416.25
467.171	405.25
467.391	441.25
467.61	443.25
467.829	440.25
468.049	448.25
468.268	446.25
468.488	420.25
468.707	407.25
468.927	394.25
469.146	407.25
469.365	416.25
469.585	396.25
469.804	428.25
470.023	450.25
470.243	416.25
470.462	428.25
470.681	468.25
470.901	462.25
471.12	427.25
471.339	424.25
471.558	444.25
471.777	441.25
471.997	421.25
472.216	421.25
472.435	479.25
472.654	464.25
472.873	440.25
473.092	404.25
473.311	441.25
473.53	433.25
473.749	458.25
473.968	485.25
474.187	582.25
474.406	616.25
474.625	511.25
474.844	447.25
475.063	452.25
475.282	424.25
475.501	420.25
475.72	431.25
475.939	423.25
476.158	423.25
476.377	445.25
476.596	440.25
476.814	442.25
477.033	470.25
477.252	445.25
477.471	473.25
477.69	461.25
477.908	471.25
478.127	459.25
478.346	469.25
478.564	462.25
478.783	486.25
479.002	500.25
479.22	481.25
479.439	497.25
479.658	526.25
479.876	549.25
480.095	510.25
480.313	537.25
480.532	518.25
480.751	499.25
480.969	545.25
481.188	624.25
481.406	678.25
481.624	579.25
481.843	547.25
482.061	508.25
482.28	526.25
482.498	501.25
482.717	510.25
482.935	509.25
483.153	502.25
483.372	494.25
483.59	489.25
483.808	500.25
484.027	516.25
484.245	525.25
484.463	519.25
484.681	537.25
484.9	536.25
485.118	511.25
485.336	511.25
485.554	500.25
485.772	543.25
485.99	526.25
486.209	504.25
486.427	529.25
486.645	524.25
486.863	543.25
487.081	565.25
487.299	540.25
487.517	536.25
487.735	541.25
487.953	540.25
488.171	527.25
488.389	532.25
488.607	549.25
488.825	554.25
489.043	553.25
489.261	549.25
489.479	547.25
489.696	568.25
489.914	555.25
490.132	548.25
490.35	576.25
490.568	587.25
490.786	581.25
491.003	599.25
491.221	592.25
491.439	604.25
491.657	622.25
491.874	626.25
492.092	632.25
492.31	637.25
492.527	650.25
492.745	639.25
492.963	635.25
493.18	637.25
493.398	638.25
493.615	637.25
493.833	639.25
494.05	639.25
494.268	643.25
494.485	671.25
494.703	627.25
494.92	635.25
495.138	637.25
495.355	635.25
495.573	659.25
495.79	655.25
496.008	641.25
496.225	666.25
496.442	633.25
496.66	621.25
496.877	635.25
497.094	645.25
497.312	654.25
497.529	671.25
497.746	680.25
497.963	669.25
498.181	700.25
498.398	684.25
498.615	708.25
498.832	729.25
499.049	683.25
499.267	707.25
499.484	726.25
499.701	721.25
499.918	753.25
500.135	770.25
500.352	799.25
500.569	831.25
500.786	825.25
501.003	826.25
501.22	779.25
501.437	812.25
501.654	785.25
501.871	809.25
