Data from 1972.PennyLincolnUp.Lamp.En5.5.200Scan.071719.P1._HRD10591_15-27-31-844.txt Node
Date: Thu Jul 18 15:27:31 EDT 2019
User: cochatt
Spectrometer: HR+D1059
Trigger mode: 1
Integration Time (sec): 1.000000E-1
Scans to average: 1
Electric dark correction enabled: true
Nonlinearity correction enabled: false
Boxcar width: 0
XAxis mode: Wavelengths
Number of Pixels in Spectrum: 2048
>>>>>Begin Spectral Data<<<<<
223.165	-26.5
223.4	-26.5
223.635	-26.5
223.869	-17.5
224.104	-24.5
224.338	-17.5
224.573	-9.5
224.808	-15.5
225.042	-2.5
225.277	-6.5
225.511	9.5
225.746	3.5
225.98	8.5
226.215	7.5
226.449	18.5
226.683	7.5
226.918	29.5
227.152	35.5
227.387	31.5
227.621	36.5
227.856	48.5
228.09	51.5
228.324	46.5
228.559	48.5
228.793	64.5
229.027	87.5
229.262	115.5
229.496	116.5
229.73	138.5
229.964	160.5
230.199	137.5
230.433	119.5
230.667	109.5
230.901	120.5
231.136	112.5
231.37	100.5
231.604	135.5
231.838	125.5
232.072	120.5
232.306	100.5
232.541	115.5
232.775	111.5
233.009	112.5
233.243	102.5
233.477	105.5
233.711	125.5
233.945	110.5
234.179	121.5
234.413	113.5
234.647	109.5
234.881	120.5
235.115	122.5
235.349	112.5
235.583	120.5
235.817	111.5
236.051	131.5
236.285	106.5
236.519	131.5
236.753	133.5
236.987	153.5
237.221	156.5
237.455	246.5
237.689	195.5
237.922	150.5
238.156	133.5
238.39	125.5
238.624	125.5
238.858	123.5
239.091	127.5
239.325	125.5
239.559	127.5
239.793	107.5
240.027	121.5
240.26	145.5
240.494	147.5
240.728	159.5
240.961	157.5
241.195	141.5
241.429	137.5
241.662	138.5
241.896	145.5
242.13	133.5
242.363	132.5
242.597	127.5
242.83	139.5
243.064	127.5
243.298	129.5
243.531	135.5
243.765	126.5
243.998	128.5
244.232	128.5
244.465	143.5
244.699	135.5
244.932	136.5
245.166	131.5
245.399	146.5
245.633	138.5
245.866	135.5
246.099	163.5
246.333	140.5
246.566	152.5
246.8	147.5
247.033	154.5
247.266	154.5
247.5	145.5
247.733	180.5
247.966	188.5
248.2	164.5
248.433	153.5
248.666	162.5
248.899	191.5
249.133	183.5
249.366	202.5
249.599	189.5
249.832	187.5
250.066	172.5
250.299	185.5
250.532	199.5
250.765	189.5
250.998	221.5
251.231	233.5
251.465	205.5
251.698	210.5
251.931	212.5
252.164	197.5
252.397	205.5
252.63	211.5
252.863	216.5
253.096	204.5
253.329	229.5
253.562	232.5
253.795	211.5
254.028	229.5
254.261	227.5
254.494	237.5
254.727	264.5
254.96	277.5
255.193	282.5
255.426	232.5
255.659	218.5
255.892	222.5
256.124	230.5
256.357	232.5
256.59	230.5
256.823	222.5
257.056	228.5
257.289	211.5
257.521	206.5
257.754	219.5
257.987	215.5
258.22	223.5
258.452	197.5
258.685	224.5
258.918	195.5
259.151	206.5
259.383	213.5
259.616	218.5
259.849	215.5
260.081	220.5
260.314	261.5
260.547	246.5
260.779	236.5
261.012	225.5
261.244	228.5
261.477	237.5
261.71	234.5
261.942	235.5
262.175	249.5
262.407	232.5
262.64	215.5
262.872	202.5
263.105	202.5
263.337	208.5
263.57	209.5
263.802	219.5
264.035	210.5
264.267	208.5
264.499	209.5
264.732	210.5
264.964	213.5
265.197	201.5
265.429	208.5
265.661	203.5
265.894	206.5
266.126	208.5
266.358	210.5
266.591	209.5
266.823	201.5
267.055	221.5
267.287	235.5
267.52	204.5
267.752	217.5
267.984	203.5
268.216	213.5
268.448	239.5
268.681	232.5
268.913	246.5
269.145	240.5
269.377	283.5
269.609	277.5
269.841	255.5
270.073	268.5
270.306	284.5
270.538	279.5
270.77	304.5
271.002	295.5
271.234	299.5
271.466	294.5
271.698	302.5
271.93	303.5
272.162	324.5
272.394	316.5
272.626	305.5
272.858	277.5
273.09	261.5
273.322	264.5
273.553	235.5
273.785	269.5
274.017	251.5
274.249	244.5
274.481	257.5
274.713	254.5
274.945	270.5
275.176	244.5
275.408	253.5
275.64	264.5
275.872	246.5
276.104	252.5
276.335	249.5
276.567	255.5
276.799	285.5
277.031	298.5
277.262	312.5
277.494	293.5
277.726	293.5
277.957	279.5
278.189	287.5
278.421	265.5
278.652	266.5
278.884	269.5
279.115	256.5
279.347	263.5
279.579	252.5
279.81	267.5
280.042	237.5
280.273	266.5
280.505	248.5
280.736	268.5
280.968	249.5
281.199	247.5
281.431	262.5
281.662	237.5
281.894	248.5
282.125	241.5
282.356	291.5
282.588	286.5
282.819	296.5
283.051	266.5
283.282	248.5
283.513	249.5
283.745	269.5
283.976	290.5
284.207	265.5
284.439	256.5
284.67	264.5
284.901	274.5
285.132	271.5
285.364	263.5
285.595	255.5
285.826	279.5
286.057	270.5
286.288	262.5
286.52	260.5
286.751	255.5
286.982	268.5
287.213	253.5
287.444	260.5
287.675	225.5
287.906	267.5
288.138	273.5
288.369	269.5
288.6	294.5
288.831	291.5
289.062	268.5
289.293	273.5
289.524	267.5
289.755	256.5
289.986	257.5
290.217	268.5
290.448	255.5
290.679	267.5
290.91	291.5
291.141	265.5
291.371	262.5
291.602	260.5
291.833	280.5
292.064	279.5
292.295	240.5
292.526	247.5
292.757	265.5
292.987	269.5
293.218	267.5
293.449	278.5
293.68	295.5
293.91	280.5
294.141	286.5
294.372	283.5
294.603	271.5
294.833	287.5
295.064	260.5
295.295	275.5
295.525	274.5
295.756	298.5
295.987	287.5
296.217	303.5
296.448	330.5
296.679	286.5
296.909	271.5
297.14	257.5
297.37	293.5
297.601	278.5
297.831	267.5
298.062	269.5
298.292	269.5
298.523	282.5
298.753	295.5
298.984	280.5
299.214	278.5
299.445	264.5
299.675	267.5
299.905	300.5
300.136	302.5
300.366	282.5
300.597	279.5
300.827	289.5
301.057	292.5
301.288	313.5
301.518	293.5
301.748	296.5
301.979	302.5
302.209	292.5
302.439	311.5
302.669	290.5
302.9	297.5
303.13	312.5
303.36	305.5
303.59	294.5
303.82	305.5
304.051	321.5
304.281	295.5
304.511	312.5
304.741	325.5
304.971	300.5
305.201	300.5
305.431	289.5
305.661	283.5
305.891	308.5
306.121	304.5
306.352	309.5
306.582	314.5
306.812	308.5
307.042	300.5
307.272	319.5
307.502	315.5
307.731	318.5
307.961	324.5
308.191	299.5
308.421	306.5
308.651	310.5
308.881	324.5
309.111	318.5
309.341	311.5
309.571	321.5
309.8	337.5
310.03	338.5
310.26	350.5
310.49	360.5
310.72	368.5
310.949	381.5
311.179	379.5
311.409	380.5
311.639	348.5
311.868	366.5
312.098	363.5
312.328	373.5
312.557	381.5
312.787	400.5
313.017	391.5
313.246	380.5
313.476	365.5
313.706	345.5
313.935	367.5
314.165	396.5
314.394	379.5
314.624	369.5
314.853	359.5
315.083	340.5
315.312	348.5
315.542	334.5
315.771	342.5
316.001	337.5
316.23	347.5
316.46	373.5
316.689	343.5
316.919	352.5
317.148	380.5
317.377	363.5
317.607	341.5
317.836	365.5
318.065	335.5
318.295	339.5
318.524	343.5
318.753	364.5
318.983	353.5
319.212	348.5
319.441	353.5
319.67	380.5
319.9	363.5
320.129	364.5
320.358	363.5
320.587	380.5
320.816	359.5
321.046	372.5
321.275	362.5
321.504	374.5
321.733	393.5
321.962	385.5
322.191	412.5
322.42	419.5
322.649	433.5
322.878	440.5
323.108	459.5
323.337	501.5
323.566	505.5
323.795	527.5
324.024	593.5
324.253	728.5
324.482	1019.5
324.71	1669.5
324.939	2409.5
325.168	2137.5
325.397	1079.5
325.626	684.5
325.855	589.5
326.084	536.5
326.313	496.5
326.542	529.5
326.77	570.5
326.999	677.5
327.228	962.5
327.457	1456.5
327.686	1827.5
327.914	1181.5
328.143	751.5
328.372	660.5
328.6	596.5
328.829	590.5
329.058	595.5
329.287	579.5
329.515	582.5
329.744	506.5
329.972	504.5
330.201	532.5
330.43	569.5
330.658	607.5
330.887	620.5
331.115	593.5
331.344	504.5
331.572	484.5
331.801	458.5
332.03	492.5
332.258	439.5
332.486	421.5
332.715	398.5
332.943	430.5
333.172	430.5
333.4	417.5
333.629	436.5
333.857	447.5
334.085	460.5
334.314	484.5
334.542	496.5
334.771	545.5
334.999	469.5
335.227	458.5
335.455	414.5
335.684	414.5
335.912	407.5
336.14	412.5
336.369	392.5
336.597	422.5
336.825	408.5
337.053	430.5
337.281	391.5
337.51	425.5
337.738	396.5
337.966	400.5
338.194	388.5
338.422	399.5
338.65	405.5
338.878	399.5
339.106	394.5
339.334	415.5
339.562	389.5
339.79	381.5
340.018	401.5
340.246	403.5
340.474	391.5
340.702	384.5
340.93	398.5
341.158	389.5
341.386	375.5
341.614	406.5
341.842	389.5
342.07	377.5
342.298	389.5
342.526	387.5
342.754	375.5
342.981	369.5
343.209	354.5
343.437	395.5
343.665	377.5
343.893	367.5
344.12	382.5
344.348	381.5
344.576	387.5
344.804	376.5
345.031	389.5
345.259	393.5
345.487	428.5
345.714	412.5
345.942	381.5
346.17	390.5
346.397	392.5
346.625	393.5
346.853	387.5
347.08	374.5
347.308	391.5
347.535	386.5
347.763	409.5
347.99	392.5
348.218	397.5
348.445	403.5
348.673	413.5
348.9	407.5
349.128	375.5
349.355	368.5
349.583	347.5
349.81	366.5
350.037	361.5
350.265	351.5
350.492	381.5
350.72	363.5
350.947	381.5
351.174	391.5
351.402	393.5
351.629	393.5
351.856	388.5
352.083	406.5
352.311	401.5
352.538	416.5
352.765	411.5
352.992	377.5
353.22	389.5
353.447	384.5
353.674	374.5
353.901	378.5
354.128	338.5
354.355	335.5
354.583	369.5
354.81	360.5
355.037	369.5
355.264	336.5
355.491	349.5
355.718	351.5
355.945	345.5
356.172	358.5
356.399	331.5
356.626	361.5
356.853	353.5
357.08	357.5
357.307	351.5
357.534	336.5
357.761	357.5
357.988	360.5
358.215	345.5
358.441	350.5
358.668	350.5
358.895	347.5
359.122	351.5
359.349	371.5
359.576	392.5
359.802	396.5
360.029	439.5
360.256	449.5
360.483	441.5
360.709	391.5
360.936	390.5
361.163	383.5
361.39	379.5
361.616	388.5
361.843	381.5
362.07	366.5
362.296	401.5
362.523	387.5
362.749	364.5
362.976	373.5
363.203	380.5
363.429	368.5
363.656	375.5
363.882	362.5
364.109	360.5
364.335	349.5
364.562	373.5
364.788	365.5
365.015	364.5
365.241	351.5
365.468	374.5
365.694	361.5
365.92	371.5
366.147	364.5
366.373	368.5
366.599	364.5
366.826	359.5
367.052	353.5
367.278	341.5
367.505	359.5
367.731	349.5
367.957	339.5
368.184	365.5
368.41	355.5
368.636	361.5
368.862	365.5
369.089	363.5
369.315	359.5
369.541	356.5
369.767	333.5
369.993	355.5
370.219	368.5
370.445	327.5
370.672	371.5
370.898	367.5
371.124	347.5
371.35	360.5
371.576	357.5
371.802	340.5
372.028	337.5
372.254	353.5
372.48	349.5
372.706	360.5
372.932	356.5
373.158	355.5
373.384	352.5
373.61	356.5
373.835	340.5
374.061	362.5
374.287	350.5
374.513	346.5
374.739	352.5
374.965	351.5
375.191	364.5
375.416	374.5
375.642	331.5
375.868	344.5
376.094	335.5
376.319	343.5
376.545	343.5
376.771	344.5
376.997	332.5
377.222	355.5
377.448	352.5
377.674	345.5
377.899	342.5
378.125	344.5
378.35	340.5
378.576	331.5
378.802	330.5
379.027	339.5
379.253	341.5
379.478	336.5
379.704	327.5
379.929	323.5
380.155	363.5
380.38	349.5
380.606	337.5
380.831	350.5
381.057	345.5
381.282	352.5
381.507	349.5
381.733	329.5
381.958	330.5
382.184	346.5
382.409	360.5
382.634	374.5
382.86	357.5
383.085	371.5
383.31	359.5
383.535	365.5
383.761	342.5
383.986	347.5
384.211	346.5
384.436	340.5
384.662	363.5
384.887	363.5
385.112	364.5
385.337	365.5
385.562	349.5
385.787	376.5
386.013	383.5
386.238	378.5
386.463	390.5
386.688	377.5
386.913	357.5
387.138	372.5
387.363	367.5
387.588	362.5
387.813	384.5
388.038	358.5
388.263	362.5
388.488	357.5
388.713	381.5
388.938	367.5
389.163	376.5
389.387	374.5
389.612	365.5
389.837	350.5
390.062	395.5
390.287	375.5
390.512	367.5
390.736	370.5
390.961	357.5
391.186	360.5
391.411	385.5
391.636	368.5
391.86	371.5
392.085	353.5
392.31	347.5
392.534	379.5
392.759	373.5
392.984	388.5
393.208	385.5
393.433	375.5
393.658	394.5
393.882	378.5
394.107	371.5
394.331	370.5
394.556	359.5
394.78	363.5
395.005	378.5
395.229	357.5
395.454	382.5
395.678	375.5
395.903	380.5
396.127	396.5
396.352	403.5
396.576	411.5
396.801	389.5
397.025	388.5
397.249	402.5
397.474	395.5
397.698	379.5
397.922	396.5
398.147	416.5
398.371	422.5
398.595	386.5
398.82	401.5
399.044	420.5
399.268	415.5
399.492	425.5
399.717	447.5
399.941	478.5
400.165	493.5
400.389	536.5
400.613	490.5
400.837	449.5
401.062	420.5
401.286	429.5
401.51	413.5
401.734	414.5
401.958	424.5
402.182	411.5
402.406	427.5
402.63	437.5
402.854	422.5
403.078	421.5
403.302	399.5
403.526	447.5
403.75	441.5
403.974	439.5
404.198	416.5
404.422	439.5
404.645	458.5
404.869	431.5
405.093	473.5
405.317	512.5
405.541	547.5
405.765	466.5
405.988	472.5
406.212	469.5
406.436	498.5
406.66	493.5
406.883	489.5
407.107	486.5
407.331	525.5
407.555	582.5
407.778	576.5
408.002	519.5
408.226	465.5
408.449	458.5
408.673	484.5
408.896	509.5
409.12	555.5
409.344	521.5
409.567	471.5
409.791	435.5
410.014	437.5
410.238	439.5
410.461	437.5
410.685	448.5
410.908	445.5
411.132	479.5
411.355	507.5
411.578	474.5
411.802	452.5
412.025	438.5
412.249	429.5
412.472	450.5
412.695	505.5
412.919	481.5
413.142	454.5
413.365	441.5
413.589	415.5
413.812	431.5
414.035	409.5
414.258	400.5
414.482	420.5
414.705	415.5
414.928	414.5
415.151	415.5
415.374	416.5
415.597	391.5
415.821	425.5
416.044	409.5
416.267	397.5
416.49	391.5
416.713	388.5
416.936	404.5
417.159	434.5
417.382	404.5
417.605	428.5
417.828	436.5
418.051	443.5
418.274	423.5
418.497	417.5
418.72	432.5
418.943	428.5
419.166	419.5
419.389	428.5
419.611	430.5
419.834	424.5
420.057	432.5
420.28	441.5
420.503	439.5
420.726	439.5
420.948	441.5
421.171	502.5
421.394	523.5
421.617	462.5
421.839	435.5
422.062	425.5
422.285	443.5
422.507	537.5
422.73	588.5
422.953	561.5
423.175	491.5
423.398	470.5
423.621	465.5
423.843	481.5
424.066	473.5
424.288	480.5
424.511	501.5
424.733	551.5
424.956	641.5
425.178	599.5
425.401	617.5
425.623	631.5
425.846	517.5
426.068	488.5
426.291	462.5
426.513	490.5
426.735	495.5
426.958	553.5
427.18	629.5
427.402	744.5
427.625	823.5
427.847	747.5
428.069	650.5
428.292	559.5
428.514	500.5
428.736	471.5
428.958	458.5
429.181	448.5
429.403	433.5
429.625	463.5
429.847	475.5
430.069	558.5
430.292	553.5
430.514	481.5
430.736	453.5
430.958	437.5
431.18	425.5
431.402	414.5
431.624	409.5
431.846	427.5
432.068	407.5
432.29	428.5
432.512	414.5
432.734	429.5
432.956	431.5
433.178	435.5
433.4	416.5
433.622	430.5
433.844	410.5
434.066	422.5
434.287	396.5
434.509	411.5
434.731	427.5
434.953	409.5
435.175	427.5
435.397	468.5
435.618	492.5
435.84	520.5
436.062	630.5
436.284	701.5
436.505	573.5
436.727	491.5
436.949	471.5
437.17	451.5
437.392	432.5
437.614	470.5
437.835	494.5
438.057	583.5
438.278	706.5
438.5	694.5
438.721	757.5
438.943	705.5
439.165	583.5
439.386	521.5
439.608	504.5
439.829	495.5
440.05	511.5
440.272	588.5
440.493	547.5
440.715	473.5
440.936	470.5
441.158	453.5
441.379	466.5
441.6	483.5
441.822	515.5
442.043	524.5
442.264	620.5
442.486	654.5
442.707	537.5
442.928	505.5
443.149	524.5
443.371	519.5
443.592	559.5
443.813	673.5
444.034	682.5
444.255	596.5
444.476	516.5
444.698	501.5
444.919	474.5
445.14	620.5
445.361	559.5
445.582	536.5
445.803	608.5
446.024	695.5
446.245	702.5
446.466	635.5
446.687	553.5
446.908	494.5
447.129	467.5
447.35	478.5
447.571	438.5
447.792	461.5
448.013	444.5
448.234	461.5
448.455	515.5
448.675	614.5
448.896	767.5
449.117	634.5
449.338	587.5
449.559	680.5
449.779	785.5
450	606.5
450.221	499.5
450.442	476.5
450.662	442.5
450.883	472.5
451.104	478.5
451.324	453.5
451.545	437.5
451.766	410.5
451.986	409.5
452.207	393.5
452.428	380.5
452.648	400.5
452.869	399.5
453.089	415.5
453.31	437.5
453.53	419.5
453.751	409.5
453.971	403.5
454.192	438.5
454.412	405.5
454.633	419.5
454.853	391.5
455.073	410.5
455.294	447.5
455.514	499.5
455.734	491.5
455.955	419.5
456.175	397.5
456.395	387.5
456.616	357.5
456.836	369.5
457.056	349.5
457.276	379.5
457.497	367.5
457.717	369.5
457.937	371.5
458.157	403.5
458.377	382.5
458.598	414.5
458.818	484.5
459.038	569.5
459.258	590.5
459.478	475.5
459.698	433.5
459.918	407.5
460.138	414.5
460.358	403.5
460.578	410.5
460.798	429.5
461.018	421.5
461.238	408.5
461.458	399.5
461.678	394.5
461.898	427.5
462.118	411.5
462.338	425.5
462.558	417.5
462.777	399.5
462.997	437.5
463.217	438.5
463.437	432.5
463.657	424.5
463.876	432.5
464.096	413.5
464.316	430.5
464.536	460.5
464.755	448.5
464.975	456.5
465.195	510.5
465.414	582.5
465.634	509.5
465.854	447.5
466.073	437.5
466.293	422.5
466.512	431.5
466.732	409.5
466.951	384.5
467.171	399.5
467.391	409.5
467.61	414.5
467.829	431.5
468.049	404.5
468.268	421.5
468.488	401.5
468.707	388.5
468.927	400.5
469.146	416.5
469.365	378.5
469.585	379.5
469.804	407.5
470.023	427.5
470.243	413.5
470.462	420.5
470.681	425.5
470.901	433.5
471.12	397.5
471.339	412.5
471.558	406.5
471.777	412.5
471.997	411.5
472.216	428.5
472.435	471.5
472.654	458.5
472.873	432.5
473.092	404.5
473.311	410.5
473.53	438.5
473.749	425.5
473.968	478.5
474.187	590.5
474.406	616.5
474.625	479.5
474.844	431.5
475.063	418.5
475.282	416.5
475.501	416.5
475.72	427.5
475.939	422.5
476.158	429.5
476.377	420.5
476.596	423.5
476.814	420.5
477.033	447.5
477.252	461.5
477.471	422.5
477.69	435.5
477.908	437.5
478.127	452.5
478.346	441.5
478.564	459.5
478.783	449.5
479.002	452.5
479.22	468.5
479.439	492.5
479.658	465.5
479.876	472.5
480.095	513.5
480.313	549.5
480.532	504.5
480.751	484.5
480.969	518.5
481.188	615.5
481.406	631.5
481.624	563.5
481.843	510.5
482.061	494.5
482.28	497.5
482.498	468.5
482.717	483.5
482.935	499.5
483.153	496.5
483.372	467.5
483.59	475.5
483.808	497.5
484.027	470.5
484.245	478.5
484.463	490.5
484.681	496.5
484.9	487.5
485.118	484.5
485.336	500.5
485.554	491.5
485.772	495.5
485.99	501.5
486.209	499.5
486.427	486.5
486.645	515.5
486.863	542.5
487.081	543.5
487.299	521.5
487.517	533.5
487.735	512.5
487.953	511.5
488.171	515.5
488.389	503.5
488.607	538.5
488.825	530.5
489.043	504.5
489.261	535.5
489.479	524.5
489.696	522.5
489.914	523.5
490.132	548.5
490.35	550.5
490.568	532.5
490.786	573.5
491.003	576.5
491.221	582.5
491.439	578.5
491.657	589.5
491.874	599.5
492.092	577.5
492.31	608.5
492.527	576.5
492.745	612.5
492.963	584.5
493.18	615.5
493.398	633.5
493.615	640.5
493.833	611.5
494.05	619.5
494.268	629.5
494.485	602.5
494.703	618.5
494.92	604.5
495.138	607.5
495.355	627.5
495.573	627.5
495.79	608.5
496.008	628.5
496.225	641.5
496.442	629.5
496.66	624.5
496.877	614.5
497.094	618.5
497.312	631.5
497.529	627.5
497.746	636.5
497.963	651.5
498.181	672.5
498.398	671.5
498.615	684.5
498.832	656.5
499.049	670.5
499.267	688.5
499.484	714.5
499.701	703.5
499.918	743.5
500.135	731.5
500.352	783.5
500.569	794.5
500.786	802.5
501.003	761.5
501.22	783.5
501.437	748.5
501.654	734.5
501.871	743.5
502.088	758.5
502.305	718.5
502.522	693.5
502.739	679.5
502.956	647.5
503.172	663.5
503.389	632.5
503.606	667.5
503.823	646.5
504.04	645.5
504.256	635.5
504.473	630.5
504.69	614.5
504.907	635.5
505.123	612.5
505.34	606.5
505.557	590.5
505.773	599.5
505.99	579.5
506.207	614.5
506.423	601.5
506.64	607.5
506.856	591.5
507.073	598.5
507.289	598.5
507.506	578.5
507.722	604.5
507.939	621.5
508.155	602.5
508.372	586.5
508.588	599.5
508.805	576.5
509.021	591.5
509.238	614.5
509.454	591.5
509.67	590.5
509.887	560.5
510.103	551.5
510.319	576.5
510.536	673.5
510.752	1205.5
510.968	992.5
511.184	616.5
511.401	576.5
511.617	559.5
511.833	542.5
512.049	562.5
512.265	527.5
512.481	541.5
512.698	567.5
512.914	565.5
513.13	560.5
513.346	550.5
513.562	558.5
513.778	598.5
513.994	545.5
514.21	579.5
514.426	592.5
514.642	659.5
514.858	701.5
515.074	749.5
515.29	881.5
515.506	1364.5
515.721	1105.5
515.937	688.5
516.153	629.5
516.369	599.5
516.585	604.5
516.801	591.5
517.016	593.5
517.232	579.5
517.448	542.5
517.664	543.5
517.879	570.5
518.095	566.5
518.311	558.5
518.527	537.5
518.742	557.5
518.958	543.5
519.173	547.5
519.389	564.5
519.605	547.5
519.82	562.5
