Data from 1972.PennyLincolnUp.Lamp.En5.5.200Scan.071719.P1._HRD10591_15-29-12-844.txt Node
Date: Thu Jul 18 15:29:12 EDT 2019
User: cochatt
Spectrometer: HR+D1059
Trigger mode: 1
Integration Time (sec): 1.000000E-1
Scans to average: 1
Electric dark correction enabled: true
Nonlinearity correction enabled: false
Boxcar width: 0
XAxis mode: Wavelengths
Number of Pixels in Spectrum: 2048
>>>>>Begin Spectral Data<<<<<
223.165	-21.94
223.4	-21.94
223.635	-21.94
223.869	-14.94
224.104	-13.94
224.338	-14.94
224.573	-8.94
224.808	-21.94
225.042	-6.94
225.277	2.06
225.511	-5.94
225.746	-3.94
225.98	4.06
226.215	19.06
226.449	21.06
226.683	25.06
226.918	14.06
227.152	28.06
227.387	33.06
227.621	33.06
227.856	47.06
228.09	46.06
228.324	44.06
228.559	56.06
228.793	70.06
229.027	112.06
229.262	123.06
229.496	129.06
229.73	157.06
229.964	179.06
230.199	153.06
230.433	130.06
230.667	118.06
230.901	119.06
231.136	112.06
231.37	121.06
231.604	116.06
231.838	110.06
232.072	113.06
232.306	103.06
232.541	99.06
232.775	109.06
233.009	116.06
233.243	112.06
233.477	103.06
233.711	118.06
233.945	124.06
234.179	113.06
234.413	136.06
234.647	122.06
234.881	126.06
235.115	124.06
235.349	128.06
235.583	123.06
235.817	127.06
236.051	125.06
236.285	117.06
236.519	127.06
236.753	136.06
236.987	154.06
237.221	192.06
237.455	256.06
237.689	209.06
237.922	158.06
238.156	129.06
238.39	126.06
238.624	116.06
238.858	118.06
239.091	131.06
239.325	132.06
239.559	129.06
239.793	123.06
240.027	138.06
240.26	147.06
240.494	171.06
240.728	153.06
240.961	153.06
241.195	154.06
241.429	157.06
241.662	149.06
241.896	137.06
242.13	137.06
242.363	140.06
242.597	135.06
242.83	134.06
243.064	152.06
243.298	140.06
243.531	139.06
243.765	151.06
243.998	132.06
244.232	138.06
244.465	133.06
244.699	140.06
244.932	143.06
245.166	156.06
245.399	146.06
245.633	154.06
245.866	157.06
246.099	140.06
246.333	145.06
246.566	141.06
246.8	152.06
247.033	150.06
247.266	165.06
247.5	165.06
247.733	181.06
247.966	165.06
248.2	179.06
248.433	177.06
248.666	176.06
248.899	195.06
249.133	206.06
249.366	227.06
249.599	210.06
249.832	201.06
250.066	203.06
250.299	189.06
250.532	200.06
250.765	204.06
250.998	225.06
251.231	255.06
251.465	225.06
251.698	209.06
251.931	216.06
252.164	193.06
252.397	204.06
252.63	212.06
252.863	227.06
253.096	231.06
253.329	246.06
253.562	240.06
253.795	234.06
254.028	226.06
254.261	233.06
254.494	232.06
254.727	272.06
254.96	327.06
255.193	308.06
255.426	251.06
255.659	252.06
255.892	263.06
256.124	237.06
256.357	252.06
256.59	225.06
256.823	230.06
257.056	227.06
257.289	216.06
257.521	215.06
257.754	226.06
257.987	205.06
258.22	210.06
258.452	205.06
258.685	211.06
258.918	202.06
259.151	226.06
259.383	222.06
259.616	225.06
259.849	228.06
260.081	244.06
260.314	264.06
260.547	282.06
260.779	243.06
261.012	244.06
261.244	248.06
261.477	230.06
261.71	230.06
261.942	246.06
262.175	265.06
262.407	251.06
262.64	233.06
262.872	232.06
263.105	211.06
263.337	204.06
263.57	225.06
263.802	224.06
264.035	235.06
264.267	225.06
264.499	210.06
264.732	221.06
264.964	210.06
265.197	214.06
265.429	198.06
265.661	222.06
265.894	218.06
266.126	226.06
266.358	230.06
266.591	206.06
266.823	227.06
267.055	225.06
267.287	227.06
267.52	221.06
267.752	222.06
267.984	226.06
268.216	228.06
268.448	229.06
268.681	250.06
268.913	241.06
269.145	283.06
269.377	290.06
269.609	294.06
269.841	285.06
270.073	285.06
270.306	307.06
270.538	335.06
270.77	330.06
271.002	315.06
271.234	301.06
271.466	300.06
271.698	315.06
271.93	344.06
272.162	345.06
272.394	332.06
272.626	316.06
272.858	301.06
273.09	299.06
273.322	288.06
273.553	275.06
273.785	272.06
274.017	276.06
274.249	286.06
274.481	271.06
274.713	285.06
274.945	280.06
275.176	276.06
275.408	270.06
275.64	273.06
275.872	262.06
276.104	266.06
276.335	269.06
276.567	273.06
276.799	297.06
277.031	318.06
277.262	340.06
277.494	329.06
277.726	321.06
277.957	295.06
278.189	300.06
278.421	286.06
278.652	309.06
278.884	264.06
279.115	276.06
279.347	266.06
279.579	275.06
279.81	261.06
280.042	256.06
280.273	275.06
280.505	261.06
280.736	266.06
280.968	261.06
281.199	252.06
281.431	273.06
281.662	265.06
281.894	268.06
282.125	283.06
282.356	307.06
282.588	320.06
282.819	322.06
283.051	300.06
283.282	267.06
283.513	261.06
283.745	270.06
283.976	262.06
284.207	282.06
284.439	279.06
284.67	280.06
284.901	276.06
285.132	269.06
285.364	278.06
285.595	271.06
285.826	269.06
286.057	270.06
286.288	277.06
286.52	284.06
286.751	272.06
286.982	285.06
287.213	274.06
287.444	282.06
287.675	291.06
287.906	294.06
288.138	289.06
288.369	297.06
288.6	309.06
288.831	304.06
289.062	290.06
289.293	297.06
289.524	290.06
289.755	282.06
289.986	274.06
290.217	292.06
290.448	280.06
290.679	279.06
290.91	298.06
291.141	276.06
291.371	276.06
291.602	276.06
291.833	278.06
292.064	278.06
292.295	276.06
292.526	300.06
292.757	300.06
292.987	277.06
293.218	293.06
293.449	276.06
293.68	286.06
293.91	291.06
294.141	292.06
294.372	296.06
294.603	269.06
294.833	290.06
295.064	263.06
295.295	274.06
295.525	312.06
295.756	303.06
295.987	312.06
296.217	336.06
296.448	338.06
296.679	299.06
296.909	288.06
297.14	292.06
297.37	302.06
297.601	299.06
297.831	289.06
298.062	282.06
298.292	295.06
298.523	287.06
298.753	285.06
298.984	299.06
299.214	291.06
299.445	287.06
299.675	292.06
299.905	300.06
300.136	295.06
300.366	309.06
300.597	290.06
300.827	312.06
301.057	319.06
301.288	318.06
301.518	332.06
301.748	315.06
301.979	317.06
302.209	299.06
302.439	328.06
302.669	341.06
302.9	308.06
303.13	322.06
303.36	300.06
303.59	326.06
303.82	336.06
304.051	344.06
304.281	316.06
304.511	322.06
304.741	303.06
304.971	312.06
305.201	311.06
305.431	312.06
305.661	316.06
305.891	318.06
306.121	321.06
306.352	317.06
306.582	334.06
306.812	326.06
307.042	322.06
307.272	320.06
307.502	325.06
307.731	340.06
307.961	329.06
308.191	329.06
308.421	314.06
308.651	325.06
308.881	341.06
309.111	340.06
309.341	348.06
309.571	361.06
309.8	368.06
310.03	368.06
310.26	369.06
310.49	389.06
310.72	388.06
310.949	392.06
311.179	412.06
311.409	395.06
311.639	376.06
311.868	397.06
312.098	398.06
312.328	408.06
312.557	419.06
312.787	402.06
313.017	433.06
313.246	404.06
313.476	376.06
313.706	389.06
313.935	399.06
314.165	406.06
314.394	397.06
314.624	413.06
314.853	386.06
315.083	396.06
315.312	372.06
315.542	355.06
315.771	356.06
316.001	371.06
316.23	376.06
316.46	361.06
316.689	378.06
316.919	387.06
317.148	388.06
317.377	391.06
317.607	396.06
317.836	384.06
318.065	391.06
318.295	381.06
318.524	368.06
318.753	372.06
318.983	372.06
319.212	377.06
319.441	381.06
319.67	399.06
319.9	379.06
320.129	374.06
320.358	368.06
320.587	397.06
320.816	399.06
321.046	399.06
321.275	416.06
321.504	404.06
321.733	419.06
321.962	419.06
322.191	448.06
322.42	465.06
322.649	485.06
322.878	466.06
323.108	501.06
323.337	530.06
323.566	557.06
323.795	595.06
324.024	661.06
324.253	821.06
324.482	1194.06
324.71	1914.06
324.939	2822.06
325.168	2468.06
325.397	1229.06
325.626	797.06
325.855	668.06
326.084	573.06
326.313	552.06
326.542	566.06
326.77	636.06
326.999	763.06
327.228	1073.06
327.457	1682.06
327.686	2096.06
327.914	1396.06
328.143	846.06
328.372	732.06
328.6	674.06
328.829	658.06
329.058	660.06
329.287	697.06
329.515	606.06
329.744	578.06
329.972	586.06
330.201	593.06
330.43	650.06
330.658	683.06
330.887	698.06
331.115	663.06
331.344	589.06
331.572	523.06
331.801	532.06
332.03	508.06
332.258	485.06
332.486	466.06
332.715	464.06
332.943	443.06
333.172	468.06
333.4	483.06
333.629	477.06
333.857	498.06
334.085	492.06
334.314	538.06
334.542	570.06
334.771	593.06
334.999	550.06
335.227	490.06
335.455	472.06
335.684	459.06
335.912	436.06
336.14	432.06
336.369	420.06
336.597	448.06
336.825	445.06
337.053	446.06
337.281	442.06
337.51	421.06
337.738	445.06
337.966	425.06
338.194	438.06
338.422	426.06
338.65	423.06
338.878	419.06
339.106	414.06
339.334	426.06
339.562	408.06
339.79	408.06
340.018	418.06
340.246	402.06
340.474	422.06
340.702	434.06
340.93	438.06
341.158	424.06
341.386	418.06
341.614	422.06
341.842	426.06
342.07	408.06
342.298	387.06
342.526	412.06
342.754	403.06
342.981	381.06
343.209	401.06
343.437	408.06
343.665	425.06
343.893	407.06
344.12	405.06
344.348	422.06
344.576	427.06
344.804	423.06
345.031	430.06
345.259	467.06
345.487	461.06
345.714	450.06
345.942	422.06
346.17	428.06
346.397	406.06
346.625	421.06
346.853	410.06
347.08	412.06
347.308	411.06
347.535	435.06
347.763	442.06
347.99	424.06
348.218	442.06
348.445	439.06
348.673	426.06
348.9	424.06
349.128	408.06
349.355	413.06
349.583	407.06
349.81	397.06
350.037	398.06
350.265	374.06
350.492	404.06
350.72	392.06
350.947	404.06
351.174	408.06
351.402	422.06
351.629	422.06
351.856	421.06
352.083	427.06
352.311	446.06
352.538	442.06
352.765	433.06
352.992	433.06
353.22	427.06
353.447	400.06
353.674	403.06
353.901	378.06
354.128	380.06
354.355	386.06
354.583	386.06
354.81	378.06
355.037	367.06
355.264	359.06
355.491	371.06
355.718	376.06
355.945	389.06
356.172	358.06
356.399	359.06
356.626	352.06
356.853	345.06
357.08	357.06
357.307	384.06
357.534	363.06
357.761	343.06
357.988	372.06
358.215	372.06
358.441	386.06
358.668	365.06
358.895	384.06
359.122	384.06
359.349	403.06
359.576	410.06
359.802	427.06
360.029	482.06
360.256	480.06
360.483	463.06
360.709	407.06
360.936	408.06
361.163	413.06
361.39	414.06
361.616	406.06
361.843	416.06
362.07	430.06
362.296	405.06
362.523	388.06
362.749	410.06
362.976	386.06
363.203	405.06
363.429	402.06
363.656	395.06
363.882	387.06
364.109	352.06
364.335	349.06
364.562	356.06
364.788	388.06
365.015	378.06
365.241	382.06
365.468	386.06
365.694	371.06
365.92	379.06
366.147	377.06
366.373	387.06
366.599	368.06
366.826	370.06
367.052	389.06
367.278	365.06
367.505	393.06
367.731	369.06
367.957	369.06
368.184	365.06
368.41	378.06
368.636	390.06
368.862	406.06
369.089	374.06
369.315	374.06
369.541	368.06
369.767	377.06
369.993	365.06
370.219	368.06
370.445	378.06
370.672	365.06
370.898	366.06
371.124	368.06
371.35	344.06
371.576	365.06
371.802	365.06
372.028	368.06
372.254	368.06
372.48	377.06
372.706	351.06
372.932	354.06
373.158	375.06
373.384	370.06
373.61	374.06
373.835	373.06
374.061	364.06
374.287	382.06
374.513	358.06
374.739	356.06
374.965	378.06
375.191	375.06
375.416	359.06
375.642	345.06
375.868	371.06
376.094	361.06
376.319	359.06
376.545	370.06
376.771	377.06
376.997	370.06
377.222	371.06
377.448	377.06
377.674	352.06
377.899	345.06
378.125	364.06
378.35	356.06
378.576	345.06
378.802	362.06
379.027	355.06
379.253	368.06
379.478	365.06
379.704	360.06
379.929	345.06
380.155	338.06
380.38	358.06
380.606	372.06
380.831	362.06
381.057	362.06
381.282	364.06
381.507	357.06
381.733	390.06
381.958	372.06
382.184	369.06
382.409	346.06
382.634	362.06
382.86	352.06
383.085	355.06
383.31	359.06
383.535	368.06
383.761	360.06
383.986	371.06
384.211	374.06
384.436	396.06
384.662	380.06
384.887	393.06
385.112	371.06
385.337	374.06
385.562	396.06
385.787	388.06
386.013	411.06
386.238	401.06
386.463	403.06
386.688	386.06
386.913	386.06
387.138	396.06
387.363	397.06
387.588	393.06
387.813	386.06
388.038	371.06
388.263	404.06
388.488	398.06
388.713	381.06
388.938	389.06
389.163	393.06
389.387	382.06
389.612	394.06
389.837	380.06
390.062	379.06
390.287	386.06
390.512	366.06
390.736	395.06
390.961	381.06
391.186	402.06
391.411	400.06
391.636	384.06
391.86	393.06
392.085	383.06
392.31	384.06
392.534	376.06
392.759	393.06
392.984	386.06
393.208	400.06
393.433	394.06
393.658	401.06
393.882	384.06
394.107	377.06
394.331	380.06
394.556	375.06
394.78	375.06
395.005	393.06
395.229	381.06
395.454	406.06
395.678	394.06
395.903	418.06
396.127	436.06
396.352	434.06
396.576	394.06
396.801	380.06
397.025	386.06
397.249	389.06
397.474	402.06
397.698	420.06
397.922	416.06
398.147	424.06
398.371	439.06
398.595	428.06
398.82	437.06
399.044	436.06
399.268	452.06
399.492	460.06
399.717	467.06
399.941	492.06
400.165	521.06
400.389	532.06
400.613	498.06
400.837	459.06
401.062	448.06
401.286	470.06
401.51	441.06
401.734	434.06
401.958	446.06
402.182	461.06
402.406	467.06
402.63	453.06
402.854	440.06
403.078	435.06
403.302	466.06
403.526	471.06
403.75	448.06
403.974	451.06
404.198	438.06
404.422	475.06
404.645	474.06
404.869	462.06
405.093	511.06
405.317	532.06
405.541	578.06
405.765	525.06
405.988	525.06
406.212	501.06
406.436	528.06
406.66	521.06
406.883	522.06
407.107	524.06
407.331	582.06
407.555	634.06
407.778	626.06
408.002	590.06
408.226	529.06
408.449	522.06
408.673	516.06
408.896	546.06
409.12	594.06
409.344	546.06
409.567	512.06
409.791	480.06
410.014	450.06
410.238	462.06
410.461	455.06
410.685	465.06
410.908	484.06
411.132	526.06
411.355	566.06
411.578	536.06
411.802	474.06
412.025	448.06
412.249	469.06
412.472	485.06
412.695	546.06
412.919	525.06
413.142	478.06
413.365	450.06
413.589	451.06
413.812	429.06
414.035	438.06
414.258	430.06
414.482	423.06
414.705	444.06
414.928	424.06
415.151	432.06
415.374	422.06
415.597	408.06
415.821	437.06
416.044	440.06
416.267	412.06
416.49	438.06
416.713	454.06
416.936	440.06
417.159	443.06
417.382	426.06
417.605	434.06
417.828	457.06
418.051	484.06
418.274	463.06
418.497	441.06
418.72	434.06
418.943	444.06
419.166	445.06
419.389	470.06
419.611	477.06
419.834	470.06
420.057	464.06
420.28	461.06
420.503	453.06
420.726	458.06
420.948	481.06
421.171	533.06
421.394	546.06
421.617	490.06
421.839	446.06
422.062	454.06
422.285	492.06
422.507	564.06
422.73	616.06
422.953	598.06
423.175	530.06
423.398	486.06
423.621	481.06
423.843	491.06
424.066	520.06
424.288	497.06
424.511	531.06
424.733	565.06
424.956	668.06
425.178	642.06
425.401	647.06
425.623	678.06
425.846	557.06
426.068	514.06
426.291	520.06
426.513	522.06
426.735	523.06
426.958	589.06
427.18	662.06
427.402	779.06
427.625	888.06
427.847	812.06
428.069	712.06
428.292	608.06
428.514	514.06
428.736	512.06
428.958	492.06
429.181	502.06
429.403	475.06
429.625	492.06
429.847	524.06
430.069	569.06
430.292	570.06
430.514	491.06
430.736	474.06
430.958	462.06
431.18	431.06
431.402	440.06
431.624	429.06
431.846	444.06
432.068	438.06
432.29	452.06
432.512	439.06
432.734	451.06
432.956	460.06
433.178	459.06
433.4	473.06
433.622	462.06
433.844	440.06
434.066	437.06
434.287	434.06
434.509	448.06
434.731	450.06
434.953	451.06
435.175	463.06
435.397	502.06
435.618	525.06
435.84	568.06
436.062	676.06
436.284	739.06
436.505	595.06
436.727	570.06
436.949	504.06
437.17	474.06
437.392	488.06
437.614	485.06
437.835	543.06
438.057	646.06
438.278	749.06
438.5	749.06
438.721	821.06
438.943	790.06
439.165	614.06
439.386	564.06
439.608	545.06
439.829	538.06
440.05	566.06
440.272	636.06
440.493	597.06
440.715	517.06
440.936	477.06
441.158	502.06
441.379	482.06
441.6	475.06
441.822	521.06
442.043	559.06
442.264	649.06
442.486	671.06
442.707	589.06
442.928	537.06
443.149	544.06
443.371	573.06
443.592	613.06
443.813	684.06
444.034	760.06
444.255	651.06
444.476	546.06
444.698	520.06
444.919	492.06
445.14	588.06
445.361	574.06
445.582	565.06
445.803	657.06
446.024	772.06
446.245	806.06
446.466	705.06
446.687	590.06
446.908	530.06
447.129	506.06
447.35	489.06
447.571	480.06
447.792	482.06
448.013	497.06
448.234	525.06
448.455	567.06
448.675	697.06
448.896	785.06
449.117	673.06
449.338	630.06
449.559	763.06
449.779	845.06
450	674.06
450.221	548.06
450.442	514.06
450.662	482.06
450.883	520.06
451.104	510.06
451.324	508.06
451.545	467.06
451.766	460.06
451.986	432.06
452.207	442.06
452.428	442.06
452.648	439.06
452.869	409.06
453.089	462.06
453.31	449.06
453.53	444.06
453.751	426.06
453.971	437.06
454.192	446.06
454.412	436.06
454.633	424.06
454.853	429.06
455.073	419.06
455.294	470.06
455.514	545.06
455.734	543.06
455.955	447.06
456.175	424.06
456.395	387.06
456.616	390.06
456.836	391.06
457.056	395.06
457.276	394.06
457.497	397.06
457.717	398.06
457.937	404.06
458.157	400.06
458.377	418.06
458.598	430.06
458.818	516.06
459.038	598.06
459.258	626.06
459.478	488.06
459.698	446.06
459.918	459.06
460.138	433.06
460.358	443.06
460.578	424.06
460.798	451.06
461.018	427.06
461.238	422.06
461.458	450.06
461.678	436.06
461.898	420.06
462.118	427.06
462.338	444.06
462.558	427.06
462.777	450.06
462.997	434.06
463.217	458.06
463.437	449.06
463.657	460.06
463.876	436.06
464.096	460.06
464.316	460.06
464.536	477.06
464.755	444.06
464.975	474.06
465.195	529.06
465.414	636.06
465.634	557.06
465.854	496.06
466.073	468.06
466.293	457.06
466.512	435.06
466.732	413.06
466.951	449.06
467.171	437.06
467.391	421.06
467.61	433.06
467.829	437.06
468.049	456.06
468.268	428.06
468.488	428.06
468.707	423.06
468.927	413.06
469.146	424.06
469.365	425.06
469.585	422.06
469.804	418.06
470.023	437.06
470.243	448.06
470.462	420.06
470.681	475.06
470.901	454.06
471.12	429.06
471.339	437.06
471.558	436.06
471.777	458.06
471.997	432.06
472.216	452.06
472.435	515.06
472.654	480.06
472.873	437.06
473.092	424.06
473.311	453.06
473.53	441.06
473.749	431.06
473.968	511.06
474.187	636.06
474.406	677.06
474.625	522.06
474.844	458.06
475.063	428.06
475.282	466.06
475.501	446.06
475.72	463.06
475.939	447.06
476.158	471.06
476.377	470.06
476.596	436.06
476.814	471.06
477.033	480.06
477.252	480.06
477.471	451.06
477.69	449.06
477.908	486.06
478.127	469.06
478.346	468.06
478.564	478.06
478.783	467.06
479.002	479.06
479.22	499.06
479.439	500.06
479.658	530.06
479.876	536.06
480.095	527.06
480.313	573.06
480.532	546.06
480.751	506.06
480.969	549.06
481.188	633.06
481.406	688.06
481.624	624.06
481.843	570.06
482.061	538.06
482.28	495.06
482.498	525.06
482.717	512.06
482.935	532.06
483.153	537.06
483.372	524.06
483.59	534.06
483.808	509.06
484.027	517.06
484.245	539.06
484.463	519.06
484.681	534.06
484.9	525.06
485.118	534.06
485.336	534.06
485.554	544.06
485.772	537.06
485.99	544.06
486.209	532.06
486.427	549.06
486.645	553.06
486.863	570.06
487.081	557.06
487.299	565.06
487.517	563.06
487.735	566.06
487.953	536.06
488.171	560.06
488.389	560.06
488.607	554.06
488.825	544.06
489.043	580.06
489.261	549.06
489.479	571.06
489.696	562.06
489.914	565.06
490.132	587.06
490.35	584.06
490.568	592.06
490.786	593.06
491.003	608.06
491.221	615.06
491.439	623.06
491.657	639.06
491.874	642.06
492.092	661.06
492.31	657.06
492.527	650.06
492.745	644.06
492.963	646.06
493.18	628.06
493.398	675.06
493.615	665.06
493.833	642.06
494.05	653.06
494.268	642.06
494.485	666.06
494.703	668.06
494.92	642.06
495.138	644.06
495.355	660.06
495.573	662.06
495.79	657.06
496.008	644.06
496.225	655.06
496.442	670.06
496.66	641.06
496.877	638.06
497.094	653.06
497.312	659.06
497.529	680.06
497.746	690.06
497.963	678.06
498.181	726.06
498.398	722.06
498.615	715.06
498.832	720.06
499.049	744.06
499.267	718.06
499.484	740.06
499.701	770.06
499.918	713.06
500.135	791.06
500.352	818.06
500.569	812.06
500.786	814.06
501.003	842.06
501.22	803.06
501.437	818.06
501.654	764.06
501.871	801.06
