Data from 1972.PennyLincolnUp.Lamp.En5.5.200Scan.071719.P1._HRD10591_15-29-09-844.txt Node
Date: Thu Jul 18 15:29:09 EDT 2019
User: cochatt
Spectrometer: HR+D1059
Trigger mode: 1
Integration Time (sec): 1.000000E-1
Scans to average: 1
Electric dark correction enabled: true
Nonlinearity correction enabled: false
Boxcar width: 0
XAxis mode: Wavelengths
Number of Pixels in Spectrum: 2048
>>>>>Begin Spectral Data<<<<<
223.165	-13.81
223.4	-13.81
223.635	-13.81
223.869	-19.81
224.104	-29.81
224.338	-8.81
224.573	1.19
224.808	-6.81
225.042	-6.81
225.277	-8.81
225.511	4.19
225.746	5.19
225.98	15.19
226.215	-4.81
226.449	10.19
226.683	18.19
226.918	15.19
227.152	30.19
227.387	33.19
227.621	25.19
227.856	33.19
228.09	35.19
228.324	38.19
228.559	43.19
228.793	65.19
229.027	104.19
229.262	119.19
229.496	125.19
229.73	136.19
229.964	169.19
230.199	145.19
230.433	122.19
230.667	122.19
230.901	121.19
231.136	116.19
231.37	110.19
231.604	106.19
231.838	108.19
232.072	121.19
232.306	115.19
232.541	110.19
232.775	101.19
233.009	94.19
233.243	117.19
233.477	114.19
233.711	123.19
233.945	132.19
234.179	125.19
234.413	101.19
234.647	106.19
234.881	104.19
235.115	120.19
235.349	122.19
235.583	117.19
235.817	127.19
236.051	122.19
236.285	128.19
236.519	121.19
236.753	129.19
236.987	151.19
237.221	184.19
237.455	259.19
237.689	214.19
237.922	149.19
238.156	153.19
238.39	134.19
238.624	126.19
238.858	132.19
239.091	143.19
239.325	137.19
239.559	115.19
239.793	127.19
240.027	155.19
240.26	135.19
240.494	179.19
240.728	169.19
240.961	149.19
241.195	149.19
241.429	134.19
241.662	134.19
241.896	122.19
242.13	143.19
242.363	123.19
242.597	146.19
242.83	137.19
243.064	149.19
243.298	152.19
243.531	147.19
243.765	138.19
243.998	145.19
244.232	146.19
244.465	149.19
244.699	153.19
244.932	144.19
245.166	158.19
245.399	145.19
245.633	138.19
245.866	150.19
246.099	157.19
246.333	143.19
246.566	149.19
246.8	154.19
247.033	149.19
247.266	164.19
247.5	162.19
247.733	153.19
247.966	181.19
248.2	182.19
248.433	173.19
248.666	181.19
248.899	183.19
249.133	196.19
249.366	228.19
249.599	187.19
249.832	185.19
250.066	192.19
250.299	201.19
250.532	193.19
250.765	206.19
250.998	238.19
251.231	253.19
251.465	221.19
251.698	197.19
251.931	219.19
252.164	190.19
252.397	215.19
252.63	229.19
252.863	202.19
253.096	204.19
253.329	238.19
253.562	253.19
253.795	242.19
254.028	233.19
254.261	233.19
254.494	229.19
254.727	264.19
254.96	312.19
255.193	290.19
255.426	269.19
255.659	262.19
255.892	237.19
256.124	238.19
256.357	236.19
256.59	235.19
256.823	225.19
257.056	220.19
257.289	217.19
257.521	227.19
257.754	219.19
257.987	221.19
258.22	236.19
258.452	212.19
258.685	216.19
258.918	212.19
259.151	212.19
259.383	211.19
259.616	232.19
259.849	233.19
260.081	261.19
260.314	263.19
260.547	291.19
260.779	261.19
261.012	269.19
261.244	255.19
261.477	226.19
261.71	238.19
261.942	243.19
262.175	248.19
262.407	257.19
262.64	225.19
262.872	242.19
263.105	238.19
263.337	213.19
263.57	207.19
263.802	207.19
264.035	216.19
264.267	230.19
264.499	219.19
264.732	228.19
264.964	222.19
265.197	202.19
265.429	229.19
265.661	207.19
265.894	215.19
266.126	213.19
266.358	219.19
266.591	222.19
266.823	232.19
267.055	214.19
267.287	251.19
267.52	221.19
267.752	250.19
267.984	238.19
268.216	238.19
268.448	226.19
268.681	245.19
268.913	249.19
269.145	281.19
269.377	286.19
269.609	293.19
269.841	278.19
270.073	296.19
270.306	318.19
270.538	339.19
270.77	333.19
271.002	322.19
271.234	302.19
271.466	324.19
271.698	332.19
271.93	344.19
272.162	319.19
272.394	332.19
272.626	329.19
272.858	327.19
273.09	313.19
273.322	289.19
273.553	283.19
273.785	282.19
274.017	310.19
274.249	287.19
274.481	267.19
274.713	265.19
274.945	274.19
275.176	285.19
275.408	271.19
275.64	278.19
275.872	275.19
276.104	282.19
276.335	274.19
276.567	291.19
276.799	308.19
277.031	332.19
277.262	339.19
277.494	339.19
277.726	319.19
277.957	297.19
278.189	289.19
278.421	286.19
278.652	298.19
278.884	302.19
279.115	277.19
279.347	273.19
279.579	276.19
279.81	282.19
280.042	303.19
280.273	263.19
280.505	269.19
280.736	264.19
280.968	265.19
281.199	281.19
281.431	269.19
281.662	266.19
281.894	281.19
282.125	275.19
282.356	295.19
282.588	341.19
282.819	309.19
283.051	283.19
283.282	250.19
283.513	278.19
283.745	275.19
283.976	289.19
284.207	285.19
284.439	279.19
284.67	291.19
284.901	270.19
285.132	275.19
285.364	265.19
285.595	284.19
285.826	265.19
286.057	280.19
286.288	260.19
286.52	283.19
286.751	272.19
286.982	284.19
287.213	280.19
287.444	280.19
287.675	297.19
287.906	306.19
288.138	317.19
288.369	295.19
288.6	310.19
288.831	296.19
289.062	301.19
289.293	287.19
289.524	296.19
289.755	295.19
289.986	293.19
290.217	292.19
290.448	283.19
290.679	273.19
290.91	290.19
291.141	283.19
291.371	262.19
291.602	278.19
291.833	284.19
292.064	271.19
292.295	277.19
292.526	288.19
292.757	292.19
292.987	286.19
293.218	282.19
293.449	299.19
293.68	287.19
293.91	269.19
294.141	265.19
294.372	282.19
294.603	279.19
294.833	297.19
295.064	293.19
295.295	285.19
295.525	293.19
295.756	295.19
295.987	317.19
296.217	334.19
296.448	339.19
296.679	308.19
296.909	292.19
297.14	292.19
297.37	284.19
297.601	285.19
297.831	296.19
298.062	309.19
298.292	291.19
298.523	299.19
298.753	287.19
298.984	308.19
299.214	288.19
299.445	287.19
299.675	290.19
299.905	332.19
300.136	321.19
300.366	310.19
300.597	315.19
300.827	305.19
301.057	324.19
301.288	319.19
301.518	307.19
301.748	313.19
301.979	322.19
302.209	326.19
302.439	330.19
302.669	304.19
302.9	313.19
303.13	324.19
303.36	310.19
303.59	347.19
303.82	326.19
304.051	360.19
304.281	325.19
304.511	313.19
304.741	315.19
304.971	310.19
305.201	325.19
305.431	313.19
305.661	330.19
305.891	329.19
306.121	333.19
306.352	317.19
306.582	328.19
306.812	342.19
307.042	325.19
307.272	350.19
307.502	334.19
307.731	351.19
307.961	318.19
308.191	338.19
308.421	329.19
308.651	342.19
308.881	325.19
309.111	344.19
309.341	364.19
309.571	356.19
309.8	351.19
310.03	379.19
310.26	397.19
310.49	376.19
310.72	386.19
310.949	404.19
311.179	423.19
311.409	391.19
311.639	407.19
311.868	395.19
312.098	386.19
312.328	394.19
312.557	437.19
312.787	445.19
313.017	440.19
313.246	429.19
313.476	395.19
313.706	396.19
313.935	375.19
314.165	401.19
314.394	429.19
314.624	425.19
314.853	389.19
315.083	370.19
315.312	393.19
315.542	385.19
315.771	362.19
316.001	381.19
316.23	375.19
316.46	383.19
316.689	392.19
316.919	390.19
317.148	385.19
317.377	418.19
317.607	391.19
317.836	391.19
318.065	381.19
318.295	389.19
318.524	372.19
318.753	362.19
318.983	382.19
319.212	391.19
319.441	391.19
319.67	400.19
319.9	392.19
320.129	387.19
320.358	392.19
320.587	413.19
320.816	387.19
321.046	421.19
321.275	409.19
321.504	428.19
321.733	420.19
321.962	424.19
322.191	426.19
322.42	450.19
322.649	486.19
322.878	480.19
323.108	498.19
323.337	541.19
323.566	571.19
323.795	593.19
324.024	673.19
324.253	870.19
324.482	1250.19
324.71	1954.19
324.939	2907.19
325.168	2511.19
325.397	1262.19
325.626	818.19
325.855	661.19
326.084	603.19
326.313	565.19
326.542	602.19
326.77	639.19
326.999	773.19
327.228	1086.19
327.457	1718.19
327.686	2120.19
327.914	1387.19
328.143	897.19
328.372	757.19
328.6	681.19
328.829	645.19
329.058	697.19
329.287	674.19
329.515	629.19
329.744	552.19
329.972	567.19
330.201	608.19
330.43	683.19
330.658	708.19
330.887	705.19
331.115	692.19
331.344	595.19
331.572	501.19
331.801	513.19
332.03	534.19
332.258	507.19
332.486	476.19
332.715	462.19
332.943	475.19
333.172	474.19
333.4	468.19
333.629	462.19
333.857	455.19
334.085	524.19
334.314	534.19
334.542	580.19
334.771	608.19
334.999	521.19
335.227	473.19
335.455	484.19
335.684	464.19
335.912	445.19
336.14	437.19
336.369	441.19
336.597	441.19
336.825	459.19
337.053	451.19
337.281	437.19
337.51	431.19
337.738	457.19
337.966	429.19
338.194	446.19
338.422	434.19
338.65	435.19
338.878	417.19
339.106	421.19
339.334	447.19
339.562	422.19
339.79	418.19
340.018	416.19
340.246	439.19
340.474	441.19
340.702	443.19
340.93	431.19
341.158	412.19
341.386	435.19
341.614	446.19
341.842	417.19
342.07	416.19
342.298	407.19
342.526	419.19
342.754	413.19
342.981	378.19
343.209	387.19
343.437	409.19
343.665	401.19
343.893	395.19
344.12	427.19
344.348	414.19
344.576	434.19
344.804	417.19
345.031	447.19
345.259	453.19
345.487	446.19
345.714	421.19
345.942	413.19
346.17	406.19
346.397	418.19
346.625	416.19
346.853	414.19
347.08	409.19
347.308	411.19
347.535	439.19
347.763	416.19
347.99	435.19
348.218	417.19
348.445	430.19
348.673	437.19
348.9	426.19
349.128	407.19
349.355	402.19
349.583	392.19
349.81	381.19
350.037	374.19
350.265	397.19
350.492	381.19
350.72	380.19
350.947	422.19
351.174	421.19
351.402	430.19
351.629	428.19
351.856	432.19
352.083	434.19
352.311	441.19
352.538	441.19
352.765	438.19
352.992	437.19
353.22	436.19
353.447	404.19
353.674	409.19
353.901	386.19
354.128	373.19
354.355	393.19
354.583	380.19
354.81	409.19
355.037	366.19
355.264	385.19
355.491	375.19
355.718	381.19
355.945	397.19
356.172	366.19
356.399	369.19
356.626	375.19
356.853	354.19
357.08	373.19
357.307	361.19
357.534	377.19
357.761	382.19
357.988	399.19
358.215	369.19
358.441	357.19
358.668	357.19
358.895	377.19
359.122	405.19
359.349	390.19
359.576	422.19
359.802	455.19
360.029	454.19
360.256	507.19
360.483	484.19
360.709	439.19
360.936	411.19
361.163	407.19
361.39	405.19
361.616	428.19
361.843	414.19
362.07	411.19
362.296	417.19
362.523	416.19
362.749	408.19
362.976	400.19
363.203	380.19
363.429	415.19
363.656	383.19
363.882	383.19
364.109	374.19
364.335	372.19
364.562	398.19
364.788	381.19
365.015	389.19
365.241	393.19
365.468	386.19
365.694	397.19
365.92	416.19
366.147	399.19
366.373	386.19
366.599	377.19
366.826	386.19
367.052	382.19
367.278	373.19
367.505	371.19
367.731	375.19
367.957	362.19
368.184	393.19
368.41	385.19
368.636	394.19
368.862	393.19
369.089	395.19
369.315	386.19
369.541	374.19
369.767	367.19
369.993	373.19
370.219	371.19
370.445	378.19
370.672	381.19
370.898	383.19
371.124	362.19
371.35	378.19
371.576	372.19
371.802	363.19
372.028	367.19
372.254	341.19
372.48	390.19
372.706	374.19
372.932	362.19
373.158	349.19
373.384	383.19
373.61	376.19
373.835	403.19
374.061	369.19
374.287	374.19
374.513	374.19
374.739	365.19
374.965	377.19
375.191	357.19
375.416	361.19
375.642	367.19
375.868	371.19
376.094	351.19
376.319	366.19
376.545	368.19
376.771	359.19
376.997	356.19
377.222	360.19
377.448	364.19
377.674	339.19
377.899	381.19
378.125	351.19
378.35	349.19
378.576	333.19
378.802	345.19
379.027	347.19
379.253	354.19
379.478	349.19
379.704	369.19
379.929	371.19
380.155	353.19
380.38	355.19
380.606	374.19
380.831	363.19
381.057	367.19
381.282	376.19
381.507	374.19
381.733	360.19
381.958	371.19
382.184	364.19
382.409	358.19
382.634	377.19
382.86	369.19
383.085	363.19
383.31	357.19
383.535	370.19
383.761	365.19
383.986	365.19
384.211	377.19
384.436	364.19
384.662	356.19
384.887	378.19
385.112	353.19
385.337	370.19
385.562	385.19
385.787	385.19
386.013	391.19
386.238	393.19
386.463	422.19
386.688	375.19
386.913	397.19
387.138	380.19
387.363	377.19
387.588	386.19
387.813	392.19
388.038	382.19
388.263	389.19
388.488	398.19
388.713	387.19
388.938	386.19
389.163	382.19
389.387	384.19
389.612	380.19
389.837	375.19
390.062	397.19
390.287	383.19
390.512	412.19
390.736	389.19
390.961	379.19
391.186	383.19
391.411	402.19
391.636	395.19
391.86	411.19
392.085	383.19
392.31	386.19
392.534	394.19
392.759	393.19
392.984	403.19
393.208	409.19
393.433	392.19
393.658	410.19
393.882	387.19
394.107	372.19
394.331	375.19
394.556	381.19
394.78	389.19
395.005	406.19
395.229	402.19
395.454	417.19
395.678	394.19
395.903	403.19
396.127	423.19
396.352	442.19
396.576	421.19
396.801	407.19
397.025	390.19
397.249	396.19
397.474	397.19
397.698	396.19
397.922	430.19
398.147	436.19
398.371	429.19
398.595	448.19
398.82	437.19
399.044	446.19
399.268	444.19
399.492	445.19
399.717	491.19
399.941	518.19
400.165	534.19
400.389	573.19
400.613	499.19
400.837	467.19
401.062	478.19
401.286	425.19
401.51	438.19
401.734	430.19
401.958	416.19
402.182	437.19
402.406	438.19
402.63	469.19
402.854	444.19
403.078	428.19
403.302	426.19
403.526	458.19
403.75	474.19
403.974	446.19
404.198	436.19
404.422	457.19
404.645	447.19
404.869	463.19
405.093	492.19
405.317	558.19
405.541	582.19
405.765	528.19
405.988	503.19
406.212	499.19
406.436	536.19
406.66	545.19
406.883	519.19
407.107	534.19
407.331	587.19
407.555	622.19
407.778	621.19
408.002	569.19
408.226	505.19
408.449	515.19
408.673	525.19
408.896	533.19
409.12	597.19
409.344	559.19
409.567	490.19
409.791	477.19
410.014	465.19
410.238	454.19
410.461	459.19
410.685	484.19
410.908	486.19
411.132	537.19
411.355	543.19
411.578	537.19
411.802	470.19
412.025	446.19
412.249	478.19
412.472	497.19
412.695	565.19
412.919	534.19
413.142	471.19
413.365	463.19
413.589	450.19
413.812	427.19
414.035	443.19
414.258	421.19
414.482	435.19
414.705	434.19
414.928	430.19
415.151	446.19
415.374	430.19
415.597	415.19
415.821	408.19
416.044	455.19
416.267	431.19
416.49	443.19
416.713	440.19
416.936	436.19
417.159	446.19
417.382	453.19
417.605	451.19
417.828	445.19
418.051	464.19
418.274	454.19
418.497	430.19
418.72	453.19
418.943	425.19
419.166	456.19
419.389	462.19
419.611	458.19
419.834	456.19
420.057	470.19
420.28	477.19
420.503	457.19
420.726	466.19
420.948	486.19
421.171	520.19
421.394	563.19
421.617	500.19
421.839	486.19
422.062	471.19
422.285	479.19
422.507	540.19
422.73	617.19
422.953	596.19
423.175	505.19
423.398	479.19
423.621	491.19
423.843	526.19
424.066	513.19
424.288	499.19
424.511	530.19
424.733	610.19
424.956	670.19
425.178	684.19
425.401	651.19
425.623	658.19
425.846	545.19
426.068	516.19
426.291	525.19
426.513	513.19
426.735	532.19
426.958	567.19
427.18	668.19
427.402	785.19
427.625	912.19
427.847	810.19
428.069	691.19
428.292	601.19
428.514	524.19
428.736	514.19
428.958	506.19
429.181	466.19
429.403	473.19
429.625	495.19
429.847	526.19
430.069	610.19
430.292	594.19
430.514	504.19
430.736	467.19
430.958	481.19
431.18	464.19
431.402	453.19
431.624	442.19
431.846	445.19
432.068	447.19
432.29	424.19
432.512	443.19
432.734	444.19
432.956	458.19
433.178	456.19
433.4	468.19
433.622	451.19
433.844	442.19
434.066	447.19
434.287	446.19
434.509	444.19
434.731	433.19
434.953	449.19
435.175	476.19
435.397	521.19
435.618	526.19
435.84	536.19
436.062	676.19
436.284	745.19
436.505	620.19
436.727	534.19
436.949	501.19
437.17	484.19
437.392	460.19
437.614	505.19
437.835	571.19
438.057	657.19
438.278	768.19
438.5	768.19
438.721	823.19
438.943	779.19
439.165	617.19
439.386	541.19
439.608	533.19
439.829	537.19
440.05	559.19
440.272	650.19
440.493	593.19
440.715	556.19
440.936	505.19
441.158	488.19
441.379	467.19
441.6	486.19
441.822	529.19
442.043	579.19
442.264	666.19
442.486	709.19
442.707	602.19
442.928	535.19
443.149	574.19
443.371	578.19
443.592	616.19
443.813	712.19
444.034	784.19
444.255	618.19
444.476	563.19
444.698	525.19
444.919	506.19
445.14	596.19
445.361	554.19
445.582	569.19
445.803	644.19
446.024	779.19
446.245	780.19
446.466	719.19
446.687	605.19
446.908	564.19
447.129	523.19
447.35	519.19
447.571	490.19
447.792	483.19
448.013	487.19
448.234	516.19
448.455	563.19
448.675	680.19
448.896	799.19
449.117	715.19
449.338	651.19
449.559	739.19
449.779	869.19
450	672.19
450.221	561.19
450.442	519.19
450.662	492.19
450.883	532.19
451.104	526.19
451.324	486.19
451.545	476.19
451.766	454.19
451.986	431.19
452.207	441.19
452.428	423.19
452.648	446.19
452.869	440.19
453.089	461.19
453.31	454.19
453.53	453.19
453.751	431.19
453.971	460.19
454.192	476.19
454.412	458.19
454.633	440.19
454.853	444.19
455.073	414.19
455.294	456.19
455.514	548.19
455.734	538.19
455.955	445.19
456.175	407.19
456.395	413.19
456.616	412.19
456.836	401.19
457.056	395.19
457.276	386.19
457.497	392.19
457.717	398.19
457.937	416.19
458.157	422.19
458.377	408.19
458.598	446.19
458.818	509.19
459.038	647.19
459.258	639.19
459.478	535.19
459.698	467.19
459.918	448.19
460.138	441.19
460.358	437.19
460.578	441.19
460.798	437.19
461.018	439.19
461.238	445.19
461.458	433.19
461.678	406.19
461.898	444.19
462.118	435.19
462.338	414.19
462.558	449.19
462.777	469.19
462.997	431.19
463.217	469.19
463.437	449.19
463.657	436.19
463.876	451.19
464.096	464.19
464.316	458.19
464.536	467.19
464.755	485.19
464.975	472.19
465.195	553.19
465.414	647.19
465.634	554.19
465.854	508.19
466.073	458.19
466.293	430.19
466.512	430.19
466.732	436.19
466.951	439.19
467.171	436.19
467.391	419.19
467.61	462.19
467.829	458.19
468.049	458.19
468.268	447.19
468.488	429.19
468.707	421.19
468.927	425.19
469.146	442.19
469.365	396.19
469.585	420.19
469.804	424.19
470.023	470.19
470.243	437.19
470.462	433.19
470.681	477.19
470.901	463.19
471.12	443.19
471.339	436.19
471.558	430.19
471.777	437.19
471.997	435.19
472.216	456.19
472.435	492.19
472.654	484.19
472.873	465.19
473.092	441.19
473.311	442.19
473.53	440.19
473.749	449.19
473.968	530.19
474.187	616.19
474.406	663.19
474.625	525.19
474.844	461.19
475.063	453.19
475.282	465.19
475.501	447.19
475.72	444.19
475.939	446.19
476.158	442.19
476.377	457.19
476.596	464.19
476.814	463.19
477.033	462.19
477.252	479.19
477.471	453.19
477.69	458.19
477.908	470.19
478.127	483.19
478.346	459.19
478.564	471.19
478.783	489.19
479.002	489.19
479.22	484.19
479.439	516.19
479.658	540.19
479.876	544.19
480.095	545.19
480.313	563.19
480.532	552.19
480.751	515.19
480.969	552.19
481.188	650.19
481.406	721.19
481.624	616.19
481.843	547.19
482.061	543.19
482.28	552.19
482.498	504.19
482.717	516.19
482.935	521.19
483.153	516.19
483.372	518.19
483.59	520.19
483.808	508.19
484.027	515.19
484.245	507.19
484.463	517.19
484.681	539.19
484.9	535.19
485.118	508.19
485.336	494.19
485.554	550.19
485.772	550.19
485.99	567.19
486.209	541.19
486.427	531.19
486.645	545.19
486.863	573.19
487.081	567.19
487.299	575.19
487.517	558.19
487.735	554.19
487.953	566.19
488.171	575.19
488.389	557.19
488.607	573.19
488.825	582.19
489.043	579.19
489.261	572.19
489.479	565.19
489.696	565.19
489.914	585.19
490.132	577.19
490.35	570.19
490.568	584.19
490.786	593.19
491.003	613.19
491.221	616.19
491.439	616.19
491.657	647.19
491.874	633.19
492.092	635.19
492.31	655.19
492.527	630.19
492.745	660.19
492.963	664.19
493.18	659.19
493.398	679.19
493.615	655.19
493.833	675.19
494.05	669.19
494.268	675.19
494.485	633.19
494.703	672.19
494.92	668.19
495.138	669.19
495.355	674.19
495.573	687.19
495.79	678.19
496.008	688.19
496.225	651.19
496.442	636.19
496.66	669.19
496.877	672.19
497.094	668.19
497.312	681.19
497.529	680.19
497.746	702.19
497.963	695.19
498.181	707.19
498.398	745.19
498.615	735.19
498.832	725.19
499.049	722.19
499.267	740.19
499.484	733.19
499.701	749.19
499.918	761.19
500.135	785.19
500.352	801.19
500.569	812.19
500.786	807.19
501.003	819.19
501.22	825.19
501.437	784.19
501.654	787.19
501.871	801.19
