Data from 1972.PennyLincolnUp.Lamp.En5.5.200Scan.071719.P1._HRD10591_15-29-46-844.txt Node
Date: Thu Jul 18 15:29:46 EDT 2019
User: cochatt
Spectrometer: HR+D1059
Trigger mode: 1
Integration Time (sec): 1.000000E-1
Scans to average: 1
Electric dark correction enabled: true
Nonlinearity correction enabled: false
Boxcar width: 0
XAxis mode: Wavelengths
Number of Pixels in Spectrum: 2048
>>>>>Begin Spectral Data<<<<<
223.165	-13.25
223.4	-13.25
223.635	-13.25
223.869	-13.25
224.104	-14.25
224.338	-2.25
224.573	-14.25
224.808	-19.25
225.042	-5.25
225.277	-11.25
225.511	-14.25
225.746	-10.25
225.98	1.75
226.215	11.75
226.449	19.75
226.683	30.75
226.918	22.75
227.152	30.75
227.387	37.75
227.621	27.75
227.856	38.75
228.09	40.75
228.324	38.75
228.559	56.75
228.793	75.75
229.027	106.75
229.262	122.75
229.496	116.75
229.73	126.75
229.964	161.75
230.199	144.75
230.433	124.75
230.667	121.75
230.901	108.75
231.136	116.75
231.37	106.75
231.604	109.75
231.838	124.75
232.072	104.75
232.306	97.75
232.541	102.75
232.775	128.75
233.009	121.75
233.243	123.75
233.477	106.75
233.711	112.75
233.945	126.75
234.179	122.75
234.413	116.75
234.647	111.75
234.881	114.75
235.115	123.75
235.349	128.75
235.583	120.75
235.817	144.75
236.051	145.75
236.285	130.75
236.519	139.75
236.753	138.75
236.987	153.75
237.221	222.75
237.455	272.75
237.689	212.75
237.922	162.75
238.156	141.75
238.39	133.75
238.624	139.75
238.858	126.75
239.091	128.75
239.325	116.75
239.559	124.75
239.793	123.75
240.027	135.75
240.26	137.75
240.494	167.75
240.728	166.75
240.961	166.75
241.195	131.75
241.429	152.75
241.662	130.75
241.896	132.75
242.13	130.75
242.363	144.75
242.597	132.75
242.83	147.75
243.064	120.75
243.298	136.75
243.531	146.75
243.765	142.75
243.998	160.75
244.232	150.75
244.465	145.75
244.699	131.75
244.932	150.75
245.166	152.75
245.399	146.75
245.633	148.75
245.866	145.75
246.099	141.75
246.333	140.75
246.566	164.75
246.8	155.75
247.033	148.75
247.266	150.75
247.5	177.75
247.733	160.75
247.966	172.75
248.2	172.75
248.433	165.75
248.666	190.75
248.899	182.75
249.133	200.75
249.366	221.75
249.599	218.75
249.832	188.75
250.066	193.75
250.299	187.75
250.532	189.75
250.765	209.75
250.998	230.75
251.231	245.75
251.465	217.75
251.698	214.75
251.931	210.75
252.164	212.75
252.397	215.75
252.63	204.75
252.863	205.75
253.096	218.75
253.329	239.75
253.562	252.75
253.795	236.75
254.028	243.75
254.261	242.75
254.494	250.75
254.727	271.75
254.96	293.75
255.193	315.75
255.426	285.75
255.659	253.75
255.892	260.75
256.124	268.75
256.357	255.75
256.59	251.75
256.823	225.75
257.056	228.75
257.289	216.75
257.521	227.75
257.754	209.75
257.987	214.75
258.22	219.75
258.452	216.75
258.685	214.75
258.918	215.75
259.151	218.75
259.383	239.75
259.616	246.75
259.849	231.75
260.081	248.75
260.314	266.75
260.547	297.75
260.779	266.75
261.012	261.75
261.244	256.75
261.477	248.75
261.71	222.75
261.942	227.75
262.175	266.75
262.407	243.75
262.64	221.75
262.872	222.75
263.105	232.75
263.337	225.75
263.57	213.75
263.802	230.75
264.035	230.75
264.267	209.75
264.499	217.75
264.732	208.75
264.964	222.75
265.197	214.75
265.429	224.75
265.661	204.75
265.894	214.75
266.126	221.75
266.358	229.75
266.591	224.75
266.823	217.75
267.055	248.75
267.287	247.75
267.52	217.75
267.752	251.75
267.984	233.75
268.216	231.75
268.448	243.75
268.681	240.75
268.913	238.75
269.145	276.75
269.377	306.75
269.609	288.75
269.841	279.75
270.073	297.75
270.306	323.75
270.538	360.75
270.77	343.75
271.002	332.75
271.234	327.75
271.466	326.75
271.698	316.75
271.93	362.75
272.162	345.75
272.394	338.75
272.626	328.75
272.858	311.75
273.09	311.75
273.322	310.75
273.553	279.75
273.785	273.75
274.017	260.75
274.249	288.75
274.481	273.75
274.713	278.75
274.945	288.75
275.176	291.75
275.408	284.75
275.64	279.75
275.872	278.75
276.104	291.75
276.335	281.75
276.567	284.75
276.799	293.75
277.031	322.75
277.262	333.75
277.494	340.75
277.726	341.75
277.957	321.75
278.189	303.75
278.421	281.75
278.652	284.75
278.884	274.75
279.115	270.75
279.347	274.75
279.579	297.75
279.81	286.75
280.042	280.75
280.273	270.75
280.505	275.75
280.736	247.75
280.968	250.75
281.199	273.75
281.431	275.75
281.662	274.75
281.894	267.75
282.125	282.75
282.356	291.75
282.588	320.75
282.819	322.75
283.051	294.75
283.282	279.75
283.513	303.75
283.745	285.75
283.976	277.75
284.207	270.75
284.439	283.75
284.67	291.75
284.901	274.75
285.132	276.75
285.364	275.75
285.595	280.75
285.826	278.75
286.057	280.75
286.288	293.75
286.52	283.75
286.751	274.75
286.982	285.75
287.213	273.75
287.444	287.75
287.675	288.75
287.906	301.75
288.138	292.75
288.369	314.75
288.6	294.75
288.831	310.75
289.062	312.75
289.293	300.75
289.524	283.75
289.755	288.75
289.986	290.75
290.217	292.75
290.448	276.75
290.679	270.75
290.91	297.75
291.141	274.75
291.371	302.75
291.602	282.75
291.833	295.75
292.064	277.75
292.295	270.75
292.526	272.75
292.757	276.75
292.987	302.75
293.218	290.75
293.449	280.75
293.68	297.75
293.91	288.75
294.141	277.75
294.372	269.75
294.603	290.75
294.833	294.75
295.064	302.75
295.295	296.75
295.525	291.75
295.756	291.75
295.987	323.75
296.217	328.75
296.448	346.75
296.679	307.75
296.909	308.75
297.14	277.75
297.37	287.75
297.601	297.75
297.831	291.75
298.062	309.75
298.292	308.75
298.523	313.75
298.753	301.75
298.984	300.75
299.214	306.75
299.445	292.75
299.675	326.75
299.905	321.75
300.136	317.75
300.366	307.75
300.597	330.75
300.827	325.75
301.057	310.75
301.288	331.75
301.518	329.75
301.748	304.75
301.979	315.75
302.209	320.75
302.439	340.75
302.669	320.75
302.9	307.75
303.13	318.75
303.36	314.75
303.59	344.75
303.82	339.75
304.051	342.75
304.281	326.75
304.511	322.75
304.741	317.75
304.971	318.75
305.201	318.75
305.431	321.75
305.661	306.75
305.891	320.75
306.121	325.75
306.352	355.75
306.582	336.75
306.812	331.75
307.042	327.75
307.272	320.75
307.502	340.75
307.731	329.75
307.961	319.75
308.191	321.75
308.421	325.75
308.651	343.75
308.881	358.75
309.111	330.75
309.341	338.75
309.571	349.75
309.8	387.75
310.03	368.75
310.26	382.75
310.49	390.75
310.72	412.75
310.949	428.75
311.179	422.75
311.409	394.75
311.639	401.75
311.868	386.75
312.098	368.75
312.328	396.75
312.557	416.75
312.787	458.75
313.017	424.75
313.246	414.75
313.476	397.75
313.706	384.75
313.935	378.75
314.165	438.75
314.394	427.75
314.624	411.75
314.853	395.75
315.083	393.75
315.312	397.75
315.542	386.75
315.771	379.75
316.001	374.75
316.23	368.75
316.46	376.75
316.689	382.75
316.919	390.75
317.148	401.75
317.377	386.75
317.607	396.75
317.836	387.75
318.065	379.75
318.295	381.75
318.524	391.75
318.753	380.75
318.983	368.75
319.212	385.75
319.441	409.75
319.67	396.75
319.9	396.75
320.129	394.75
320.358	396.75
320.587	404.75
320.816	408.75
321.046	412.75
321.275	415.75
321.504	416.75
321.733	406.75
321.962	434.75
322.191	446.75
322.42	470.75
322.649	472.75
322.878	486.75
323.108	501.75
323.337	547.75
323.566	575.75
323.795	616.75
324.024	692.75
324.253	841.75
324.482	1273.75
324.71	2050.75
324.939	2964.75
325.168	2608.75
325.397	1283.75
325.626	809.75
325.855	665.75
326.084	608.75
326.313	575.75
326.542	578.75
326.77	654.75
326.999	780.75
327.228	1117.75
327.457	1767.75
327.686	2166.75
327.914	1468.75
328.143	909.75
328.372	797.75
328.6	690.75
328.829	675.75
329.058	678.75
329.287	692.75
329.515	627.75
329.744	588.75
329.972	571.75
330.201	636.75
330.43	658.75
330.658	717.75
330.887	733.75
331.115	699.75
331.344	588.75
331.572	553.75
331.801	529.75
332.03	514.75
332.258	521.75
332.486	489.75
332.715	468.75
332.943	449.75
333.172	486.75
333.4	482.75
333.629	470.75
333.857	497.75
334.085	509.75
334.314	524.75
334.542	590.75
334.771	594.75
334.999	521.75
335.227	483.75
335.455	478.75
335.684	464.75
335.912	456.75
336.14	420.75
336.369	445.75
336.597	458.75
336.825	449.75
337.053	443.75
337.281	448.75
337.51	455.75
337.738	440.75
337.966	448.75
338.194	437.75
338.422	469.75
338.65	446.75
338.878	432.75
339.106	440.75
339.334	418.75
339.562	438.75
339.79	408.75
340.018	415.75
340.246	438.75
340.474	449.75
340.702	427.75
340.93	440.75
341.158	419.75
341.386	417.75
341.614	432.75
341.842	434.75
342.07	443.75
342.298	426.75
342.526	424.75
342.754	421.75
342.981	406.75
343.209	391.75
343.437	388.75
343.665	422.75
343.893	413.75
344.12	415.75
344.348	400.75
344.576	401.75
344.804	460.75
345.031	452.75
345.259	474.75
345.487	451.75
345.714	441.75
345.942	417.75
346.17	406.75
346.397	393.75
346.625	412.75
346.853	434.75
347.08	425.75
347.308	423.75
347.535	448.75
347.763	442.75
347.99	432.75
348.218	426.75
348.445	453.75
348.673	433.75
348.9	410.75
349.128	421.75
349.355	390.75
349.583	398.75
349.81	398.75
350.037	393.75
350.265	396.75
350.492	406.75
350.72	406.75
350.947	406.75
351.174	433.75
351.402	438.75
351.629	428.75
351.856	413.75
352.083	445.75
352.311	432.75
352.538	457.75
352.765	450.75
352.992	431.75
353.22	427.75
353.447	404.75
353.674	419.75
353.901	408.75
354.128	396.75
354.355	372.75
354.583	380.75
354.81	360.75
355.037	378.75
355.264	386.75
355.491	375.75
355.718	380.75
355.945	374.75
356.172	359.75
356.399	367.75
356.626	365.75
356.853	372.75
357.08	354.75
357.307	368.75
357.534	368.75
357.761	390.75
357.988	367.75
358.215	366.75
358.441	369.75
358.668	364.75
358.895	384.75
359.122	385.75
359.349	396.75
359.576	426.75
359.802	468.75
360.029	495.75
360.256	501.75
360.483	475.75
360.709	417.75
360.936	414.75
361.163	412.75
361.39	421.75
361.616	409.75
361.843	410.75
362.07	419.75
362.296	414.75
362.523	438.75
362.749	410.75
362.976	415.75
363.203	410.75
363.429	392.75
363.656	408.75
363.882	392.75
364.109	376.75
364.335	382.75
364.562	371.75
364.788	368.75
365.015	398.75
365.241	390.75
365.468	392.75
365.694	389.75
365.92	399.75
366.147	377.75
366.373	371.75
366.599	341.75
366.826	374.75
367.052	394.75
367.278	392.75
367.505	388.75
367.731	377.75
367.957	392.75
368.184	385.75
368.41	380.75
368.636	402.75
368.862	416.75
369.089	386.75
369.315	387.75
369.541	402.75
369.767	375.75
369.993	382.75
370.219	393.75
370.445	379.75
370.672	387.75
370.898	367.75
371.124	358.75
371.35	377.75
371.576	372.75
371.802	380.75
372.028	382.75
372.254	356.75
372.48	355.75
372.706	370.75
372.932	364.75
373.158	376.75
373.384	374.75
373.61	374.75
373.835	368.75
374.061	372.75
374.287	379.75
374.513	385.75
374.739	395.75
374.965	372.75
375.191	365.75
375.416	362.75
375.642	366.75
375.868	367.75
376.094	378.75
376.319	355.75
376.545	365.75
376.771	382.75
376.997	357.75
377.222	380.75
377.448	364.75
377.674	370.75
377.899	349.75
378.125	361.75
378.35	353.75
378.576	377.75
378.802	350.75
379.027	368.75
379.253	370.75
379.478	362.75
379.704	355.75
379.929	365.75
380.155	376.75
380.38	376.75
380.606	362.75
380.831	375.75
381.057	372.75
381.282	366.75
381.507	351.75
381.733	350.75
381.958	361.75
382.184	385.75
382.409	370.75
382.634	369.75
382.86	376.75
383.085	369.75
383.31	402.75
383.535	376.75
383.761	376.75
383.986	391.75
384.211	381.75
384.436	363.75
384.662	414.75
384.887	394.75
385.112	382.75
385.337	389.75
385.562	393.75
385.787	385.75
386.013	393.75
386.238	386.75
386.463	384.75
386.688	385.75
386.913	398.75
387.138	381.75
387.363	371.75
387.588	374.75
387.813	388.75
388.038	383.75
388.263	392.75
388.488	384.75
388.713	393.75
388.938	398.75
389.163	390.75
389.387	404.75
389.612	378.75
389.837	400.75
390.062	394.75
390.287	386.75
390.512	380.75
390.736	387.75
390.961	377.75
391.186	408.75
391.411	393.75
391.636	380.75
391.86	375.75
392.085	381.75
392.31	388.75
392.534	397.75
392.759	380.75
392.984	391.75
393.208	412.75
393.433	407.75
393.658	418.75
393.882	391.75
394.107	410.75
394.331	386.75
394.556	394.75
394.78	383.75
395.005	389.75
395.229	394.75
395.454	407.75
395.678	384.75
395.903	409.75
396.127	419.75
396.352	444.75
396.576	424.75
396.801	421.75
397.025	422.75
397.249	410.75
397.474	416.75
397.698	418.75
397.922	430.75
398.147	436.75
398.371	466.75
398.595	425.75
398.82	421.75
399.044	433.75
399.268	438.75
399.492	458.75
399.717	486.75
399.941	501.75
400.165	508.75
400.389	561.75
400.613	488.75
400.837	476.75
401.062	473.75
401.286	442.75
401.51	457.75
401.734	442.75
401.958	452.75
402.182	459.75
402.406	444.75
402.63	459.75
402.854	458.75
403.078	455.75
403.302	448.75
403.526	449.75
403.75	462.75
403.974	466.75
404.198	458.75
404.422	485.75
404.645	478.75
404.869	485.75
405.093	485.75
405.317	565.75
405.541	586.75
405.765	561.75
405.988	514.75
406.212	514.75
406.436	539.75
406.66	542.75
406.883	532.75
407.107	541.75
407.331	579.75
407.555	641.75
407.778	633.75
408.002	582.75
408.226	520.75
408.449	527.75
408.673	526.75
408.896	554.75
409.12	604.75
409.344	570.75
409.567	509.75
409.791	473.75
410.014	462.75
410.238	435.75
410.461	468.75
410.685	457.75
410.908	475.75
411.132	515.75
411.355	539.75
411.578	536.75
411.802	470.75
412.025	475.75
412.249	475.75
412.472	517.75
412.695	551.75
412.919	547.75
413.142	509.75
413.365	470.75
413.589	469.75
413.812	433.75
414.035	445.75
414.258	445.75
414.482	442.75
414.705	428.75
414.928	442.75
415.151	424.75
415.374	432.75
415.597	420.75
415.821	426.75
416.044	459.75
416.267	428.75
416.49	446.75
416.713	417.75
416.936	430.75
417.159	432.75
417.382	433.75
417.605	446.75
417.828	445.75
418.051	468.75
418.274	459.75
418.497	455.75
418.72	458.75
418.943	416.75
419.166	434.75
419.389	464.75
419.611	461.75
419.834	464.75
420.057	466.75
420.28	485.75
420.503	484.75
420.726	472.75
420.948	491.75
421.171	560.75
421.394	550.75
421.617	479.75
421.839	463.75
422.062	461.75
422.285	476.75
422.507	544.75
422.73	625.75
422.953	614.75
423.175	536.75
423.398	485.75
423.621	508.75
423.843	512.75
424.066	523.75
424.288	525.75
424.511	525.75
424.733	612.75
424.956	716.75
425.178	650.75
425.401	648.75
425.623	695.75
425.846	600.75
426.068	562.75
426.291	549.75
426.513	516.75
426.735	523.75
426.958	553.75
427.18	677.75
427.402	812.75
427.625	916.75
427.847	804.75
428.069	708.75
428.292	620.75
428.514	564.75
428.736	481.75
428.958	502.75
429.181	476.75
429.403	500.75
429.625	490.75
429.847	558.75
430.069	619.75
430.292	610.75
430.514	507.75
430.736	502.75
430.958	484.75
431.18	467.75
431.402	441.75
431.624	448.75
431.846	453.75
432.068	434.75
432.29	422.75
432.512	445.75
432.734	452.75
432.956	433.75
433.178	466.75
433.4	497.75
433.622	456.75
433.844	448.75
434.066	445.75
434.287	444.75
434.509	457.75
434.731	457.75
434.953	473.75
435.175	479.75
435.397	511.75
435.618	540.75
435.84	569.75
436.062	701.75
436.284	756.75
436.505	608.75
436.727	572.75
436.949	493.75
437.17	487.75
437.392	497.75
437.614	510.75
437.835	540.75
438.057	666.75
438.278	766.75
438.5	777.75
438.721	849.75
438.943	797.75
439.165	631.75
439.386	567.75
439.608	562.75
439.829	562.75
440.05	580.75
440.272	644.75
440.493	587.75
440.715	534.75
440.936	504.75
441.158	510.75
441.379	501.75
441.6	490.75
441.822	555.75
442.043	579.75
442.264	660.75
442.486	740.75
442.707	617.75
442.928	548.75
443.149	543.75
443.371	586.75
443.592	635.75
443.813	706.75
444.034	760.75
444.255	646.75
444.476	570.75
444.698	554.75
444.919	503.75
445.14	605.75
445.361	599.75
445.582	605.75
445.803	664.75
446.024	805.75
446.245	800.75
446.466	730.75
446.687	596.75
446.908	552.75
447.129	487.75
447.35	518.75
447.571	515.75
447.792	486.75
448.013	504.75
448.234	506.75
448.455	593.75
448.675	729.75
448.896	826.75
449.117	658.75
449.338	627.75
449.559	794.75
449.779	872.75
450	702.75
450.221	572.75
450.442	532.75
450.662	512.75
450.883	530.75
451.104	519.75
451.324	504.75
451.545	462.75
451.766	451.75
451.986	436.75
452.207	444.75
452.428	434.75
452.648	451.75
452.869	442.75
453.089	452.75
453.31	479.75
453.53	446.75
453.751	428.75
453.971	457.75
454.192	467.75
454.412	446.75
454.633	455.75
454.853	422.75
455.073	426.75
455.294	474.75
455.514	550.75
455.734	514.75
455.955	450.75
456.175	435.75
456.395	418.75
456.616	416.75
456.836	419.75
457.056	403.75
457.276	392.75
457.497	402.75
457.717	406.75
457.937	416.75
458.157	404.75
458.377	424.75
458.598	442.75
458.818	522.75
459.038	624.75
459.258	629.75
459.478	527.75
459.698	458.75
459.918	446.75
460.138	439.75
460.358	438.75
460.578	422.75
460.798	437.75
461.018	430.75
461.238	432.75
461.458	448.75
461.678	437.75
461.898	421.75
462.118	411.75
462.338	458.75
462.558	436.75
462.777	437.75
462.997	446.75
463.217	453.75
463.437	458.75
463.657	426.75
463.876	454.75
464.096	445.75
464.316	455.75
464.536	481.75
464.755	485.75
464.975	490.75
465.195	548.75
465.414	634.75
465.634	553.75
465.854	498.75
466.073	453.75
466.293	454.75
466.512	441.75
466.732	428.75
466.951	436.75
467.171	416.75
467.391	428.75
467.61	453.75
467.829	459.75
468.049	449.75
468.268	460.75
468.488	434.75
468.707	436.75
468.927	422.75
469.146	425.75
469.365	420.75
469.585	414.75
469.804	436.75
470.023	481.75
470.243	434.75
470.462	458.75
470.681	468.75
470.901	461.75
471.12	456.75
471.339	459.75
471.558	452.75
471.777	453.75
471.997	424.75
472.216	466.75
472.435	520.75
472.654	497.75
472.873	459.75
473.092	455.75
473.311	438.75
473.53	440.75
473.749	447.75
473.968	523.75
474.187	651.75
474.406	674.75
474.625	538.75
474.844	473.75
475.063	460.75
475.282	457.75
475.501	452.75
475.72	444.75
475.939	437.75
476.158	457.75
476.377	474.75
476.596	442.75
476.814	448.75
477.033	460.75
477.252	494.75
477.471	459.75
477.69	472.75
477.908	476.75
478.127	475.75
478.346	449.75
478.564	470.75
478.783	506.75
479.002	506.75
479.22	498.75
479.439	515.75
479.658	547.75
479.876	563.75
480.095	554.75
480.313	574.75
480.532	567.75
480.751	522.75
480.969	550.75
481.188	652.75
481.406	701.75
481.624	633.75
481.843	585.75
482.061	548.75
482.28	560.75
482.498	518.75
482.717	529.75
482.935	531.75
483.153	514.75
483.372	503.75
483.59	506.75
483.808	532.75
484.027	535.75
484.245	522.75
484.463	520.75
484.681	533.75
484.9	530.75
485.118	533.75
485.336	527.75
485.554	536.75
485.772	537.75
485.99	534.75
486.209	533.75
486.427	545.75
486.645	564.75
486.863	564.75
487.081	592.75
487.299	573.75
487.517	571.75
487.735	565.75
487.953	566.75
488.171	587.75
488.389	571.75
488.607	579.75
488.825	560.75
489.043	576.75
489.261	563.75
489.479	546.75
489.696	568.75
489.914	566.75
490.132	580.75
490.35	582.75
490.568	579.75
490.786	609.75
491.003	596.75
491.221	642.75
491.439	641.75
491.657	635.75
491.874	655.75
492.092	657.75
492.31	641.75
492.527	649.75
492.745	637.75
492.963	648.75
493.18	680.75
493.398	676.75
493.615	673.75
493.833	677.75
494.05	658.75
494.268	675.75
494.485	677.75
494.703	664.75
494.92	668.75
495.138	680.75
495.355	695.75
495.573	680.75
495.79	671.75
496.008	670.75
496.225	665.75
496.442	648.75
496.66	668.75
496.877	680.75
497.094	683.75
497.312	684.75
497.529	722.75
497.746	711.75
497.963	706.75
498.181	723.75
498.398	719.75
498.615	732.75
498.832	731.75
499.049	745.75
499.267	709.75
499.484	742.75
499.701	757.75
499.918	792.75
500.135	799.75
500.352	808.75
500.569	820.75
500.786	822.75
501.003	833.75
501.22	822.75
501.437	826.75
501.654	803.75
501.871	812.75
