Data from 1972.PennyLincolnUp.Lamp.En5.5.200Scan.071719.P1._HRD10591_15-26-54-843.txt Node
Date: Thu Jul 18 15:26:54 EDT 2019
User: cochatt
Spectrometer: HR+D1059
Trigger mode: 1
Integration Time (sec): 1.000000E-1
Scans to average: 1
Electric dark correction enabled: true
Nonlinearity correction enabled: false
Boxcar width: 0
XAxis mode: Wavelengths
Number of Pixels in Spectrum: 2048
>>>>>Begin Spectral Data<<<<<
223.165	-17.12
223.4	-17.12
223.635	-17.12
223.869	-20.12
224.104	-21.12
224.338	-12.12
224.573	-5.12
224.808	-18.12
225.042	-2.12
225.277	1.88
225.511	4.88
225.746	-8.12
225.98	6.88
226.215	-1.12
226.449	21.88
226.683	22.88
226.918	19.88
227.152	26.88
227.387	39.88
227.621	51.88
227.856	58.88
228.09	40.88
228.324	39.88
228.559	60.88
228.793	58.88
229.027	77.88
229.262	91.88
229.496	99.88
229.73	108.88
229.964	132.88
230.199	122.88
230.433	106.88
230.667	100.88
230.901	112.88
231.136	89.88
231.37	106.88
231.604	93.88
231.838	105.88
232.072	95.88
232.306	108.88
232.541	105.88
232.775	115.88
233.009	118.88
233.243	104.88
233.477	108.88
233.711	104.88
233.945	109.88
234.179	101.88
234.413	107.88
234.647	109.88
234.881	103.88
235.115	112.88
235.349	117.88
235.583	105.88
235.817	125.88
236.051	97.88
236.285	112.88
236.519	114.88
236.753	126.88
236.987	143.88
237.221	167.88
237.455	194.88
237.689	142.88
237.922	118.88
238.156	108.88
238.39	101.88
238.624	110.88
238.858	103.88
239.091	102.88
239.325	114.88
239.559	114.88
239.793	116.88
240.027	114.88
240.26	126.88
240.494	124.88
240.728	128.88
240.961	135.88
241.195	128.88
241.429	107.88
241.662	130.88
241.896	130.88
242.13	124.88
242.363	119.88
242.597	120.88
242.83	124.88
243.064	121.88
243.298	111.88
243.531	122.88
243.765	116.88
243.998	132.88
244.232	124.88
244.465	129.88
244.699	141.88
244.932	133.88
245.166	142.88
245.399	139.88
245.633	150.88
245.866	150.88
246.099	137.88
246.333	149.88
246.566	129.88
246.8	136.88
247.033	137.88
247.266	140.88
247.5	143.88
247.733	150.88
247.966	132.88
248.2	135.88
248.433	142.88
248.666	159.88
248.899	161.88
249.133	167.88
249.366	161.88
249.599	159.88
249.832	167.88
250.066	144.88
250.299	155.88
250.532	173.88
250.765	178.88
250.998	173.88
251.231	184.88
251.465	189.88
251.698	170.88
251.931	175.88
252.164	173.88
252.397	184.88
252.63	167.88
252.863	182.88
253.096	183.88
253.329	192.88
253.562	196.88
253.795	168.88
254.028	191.88
254.261	191.88
254.494	184.88
254.727	223.88
254.96	211.88
255.193	213.88
255.426	214.88
255.659	210.88
255.892	211.88
256.124	199.88
256.357	184.88
256.59	193.88
256.823	178.88
257.056	197.88
257.289	177.88
257.521	195.88
257.754	204.88
257.987	179.88
258.22	180.88
258.452	189.88
258.685	182.88
258.918	184.88
259.151	198.88
259.383	182.88
259.616	180.88
259.849	186.88
260.081	203.88
260.314	199.88
260.547	201.88
260.779	192.88
261.012	183.88
261.244	184.88
261.477	179.88
261.71	194.88
261.942	190.88
262.175	203.88
262.407	200.88
262.64	191.88
262.872	192.88
263.105	194.88
263.337	174.88
263.57	178.88
263.802	184.88
264.035	180.88
264.267	180.88
264.499	187.88
264.732	188.88
264.964	169.88
265.197	180.88
265.429	183.88
265.661	170.88
265.894	157.88
266.126	180.88
266.358	166.88
266.591	206.88
266.823	190.88
267.055	183.88
267.287	207.88
267.52	189.88
267.752	179.88
267.984	184.88
268.216	203.88
268.448	191.88
268.681	189.88
268.913	195.88
269.145	216.88
269.377	229.88
269.609	235.88
269.841	207.88
270.073	223.88
270.306	226.88
270.538	252.88
270.77	252.88
271.002	249.88
271.234	243.88
271.466	233.88
271.698	226.88
271.93	256.88
272.162	254.88
272.394	268.88
272.626	240.88
272.858	237.88
273.09	244.88
273.322	224.88
273.553	226.88
273.785	228.88
274.017	211.88
274.249	208.88
274.481	221.88
274.713	226.88
274.945	229.88
275.176	216.88
275.408	204.88
275.64	214.88
275.872	198.88
276.104	231.88
276.335	223.88
276.567	219.88
276.799	236.88
277.031	238.88
277.262	243.88
277.494	256.88
277.726	235.88
277.957	248.88
278.189	228.88
278.421	222.88
278.652	219.88
278.884	244.88
279.115	218.88
279.347	232.88
279.579	214.88
279.81	228.88
280.042	225.88
280.273	231.88
280.505	233.88
280.736	212.88
280.968	204.88
281.199	210.88
281.431	221.88
281.662	198.88
281.894	224.88
282.125	237.88
282.356	232.88
282.588	230.88
282.819	244.88
283.051	217.88
283.282	219.88
283.513	230.88
283.745	218.88
283.976	228.88
284.207	220.88
284.439	226.88
284.67	208.88
284.901	231.88
285.132	232.88
285.364	227.88
285.595	209.88
285.826	222.88
286.057	230.88
286.288	243.88
286.52	243.88
286.751	231.88
286.982	228.88
287.213	235.88
287.444	231.88
287.675	233.88
287.906	231.88
288.138	246.88
288.369	257.88
288.6	244.88
288.831	228.88
289.062	248.88
289.293	239.88
289.524	247.88
289.755	239.88
289.986	236.88
290.217	216.88
290.448	231.88
290.679	234.88
290.91	213.88
291.141	228.88
291.371	228.88
291.602	237.88
291.833	246.88
292.064	240.88
292.295	240.88
292.526	233.88
292.757	245.88
292.987	218.88
293.218	227.88
293.449	248.88
293.68	234.88
293.91	236.88
294.141	244.88
294.372	236.88
294.603	231.88
294.833	222.88
295.064	226.88
295.295	237.88
295.525	238.88
295.756	243.88
295.987	251.88
296.217	240.88
296.448	258.88
296.679	229.88
296.909	253.88
297.14	241.88
297.37	234.88
297.601	232.88
297.831	230.88
298.062	226.88
298.292	242.88
298.523	252.88
298.753	254.88
298.984	249.88
299.214	265.88
299.445	253.88
299.675	248.88
299.905	238.88
300.136	247.88
300.366	258.88
300.597	250.88
300.827	247.88
301.057	246.88
301.288	269.88
301.518	269.88
301.748	265.88
301.979	264.88
302.209	259.88
302.439	250.88
302.669	257.88
302.9	255.88
303.13	266.88
303.36	265.88
303.59	260.88
303.82	270.88
304.051	270.88
304.281	261.88
304.511	246.88
304.741	262.88
304.971	261.88
305.201	254.88
305.431	268.88
305.661	259.88
305.891	247.88
306.121	256.88
306.352	277.88
306.582	251.88
306.812	264.88
307.042	270.88
307.272	266.88
307.502	249.88
307.731	272.88
307.961	278.88
308.191	255.88
308.421	262.88
308.651	266.88
308.881	256.88
309.111	269.88
309.341	278.88
309.571	277.88
309.8	282.88
310.03	288.88
310.26	301.88
310.49	290.88
310.72	297.88
310.949	315.88
311.179	320.88
311.409	298.88
311.639	288.88
311.868	273.88
312.098	303.88
312.328	300.88
312.557	315.88
312.787	327.88
313.017	312.88
313.246	304.88
313.476	291.88
313.706	269.88
313.935	302.88
314.165	302.88
314.394	307.88
314.624	296.88
314.853	283.88
315.083	323.88
315.312	290.88
315.542	288.88
315.771	295.88
316.001	277.88
316.23	299.88
316.46	285.88
316.689	293.88
316.919	298.88
317.148	324.88
317.377	300.88
317.607	311.88
317.836	297.88
318.065	302.88
318.295	295.88
318.524	288.88
318.753	303.88
318.983	301.88
319.212	302.88
319.441	282.88
319.67	320.88
319.9	292.88
320.129	306.88
320.358	300.88
320.587	285.88
320.816	301.88
321.046	311.88
321.275	313.88
321.504	315.88
321.733	307.88
321.962	315.88
322.191	324.88
322.42	331.88
322.649	343.88
322.878	335.88
323.108	357.88
323.337	366.88
323.566	397.88
323.795	388.88
324.024	412.88
324.253	504.88
324.482	696.88
324.71	1088.88
324.939	1606.88
325.168	1406.88
325.397	709.88
325.626	483.88
325.855	407.88
326.084	394.88
326.313	379.88
326.542	384.88
326.77	411.88
326.999	485.88
327.228	636.88
327.457	964.88
327.686	1216.88
327.914	796.88
328.143	546.88
328.372	478.88
328.6	449.88
328.829	418.88
329.058	414.88
329.287	422.88
329.515	406.88
329.744	381.88
329.972	383.88
330.201	396.88
330.43	405.88
330.658	454.88
330.887	467.88
331.115	437.88
331.344	383.88
331.572	361.88
331.801	361.88
332.03	358.88
332.258	347.88
332.486	328.88
332.715	358.88
332.943	330.88
333.172	344.88
333.4	340.88
333.629	338.88
333.857	360.88
334.085	374.88
334.314	361.88
334.542	382.88
334.771	412.88
334.999	371.88
335.227	350.88
335.455	340.88
335.684	328.88
335.912	354.88
336.14	333.88
336.369	343.88
336.597	358.88
336.825	349.88
337.053	347.88
337.281	344.88
337.51	347.88
337.738	329.88
337.966	341.88
338.194	322.88
338.422	345.88
338.65	322.88
338.878	337.88
339.106	342.88
339.334	323.88
339.562	327.88
339.79	313.88
340.018	320.88
340.246	339.88
340.474	340.88
340.702	335.88
340.93	340.88
341.158	319.88
341.386	326.88
341.614	336.88
341.842	321.88
342.07	327.88
342.298	320.88
342.526	335.88
342.754	301.88
342.981	311.88
343.209	340.88
343.437	319.88
343.665	328.88
343.893	333.88
344.12	327.88
344.348	337.88
344.576	325.88
344.804	335.88
345.031	357.88
345.259	324.88
345.487	332.88
345.714	349.88
345.942	332.88
346.17	319.88
346.397	328.88
346.625	324.88
346.853	329.88
347.08	317.88
347.308	303.88
347.535	321.88
347.763	330.88
347.99	330.88
348.218	327.88
348.445	335.88
348.673	328.88
348.9	326.88
349.128	302.88
349.355	324.88
349.583	323.88
349.81	326.88
350.037	309.88
350.265	317.88
350.492	327.88
350.72	312.88
350.947	328.88
351.174	303.88
351.402	333.88
351.629	316.88
351.856	322.88
352.083	340.88
352.311	350.88
352.538	325.88
352.765	340.88
352.992	334.88
353.22	356.88
353.447	336.88
353.674	331.88
353.901	306.88
354.128	312.88
354.355	306.88
354.583	306.88
354.81	300.88
355.037	310.88
355.264	311.88
355.491	309.88
355.718	314.88
355.945	310.88
356.172	300.88
356.399	289.88
356.626	297.88
356.853	313.88
357.08	287.88
357.307	322.88
357.534	296.88
357.761	297.88
357.988	297.88
358.215	283.88
358.441	308.88
358.668	297.88
358.895	306.88
359.122	303.88
359.349	316.88
359.576	316.88
359.802	324.88
360.029	344.88
360.256	361.88
360.483	346.88
360.709	324.88
360.936	307.88
361.163	311.88
361.39	325.88
361.616	320.88
361.843	324.88
362.07	324.88
362.296	312.88
362.523	319.88
362.749	317.88
362.976	301.88
363.203	314.88
363.429	313.88
363.656	310.88
363.882	309.88
364.109	303.88
364.335	311.88
364.562	301.88
364.788	298.88
365.015	324.88
365.241	318.88
365.468	326.88
365.694	327.88
365.92	327.88
366.147	328.88
366.373	328.88
366.599	309.88
366.826	295.88
367.052	309.88
367.278	310.88
367.505	323.88
367.731	325.88
367.957	283.88
368.184	308.88
368.41	301.88
368.636	322.88
368.862	331.88
369.089	306.88
369.315	310.88
369.541	308.88
369.767	305.88
369.993	303.88
370.219	312.88
370.445	308.88
370.672	323.88
370.898	314.88
371.124	299.88
371.35	296.88
371.576	286.88
371.802	321.88
372.028	306.88
372.254	311.88
372.48	314.88
372.706	302.88
372.932	325.88
373.158	331.88
373.384	308.88
373.61	299.88
373.835	319.88
374.061	308.88
374.287	319.88
374.513	329.88
374.739	312.88
374.965	306.88
375.191	296.88
375.416	299.88
375.642	318.88
375.868	329.88
376.094	302.88
376.319	306.88
376.545	314.88
376.771	314.88
376.997	320.88
377.222	303.88
377.448	321.88
377.674	307.88
377.899	303.88
378.125	291.88
378.35	294.88
378.576	295.88
378.802	292.88
379.027	288.88
379.253	316.88
379.478	310.88
379.704	318.88
379.929	321.88
380.155	315.88
380.38	301.88
380.606	307.88
380.831	295.88
381.057	315.88
381.282	310.88
381.507	317.88
381.733	299.88
381.958	298.88
382.184	319.88
382.409	318.88
382.634	322.88
382.86	306.88
383.085	321.88
383.31	308.88
383.535	329.88
383.761	328.88
383.986	341.88
384.211	309.88
384.436	315.88
384.662	347.88
384.887	331.88
385.112	310.88
385.337	328.88
385.562	321.88
385.787	318.88
386.013	350.88
386.238	341.88
386.463	357.88
386.688	336.88
386.913	334.88
387.138	348.88
387.363	347.88
387.588	335.88
387.813	346.88
388.038	311.88
388.263	326.88
388.488	336.88
388.713	340.88
388.938	342.88
389.163	335.88
389.387	343.88
389.612	333.88
389.837	336.88
390.062	346.88
390.287	336.88
390.512	335.88
390.736	341.88
390.961	328.88
391.186	339.88
391.411	320.88
391.636	340.88
391.86	324.88
392.085	351.88
392.31	351.88
392.534	335.88
392.759	350.88
392.984	359.88
393.208	344.88
393.433	387.88
393.658	371.88
393.882	323.88
394.107	337.88
394.331	343.88
394.556	340.88
394.78	335.88
395.005	329.88
395.229	339.88
395.454	338.88
395.678	348.88
395.903	358.88
396.127	354.88
396.352	360.88
396.576	365.88
396.801	348.88
397.025	374.88
397.249	362.88
397.474	363.88
397.698	342.88
397.922	351.88
398.147	358.88
398.371	386.88
398.595	376.88
398.82	362.88
399.044	370.88
399.268	389.88
399.492	391.88
399.717	431.88
399.941	435.88
400.165	454.88
400.389	478.88
400.613	407.88
400.837	386.88
401.062	383.88
401.286	360.88
401.51	382.88
401.734	386.88
401.958	391.88
402.182	367.88
402.406	363.88
402.63	374.88
402.854	378.88
403.078	387.88
403.302	363.88
403.526	384.88
403.75	382.88
403.974	393.88
404.198	388.88
404.422	390.88
404.645	378.88
404.869	381.88
405.093	415.88
405.317	448.88
405.541	465.88
405.765	414.88
405.988	406.88
406.212	404.88
406.436	415.88
406.66	417.88
406.883	406.88
407.107	423.88
407.331	458.88
407.555	510.88
407.778	506.88
408.002	456.88
408.226	441.88
408.449	441.88
408.673	428.88
408.896	463.88
409.12	466.88
409.344	469.88
409.567	429.88
409.791	399.88
410.014	399.88
410.238	392.88
410.461	367.88
410.685	380.88
410.908	402.88
411.132	428.88
411.355	455.88
411.578	426.88
411.802	398.88
412.025	371.88
412.249	394.88
412.472	411.88
412.695	438.88
412.919	432.88
413.142	410.88
413.365	392.88
413.589	376.88
413.812	376.88
414.035	376.88
414.258	357.88
414.482	359.88
414.705	368.88
414.928	376.88
415.151	378.88
415.374	366.88
415.597	373.88
415.821	358.88
416.044	372.88
416.267	370.88
416.49	373.88
416.713	349.88
416.936	363.88
417.159	357.88
417.382	378.88
417.605	370.88
417.828	376.88
418.051	381.88
418.274	386.88
418.497	364.88
418.72	360.88
418.943	377.88
419.166	386.88
419.389	399.88
419.611	378.88
419.834	376.88
420.057	396.88
420.28	407.88
420.503	369.88
420.726	362.88
420.948	398.88
421.171	406.88
421.394	450.88
421.617	388.88
421.839	395.88
422.062	391.88
422.285	390.88
422.507	408.88
422.73	491.88
422.953	510.88
423.175	409.88
423.398	399.88
423.621	403.88
423.843	408.88
424.066	415.88
424.288	413.88
424.511	430.88
424.733	469.88
424.956	534.88
425.178	508.88
425.401	491.88
425.623	516.88
425.846	462.88
426.068	406.88
426.291	411.88
426.513	411.88
426.735	428.88
426.958	445.88
427.18	515.88
427.402	642.88
427.625	682.88
427.847	593.88
428.069	508.88
428.292	456.88
428.514	444.88
428.736	440.88
428.958	398.88
429.181	407.88
429.403	382.88
429.625	403.88
429.847	410.88
430.069	454.88
430.292	463.88
430.514	413.88
430.736	389.88
430.958	366.88
431.18	382.88
431.402	362.88
431.624	360.88
431.846	361.88
432.068	370.88
432.29	370.88
432.512	362.88
432.734	348.88
432.956	374.88
433.178	359.88
433.4	388.88
433.622	370.88
433.844	354.88
434.066	349.88
434.287	372.88
434.509	374.88
434.731	375.88
434.953	379.88
435.175	400.88
435.397	397.88
435.618	419.88
435.84	454.88
436.062	502.88
436.284	569.88
436.505	480.88
436.727	429.88
436.949	389.88
437.17	393.88
437.392	392.88
437.614	388.88
437.835	404.88
438.057	511.88
438.278	587.88
438.5	581.88
438.721	648.88
438.943	629.88
439.165	473.88
439.386	434.88
439.608	424.88
439.829	441.88
440.05	443.88
440.272	488.88
440.493	463.88
440.715	403.88
440.936	393.88
441.158	384.88
441.379	394.88
441.6	403.88
441.822	409.88
442.043	429.88
442.264	508.88
442.486	570.88
442.707	452.88
442.928	404.88
443.149	438.88
443.371	451.88
443.592	515.88
443.813	563.88
444.034	602.88
444.255	526.88
444.476	446.88
444.698	406.88
444.919	407.88
445.14	523.88
445.361	442.88
445.582	451.88
445.803	510.88
446.024	577.88
446.245	590.88
446.466	543.88
446.687	450.88
446.908	450.88
447.129	406.88
447.35	405.88
447.571	384.88
447.792	401.88
448.013	386.88
448.234	423.88
448.455	445.88
448.675	536.88
448.896	648.88
449.117	532.88
449.338	503.88
449.559	595.88
449.779	635.88
450	512.88
450.221	446.88
450.442	420.88
450.662	379.88
450.883	366.88
451.104	394.88
451.324	377.88
451.545	387.88
451.766	359.88
451.986	346.88
452.207	338.88
452.428	342.88
452.648	332.88
452.869	351.88
453.089	351.88
453.31	365.88
453.53	359.88
453.751	349.88
453.971	351.88
454.192	345.88
454.412	336.88
454.633	328.88
454.853	357.88
455.073	340.88
455.294	343.88
455.514	420.88
455.734	420.88
455.955	368.88
456.175	356.88
456.395	329.88
456.616	344.88
456.836	329.88
457.056	316.88
457.276	312.88
457.497	333.88
457.717	328.88
457.937	340.88
458.157	328.88
458.377	346.88
458.598	345.88
458.818	396.88
459.038	456.88
459.258	453.88
459.478	411.88
459.698	388.88
459.918	377.88
460.138	357.88
460.358	362.88
460.578	352.88
460.798	371.88
461.018	370.88
461.238	387.88
461.458	363.88
461.678	371.88
461.898	386.88
462.118	363.88
462.338	374.88
462.558	363.88
462.777	386.88
462.997	388.88
463.217	395.88
463.437	381.88
463.657	395.88
463.876	393.88
464.096	402.88
464.316	376.88
464.536	390.88
464.755	387.88
464.975	386.88
465.195	433.88
465.414	461.88
465.634	419.88
465.854	378.88
466.073	383.88
466.293	351.88
466.512	376.88
466.732	362.88
466.951	357.88
467.171	350.88
467.391	353.88
467.61	352.88
467.829	367.88
468.049	350.88
468.268	355.88
468.488	348.88
468.707	364.88
468.927	358.88
469.146	352.88
469.365	344.88
469.585	359.88
469.804	371.88
470.023	372.88
470.243	375.88
470.462	376.88
470.681	368.88
470.901	372.88
471.12	376.88
471.339	336.88
471.558	382.88
471.777	376.88
471.997	361.88
472.216	360.88
472.435	409.88
472.654	397.88
472.873	373.88
473.092	370.88
473.311	362.88
473.53	357.88
473.749	369.88
473.968	408.88
474.187	492.88
474.406	493.88
474.625	418.88
474.844	379.88
475.063	358.88
475.282	379.88
475.501	376.88
475.72	376.88
475.939	372.88
476.158	375.88
476.377	376.88
476.596	380.88
476.814	393.88
477.033	384.88
477.252	398.88
477.471	391.88
477.69	379.88
477.908	387.88
478.127	415.88
478.346	414.88
478.564	417.88
478.783	412.88
479.002	398.88
479.22	404.88
479.439	408.88
479.658	421.88
479.876	426.88
480.095	432.88
480.313	452.88
480.532	442.88
480.751	428.88
480.969	446.88
481.188	473.88
481.406	488.88
481.624	443.88
481.843	428.88
482.061	427.88
482.28	435.88
482.498	433.88
482.717	406.88
482.935	430.88
483.153	428.88
483.372	436.88
483.59	423.88
483.808	414.88
484.027	407.88
484.245	418.88
484.463	422.88
484.681	435.88
484.9	462.88
485.118	455.88
485.336	438.88
485.554	438.88
485.772	440.88
485.99	419.88
486.209	450.88
486.427	447.88
486.645	446.88
486.863	451.88
487.081	462.88
487.299	457.88
487.517	462.88
487.735	447.88
487.953	448.88
488.171	455.88
488.389	442.88
488.607	448.88
488.825	447.88
489.043	465.88
489.261	471.88
489.479	464.88
489.696	456.88
489.914	462.88
490.132	492.88
490.35	473.88
490.568	461.88
490.786	479.88
491.003	479.88
491.221	492.88
491.439	495.88
491.657	503.88
491.874	515.88
492.092	517.88
492.31	513.88
492.527	503.88
492.745	513.88
492.963	508.88
493.18	518.88
493.398	518.88
493.615	501.88
493.833	531.88
494.05	526.88
494.268	520.88
494.485	529.88
494.703	536.88
494.92	521.88
495.138	540.88
495.355	534.88
495.573	527.88
495.79	533.88
496.008	529.88
496.225	538.88
496.442	538.88
496.66	538.88
496.877	534.88
497.094	541.88
497.312	580.88
497.529	565.88
497.746	551.88
497.963	571.88
498.181	564.88
498.398	563.88
498.615	607.88
498.832	607.88
499.049	595.88
499.267	638.88
499.484	617.88
499.701	666.88
499.918	658.88
500.135	699.88
500.352	687.88
500.569	710.88
500.786	707.88
501.003	693.88
501.22	694.88
501.437	662.88
501.654	663.88
501.871	647.88
502.088	645.88
