Data from 1972.PennyLincolnUp.Lamp.En5.5.200Scan.071719.P1._HRD10591_15-29-13-844.txt Node
Date: Thu Jul 18 15:29:13 EDT 2019
User: cochatt
Spectrometer: HR+D1059
Trigger mode: 1
Integration Time (sec): 1.000000E-1
Scans to average: 1
Electric dark correction enabled: true
Nonlinearity correction enabled: false
Boxcar width: 0
XAxis mode: Wavelengths
Number of Pixels in Spectrum: 2048
>>>>>Begin Spectral Data<<<<<
223.165	-30.38
223.4	-30.38
223.635	-30.38
223.869	-21.38
224.104	-7.38
224.338	-11.38
224.573	-8.38
224.808	-12.38
225.042	-8.38
225.277	1.62
225.511	-2.38
225.746	-0.38
225.98	19.62
226.215	15.62
226.449	14.62
226.683	8.62
226.918	24.62
227.152	17.62
227.387	38.62
227.621	29.62
227.856	38.62
228.09	37.62
228.324	46.62
228.559	56.62
228.793	60.62
229.027	98.62
229.262	108.62
229.496	112.62
229.73	142.62
229.964	150.62
230.199	133.62
230.433	126.62
230.667	116.62
230.901	116.62
231.136	120.62
231.37	120.62
231.604	118.62
231.838	92.62
232.072	107.62
232.306	106.62
232.541	125.62
232.775	126.62
233.009	131.62
233.243	117.62
233.477	114.62
233.711	104.62
233.945	122.62
234.179	104.62
234.413	115.62
234.647	111.62
234.881	110.62
235.115	114.62
235.349	109.62
235.583	132.62
235.817	128.62
236.051	125.62
236.285	130.62
236.519	128.62
236.753	129.62
236.987	164.62
237.221	225.62
237.455	272.62
237.689	217.62
237.922	155.62
238.156	146.62
238.39	128.62
238.624	129.62
238.858	109.62
239.091	124.62
239.325	126.62
239.559	147.62
239.793	143.62
240.027	137.62
240.26	153.62
240.494	156.62
240.728	157.62
240.961	157.62
241.195	134.62
241.429	113.62
241.662	129.62
241.896	140.62
242.13	136.62
242.363	142.62
242.597	133.62
242.83	129.62
243.064	125.62
243.298	151.62
243.531	147.62
243.765	139.62
243.998	142.62
244.232	139.62
244.465	156.62
244.699	147.62
244.932	139.62
245.166	144.62
245.399	138.62
245.633	147.62
245.866	144.62
246.099	137.62
246.333	151.62
246.566	143.62
246.8	156.62
247.033	167.62
247.266	164.62
247.5	163.62
247.733	177.62
247.966	173.62
248.2	180.62
248.433	161.62
248.666	184.62
248.899	184.62
249.133	205.62
249.366	217.62
249.599	188.62
249.832	194.62
250.066	171.62
250.299	192.62
250.532	217.62
250.765	212.62
250.998	244.62
251.231	245.62
251.465	226.62
251.698	220.62
251.931	227.62
252.164	215.62
252.397	219.62
252.63	215.62
252.863	213.62
253.096	212.62
253.329	245.62
253.562	251.62
253.795	215.62
254.028	226.62
254.261	246.62
254.494	244.62
254.727	278.62
254.96	305.62
255.193	289.62
255.426	280.62
255.659	233.62
255.892	247.62
256.124	266.62
256.357	241.62
256.59	226.62
256.823	244.62
257.056	235.62
257.289	226.62
257.521	217.62
257.754	226.62
257.987	222.62
258.22	225.62
258.452	221.62
258.685	211.62
258.918	206.62
259.151	219.62
259.383	233.62
259.616	233.62
259.849	240.62
260.081	229.62
260.314	260.62
260.547	280.62
260.779	254.62
261.012	240.62
261.244	230.62
261.477	240.62
261.71	237.62
261.942	240.62
262.175	260.62
262.407	252.62
262.64	244.62
262.872	220.62
263.105	212.62
263.337	208.62
263.57	235.62
263.802	235.62
264.035	213.62
264.267	210.62
264.499	209.62
264.732	201.62
264.964	209.62
265.197	207.62
265.429	223.62
265.661	221.62
265.894	245.62
266.126	233.62
266.358	212.62
266.591	226.62
266.823	235.62
267.055	230.62
267.287	244.62
267.52	237.62
267.752	230.62
267.984	232.62
268.216	220.62
268.448	236.62
268.681	240.62
268.913	249.62
269.145	274.62
269.377	285.62
269.609	304.62
269.841	299.62
270.073	276.62
270.306	321.62
270.538	324.62
270.77	338.62
271.002	312.62
271.234	288.62
271.466	327.62
271.698	337.62
271.93	340.62
272.162	340.62
272.394	337.62
272.626	306.62
272.858	313.62
273.09	300.62
273.322	297.62
273.553	279.62
273.785	289.62
274.017	271.62
274.249	267.62
274.481	279.62
274.713	290.62
274.945	280.62
275.176	292.62
275.408	286.62
275.64	280.62
275.872	271.62
276.104	262.62
276.335	275.62
276.567	289.62
276.799	297.62
277.031	316.62
277.262	336.62
277.494	328.62
277.726	331.62
277.957	320.62
278.189	308.62
278.421	314.62
278.652	276.62
278.884	285.62
279.115	269.62
279.347	285.62
279.579	275.62
279.81	280.62
280.042	261.62
280.273	263.62
280.505	268.62
280.736	269.62
280.968	272.62
281.199	277.62
281.431	271.62
281.662	259.62
281.894	275.62
282.125	281.62
282.356	302.62
282.588	315.62
282.819	315.62
283.051	258.62
283.282	272.62
283.513	271.62
283.745	281.62
283.976	283.62
284.207	274.62
284.439	284.62
284.67	268.62
284.901	290.62
285.132	277.62
285.364	286.62
285.595	275.62
285.826	256.62
286.057	298.62
286.288	280.62
286.52	285.62
286.751	275.62
286.982	288.62
287.213	299.62
287.444	266.62
287.675	284.62
287.906	312.62
288.138	300.62
288.369	300.62
288.6	305.62
288.831	320.62
289.062	278.62
289.293	278.62
289.524	285.62
289.755	283.62
289.986	290.62
290.217	281.62
290.448	283.62
290.679	271.62
290.91	291.62
291.141	286.62
291.371	276.62
291.602	283.62
291.833	310.62
292.064	293.62
292.295	295.62
292.526	287.62
292.757	285.62
292.987	280.62
293.218	299.62
293.449	274.62
293.68	284.62
293.91	301.62
294.141	291.62
294.372	291.62
294.603	293.62
294.833	298.62
295.064	279.62
295.295	304.62
295.525	283.62
295.756	303.62
295.987	327.62
296.217	344.62
296.448	351.62
296.679	310.62
296.909	292.62
297.14	306.62
297.37	290.62
297.601	290.62
297.831	298.62
298.062	309.62
298.292	306.62
298.523	310.62
298.753	310.62
298.984	291.62
299.214	291.62
299.445	298.62
299.675	326.62
299.905	322.62
300.136	311.62
300.366	318.62
300.597	336.62
300.827	320.62
301.057	325.62
301.288	317.62
301.518	316.62
301.748	304.62
301.979	323.62
302.209	340.62
302.439	315.62
302.669	338.62
302.9	324.62
303.13	307.62
303.36	335.62
303.59	328.62
303.82	343.62
304.051	352.62
304.281	327.62
304.511	307.62
304.741	316.62
304.971	325.62
305.201	316.62
305.431	307.62
305.661	317.62
305.891	301.62
306.121	337.62
306.352	326.62
306.582	340.62
306.812	329.62
307.042	317.62
307.272	325.62
307.502	338.62
307.731	317.62
307.961	334.62
308.191	324.62
308.421	332.62
308.651	335.62
308.881	359.62
309.111	337.62
309.341	360.62
309.571	354.62
309.8	361.62
310.03	379.62
310.26	390.62
310.49	362.62
310.72	392.62
310.949	408.62
311.179	422.62
311.409	395.62
311.639	384.62
311.868	397.62
312.098	405.62
312.328	418.62
312.557	413.62
312.787	445.62
313.017	433.62
313.246	425.62
313.476	398.62
313.706	397.62
313.935	400.62
314.165	395.62
314.394	400.62
314.624	410.62
314.853	396.62
315.083	390.62
315.312	387.62
315.542	364.62
315.771	355.62
316.001	400.62
316.23	393.62
316.46	379.62
316.689	382.62
316.919	398.62
317.148	403.62
317.377	398.62
317.607	381.62
317.836	393.62
318.065	377.62
318.295	379.62
318.524	381.62
318.753	376.62
318.983	388.62
319.212	380.62
319.441	389.62
319.67	390.62
319.9	384.62
320.129	380.62
320.358	383.62
320.587	387.62
320.816	414.62
321.046	426.62
321.275	434.62
321.504	430.62
321.733	439.62
321.962	434.62
322.191	447.62
322.42	464.62
322.649	486.62
322.878	489.62
323.108	494.62
323.337	554.62
323.566	571.62
323.795	616.62
324.024	661.62
324.253	854.62
324.482	1214.62
324.71	1994.62
324.939	2955.62
325.168	2522.62
325.397	1237.62
325.626	786.62
325.855	635.62
326.084	584.62
326.313	567.62
326.542	594.62
326.77	628.62
326.999	766.62
327.228	1091.62
327.457	1784.62
327.686	2168.62
327.914	1453.62
328.143	910.62
328.372	773.62
328.6	700.62
328.829	646.62
329.058	677.62
329.287	692.62
329.515	638.62
329.744	577.62
329.972	580.62
330.201	606.62
330.43	677.62
330.658	692.62
330.887	737.62
331.115	684.62
331.344	594.62
331.572	532.62
331.801	548.62
332.03	553.62
332.258	494.62
332.486	470.62
332.715	461.62
332.943	445.62
333.172	473.62
333.4	467.62
333.629	478.62
333.857	505.62
334.085	504.62
334.314	520.62
334.542	579.62
334.771	606.62
334.999	524.62
335.227	499.62
335.455	469.62
335.684	482.62
335.912	432.62
336.14	427.62
336.369	461.62
336.597	447.62
336.825	460.62
337.053	454.62
337.281	432.62
337.51	422.62
337.738	442.62
337.966	442.62
338.194	434.62
338.422	449.62
338.65	438.62
338.878	427.62
339.106	441.62
339.334	436.62
339.562	436.62
339.79	439.62
340.018	417.62
340.246	427.62
340.474	435.62
340.702	428.62
340.93	421.62
341.158	409.62
341.386	434.62
341.614	438.62
341.842	433.62
342.07	425.62
342.298	428.62
342.526	412.62
342.754	396.62
342.981	407.62
343.209	408.62
343.437	415.62
343.665	405.62
343.893	398.62
344.12	434.62
344.348	425.62
344.576	428.62
344.804	442.62
345.031	463.62
345.259	452.62
345.487	443.62
345.714	437.62
345.942	429.62
346.17	426.62
346.397	417.62
346.625	435.62
346.853	423.62
347.08	416.62
347.308	418.62
347.535	459.62
347.763	429.62
347.99	441.62
348.218	434.62
348.445	438.62
348.673	450.62
348.9	429.62
349.128	407.62
349.355	397.62
349.583	410.62
349.81	406.62
350.037	403.62
350.265	407.62
350.492	416.62
350.72	412.62
350.947	414.62
351.174	388.62
351.402	425.62
351.629	416.62
351.856	406.62
352.083	432.62
352.311	429.62
352.538	437.62
352.765	449.62
352.992	451.62
353.22	422.62
353.447	437.62
353.674	416.62
353.901	400.62
354.128	421.62
354.355	378.62
354.583	379.62
354.81	395.62
355.037	379.62
355.264	386.62
355.491	363.62
355.718	375.62
355.945	367.62
356.172	382.62
356.399	351.62
356.626	360.62
356.853	382.62
357.08	371.62
357.307	356.62
357.534	360.62
357.761	361.62
357.988	374.62
358.215	377.62
358.441	376.62
358.668	368.62
358.895	401.62
359.122	395.62
359.349	424.62
359.576	396.62
359.802	436.62
360.029	494.62
360.256	511.62
360.483	494.62
360.709	437.62
360.936	425.62
361.163	424.62
361.39	420.62
361.616	449.62
361.843	414.62
362.07	436.62
362.296	416.62
362.523	401.62
362.749	418.62
362.976	397.62
363.203	382.62
363.429	397.62
363.656	401.62
363.882	401.62
364.109	379.62
364.335	394.62
364.562	402.62
364.788	388.62
365.015	398.62
365.241	388.62
365.468	397.62
365.694	425.62
365.92	411.62
366.147	396.62
366.373	392.62
366.599	383.62
366.826	385.62
367.052	378.62
367.278	390.62
367.505	390.62
367.731	391.62
367.957	385.62
368.184	398.62
368.41	379.62
368.636	408.62
368.862	405.62
369.089	379.62
369.315	376.62
369.541	368.62
369.767	369.62
369.993	384.62
370.219	369.62
370.445	378.62
370.672	378.62
370.898	374.62
371.124	365.62
371.35	378.62
371.576	374.62
371.802	361.62
372.028	368.62
372.254	376.62
372.48	371.62
372.706	365.62
372.932	376.62
373.158	370.62
373.384	394.62
373.61	365.62
373.835	374.62
374.061	363.62
374.287	384.62
374.513	382.62
374.739	381.62
374.965	388.62
375.191	377.62
375.416	371.62
375.642	362.62
375.868	353.62
376.094	371.62
376.319	360.62
376.545	363.62
376.771	371.62
376.997	370.62
377.222	372.62
377.448	358.62
377.674	380.62
377.899	368.62
378.125	366.62
378.35	355.62
378.576	369.62
378.802	368.62
379.027	361.62
379.253	374.62
379.478	375.62
379.704	373.62
379.929	370.62
380.155	370.62
380.38	369.62
380.606	377.62
380.831	376.62
381.057	378.62
381.282	375.62
381.507	378.62
381.733	363.62
381.958	384.62
382.184	380.62
382.409	382.62
382.634	380.62
382.86	383.62
383.085	362.62
383.31	372.62
383.535	388.62
383.761	381.62
383.986	378.62
384.211	406.62
384.436	365.62
384.662	388.62
384.887	392.62
385.112	380.62
385.337	374.62
385.562	358.62
385.787	389.62
386.013	398.62
386.238	409.62
386.463	413.62
386.688	412.62
386.913	380.62
387.138	402.62
387.363	388.62
387.588	392.62
387.813	394.62
388.038	396.62
388.263	411.62
388.488	393.62
388.713	389.62
388.938	389.62
389.163	386.62
389.387	410.62
389.612	382.62
389.837	387.62
390.062	398.62
390.287	389.62
390.512	395.62
390.736	388.62
390.961	399.62
391.186	404.62
391.411	401.62
391.636	394.62
391.86	402.62
392.085	403.62
392.31	404.62
392.534	391.62
392.759	392.62
392.984	411.62
393.208	414.62
393.433	386.62
393.658	388.62
393.882	400.62
394.107	392.62
394.331	381.62
394.556	390.62
394.78	413.62
395.005	398.62
395.229	380.62
395.454	411.62
395.678	402.62
395.903	414.62
396.127	442.62
396.352	443.62
396.576	433.62
396.801	409.62
397.025	426.62
397.249	403.62
397.474	413.62
397.698	424.62
397.922	433.62
398.147	462.62
398.371	432.62
398.595	458.62
398.82	437.62
399.044	438.62
399.268	459.62
399.492	478.62
399.717	491.62
399.941	516.62
400.165	562.62
400.389	556.62
400.613	511.62
400.837	456.62
401.062	474.62
401.286	452.62
401.51	446.62
401.734	441.62
401.958	425.62
402.182	439.62
402.406	470.62
402.63	454.62
402.854	460.62
403.078	456.62
403.302	450.62
403.526	480.62
403.75	474.62
403.974	475.62
404.198	449.62
404.422	459.62
404.645	467.62
404.869	476.62
405.093	525.62
405.317	547.62
405.541	617.62
405.765	530.62
405.988	520.62
406.212	512.62
406.436	538.62
406.66	551.62
406.883	514.62
407.107	538.62
407.331	577.62
407.555	649.62
407.778	655.62
408.002	610.62
408.226	544.62
408.449	525.62
408.673	512.62
408.896	538.62
409.12	599.62
409.344	570.62
409.567	520.62
409.791	466.62
410.014	480.62
410.238	457.62
410.461	465.62
410.685	481.62
410.908	502.62
411.132	528.62
411.355	566.62
411.578	534.62
411.802	484.62
412.025	468.62
412.249	502.62
412.472	518.62
412.695	586.62
412.919	564.62
413.142	492.62
413.365	461.62
413.589	472.62
413.812	457.62
414.035	463.62
414.258	434.62
414.482	436.62
414.705	442.62
414.928	441.62
415.151	455.62
415.374	427.62
415.597	440.62
415.821	429.62
416.044	425.62
416.267	461.62
416.49	467.62
416.713	446.62
416.936	456.62
417.159	453.62
417.382	442.62
417.605	470.62
417.828	473.62
418.051	476.62
418.274	459.62
418.497	439.62
418.72	453.62
418.943	448.62
419.166	459.62
419.389	467.62
419.611	467.62
419.834	471.62
420.057	493.62
420.28	489.62
420.503	493.62
420.726	485.62
420.948	491.62
421.171	544.62
421.394	576.62
421.617	481.62
421.839	478.62
422.062	464.62
422.285	512.62
422.507	563.62
422.73	632.62
422.953	621.62
423.175	530.62
423.398	516.62
423.621	496.62
423.843	521.62
424.066	527.62
424.288	500.62
424.511	547.62
424.733	596.62
424.956	689.62
425.178	668.62
425.401	647.62
425.623	684.62
425.846	570.62
426.068	526.62
426.291	522.62
426.513	527.62
426.735	551.62
426.958	597.62
427.18	672.62
427.402	813.62
427.625	894.62
427.847	803.62
428.069	725.62
428.292	606.62
428.514	532.62
428.736	528.62
428.958	511.62
429.181	484.62
429.403	482.62
429.625	494.62
429.847	533.62
430.069	598.62
430.292	609.62
430.514	526.62
430.736	492.62
430.958	480.62
431.18	465.62
431.402	441.62
431.624	432.62
431.846	419.62
432.068	427.62
432.29	438.62
432.512	450.62
432.734	444.62
432.956	458.62
433.178	473.62
433.4	475.62
433.622	466.62
433.844	449.62
434.066	439.62
434.287	453.62
434.509	457.62
434.731	467.62
434.953	480.62
435.175	481.62
435.397	517.62
435.618	534.62
435.84	560.62
436.062	678.62
436.284	765.62
436.505	654.62
436.727	571.62
436.949	519.62
437.17	508.62
437.392	508.62
437.614	522.62
437.835	555.62
438.057	681.62
438.278	789.62
438.5	782.62
438.721	865.62
438.943	802.62
439.165	636.62
439.386	566.62
439.608	557.62
439.829	568.62
440.05	566.62
440.272	676.62
440.493	604.62
440.715	551.62
440.936	509.62
441.158	496.62
441.379	488.62
441.6	498.62
441.822	508.62
442.043	565.62
442.264	679.62
442.486	712.62
442.707	597.62
442.928	576.62
443.149	567.62
443.371	595.62
443.592	606.62
443.813	718.62
444.034	790.62
444.255	658.62
444.476	536.62
444.698	507.62
444.919	536.62
445.14	637.62
445.361	594.62
445.582	594.62
445.803	667.62
446.024	810.62
446.245	804.62
446.466	740.62
446.687	602.62
446.908	540.62
447.129	528.62
447.35	520.62
447.571	492.62
447.792	487.62
448.013	485.62
448.234	517.62
448.455	590.62
448.675	717.62
448.896	818.62
449.117	713.62
449.338	660.62
449.559	772.62
449.779	878.62
450	687.62
450.221	550.62
450.442	525.62
450.662	519.62
450.883	513.62
451.104	534.62
451.324	495.62
451.545	491.62
451.766	451.62
451.986	443.62
452.207	452.62
452.428	412.62
452.648	461.62
452.869	435.62
453.089	458.62
453.31	478.62
453.53	446.62
453.751	441.62
453.971	446.62
454.192	466.62
454.412	445.62
454.633	452.62
454.853	450.62
455.073	439.62
455.294	482.62
455.514	541.62
455.734	528.62
455.955	460.62
456.175	428.62
456.395	413.62
456.616	404.62
456.836	389.62
457.056	410.62
457.276	401.62
457.497	426.62
457.717	441.62
457.937	408.62
458.157	404.62
458.377	422.62
458.598	464.62
458.818	514.62
459.038	632.62
459.258	624.62
459.478	501.62
459.698	454.62
459.918	480.62
460.138	467.62
460.358	461.62
460.578	462.62
460.798	449.62
461.018	454.62
461.238	447.62
461.458	452.62
461.678	418.62
461.898	434.62
462.118	416.62
462.338	453.62
462.558	448.62
462.777	442.62
462.997	477.62
463.217	478.62
463.437	460.62
463.657	468.62
463.876	468.62
464.096	451.62
464.316	458.62
464.536	471.62
464.755	482.62
464.975	473.62
465.195	550.62
465.414	659.62
465.634	555.62
465.854	497.62
466.073	475.62
466.293	463.62
466.512	452.62
466.732	428.62
466.951	436.62
467.171	435.62
467.391	428.62
467.61	473.62
467.829	467.62
468.049	469.62
468.268	476.62
468.488	449.62
468.707	437.62
468.927	433.62
469.146	435.62
469.365	440.62
469.585	458.62
469.804	454.62
470.023	445.62
470.243	464.62
470.462	441.62
470.681	481.62
470.901	493.62
471.12	469.62
471.339	438.62
471.558	469.62
471.777	462.62
471.997	455.62
472.216	479.62
472.435	530.62
472.654	484.62
472.873	430.62
473.092	453.62
473.311	459.62
473.53	440.62
473.749	490.62
473.968	518.62
474.187	634.62
474.406	656.62
474.625	517.62
474.844	488.62
475.063	438.62
475.282	456.62
475.501	473.62
475.72	459.62
475.939	456.62
476.158	474.62
476.377	467.62
476.596	473.62
476.814	468.62
477.033	464.62
477.252	473.62
477.471	468.62
477.69	480.62
477.908	475.62
478.127	482.62
478.346	484.62
478.564	480.62
478.783	498.62
479.002	491.62
479.22	494.62
479.439	532.62
479.658	552.62
479.876	521.62
480.095	551.62
480.313	577.62
480.532	566.62
480.751	540.62
480.969	582.62
481.188	649.62
481.406	694.62
481.624	601.62
481.843	568.62
482.061	532.62
482.28	531.62
482.498	517.62
482.717	532.62
482.935	508.62
483.153	520.62
483.372	545.62
483.59	548.62
483.808	536.62
484.027	529.62
484.245	519.62
484.463	531.62
484.681	531.62
484.9	551.62
485.118	546.62
485.336	537.62
485.554	541.62
485.772	572.62
485.99	527.62
486.209	543.62
486.427	557.62
486.645	546.62
486.863	589.62
487.081	579.62
487.299	580.62
487.517	565.62
487.735	570.62
487.953	588.62
488.171	565.62
488.389	572.62
488.607	581.62
488.825	561.62
489.043	574.62
489.261	587.62
489.479	613.62
489.696	594.62
489.914	575.62
490.132	609.62
490.35	582.62
490.568	607.62
490.786	618.62
491.003	621.62
491.221	613.62
491.439	641.62
491.657	648.62
491.874	650.62
492.092	661.62
492.31	652.62
492.527	660.62
492.745	656.62
492.963	681.62
493.18	676.62
493.398	660.62
493.615	660.62
493.833	677.62
494.05	689.62
494.268	696.62
494.485	674.62
494.703	672.62
494.92	678.62
495.138	670.62
495.355	681.62
495.573	666.62
495.79	684.62
496.008	676.62
496.225	673.62
496.442	683.62
496.66	665.62
496.877	675.62
497.094	680.62
497.312	706.62
497.529	693.62
497.746	706.62
497.963	688.62
498.181	731.62
498.398	739.62
498.615	738.62
498.832	740.62
499.049	729.62
499.267	724.62
499.484	762.62
499.701	760.62
499.918	804.62
500.135	822.62
500.352	840.62
500.569	852.62
500.786	844.62
501.003	862.62
501.22	832.62
501.437	810.62
501.654	806.62
501.871	824.62
