Data from 1972.PennyLincolnUp.Lamp.En5.5.200Scan.071719.P1._HRD10591_15-29-57-845.txt Node
Date: Thu Jul 18 15:29:57 EDT 2019
User: cochatt
Spectrometer: HR+D1059
Trigger mode: 1
Integration Time (sec): 1.000000E-1
Scans to average: 1
Electric dark correction enabled: true
Nonlinearity correction enabled: false
Boxcar width: 0
XAxis mode: Wavelengths
Number of Pixels in Spectrum: 2048
>>>>>Begin Spectral Data<<<<<
223.165	-12.69
223.4	-12.69
223.635	-12.69
223.869	-23.69
224.104	-13.69
224.338	-16.69
224.573	-7.69
224.808	-17.69
225.042	-7.69
225.277	8.31
225.511	-1.69
225.746	12.31
225.98	9.31
226.215	10.31
226.449	8.31
226.683	8.31
226.918	17.31
227.152	27.31
227.387	37.31
227.621	32.31
227.856	28.31
228.09	51.31
228.324	56.31
228.559	42.31
228.793	85.31
229.027	105.31
229.262	122.31
229.496	115.31
229.73	145.31
229.964	174.31
230.199	152.31
230.433	130.31
230.667	110.31
230.901	124.31
231.136	101.31
231.37	125.31
231.604	112.31
231.838	118.31
232.072	117.31
232.306	120.31
232.541	112.31
232.775	124.31
233.009	106.31
233.243	122.31
233.477	104.31
233.711	128.31
233.945	131.31
234.179	129.31
234.413	122.31
234.647	128.31
234.881	112.31
235.115	126.31
235.349	122.31
235.583	122.31
235.817	125.31
236.051	128.31
236.285	145.31
236.519	135.31
236.753	132.31
236.987	153.31
237.221	189.31
237.455	276.31
237.689	212.31
237.922	159.31
238.156	144.31
238.39	147.31
238.624	118.31
238.858	112.31
239.091	139.31
239.325	114.31
239.559	120.31
239.793	151.31
240.027	134.31
240.26	154.31
240.494	161.31
240.728	180.31
240.961	159.31
241.195	140.31
241.429	140.31
241.662	146.31
241.896	148.31
242.13	123.31
242.363	133.31
242.597	130.31
242.83	142.31
243.064	138.31
243.298	139.31
243.531	138.31
243.765	146.31
243.998	133.31
244.232	154.31
244.465	140.31
244.699	157.31
244.932	146.31
245.166	142.31
245.399	142.31
245.633	156.31
245.866	142.31
246.099	158.31
246.333	145.31
246.566	164.31
246.8	159.31
247.033	155.31
247.266	152.31
247.5	163.31
247.733	160.31
247.966	184.31
248.2	186.31
248.433	173.31
248.666	184.31
248.899	201.31
249.133	204.31
249.366	215.31
249.599	230.31
249.832	221.31
250.066	189.31
250.299	187.31
250.532	191.31
250.765	219.31
250.998	244.31
251.231	247.31
251.465	231.31
251.698	212.31
251.931	212.31
252.164	203.31
252.397	211.31
252.63	210.31
252.863	210.31
253.096	232.31
253.329	235.31
253.562	249.31
253.795	214.31
254.028	220.31
254.261	248.31
254.494	227.31
254.727	274.31
254.96	308.31
255.193	294.31
255.426	265.31
255.659	244.31
255.892	260.31
256.124	261.31
256.357	266.31
256.59	264.31
256.823	221.31
257.056	230.31
257.289	233.31
257.521	215.31
257.754	205.31
257.987	219.31
258.22	214.31
258.452	192.31
258.685	220.31
258.918	221.31
259.151	230.31
259.383	223.31
259.616	242.31
259.849	233.31
260.081	248.31
260.314	283.31
260.547	284.31
260.779	285.31
261.012	267.31
261.244	240.31
261.477	240.31
261.71	245.31
261.942	245.31
262.175	255.31
262.407	250.31
262.64	231.31
262.872	223.31
263.105	227.31
263.337	217.31
263.57	226.31
263.802	218.31
264.035	225.31
264.267	208.31
264.499	219.31
264.732	238.31
264.964	237.31
265.197	229.31
265.429	218.31
265.661	217.31
265.894	224.31
266.126	224.31
266.358	236.31
266.591	219.31
266.823	248.31
267.055	225.31
267.287	245.31
267.52	246.31
267.752	252.31
267.984	235.31
268.216	229.31
268.448	233.31
268.681	235.31
268.913	249.31
269.145	298.31
269.377	286.31
269.609	285.31
269.841	299.31
270.073	284.31
270.306	315.31
270.538	362.31
270.77	331.31
271.002	330.31
271.234	318.31
271.466	322.31
271.698	341.31
271.93	369.31
272.162	344.31
272.394	351.31
272.626	336.31
272.858	324.31
273.09	310.31
273.322	300.31
273.553	307.31
273.785	283.31
274.017	284.31
274.249	294.31
274.481	299.31
274.713	284.31
274.945	291.31
275.176	293.31
275.408	308.31
275.64	277.31
275.872	269.31
276.104	286.31
276.335	289.31
276.567	297.31
276.799	345.31
277.031	329.31
277.262	331.31
277.494	349.31
277.726	328.31
277.957	304.31
278.189	293.31
278.421	278.31
278.652	283.31
278.884	290.31
279.115	286.31
279.347	284.31
279.579	265.31
279.81	278.31
280.042	262.31
280.273	265.31
280.505	288.31
280.736	291.31
280.968	280.31
281.199	268.31
281.431	265.31
281.662	268.31
281.894	266.31
282.125	280.31
282.356	309.31
282.588	328.31
282.819	317.31
283.051	278.31
283.282	274.31
283.513	268.31
283.745	277.31
283.976	272.31
284.207	309.31
284.439	282.31
284.67	295.31
284.901	284.31
285.132	292.31
285.364	276.31
285.595	262.31
285.826	298.31
286.057	293.31
286.288	292.31
286.52	279.31
286.751	289.31
286.982	289.31
287.213	275.31
287.444	283.31
287.675	312.31
287.906	296.31
288.138	297.31
288.369	298.31
288.6	313.31
288.831	295.31
289.062	283.31
289.293	277.31
289.524	306.31
289.755	284.31
289.986	302.31
290.217	274.31
290.448	291.31
290.679	305.31
290.91	292.31
291.141	304.31
291.371	274.31
291.602	289.31
291.833	295.31
292.064	275.31
292.295	284.31
292.526	297.31
292.757	302.31
292.987	311.31
293.218	283.31
293.449	290.31
293.68	284.31
293.91	292.31
294.141	297.31
294.372	291.31
294.603	291.31
294.833	301.31
295.064	290.31
295.295	280.31
295.525	296.31
295.756	284.31
295.987	283.31
296.217	330.31
296.448	351.31
296.679	323.31
296.909	296.31
297.14	293.31
297.37	274.31
297.601	280.31
297.831	284.31
298.062	297.31
298.292	298.31
298.523	315.31
298.753	299.31
298.984	293.31
299.214	302.31
299.445	313.31
299.675	314.31
299.905	306.31
300.136	336.31
300.366	308.31
300.597	298.31
300.827	310.31
301.057	318.31
301.288	333.31
301.518	336.31
301.748	328.31
301.979	327.31
302.209	325.31
302.439	349.31
302.669	338.31
302.9	335.31
303.13	313.31
303.36	331.31
303.59	331.31
303.82	329.31
304.051	338.31
304.281	334.31
304.511	330.31
304.741	312.31
304.971	320.31
305.201	323.31
305.431	340.31
305.661	333.31
305.891	312.31
306.121	334.31
306.352	332.31
306.582	355.31
306.812	332.31
307.042	330.31
307.272	338.31
307.502	336.31
307.731	348.31
307.961	333.31
308.191	336.31
308.421	349.31
308.651	340.31
308.881	343.31
309.111	337.31
309.341	341.31
309.571	384.31
309.8	381.31
310.03	406.31
310.26	404.31
310.49	361.31
310.72	395.31
310.949	420.31
311.179	433.31
311.409	397.31
311.639	404.31
311.868	429.31
312.098	412.31
312.328	414.31
312.557	428.31
312.787	481.31
313.017	436.31
313.246	412.31
313.476	381.31
313.706	389.31
313.935	400.31
314.165	416.31
314.394	441.31
314.624	440.31
314.853	412.31
315.083	398.31
315.312	389.31
315.542	401.31
315.771	390.31
316.001	362.31
316.23	380.31
316.46	389.31
316.689	392.31
316.919	397.31
317.148	419.31
317.377	426.31
317.607	394.31
317.836	390.31
318.065	392.31
318.295	396.31
318.524	398.31
318.753	374.31
318.983	395.31
319.212	384.31
319.441	404.31
319.67	411.31
319.9	377.31
320.129	412.31
320.358	378.31
320.587	417.31
320.816	394.31
321.046	422.31
321.275	423.31
321.504	419.31
321.733	423.31
321.962	449.31
322.191	459.31
322.42	467.31
322.649	487.31
322.878	516.31
323.108	502.31
323.337	554.31
323.566	596.31
323.795	626.31
324.024	702.31
324.253	865.31
324.482	1274.31
324.71	2048.31
324.939	2978.31
325.168	2592.31
325.397	1256.31
325.626	808.31
325.855	686.31
326.084	606.31
326.313	584.31
326.542	605.31
326.77	640.31
326.999	796.31
327.228	1144.31
327.457	1762.31
327.686	2224.31
327.914	1481.31
328.143	904.31
328.372	796.31
328.6	727.31
328.829	664.31
329.058	675.31
329.287	704.31
329.515	660.31
329.744	601.31
329.972	576.31
330.201	628.31
330.43	704.31
330.658	707.31
330.887	741.31
331.115	728.31
331.344	576.31
331.572	568.31
331.801	517.31
332.03	542.31
332.258	496.31
332.486	480.31
332.715	454.31
332.943	466.31
333.172	461.31
333.4	481.31
333.629	499.31
333.857	508.31
334.085	517.31
334.314	540.31
334.542	596.31
334.771	624.31
334.999	561.31
335.227	486.31
335.455	461.31
335.684	441.31
335.912	446.31
336.14	459.31
336.369	450.31
336.597	468.31
336.825	481.31
337.053	461.31
337.281	459.31
337.51	430.31
337.738	455.31
337.966	429.31
338.194	444.31
338.422	457.31
338.65	442.31
338.878	429.31
339.106	421.31
339.334	436.31
339.562	446.31
339.79	438.31
340.018	445.31
340.246	443.31
340.474	439.31
340.702	447.31
340.93	460.31
341.158	425.31
341.386	451.31
341.614	446.31
341.842	439.31
342.07	436.31
342.298	432.31
342.526	408.31
342.754	410.31
342.981	429.31
343.209	396.31
343.437	398.31
343.665	403.31
343.893	428.31
344.12	432.31
344.348	412.31
344.576	424.31
344.804	436.31
345.031	467.31
345.259	480.31
345.487	447.31
345.714	446.31
345.942	429.31
346.17	453.31
346.397	422.31
346.625	425.31
346.853	443.31
347.08	409.31
347.308	414.31
347.535	444.31
347.763	428.31
347.99	426.31
348.218	428.31
348.445	455.31
348.673	450.31
348.9	422.31
349.128	421.31
349.355	391.31
349.583	385.31
349.81	414.31
350.037	406.31
350.265	413.31
350.492	402.31
350.72	399.31
350.947	396.31
351.174	450.31
351.402	432.31
351.629	429.31
351.856	428.31
352.083	426.31
352.311	440.31
352.538	451.31
352.765	449.31
352.992	427.31
353.22	424.31
353.447	417.31
353.674	425.31
353.901	388.31
354.128	395.31
354.355	380.31
354.583	399.31
354.81	370.31
355.037	384.31
355.264	359.31
355.491	370.31
355.718	388.31
355.945	388.31
356.172	364.31
356.399	352.31
356.626	368.31
356.853	363.31
357.08	392.31
357.307	382.31
357.534	362.31
357.761	358.31
357.988	376.31
358.215	372.31
358.441	376.31
358.668	386.31
358.895	402.31
359.122	385.31
359.349	379.31
359.576	426.31
359.802	445.31
360.029	481.31
360.256	481.31
360.483	474.31
360.709	427.31
360.936	415.31
361.163	432.31
361.39	432.31
361.616	409.31
361.843	409.31
362.07	385.31
362.296	410.31
362.523	420.31
362.749	420.31
362.976	425.31
363.203	398.31
363.429	393.31
363.656	390.31
363.882	396.31
364.109	383.31
364.335	394.31
364.562	395.31
364.788	377.31
365.015	387.31
365.241	381.31
365.468	404.31
365.694	389.31
365.92	398.31
366.147	374.31
366.373	394.31
366.599	379.31
366.826	360.31
367.052	386.31
367.278	396.31
367.505	383.31
367.731	398.31
367.957	391.31
368.184	393.31
368.41	390.31
368.636	401.31
368.862	404.31
369.089	391.31
369.315	372.31
369.541	382.31
369.767	385.31
369.993	404.31
370.219	382.31
370.445	391.31
370.672	379.31
370.898	365.31
371.124	380.31
371.35	388.31
371.576	380.31
371.802	399.31
372.028	376.31
372.254	386.31
372.48	369.31
372.706	372.31
372.932	354.31
373.158	359.31
373.384	380.31
373.61	372.31
373.835	392.31
374.061	371.31
374.287	386.31
374.513	388.31
374.739	376.31
374.965	371.31
375.191	381.31
375.416	383.31
375.642	368.31
375.868	361.31
376.094	372.31
376.319	370.31
376.545	369.31
376.771	354.31
376.997	350.31
377.222	359.31
377.448	372.31
377.674	382.31
377.899	357.31
378.125	365.31
378.35	368.31
378.576	370.31
378.802	339.31
379.027	350.31
379.253	359.31
379.478	358.31
379.704	369.31
379.929	372.31
380.155	372.31
380.38	364.31
380.606	390.31
380.831	380.31
381.057	380.31
381.282	359.31
381.507	379.31
381.733	390.31
381.958	384.31
382.184	378.31
382.409	359.31
382.634	382.31
382.86	385.31
383.085	373.31
383.31	372.31
383.535	380.31
383.761	360.31
383.986	370.31
384.211	384.31
384.436	374.31
384.662	374.31
384.887	378.31
385.112	389.31
385.337	387.31
385.562	390.31
385.787	373.31
386.013	412.31
386.238	418.31
386.463	398.31
386.688	396.31
386.913	377.31
387.138	385.31
387.363	398.31
387.588	379.31
387.813	388.31
388.038	396.31
388.263	382.31
388.488	388.31
388.713	394.31
388.938	414.31
389.163	407.31
389.387	401.31
389.612	385.31
389.837	387.31
390.062	399.31
390.287	370.31
390.512	385.31
390.736	372.31
390.961	406.31
391.186	392.31
391.411	389.31
391.636	404.31
391.86	380.31
392.085	409.31
392.31	392.31
392.534	393.31
392.759	410.31
392.984	402.31
393.208	415.31
393.433	409.31
393.658	385.31
393.882	396.31
394.107	401.31
394.331	406.31
394.556	389.31
394.78	417.31
395.005	402.31
395.229	386.31
395.454	414.31
395.678	419.31
395.903	415.31
396.127	430.31
396.352	425.31
396.576	426.31
396.801	419.31
397.025	406.31
397.249	430.31
397.474	427.31
397.698	397.31
397.922	425.31
398.147	457.31
398.371	458.31
398.595	451.31
398.82	454.31
399.044	453.31
399.268	425.31
399.492	461.31
399.717	496.31
399.941	508.31
400.165	553.31
400.389	551.31
400.613	501.31
400.837	468.31
401.062	468.31
401.286	450.31
401.51	454.31
401.734	446.31
401.958	478.31
402.182	465.31
402.406	470.31
402.63	446.31
402.854	450.31
403.078	461.31
403.302	468.31
403.526	483.31
403.75	460.31
403.974	442.31
404.198	449.31
404.422	454.31
404.645	490.31
404.869	484.31
405.093	523.31
405.317	578.31
405.541	594.31
405.765	526.31
405.988	532.31
406.212	533.31
406.436	516.31
406.66	556.31
406.883	520.31
407.107	540.31
407.331	582.31
407.555	656.31
407.778	636.31
408.002	561.31
408.226	529.31
408.449	506.31
408.673	528.31
408.896	579.31
409.12	627.31
409.344	592.31
409.567	523.31
409.791	468.31
410.014	466.31
410.238	460.31
410.461	474.31
410.685	477.31
410.908	476.31
411.132	562.31
411.355	578.31
411.578	553.31
411.802	492.31
412.025	461.31
412.249	478.31
412.472	516.31
412.695	560.31
412.919	558.31
413.142	507.31
413.365	461.31
413.589	464.31
413.812	447.31
414.035	429.31
414.258	453.31
414.482	432.31
414.705	443.31
414.928	450.31
415.151	438.31
415.374	442.31
415.597	442.31
415.821	440.31
416.044	451.31
416.267	438.31
416.49	453.31
416.713	446.31
416.936	434.31
417.159	445.31
417.382	477.31
417.605	475.31
417.828	438.31
418.051	483.31
418.274	467.31
418.497	455.31
418.72	440.31
418.943	456.31
419.166	468.31
419.389	463.31
419.611	483.31
419.834	465.31
420.057	490.31
420.28	479.31
420.503	468.31
420.726	457.31
420.948	500.31
421.171	552.31
421.394	574.31
421.617	500.31
421.839	475.31
422.062	489.31
422.285	499.31
422.507	582.31
422.73	657.31
422.953	597.31
423.175	552.31
423.398	512.31
423.621	520.31
423.843	542.31
424.066	530.31
424.288	523.31
424.511	528.31
424.733	604.31
424.956	694.31
425.178	660.31
425.401	663.31
425.623	706.31
425.846	586.31
426.068	534.31
426.291	536.31
426.513	533.31
426.735	545.31
426.958	601.31
427.18	690.31
427.402	829.31
427.625	920.31
427.847	830.31
428.069	712.31
428.292	602.31
428.514	562.31
428.736	528.31
428.958	529.31
429.181	488.31
429.403	496.31
429.625	485.31
429.847	543.31
430.069	629.31
430.292	600.31
430.514	522.31
430.736	486.31
430.958	484.31
431.18	450.31
431.402	459.31
431.624	451.31
431.846	447.31
432.068	426.31
432.29	431.31
432.512	463.31
432.734	466.31
432.956	450.31
433.178	485.31
433.4	481.31
433.622	457.31
433.844	433.31
434.066	434.31
434.287	433.31
434.509	440.31
434.731	476.31
434.953	469.31
435.175	481.31
435.397	508.31
435.618	522.31
435.84	581.31
436.062	681.31
436.284	773.31
436.505	625.31
436.727	562.31
436.949	503.31
437.17	494.31
437.392	502.31
437.614	508.31
437.835	560.31
438.057	669.31
438.278	782.31
438.5	773.31
438.721	853.31
438.943	804.31
439.165	621.31
439.386	570.31
439.608	580.31
439.829	549.31
440.05	588.31
440.272	662.31
440.493	609.31
440.715	547.31
440.936	511.31
441.158	501.31
441.379	501.31
441.6	490.31
441.822	548.31
442.043	574.31
442.264	676.31
442.486	740.31
442.707	610.31
442.928	580.31
443.149	568.31
443.371	585.31
443.592	638.31
443.813	724.31
444.034	825.31
444.255	644.31
444.476	550.31
444.698	558.31
444.919	546.31
445.14	621.31
445.361	594.31
445.582	607.31
445.803	663.31
446.024	797.31
446.245	802.31
446.466	748.31
446.687	612.31
446.908	536.31
447.129	531.31
447.35	504.31
447.571	505.31
447.792	480.31
448.013	507.31
448.234	534.31
448.455	573.31
448.675	697.31
448.896	840.31
449.117	708.31
449.338	661.31
449.559	789.31
449.779	885.31
450	690.31
450.221	582.31
450.442	532.31
450.662	504.31
450.883	507.31
451.104	517.31
451.324	512.31
451.545	510.31
451.766	458.31
451.986	452.31
452.207	443.31
452.428	425.31
452.648	432.31
452.869	450.31
453.089	464.31
453.31	468.31
453.53	467.31
453.751	439.31
453.971	463.31
454.192	466.31
454.412	487.31
454.633	441.31
454.853	435.31
455.073	427.31
455.294	473.31
455.514	546.31
455.734	538.31
455.955	436.31
456.175	440.31
456.395	399.31
456.616	412.31
456.836	403.31
457.056	403.31
457.276	397.31
457.497	417.31
457.717	392.31
457.937	422.31
458.157	446.31
458.377	426.31
458.598	458.31
458.818	532.31
459.038	644.31
459.258	667.31
459.478	524.31
459.698	460.31
459.918	447.31
460.138	445.31
460.358	449.31
460.578	433.31
460.798	452.31
461.018	456.31
461.238	437.31
461.458	422.31
461.678	421.31
461.898	441.31
462.118	438.31
462.338	445.31
462.558	438.31
462.777	448.31
462.997	441.31
463.217	457.31
463.437	453.31
463.657	449.31
463.876	467.31
464.096	438.31
464.316	492.31
464.536	490.31
464.755	484.31
464.975	492.31
465.195	565.31
465.414	660.31
465.634	577.31
465.854	489.31
466.073	476.31
466.293	458.31
466.512	438.31
466.732	443.31
466.951	449.31
467.171	433.31
467.391	424.31
467.61	467.31
467.829	478.31
468.049	468.31
468.268	468.31
468.488	435.31
468.707	428.31
468.927	437.31
469.146	406.31
469.365	432.31
469.585	426.31
469.804	453.31
470.023	456.31
470.243	450.31
470.462	450.31
470.681	473.31
470.901	466.31
471.12	444.31
471.339	464.31
471.558	445.31
471.777	463.31
471.997	438.31
472.216	464.31
472.435	511.31
472.654	504.31
472.873	452.31
473.092	446.31
473.311	424.31
473.53	449.31
473.749	464.31
473.968	508.31
474.187	628.31
474.406	679.31
474.625	536.31
474.844	479.31
475.063	468.31
475.282	440.31
475.501	452.31
475.72	461.31
475.939	457.31
476.158	448.31
476.377	443.31
476.596	463.31
476.814	465.31
477.033	485.31
477.252	488.31
477.471	478.31
477.69	465.31
477.908	492.31
478.127	494.31
478.346	498.31
478.564	492.31
478.783	501.31
479.002	490.31
479.22	482.31
479.439	520.31
479.658	535.31
479.876	542.31
480.095	553.31
480.313	588.31
480.532	548.31
480.751	557.31
480.969	582.31
481.188	642.31
481.406	704.31
481.624	592.31
481.843	545.31
482.061	553.31
482.28	536.31
482.498	527.31
482.717	539.31
482.935	526.31
483.153	522.31
483.372	530.31
483.59	513.31
483.808	544.31
484.027	535.31
484.245	516.31
484.463	522.31
484.681	518.31
484.9	537.31
485.118	551.31
485.336	558.31
485.554	536.31
485.772	565.31
485.99	539.31
486.209	563.31
486.427	560.31
486.645	564.31
486.863	597.31
487.081	586.31
487.299	575.31
487.517	582.31
487.735	563.31
487.953	552.31
488.171	552.31
488.389	564.31
488.607	564.31
488.825	558.31
489.043	574.31
489.261	569.31
489.479	584.31
489.696	593.31
489.914	594.31
490.132	587.31
490.35	590.31
490.568	586.31
490.786	610.31
491.003	628.31
491.221	640.31
491.439	635.31
491.657	644.31
491.874	660.31
492.092	652.31
492.31	665.31
492.527	680.31
492.745	650.31
492.963	673.31
493.18	677.31
493.398	663.31
493.615	694.31
493.833	698.31
494.05	684.31
494.268	688.31
494.485	670.31
494.703	670.31
494.92	659.31
495.138	693.31
495.355	676.31
495.573	692.31
495.79	683.31
496.008	688.31
496.225	653.31
496.442	666.31
496.66	660.31
496.877	689.31
497.094	676.31
497.312	700.31
497.529	703.31
497.746	685.31
497.963	699.31
498.181	716.31
498.398	739.31
498.615	758.31
498.832	724.31
499.049	733.31
499.267	773.31
499.484	749.31
499.701	761.31
499.918	756.31
500.135	794.31
500.352	842.31
500.569	828.31
500.786	843.31
501.003	821.31
501.22	806.31
501.437	826.31
501.654	797.31
501.871	830.31
