Data from 1972.PennyLincolnUp.Lamp.En5.5.200Scan.071719.P1._HRD10591_15-29-56-844.txt Node
Date: Thu Jul 18 15:29:56 EDT 2019
User: cochatt
Spectrometer: HR+D1059
Trigger mode: 1
Integration Time (sec): 1.000000E-1
Scans to average: 1
Electric dark correction enabled: true
Nonlinearity correction enabled: false
Boxcar width: 0
XAxis mode: Wavelengths
Number of Pixels in Spectrum: 2048
>>>>>Begin Spectral Data<<<<<
223.165	-25.88
223.4	-25.88
223.635	-25.88
223.869	-14.88
224.104	-20.88
224.338	-16.88
224.573	-20.88
224.808	-0.88
225.042	10.12
225.277	-10.88
225.511	-2.88
225.746	13.12
225.98	3.12
226.215	14.12
226.449	18.12
226.683	14.12
226.918	21.12
227.152	20.12
227.387	41.12
227.621	39.12
227.856	46.12
228.09	43.12
228.324	43.12
228.559	44.12
228.793	74.12
229.027	95.12
229.262	122.12
229.496	126.12
229.73	147.12
229.964	182.12
230.199	154.12
230.433	127.12
230.667	119.12
230.901	125.12
231.136	112.12
231.37	117.12
231.604	111.12
231.838	124.12
232.072	123.12
232.306	124.12
232.541	119.12
232.775	120.12
233.009	108.12
233.243	106.12
233.477	127.12
233.711	113.12
233.945	127.12
234.179	117.12
234.413	121.12
234.647	134.12
234.881	106.12
235.115	122.12
235.349	121.12
235.583	104.12
235.817	117.12
236.051	135.12
236.285	134.12
236.519	134.12
236.753	134.12
236.987	143.12
237.221	197.12
237.455	248.12
237.689	213.12
237.922	155.12
238.156	131.12
238.39	142.12
238.624	141.12
238.858	125.12
239.091	124.12
239.325	111.12
239.559	115.12
239.793	130.12
240.027	145.12
240.26	150.12
240.494	161.12
240.728	159.12
240.961	159.12
241.195	152.12
241.429	154.12
241.662	114.12
241.896	138.12
242.13	132.12
242.363	135.12
242.597	129.12
242.83	138.12
243.064	154.12
243.298	148.12
243.531	155.12
243.765	138.12
243.998	151.12
244.232	134.12
244.465	134.12
244.699	141.12
244.932	152.12
245.166	150.12
245.399	149.12
245.633	147.12
245.866	151.12
246.099	147.12
246.333	150.12
246.566	149.12
246.8	165.12
247.033	152.12
247.266	172.12
247.5	164.12
247.733	171.12
247.966	189.12
248.2	186.12
248.433	167.12
248.666	176.12
248.899	194.12
249.133	209.12
249.366	221.12
249.599	207.12
249.832	181.12
250.066	187.12
250.299	197.12
250.532	210.12
250.765	219.12
250.998	236.12
251.231	262.12
251.465	228.12
251.698	205.12
251.931	202.12
252.164	200.12
252.397	218.12
252.63	213.12
252.863	202.12
253.096	223.12
253.329	257.12
253.562	245.12
253.795	237.12
254.028	232.12
254.261	224.12
254.494	251.12
254.727	265.12
254.96	290.12
255.193	295.12
255.426	276.12
255.659	257.12
255.892	260.12
256.124	249.12
256.357	252.12
256.59	252.12
256.823	247.12
257.056	231.12
257.289	241.12
257.521	226.12
257.754	220.12
257.987	221.12
258.22	213.12
258.452	203.12
258.685	225.12
258.918	222.12
259.151	219.12
259.383	227.12
259.616	223.12
259.849	250.12
260.081	245.12
260.314	270.12
260.547	281.12
260.779	259.12
261.012	232.12
261.244	235.12
261.477	246.12
261.71	223.12
261.942	233.12
262.175	266.12
262.407	255.12
262.64	235.12
262.872	220.12
263.105	213.12
263.337	224.12
263.57	222.12
263.802	231.12
264.035	222.12
264.267	219.12
264.499	218.12
264.732	210.12
264.964	203.12
265.197	228.12
265.429	213.12
265.661	221.12
265.894	214.12
266.126	227.12
266.358	220.12
266.591	221.12
266.823	221.12
267.055	242.12
267.287	234.12
267.52	214.12
267.752	237.12
267.984	236.12
268.216	252.12
268.448	244.12
268.681	262.12
268.913	260.12
269.145	268.12
269.377	284.12
269.609	294.12
269.841	295.12
270.073	267.12
270.306	297.12
270.538	351.12
270.77	341.12
271.002	337.12
271.234	321.12
271.466	321.12
271.698	330.12
271.93	339.12
272.162	361.12
272.394	346.12
272.626	330.12
272.858	319.12
273.09	311.12
273.322	298.12
273.553	297.12
273.785	270.12
274.017	273.12
274.249	288.12
274.481	283.12
274.713	292.12
274.945	308.12
275.176	284.12
275.408	288.12
275.64	280.12
275.872	264.12
276.104	259.12
276.335	264.12
276.567	294.12
276.799	323.12
277.031	331.12
277.262	319.12
277.494	332.12
277.726	329.12
277.957	313.12
278.189	293.12
278.421	269.12
278.652	283.12
278.884	282.12
279.115	268.12
279.347	262.12
279.579	261.12
279.81	268.12
280.042	287.12
280.273	262.12
280.505	263.12
280.736	268.12
280.968	282.12
281.199	276.12
281.431	277.12
281.662	265.12
281.894	287.12
282.125	287.12
282.356	309.12
282.588	327.12
282.819	329.12
283.051	293.12
283.282	261.12
283.513	272.12
283.745	274.12
283.976	284.12
284.207	265.12
284.439	286.12
284.67	295.12
284.901	282.12
285.132	273.12
285.364	278.12
285.595	255.12
285.826	287.12
286.057	292.12
286.288	281.12
286.52	286.12
286.751	265.12
286.982	283.12
287.213	283.12
287.444	285.12
287.675	297.12
287.906	303.12
288.138	301.12
288.369	303.12
288.6	311.12
288.831	299.12
289.062	290.12
289.293	296.12
289.524	292.12
289.755	282.12
289.986	280.12
290.217	274.12
290.448	297.12
290.679	292.12
290.91	292.12
291.141	283.12
291.371	289.12
291.602	269.12
291.833	298.12
292.064	277.12
292.295	288.12
292.526	278.12
292.757	296.12
292.987	289.12
293.218	285.12
293.449	286.12
293.68	280.12
293.91	296.12
294.141	295.12
294.372	293.12
294.603	293.12
294.833	267.12
295.064	266.12
295.295	287.12
295.525	286.12
295.756	295.12
295.987	296.12
296.217	332.12
296.448	340.12
296.679	294.12
296.909	297.12
297.14	305.12
297.37	286.12
297.601	284.12
297.831	308.12
298.062	306.12
298.292	302.12
298.523	291.12
298.753	298.12
298.984	307.12
299.214	314.12
299.445	290.12
299.675	307.12
299.905	313.12
300.136	325.12
300.366	301.12
300.597	320.12
300.827	307.12
301.057	316.12
301.288	338.12
301.518	335.12
301.748	306.12
301.979	312.12
302.209	314.12
302.439	322.12
302.669	315.12
302.9	319.12
303.13	315.12
303.36	337.12
303.59	303.12
303.82	353.12
304.051	333.12
304.281	333.12
304.511	317.12
304.741	312.12
304.971	318.12
305.201	323.12
305.431	306.12
305.661	327.12
305.891	320.12
306.121	310.12
306.352	333.12
306.582	325.12
306.812	329.12
307.042	326.12
307.272	330.12
307.502	328.12
307.731	333.12
307.961	320.12
308.191	334.12
308.421	316.12
308.651	338.12
308.881	330.12
309.111	336.12
309.341	333.12
309.571	355.12
309.8	371.12
310.03	385.12
310.26	404.12
310.49	377.12
310.72	377.12
310.949	400.12
311.179	424.12
311.409	404.12
311.639	408.12
311.868	385.12
312.098	379.12
312.328	407.12
312.557	433.12
312.787	445.12
313.017	443.12
313.246	411.12
313.476	387.12
313.706	391.12
313.935	381.12
314.165	422.12
314.394	415.12
314.624	413.12
314.853	397.12
315.083	377.12
315.312	367.12
315.542	376.12
315.771	372.12
316.001	360.12
316.23	383.12
316.46	376.12
316.689	377.12
316.919	388.12
317.148	398.12
317.377	395.12
317.607	383.12
317.836	385.12
318.065	401.12
318.295	404.12
318.524	401.12
318.753	363.12
318.983	381.12
319.212	385.12
319.441	397.12
319.67	401.12
319.9	397.12
320.129	403.12
320.358	383.12
320.587	406.12
320.816	391.12
321.046	426.12
321.275	417.12
321.504	419.12
321.733	419.12
321.962	450.12
322.191	451.12
322.42	461.12
322.649	487.12
322.878	507.12
323.108	499.12
323.337	528.12
323.566	571.12
323.795	627.12
324.024	689.12
324.253	870.12
324.482	1240.12
324.71	2011.12
324.939	2940.12
325.168	2549.12
325.397	1263.12
325.626	821.12
325.855	652.12
326.084	584.12
326.313	555.12
326.542	577.12
326.77	628.12
326.999	762.12
327.228	1101.12
327.457	1738.12
327.686	2184.12
327.914	1445.12
328.143	892.12
328.372	793.12
328.6	701.12
328.829	673.12
329.058	689.12
329.287	685.12
329.515	633.12
329.744	580.12
329.972	569.12
330.201	606.12
330.43	671.12
330.658	671.12
330.887	730.12
331.115	689.12
331.344	600.12
331.572	530.12
331.801	521.12
332.03	537.12
332.258	522.12
332.486	481.12
332.715	457.12
332.943	463.12
333.172	455.12
333.4	471.12
333.629	475.12
333.857	485.12
334.085	505.12
334.314	533.12
334.542	585.12
334.771	602.12
334.999	515.12
335.227	475.12
335.455	461.12
335.684	458.12
335.912	450.12
336.14	436.12
336.369	435.12
336.597	446.12
336.825	440.12
337.053	435.12
337.281	404.12
337.51	414.12
337.738	438.12
337.966	428.12
338.194	442.12
338.422	440.12
338.65	437.12
338.878	430.12
339.106	436.12
339.334	435.12
339.562	401.12
339.79	418.12
340.018	423.12
340.246	433.12
340.474	440.12
340.702	438.12
340.93	428.12
341.158	407.12
341.386	411.12
341.614	433.12
341.842	439.12
342.07	426.12
342.298	406.12
342.526	388.12
342.754	407.12
342.981	421.12
343.209	396.12
343.437	420.12
343.665	407.12
343.893	415.12
344.12	428.12
344.348	428.12
344.576	436.12
344.804	423.12
345.031	449.12
345.259	465.12
345.487	453.12
345.714	430.12
345.942	433.12
346.17	409.12
346.397	415.12
346.625	417.12
346.853	404.12
347.08	408.12
347.308	411.12
347.535	436.12
347.763	436.12
347.99	417.12
348.218	437.12
348.445	441.12
348.673	441.12
348.9	400.12
349.128	417.12
349.355	405.12
349.583	396.12
349.81	394.12
350.037	383.12
350.265	393.12
350.492	390.12
350.72	387.12
350.947	415.12
351.174	435.12
351.402	428.12
351.629	410.12
351.856	435.12
352.083	420.12
352.311	458.12
352.538	436.12
352.765	433.12
352.992	433.12
353.22	426.12
353.447	401.12
353.674	411.12
353.901	374.12
354.128	378.12
354.355	383.12
354.583	393.12
354.81	383.12
355.037	374.12
355.264	380.12
355.491	369.12
355.718	371.12
355.945	371.12
356.172	373.12
356.399	373.12
356.626	370.12
356.853	369.12
357.08	379.12
357.307	367.12
357.534	360.12
357.761	385.12
357.988	364.12
358.215	376.12
358.441	372.12
358.668	370.12
358.895	374.12
359.122	396.12
359.349	411.12
359.576	401.12
359.802	453.12
360.029	491.12
360.256	518.12
360.483	475.12
360.709	419.12
360.936	420.12
361.163	425.12
361.39	411.12
361.616	434.12
361.843	405.12
362.07	411.12
362.296	422.12
362.523	411.12
362.749	423.12
362.976	395.12
363.203	401.12
363.429	375.12
363.656	397.12
363.882	388.12
364.109	403.12
364.335	387.12
364.562	375.12
364.788	380.12
365.015	382.12
365.241	393.12
365.468	396.12
365.694	384.12
365.92	394.12
366.147	387.12
366.373	377.12
366.599	355.12
366.826	387.12
367.052	373.12
367.278	376.12
367.505	380.12
367.731	394.12
367.957	389.12
368.184	381.12
368.41	381.12
368.636	397.12
368.862	414.12
369.089	406.12
369.315	379.12
369.541	397.12
369.767	373.12
369.993	371.12
370.219	380.12
370.445	379.12
370.672	380.12
370.898	365.12
371.124	350.12
371.35	354.12
371.576	351.12
371.802	365.12
372.028	373.12
372.254	378.12
372.48	368.12
372.706	363.12
372.932	371.12
373.158	373.12
373.384	355.12
373.61	371.12
373.835	372.12
374.061	358.12
374.287	393.12
374.513	379.12
374.739	368.12
374.965	374.12
375.191	359.12
375.416	372.12
375.642	361.12
375.868	387.12
376.094	367.12
376.319	371.12
376.545	363.12
376.771	373.12
376.997	361.12
377.222	360.12
377.448	373.12
377.674	377.12
377.899	351.12
378.125	382.12
378.35	353.12
378.576	377.12
378.802	375.12
379.027	380.12
379.253	355.12
379.478	353.12
379.704	376.12
379.929	355.12
380.155	363.12
380.38	365.12
380.606	345.12
380.831	371.12
381.057	375.12
381.282	381.12
381.507	373.12
381.733	367.12
381.958	385.12
382.184	375.12
382.409	368.12
382.634	363.12
382.86	371.12
383.085	376.12
383.31	363.12
383.535	373.12
383.761	365.12
383.986	380.12
384.211	377.12
384.436	363.12
384.662	387.12
384.887	374.12
385.112	385.12
385.337	371.12
385.562	372.12
385.787	382.12
386.013	410.12
386.238	393.12
386.463	394.12
386.688	387.12
386.913	379.12
387.138	375.12
387.363	389.12
387.588	383.12
387.813	396.12
388.038	387.12
388.263	389.12
388.488	372.12
388.713	390.12
388.938	386.12
389.163	393.12
389.387	404.12
389.612	378.12
389.837	393.12
390.062	407.12
390.287	386.12
390.512	371.12
390.736	400.12
390.961	404.12
391.186	379.12
391.411	403.12
391.636	380.12
391.86	382.12
392.085	383.12
392.31	390.12
392.534	396.12
392.759	393.12
392.984	379.12
393.208	391.12
393.433	384.12
393.658	403.12
393.882	409.12
394.107	381.12
394.331	395.12
394.556	399.12
394.78	388.12
395.005	402.12
395.229	396.12
395.454	386.12
395.678	400.12
395.903	399.12
396.127	422.12
396.352	432.12
396.576	411.12
396.801	395.12
397.025	407.12
397.249	408.12
397.474	415.12
397.698	405.12
397.922	414.12
398.147	415.12
398.371	435.12
398.595	437.12
398.82	423.12
399.044	433.12
399.268	447.12
399.492	444.12
399.717	455.12
399.941	503.12
400.165	542.12
400.389	561.12
400.613	511.12
400.837	479.12
401.062	447.12
401.286	435.12
401.51	446.12
401.734	451.12
401.958	437.12
402.182	456.12
402.406	467.12
402.63	449.12
402.854	474.12
403.078	445.12
403.302	472.12
403.526	465.12
403.75	466.12
403.974	463.12
404.198	454.12
404.422	464.12
404.645	458.12
404.869	481.12
405.093	496.12
405.317	563.12
405.541	590.12
405.765	533.12
405.988	502.12
406.212	499.12
406.436	539.12
406.66	531.12
406.883	514.12
407.107	509.12
407.331	576.12
407.555	635.12
407.778	647.12
408.002	590.12
408.226	508.12
408.449	521.12
408.673	537.12
408.896	556.12
409.12	581.12
409.344	569.12
409.567	493.12
409.791	474.12
410.014	476.12
410.238	450.12
410.461	471.12
410.685	460.12
410.908	476.12
411.132	512.12
411.355	586.12
411.578	548.12
411.802	481.12
412.025	474.12
412.249	484.12
412.472	502.12
412.695	552.12
412.919	529.12
413.142	492.12
413.365	465.12
413.589	458.12
413.812	448.12
414.035	449.12
414.258	418.12
414.482	434.12
414.705	428.12
414.928	435.12
415.151	424.12
415.374	449.12
415.597	433.12
415.821	439.12
416.044	440.12
416.267	440.12
416.49	448.12
416.713	454.12
416.936	421.12
417.159	443.12
417.382	449.12
417.605	456.12
417.828	450.12
418.051	476.12
418.274	447.12
418.497	431.12
418.72	449.12
418.943	419.12
419.166	456.12
419.389	457.12
419.611	440.12
419.834	450.12
420.057	464.12
420.28	473.12
420.503	477.12
420.726	469.12
420.948	498.12
421.171	542.12
421.394	565.12
421.617	517.12
421.839	444.12
422.062	490.12
422.285	489.12
422.507	545.12
422.73	646.12
422.953	621.12
423.175	529.12
423.398	499.12
423.621	511.12
423.843	514.12
424.066	504.12
424.288	503.12
424.511	525.12
424.733	586.12
424.956	695.12
425.178	656.12
425.401	625.12
425.623	690.12
425.846	569.12
426.068	535.12
426.291	517.12
426.513	505.12
426.735	538.12
426.958	599.12
427.18	651.12
427.402	805.12
427.625	922.12
427.847	824.12
428.069	689.12
428.292	597.12
428.514	529.12
428.736	508.12
428.958	496.12
429.181	484.12
429.403	481.12
429.625	478.12
429.847	513.12
430.069	604.12
430.292	621.12
430.514	518.12
430.736	470.12
430.958	473.12
431.18	458.12
431.402	447.12
431.624	436.12
431.846	449.12
432.068	448.12
432.29	449.12
432.512	467.12
432.734	448.12
432.956	443.12
433.178	485.12
433.4	497.12
433.622	464.12
433.844	441.12
434.066	451.12
434.287	443.12
434.509	455.12
434.731	456.12
434.953	474.12
435.175	469.12
435.397	513.12
435.618	523.12
435.84	559.12
436.062	672.12
436.284	769.12
436.505	616.12
436.727	555.12
436.949	517.12
437.17	495.12
437.392	480.12
437.614	509.12
437.835	543.12
438.057	671.12
438.278	779.12
438.5	765.12
438.721	837.12
438.943	788.12
439.165	627.12
439.386	567.12
439.608	557.12
439.829	547.12
440.05	596.12
440.272	652.12
440.493	609.12
440.715	548.12
440.936	517.12
441.158	492.12
441.379	493.12
441.6	518.12
441.822	516.12
442.043	570.12
442.264	673.12
442.486	714.12
442.707	608.12
442.928	562.12
443.149	570.12
443.371	561.12
443.592	617.12
443.813	718.12
444.034	764.12
444.255	665.12
444.476	563.12
444.698	531.12
444.919	524.12
445.14	596.12
445.361	568.12
445.582	587.12
445.803	679.12
446.024	804.12
446.245	800.12
446.466	719.12
446.687	588.12
446.908	555.12
447.129	532.12
447.35	503.12
447.571	493.12
447.792	480.12
448.013	487.12
448.234	547.12
448.455	593.12
448.675	697.12
448.896	811.12
449.117	689.12
449.338	659.12
449.559	760.12
449.779	871.12
450	696.12
450.221	564.12
450.442	530.12
450.662	508.12
450.883	508.12
451.104	531.12
451.324	507.12
451.545	504.12
451.766	458.12
451.986	437.12
452.207	417.12
452.428	445.12
452.648	425.12
452.869	451.12
453.089	437.12
453.31	472.12
453.53	450.12
453.751	420.12
453.971	455.12
454.192	461.12
454.412	458.12
454.633	436.12
454.853	422.12
455.073	443.12
455.294	479.12
455.514	537.12
455.734	522.12
455.955	454.12
456.175	422.12
456.395	402.12
456.616	413.12
456.836	407.12
457.056	393.12
457.276	405.12
457.497	387.12
457.717	418.12
457.937	411.12
458.157	423.12
458.377	413.12
458.598	452.12
458.818	544.12
459.038	606.12
459.258	624.12
459.478	540.12
459.698	467.12
459.918	436.12
460.138	434.12
460.358	446.12
460.578	416.12
460.798	462.12
461.018	448.12
461.238	451.12
461.458	431.12
461.678	437.12
461.898	426.12
462.118	419.12
462.338	436.12
462.558	452.12
462.777	448.12
462.997	429.12
463.217	456.12
463.437	451.12
463.657	432.12
463.876	459.12
464.096	469.12
464.316	451.12
464.536	471.12
464.755	478.12
464.975	480.12
465.195	539.12
465.414	641.12
465.634	556.12
465.854	483.12
466.073	467.12
466.293	450.12
466.512	434.12
466.732	440.12
466.951	441.12
467.171	434.12
467.391	436.12
467.61	465.12
467.829	483.12
468.049	463.12
468.268	455.12
468.488	434.12
468.707	429.12
468.927	445.12
469.146	428.12
469.365	425.12
469.585	411.12
469.804	422.12
470.023	441.12
470.243	455.12
470.462	448.12
470.681	472.12
470.901	467.12
471.12	431.12
471.339	451.12
471.558	435.12
471.777	454.12
471.997	445.12
472.216	457.12
472.435	501.12
472.654	497.12
472.873	464.12
473.092	432.12
473.311	424.12
473.53	436.12
473.749	458.12
473.968	507.12
474.187	627.12
474.406	673.12
474.625	540.12
474.844	482.12
475.063	471.12
475.282	464.12
475.501	455.12
475.72	452.12
475.939	454.12
476.158	449.12
476.377	454.12
476.596	456.12
476.814	464.12
477.033	458.12
477.252	482.12
477.471	480.12
477.69	458.12
477.908	481.12
478.127	475.12
478.346	467.12
478.564	479.12
478.783	498.12
479.002	474.12
479.22	504.12
479.439	524.12
479.658	526.12
479.876	540.12
480.095	531.12
480.313	564.12
480.532	546.12
480.751	546.12
480.969	561.12
481.188	667.12
481.406	695.12
481.624	637.12
481.843	548.12
482.061	535.12
482.28	495.12
482.498	535.12
482.717	534.12
482.935	536.12
483.153	510.12
483.372	511.12
483.59	536.12
483.808	521.12
484.027	527.12
484.245	518.12
484.463	536.12
484.681	538.12
484.9	538.12
485.118	537.12
485.336	520.12
485.554	523.12
485.772	525.12
485.99	518.12
486.209	546.12
486.427	578.12
486.645	549.12
486.863	583.12
487.081	567.12
487.299	584.12
487.517	580.12
487.735	561.12
487.953	573.12
488.171	566.12
488.389	551.12
488.607	558.12
488.825	556.12
489.043	567.12
489.261	591.12
489.479	583.12
489.696	567.12
489.914	570.12
490.132	593.12
490.35	577.12
490.568	586.12
490.786	592.12
491.003	591.12
491.221	609.12
491.439	619.12
491.657	611.12
491.874	645.12
492.092	669.12
492.31	659.12
492.527	652.12
492.745	676.12
492.963	669.12
493.18	673.12
493.398	653.12
493.615	673.12
493.833	679.12
494.05	676.12
494.268	666.12
494.485	651.12
494.703	663.12
494.92	648.12
495.138	669.12
495.355	683.12
495.573	688.12
495.79	675.12
496.008	685.12
496.225	667.12
496.442	661.12
496.66	653.12
496.877	710.12
497.094	669.12
497.312	680.12
497.529	689.12
497.746	696.12
497.963	704.12
498.181	733.12
498.398	705.12
498.615	726.12
498.832	703.12
499.049	728.12
499.267	740.12
499.484	740.12
499.701	777.12
499.918	791.12
500.135	784.12
500.352	817.12
500.569	823.12
500.786	816.12
501.003	835.12
501.22	783.12
501.437	806.12
501.654	796.12
501.871	820.12
