Data from 1972.PennyLincolnUp.Lamp.En5.5.200Scan.071719.P1._HRD10591_15-27-37-843.txt Node
Date: Thu Jul 18 15:27:37 EDT 2019
User: cochatt
Spectrometer: HR+D1059
Trigger mode: 1
Integration Time (sec): 1.000000E-1
Scans to average: 1
Electric dark correction enabled: true
Nonlinearity correction enabled: false
Boxcar width: 0
XAxis mode: Wavelengths
Number of Pixels in Spectrum: 2048
>>>>>Begin Spectral Data<<<<<
223.165	-18.06
223.4	-18.06
223.635	-18.06
223.869	-7.06
224.104	-13.06
224.338	-15.06
224.573	-29.06
224.808	-15.06
225.042	-12.06
225.277	-10.06
225.511	2.94
225.746	1.94
225.98	11.94
226.215	9.94
226.449	9.94
226.683	13.94
226.918	39.94
227.152	28.94
227.387	21.94
227.621	42.94
227.856	40.94
228.09	48.94
228.324	51.94
228.559	55.94
228.793	56.94
229.027	93.94
229.262	90.94
229.496	106.94
229.73	135.94
229.964	149.94
230.199	118.94
230.433	134.94
230.667	117.94
230.901	112.94
231.136	114.94
231.37	106.94
231.604	90.94
231.838	100.94
232.072	103.94
232.306	111.94
232.541	92.94
232.775	110.94
233.009	118.94
233.243	100.94
233.477	99.94
233.711	103.94
233.945	116.94
234.179	112.94
234.413	110.94
234.647	94.94
234.881	113.94
235.115	138.94
235.349	103.94
235.583	107.94
235.817	111.94
236.051	123.94
236.285	124.94
236.519	108.94
236.753	130.94
236.987	150.94
237.221	180.94
237.455	226.94
237.689	197.94
237.922	145.94
238.156	140.94
238.39	122.94
238.624	124.94
238.858	117.94
239.091	108.94
239.325	132.94
239.559	122.94
239.793	111.94
240.027	121.94
240.26	135.94
240.494	158.94
240.728	135.94
240.961	155.94
241.195	147.94
241.429	134.94
241.662	145.94
241.896	136.94
242.13	123.94
242.363	125.94
242.597	131.94
242.83	123.94
243.064	146.94
243.298	134.94
243.531	134.94
243.765	148.94
243.998	142.94
244.232	144.94
244.465	147.94
244.699	136.94
244.932	146.94
245.166	134.94
245.399	139.94
245.633	136.94
245.866	148.94
246.099	132.94
246.333	139.94
246.566	141.94
246.8	140.94
247.033	150.94
247.266	136.94
247.5	159.94
247.733	151.94
247.966	142.94
248.2	174.94
248.433	153.94
248.666	167.94
248.899	175.94
249.133	189.94
249.366	204.94
249.599	181.94
249.832	187.94
250.066	188.94
250.299	175.94
250.532	188.94
250.765	191.94
250.998	234.94
251.231	222.94
251.465	210.94
251.698	185.94
251.931	190.94
252.164	204.94
252.397	194.94
252.63	186.94
252.863	196.94
253.096	207.94
253.329	214.94
253.562	229.94
253.795	227.94
254.028	207.94
254.261	204.94
254.494	216.94
254.727	254.94
254.96	264.94
255.193	258.94
255.426	245.94
255.659	216.94
255.892	230.94
256.124	223.94
256.357	232.94
256.59	228.94
256.823	219.94
257.056	218.94
257.289	214.94
257.521	209.94
257.754	195.94
257.987	205.94
258.22	200.94
258.452	197.94
258.685	205.94
258.918	210.94
259.151	196.94
259.383	231.94
259.616	214.94
259.849	211.94
260.081	234.94
260.314	255.94
260.547	247.94
260.779	247.94
261.012	219.94
261.244	218.94
261.477	224.94
261.71	224.94
261.942	225.94
262.175	223.94
262.407	238.94
262.64	219.94
262.872	219.94
263.105	207.94
263.337	201.94
263.57	188.94
263.802	206.94
264.035	204.94
264.267	208.94
264.499	191.94
264.732	206.94
264.964	202.94
265.197	207.94
265.429	199.94
265.661	194.94
265.894	197.94
266.126	197.94
266.358	203.94
266.591	196.94
266.823	211.94
267.055	227.94
267.287	204.94
267.52	214.94
267.752	214.94
267.984	217.94
268.216	226.94
268.448	242.94
268.681	223.94
268.913	228.94
269.145	242.94
269.377	254.94
269.609	253.94
269.841	252.94
270.073	258.94
270.306	273.94
270.538	294.94
270.77	295.94
271.002	296.94
271.234	283.94
271.466	290.94
271.698	300.94
271.93	307.94
272.162	312.94
272.394	305.94
272.626	290.94
272.858	282.94
273.09	272.94
273.322	271.94
273.553	253.94
273.785	254.94
274.017	241.94
274.249	261.94
274.481	264.94
274.713	259.94
274.945	235.94
275.176	248.94
275.408	264.94
275.64	272.94
275.872	251.94
276.104	255.94
276.335	251.94
276.567	260.94
276.799	274.94
277.031	301.94
277.262	310.94
277.494	300.94
277.726	284.94
277.957	267.94
278.189	257.94
278.421	261.94
278.652	254.94
278.884	264.94
279.115	242.94
279.347	230.94
279.579	257.94
279.81	257.94
280.042	255.94
280.273	257.94
280.505	253.94
280.736	259.94
280.968	260.94
281.199	260.94
281.431	242.94
281.662	255.94
281.894	257.94
282.125	255.94
282.356	283.94
282.588	282.94
282.819	304.94
283.051	243.94
283.282	251.94
283.513	241.94
283.745	267.94
283.976	260.94
284.207	258.94
284.439	260.94
284.67	270.94
284.901	274.94
285.132	247.94
285.364	266.94
285.595	246.94
285.826	260.94
286.057	266.94
286.288	257.94
286.52	269.94
286.751	249.94
286.982	272.94
287.213	245.94
287.444	265.94
287.675	295.94
287.906	288.94
288.138	269.94
288.369	283.94
288.6	271.94
288.831	276.94
289.062	277.94
289.293	275.94
289.524	284.94
289.755	245.94
289.986	272.94
290.217	272.94
290.448	276.94
290.679	276.94
290.91	276.94
291.141	277.94
291.371	263.94
291.602	271.94
291.833	258.94
292.064	266.94
292.295	256.94
292.526	248.94
292.757	255.94
292.987	274.94
293.218	260.94
293.449	272.94
293.68	267.94
293.91	267.94
294.141	281.94
294.372	261.94
294.603	271.94
294.833	274.94
295.064	266.94
295.295	266.94
295.525	275.94
295.756	271.94
295.987	281.94
296.217	319.94
296.448	319.94
296.679	267.94
296.909	267.94
297.14	252.94
297.37	278.94
297.601	266.94
297.831	279.94
298.062	275.94
298.292	278.94
298.523	286.94
298.753	267.94
298.984	283.94
299.214	295.94
299.445	256.94
299.675	279.94
299.905	275.94
300.136	289.94
300.366	291.94
300.597	286.94
300.827	276.94
301.057	295.94
301.288	302.94
301.518	290.94
301.748	268.94
301.979	277.94
302.209	322.94
302.439	314.94
302.669	302.94
302.9	294.94
303.13	276.94
303.36	292.94
303.59	296.94
303.82	313.94
304.051	306.94
304.281	299.94
304.511	288.94
304.741	305.94
304.971	288.94
305.201	290.94
305.431	326.94
305.661	297.94
305.891	309.94
306.121	322.94
306.352	312.94
306.582	311.94
306.812	313.94
307.042	290.94
307.272	295.94
307.502	300.94
307.731	312.94
307.961	295.94
308.191	318.94
308.421	294.94
308.651	291.94
308.881	298.94
309.111	321.94
309.341	332.94
309.571	325.94
309.8	338.94
310.03	330.94
310.26	350.94
310.49	357.94
310.72	371.94
310.949	386.94
311.179	380.94
311.409	352.94
311.639	353.94
311.868	354.94
312.098	353.94
312.328	351.94
312.557	372.94
312.787	392.94
313.017	401.94
313.246	370.94
313.476	373.94
313.706	355.94
313.935	346.94
314.165	379.94
314.394	362.94
314.624	404.94
314.853	376.94
315.083	351.94
315.312	340.94
315.542	345.94
315.771	344.94
316.001	326.94
316.23	340.94
316.46	340.94
316.689	344.94
316.919	364.94
317.148	368.94
317.377	362.94
317.607	352.94
317.836	348.94
318.065	354.94
318.295	358.94
318.524	357.94
318.753	364.94
318.983	335.94
319.212	360.94
319.441	362.94
319.67	377.94
319.9	371.94
320.129	340.94
320.358	359.94
320.587	366.94
320.816	366.94
321.046	369.94
321.275	368.94
321.504	362.94
321.733	375.94
321.962	392.94
322.191	423.94
322.42	433.94
322.649	440.94
322.878	444.94
323.108	451.94
323.337	490.94
323.566	494.94
323.795	523.94
324.024	589.94
324.253	735.94
324.482	1084.94
324.71	1695.94
324.939	2441.94
325.168	2142.94
325.397	1082.94
325.626	719.94
325.855	569.94
326.084	537.94
326.313	504.94
326.542	549.94
326.77	586.94
326.999	677.94
327.228	939.94
327.457	1483.94
327.686	1849.94
327.914	1184.94
328.143	751.94
328.372	665.94
328.6	623.94
328.829	593.94
329.058	572.94
329.287	582.94
329.515	548.94
329.744	506.94
329.972	487.94
330.201	549.94
330.43	576.94
330.658	605.94
330.887	610.94
331.115	599.94
331.344	516.94
331.572	509.94
331.801	466.94
332.03	447.94
332.258	446.94
332.486	443.94
332.715	397.94
332.943	418.94
333.172	428.94
333.4	415.94
333.629	438.94
333.857	461.94
334.085	443.94
334.314	476.94
334.542	524.94
334.771	538.94
334.999	464.94
335.227	454.94
335.455	430.94
335.684	407.94
335.912	416.94
336.14	403.94
336.369	420.94
336.597	402.94
336.825	410.94
337.053	421.94
337.281	400.94
337.51	408.94
337.738	404.94
337.966	383.94
338.194	413.94
338.422	402.94
338.65	395.94
338.878	401.94
339.106	393.94
339.334	408.94
339.562	395.94
339.79	402.94
340.018	400.94
340.246	396.94
340.474	403.94
340.702	386.94
340.93	382.94
341.158	361.94
341.386	389.94
341.614	399.94
341.842	389.94
342.07	372.94
342.298	403.94
342.526	379.94
342.754	389.94
342.981	360.94
343.209	366.94
343.437	371.94
343.665	369.94
343.893	386.94
344.12	396.94
344.348	402.94
344.576	394.94
344.804	411.94
345.031	403.94
345.259	420.94
345.487	419.94
345.714	392.94
345.942	389.94
346.17	374.94
346.397	396.94
346.625	372.94
346.853	376.94
347.08	376.94
347.308	397.94
347.535	401.94
347.763	391.94
347.99	371.94
348.218	386.94
348.445	408.94
348.673	395.94
348.9	394.94
349.128	370.94
349.355	368.94
349.583	377.94
349.81	358.94
350.037	348.94
350.265	372.94
350.492	361.94
350.72	368.94
350.947	374.94
351.174	388.94
351.402	388.94
351.629	392.94
351.856	381.94
352.083	387.94
352.311	403.94
352.538	406.94
352.765	389.94
352.992	378.94
353.22	382.94
353.447	378.94
353.674	358.94
353.901	356.94
354.128	354.94
354.355	344.94
354.583	355.94
354.81	350.94
355.037	343.94
355.264	358.94
355.491	346.94
355.718	332.94
355.945	352.94
356.172	335.94
356.399	346.94
356.626	333.94
356.853	346.94
357.08	346.94
357.307	353.94
357.534	328.94
357.761	341.94
357.988	349.94
358.215	340.94
358.441	337.94
358.668	346.94
358.895	349.94
359.122	361.94
359.349	364.94
359.576	376.94
359.802	440.94
360.029	439.94
360.256	445.94
360.483	431.94
360.709	412.94
360.936	373.94
361.163	384.94
361.39	382.94
361.616	380.94
361.843	374.94
362.07	393.94
362.296	387.94
362.523	379.94
362.749	373.94
362.976	375.94
363.203	373.94
363.429	339.94
363.656	366.94
363.882	352.94
364.109	350.94
364.335	363.94
364.562	344.94
364.788	356.94
365.015	347.94
365.241	347.94
365.468	372.94
365.694	367.94
365.92	361.94
366.147	331.94
366.373	358.94
366.599	346.94
366.826	374.94
367.052	354.94
367.278	330.94
367.505	355.94
367.731	338.94
367.957	347.94
368.184	343.94
368.41	343.94
368.636	374.94
368.862	375.94
369.089	357.94
369.315	344.94
369.541	344.94
369.767	349.94
369.993	343.94
370.219	351.94
370.445	347.94
370.672	359.94
370.898	350.94
371.124	334.94
371.35	347.94
371.576	349.94
371.802	350.94
372.028	339.94
372.254	346.94
372.48	333.94
372.706	346.94
372.932	353.94
373.158	344.94
373.384	347.94
373.61	344.94
373.835	351.94
374.061	330.94
374.287	350.94
374.513	326.94
374.739	354.94
374.965	346.94
375.191	356.94
375.416	337.94
375.642	362.94
375.868	338.94
376.094	339.94
376.319	336.94
376.545	351.94
376.771	343.94
376.997	321.94
377.222	338.94
377.448	351.94
377.674	336.94
377.899	355.94
378.125	328.94
378.35	337.94
378.576	332.94
378.802	326.94
379.027	340.94
379.253	358.94
379.478	331.94
379.704	331.94
379.929	354.94
380.155	343.94
380.38	346.94
380.606	359.94
380.831	345.94
381.057	347.94
381.282	329.94
381.507	338.94
381.733	336.94
381.958	347.94
382.184	344.94
382.409	344.94
382.634	336.94
382.86	347.94
383.085	341.94
383.31	350.94
383.535	346.94
383.761	359.94
383.986	337.94
384.211	363.94
384.436	355.94
384.662	353.94
384.887	363.94
385.112	340.94
385.337	364.94
385.562	357.94
385.787	368.94
386.013	372.94
386.238	395.94
386.463	374.94
386.688	361.94
386.913	370.94
387.138	370.94
387.363	365.94
387.588	354.94
387.813	374.94
388.038	341.94
388.263	371.94
388.488	360.94
388.713	357.94
388.938	362.94
389.163	369.94
389.387	360.94
389.612	357.94
389.837	372.94
390.062	376.94
390.287	363.94
390.512	348.94
390.736	359.94
390.961	348.94
391.186	351.94
391.411	359.94
391.636	354.94
391.86	357.94
392.085	371.94
392.31	360.94
392.534	382.94
392.759	378.94
392.984	355.94
393.208	362.94
393.433	392.94
393.658	383.94
393.882	370.94
394.107	362.94
394.331	370.94
394.556	363.94
394.78	361.94
395.005	343.94
395.229	360.94
395.454	375.94
395.678	380.94
395.903	394.94
396.127	411.94
396.352	417.94
396.576	387.94
396.801	395.94
397.025	385.94
397.249	400.94
397.474	383.94
397.698	393.94
397.922	395.94
398.147	399.94
398.371	415.94
398.595	403.94
398.82	392.94
399.044	417.94
399.268	410.94
399.492	427.94
399.717	463.94
399.941	464.94
400.165	508.94
400.389	542.94
400.613	484.94
400.837	446.94
401.062	449.94
401.286	409.94
401.51	405.94
401.734	400.94
401.958	422.94
402.182	423.94
402.406	427.94
402.63	425.94
402.854	438.94
403.078	452.94
403.302	430.94
403.526	421.94
403.75	406.94
403.974	409.94
404.198	401.94
404.422	421.94
404.645	442.94
404.869	453.94
405.093	459.94
405.317	526.94
405.541	557.94
405.765	492.94
405.988	466.94
406.212	466.94
406.436	482.94
406.66	512.94
406.883	479.94
407.107	507.94
407.331	523.94
407.555	571.94
407.778	587.94
408.002	531.94
408.226	489.94
408.449	505.94
408.673	474.94
408.896	505.94
409.12	544.94
409.344	511.94
409.567	474.94
409.791	432.94
410.014	418.94
410.238	419.94
410.461	419.94
410.685	442.94
410.908	456.94
411.132	483.94
411.355	510.94
411.578	496.94
411.802	435.94
412.025	416.94
412.249	426.94
412.472	455.94
412.695	514.94
412.919	512.94
413.142	444.94
413.365	428.94
413.589	438.94
413.812	411.94
414.035	410.94
414.258	399.94
414.482	412.94
414.705	425.94
414.928	400.94
415.151	387.94
415.374	414.94
415.597	399.94
415.821	403.94
416.044	419.94
416.267	411.94
416.49	415.94
416.713	394.94
416.936	405.94
417.159	419.94
417.382	401.94
417.605	400.94
417.828	419.94
418.051	427.94
418.274	432.94
418.497	404.94
418.72	404.94
418.943	405.94
419.166	402.94
419.389	426.94
419.611	440.94
419.834	423.94
420.057	416.94
420.28	452.94
420.503	432.94
420.726	426.94
420.948	451.94
421.171	482.94
421.394	516.94
421.617	443.94
421.839	432.94
422.062	439.94
422.285	449.94
422.507	509.94
422.73	599.94
422.953	568.94
423.175	467.94
423.398	441.94
423.621	447.94
423.843	460.94
424.066	477.94
424.288	458.94
424.511	486.94
424.733	547.94
424.956	644.94
425.178	616.94
425.401	620.94
425.623	627.94
425.846	522.94
426.068	484.94
426.291	466.94
426.513	483.94
426.735	498.94
426.958	521.94
427.18	609.94
427.402	734.94
427.625	809.94
427.847	732.94
428.069	639.94
428.292	542.94
428.514	504.94
428.736	484.94
428.958	469.94
429.181	452.94
429.403	435.94
429.625	480.94
429.847	490.94
430.069	542.94
430.292	537.94
430.514	436.94
430.736	431.94
430.958	420.94
431.18	421.94
431.402	418.94
431.624	402.94
431.846	421.94
432.068	406.94
432.29	415.94
432.512	410.94
432.734	439.94
432.956	418.94
433.178	418.94
433.4	437.94
433.622	423.94
433.844	438.94
434.066	415.94
434.287	407.94
434.509	417.94
434.731	413.94
434.953	406.94
435.175	444.94
435.397	459.94
435.618	482.94
435.84	524.94
436.062	620.94
436.284	694.94
436.505	576.94
436.727	498.94
436.949	450.94
437.17	455.94
437.392	452.94
437.614	479.94
437.835	502.94
438.057	594.94
438.278	688.94
438.5	704.94
438.721	776.94
438.943	720.94
439.165	574.94
439.386	505.94
439.608	495.94
439.829	502.94
440.05	532.94
440.272	597.94
440.493	548.94
440.715	496.94
440.936	472.94
441.158	451.94
441.379	452.94
441.6	466.94
441.822	491.94
442.043	542.94
442.264	601.94
442.486	642.94
442.707	541.94
442.928	523.94
443.149	512.94
443.371	514.94
443.592	582.94
443.813	658.94
444.034	717.94
444.255	579.94
444.476	497.94
444.698	476.94
444.919	465.94
445.14	581.94
445.361	545.94
445.582	551.94
445.803	597.94
446.024	697.94
446.245	699.94
446.466	650.94
446.687	542.94
446.908	508.94
447.129	458.94
447.35	451.94
447.571	474.94
447.792	472.94
448.013	467.94
448.234	483.94
448.455	518.94
448.675	649.94
448.896	752.94
449.117	609.94
449.338	591.94
449.559	692.94
449.779	788.94
450	657.94
450.221	512.94
450.442	478.94
450.662	458.94
450.883	459.94
451.104	474.94
451.324	472.94
451.545	430.94
451.766	413.94
451.986	414.94
452.207	385.94
452.428	414.94
452.648	403.94
452.869	417.94
453.089	395.94
453.31	443.94
453.53	414.94
453.751	397.94
453.971	406.94
454.192	436.94
454.412	404.94
454.633	391.94
454.853	386.94
455.073	403.94
455.294	441.94
455.514	492.94
455.734	485.94
455.955	408.94
456.175	378.94
456.395	373.94
456.616	361.94
456.836	365.94
457.056	380.94
457.276	362.94
457.497	380.94
457.717	392.94
457.937	383.94
458.157	384.94
458.377	406.94
458.598	415.94
458.818	480.94
459.038	569.94
459.258	588.94
459.478	480.94
459.698	415.94
459.918	401.94
460.138	392.94
460.358	413.94
460.578	401.94
460.798	416.94
461.018	409.94
461.238	391.94
461.458	418.94
461.678	394.94
461.898	414.94
462.118	401.94
462.338	416.94
462.558	416.94
462.777	423.94
462.997	441.94
463.217	430.94
463.437	434.94
463.657	402.94
463.876	442.94
464.096	439.94
464.316	435.94
464.536	445.94
464.755	417.94
464.975	450.94
465.195	499.94
465.414	581.94
465.634	502.94
465.854	463.94
466.073	423.94
466.293	425.94
466.512	406.94
466.732	400.94
466.951	408.94
467.171	391.94
467.391	407.94
467.61	408.94
467.829	422.94
468.049	442.94
468.268	426.94
468.488	414.94
468.707	383.94
468.927	377.94
469.146	400.94
469.365	392.94
469.585	402.94
469.804	393.94
470.023	415.94
470.243	422.94
470.462	418.94
470.681	454.94
470.901	419.94
471.12	408.94
471.339	404.94
471.558	413.94
471.777	413.94
471.997	398.94
472.216	405.94
472.435	480.94
472.654	466.94
472.873	412.94
473.092	412.94
473.311	407.94
473.53	399.94
473.749	426.94
473.968	489.94
474.187	561.94
474.406	587.94
474.625	475.94
474.844	444.94
475.063	438.94
475.282	414.94
475.501	396.94
475.72	407.94
475.939	404.94
476.158	420.94
476.377	412.94
476.596	418.94
476.814	421.94
477.033	423.94
477.252	459.94
477.471	440.94
477.69	415.94
477.908	423.94
478.127	432.94
478.346	414.94
478.564	439.94
478.783	446.94
479.002	431.94
479.22	463.94
479.439	487.94
479.658	500.94
479.876	491.94
480.095	499.94
480.313	512.94
480.532	498.94
480.751	496.94
480.969	504.94
481.188	602.94
481.406	635.94
481.624	558.94
481.843	502.94
482.061	497.94
482.28	473.94
482.498	458.94
482.717	473.94
482.935	466.94
483.153	507.94
483.372	466.94
483.59	471.94
483.808	483.94
484.027	482.94
484.245	491.94
484.463	501.94
484.681	498.94
484.9	483.94
485.118	479.94
485.336	486.94
485.554	493.94
485.772	499.94
485.99	510.94
486.209	498.94
486.427	512.94
486.645	519.94
486.863	544.94
487.081	521.94
487.299	534.94
487.517	521.94
487.735	528.94
487.953	522.94
488.171	524.94
488.389	525.94
488.607	518.94
488.825	496.94
489.043	496.94
489.261	520.94
489.479	512.94
489.696	510.94
489.914	523.94
490.132	533.94
490.35	546.94
490.568	537.94
490.786	552.94
491.003	560.94
491.221	571.94
491.439	562.94
491.657	562.94
491.874	600.94
492.092	618.94
492.31	599.94
492.527	591.94
492.745	613.94
492.963	632.94
493.18	624.94
493.398	615.94
493.615	614.94
493.833	609.94
494.05	598.94
494.268	606.94
494.485	601.94
494.703	611.94
494.92	636.94
495.138	616.94
495.355	622.94
495.573	614.94
495.79	626.94
496.008	632.94
496.225	603.94
496.442	599.94
496.66	612.94
496.877	595.94
497.094	609.94
497.312	609.94
497.529	637.94
497.746	617.94
497.963	631.94
498.181	674.94
498.398	658.94
498.615	656.94
498.832	652.94
499.049	657.94
499.267	672.94
499.484	678.94
499.701	701.94
499.918	720.94
500.135	722.94
500.352	770.94
500.569	743.94
500.786	803.94
501.003	786.94
501.22	767.94
501.437	751.94
501.654	734.94
501.871	735.94
