Data from 1972.PennyLincolnUp.Lamp.En5.5.200Scan.071719.P1._HRD10591_15-27-06-843.txt Node
Date: Thu Jul 18 15:27:06 EDT 2019
User: cochatt
Spectrometer: HR+D1059
Trigger mode: 1
Integration Time (sec): 1.000000E-1
Scans to average: 1
Electric dark correction enabled: true
Nonlinearity correction enabled: false
Boxcar width: 0
XAxis mode: Wavelengths
Number of Pixels in Spectrum: 2048
>>>>>Begin Spectral Data<<<<<
223.165	-14.31
223.4	-14.31
223.635	-14.31
223.869	-24.31
224.104	-13.31
224.338	-7.31
224.573	-16.31
224.808	-12.31
225.042	-12.31
225.277	-15.31
225.511	-3.31
225.746	10.69
225.98	3.69
226.215	2.69
226.449	10.69
226.683	30.69
226.918	34.69
227.152	25.69
227.387	38.69
227.621	23.69
227.856	38.69
228.09	32.69
228.324	72.69
228.559	58.69
228.793	69.69
229.027	83.69
229.262	93.69
229.496	105.69
229.73	129.69
229.964	125.69
230.199	107.69
230.433	103.69
230.667	104.69
230.901	103.69
231.136	98.69
231.37	96.69
231.604	103.69
231.838	102.69
232.072	76.69
232.306	105.69
232.541	103.69
232.775	99.69
233.009	105.69
233.243	101.69
233.477	110.69
233.711	107.69
233.945	116.69
234.179	107.69
234.413	113.69
234.647	112.69
234.881	112.69
235.115	88.69
235.349	101.69
235.583	117.69
235.817	115.69
236.051	114.69
236.285	120.69
236.519	114.69
236.753	111.69
236.987	124.69
237.221	161.69
237.455	215.69
237.689	166.69
237.922	118.69
238.156	118.69
238.39	119.69
238.624	130.69
238.858	122.69
239.091	105.69
239.325	98.69
239.559	115.69
239.793	115.69
240.027	116.69
240.26	128.69
240.494	133.69
240.728	134.69
240.961	132.69
241.195	114.69
241.429	118.69
241.662	116.69
241.896	114.69
242.13	117.69
242.363	115.69
242.597	117.69
242.83	118.69
243.064	129.69
243.298	131.69
243.531	128.69
243.765	123.69
243.998	138.69
244.232	114.69
244.465	130.69
244.699	133.69
244.932	111.69
245.166	128.69
245.399	138.69
245.633	130.69
245.866	134.69
246.099	134.69
246.333	143.69
246.566	134.69
246.8	132.69
247.033	134.69
247.266	140.69
247.5	142.69
247.733	154.69
247.966	140.69
248.2	166.69
248.433	151.69
248.666	166.69
248.899	155.69
249.133	178.69
249.366	178.69
249.599	182.69
249.832	164.69
250.066	164.69
250.299	164.69
250.532	161.69
250.765	178.69
250.998	200.69
251.231	205.69
251.465	202.69
251.698	169.69
251.931	154.69
252.164	192.69
252.397	167.69
252.63	166.69
252.863	188.69
253.096	201.69
253.329	220.69
253.562	206.69
253.795	203.69
254.028	216.69
254.261	203.69
254.494	212.69
254.727	212.69
254.96	252.69
255.193	238.69
255.426	203.69
255.659	218.69
255.892	215.69
256.124	220.69
256.357	215.69
256.59	204.69
256.823	194.69
257.056	187.69
257.289	187.69
257.521	184.69
257.754	188.69
257.987	176.69
258.22	176.69
258.452	182.69
258.685	192.69
258.918	173.69
259.151	205.69
259.383	192.69
259.616	193.69
259.849	197.69
260.081	202.69
260.314	218.69
260.547	205.69
260.779	203.69
261.012	212.69
261.244	208.69
261.477	195.69
261.71	186.69
261.942	196.69
262.175	223.69
262.407	196.69
262.64	206.69
262.872	203.69
263.105	174.69
263.337	190.69
263.57	177.69
263.802	180.69
264.035	181.69
264.267	185.69
264.499	207.69
264.732	175.69
264.964	183.69
265.197	198.69
265.429	179.69
265.661	194.69
265.894	177.69
266.126	193.69
266.358	208.69
266.591	213.69
266.823	204.69
267.055	212.69
267.287	196.69
267.52	183.69
267.752	201.69
267.984	213.69
268.216	200.69
268.448	198.69
268.681	204.69
268.913	204.69
269.145	231.69
269.377	241.69
269.609	227.69
269.841	240.69
270.073	245.69
270.306	242.69
270.538	275.69
270.77	265.69
271.002	273.69
271.234	247.69
271.466	254.69
271.698	270.69
271.93	281.69
272.162	272.69
272.394	260.69
272.626	258.69
272.858	260.69
273.09	274.69
273.322	223.69
273.553	212.69
273.785	243.69
274.017	233.69
274.249	233.69
274.481	224.69
274.713	221.69
274.945	229.69
275.176	248.69
275.408	235.69
275.64	223.69
275.872	233.69
276.104	246.69
276.335	256.69
276.567	247.69
276.799	254.69
277.031	256.69
277.262	255.69
277.494	275.69
277.726	258.69
277.957	242.69
278.189	247.69
278.421	236.69
278.652	257.69
278.884	243.69
279.115	234.69
279.347	214.69
279.579	224.69
279.81	234.69
280.042	232.69
280.273	228.69
280.505	232.69
280.736	223.69
280.968	241.69
281.199	235.69
281.431	226.69
281.662	213.69
281.894	235.69
282.125	227.69
282.356	253.69
282.588	259.69
282.819	266.69
283.051	247.69
283.282	231.69
283.513	250.69
283.745	222.69
283.976	235.69
284.207	236.69
284.439	239.69
284.67	242.69
284.901	233.69
285.132	232.69
285.364	247.69
285.595	231.69
285.826	229.69
286.057	257.69
286.288	230.69
286.52	258.69
286.751	244.69
286.982	252.69
287.213	233.69
287.444	248.69
287.675	258.69
287.906	266.69
288.138	273.69
288.369	261.69
288.6	226.69
288.831	262.69
289.062	258.69
289.293	250.69
289.524	236.69
289.755	254.69
289.986	266.69
290.217	223.69
290.448	233.69
290.679	241.69
290.91	244.69
291.141	231.69
291.371	224.69
291.602	255.69
291.833	238.69
292.064	247.69
292.295	235.69
292.526	261.69
292.757	244.69
292.987	256.69
293.218	243.69
293.449	265.69
293.68	245.69
293.91	239.69
294.141	241.69
294.372	262.69
294.603	261.69
294.833	246.69
295.064	242.69
295.295	247.69
295.525	263.69
295.756	275.69
295.987	272.69
296.217	280.69
296.448	306.69
296.679	256.69
296.909	262.69
297.14	247.69
297.37	256.69
297.601	270.69
297.831	262.69
298.062	263.69
298.292	267.69
298.523	267.69
298.753	262.69
298.984	267.69
299.214	255.69
299.445	258.69
299.675	263.69
299.905	265.69
300.136	259.69
300.366	243.69
300.597	257.69
300.827	272.69
301.057	282.69
301.288	274.69
301.518	294.69
301.748	262.69
301.979	272.69
302.209	282.69
302.439	271.69
302.669	278.69
302.9	260.69
303.13	279.69
303.36	271.69
303.59	270.69
303.82	275.69
304.051	275.69
304.281	275.69
304.511	271.69
304.741	256.69
304.971	289.69
305.201	292.69
305.431	264.69
305.661	292.69
305.891	269.69
306.121	286.69
306.352	292.69
306.582	280.69
306.812	272.69
307.042	276.69
307.272	268.69
307.502	287.69
307.731	299.69
307.961	267.69
308.191	283.69
308.421	269.69
308.651	276.69
308.881	305.69
309.111	310.69
309.341	291.69
309.571	298.69
309.8	299.69
310.03	293.69
310.26	319.69
310.49	324.69
310.72	317.69
310.949	330.69
311.179	330.69
311.409	312.69
311.639	303.69
311.868	313.69
312.098	329.69
312.328	309.69
312.557	356.69
312.787	342.69
313.017	320.69
313.246	339.69
313.476	308.69
313.706	315.69
313.935	320.69
314.165	323.69
314.394	335.69
314.624	352.69
314.853	320.69
315.083	323.69
315.312	338.69
315.542	327.69
315.771	314.69
316.001	318.69
316.23	313.69
316.46	320.69
316.689	318.69
316.919	323.69
317.148	337.69
317.377	332.69
317.607	337.69
317.836	329.69
318.065	333.69
318.295	328.69
318.524	310.69
318.753	323.69
318.983	314.69
319.212	332.69
319.441	335.69
319.67	339.69
319.9	334.69
320.129	308.69
320.358	313.69
320.587	338.69
320.816	338.69
321.046	354.69
321.275	349.69
321.504	359.69
321.733	324.69
321.962	355.69
322.191	363.69
322.42	378.69
322.649	376.69
322.878	381.69
323.108	393.69
323.337	385.69
323.566	404.69
323.795	448.69
324.024	483.69
324.253	587.69
324.482	828.69
324.71	1267.69
324.939	1885.69
325.168	1655.69
325.397	836.69
325.626	582.69
325.855	491.69
326.084	444.69
326.313	424.69
326.542	439.69
326.77	467.69
326.999	523.69
327.228	770.69
327.457	1153.69
327.686	1416.69
327.914	953.69
328.143	630.69
328.372	544.69
328.6	501.69
328.829	488.69
329.058	492.69
329.287	482.69
329.515	453.69
329.744	436.69
329.972	428.69
330.201	476.69
330.43	482.69
330.658	500.69
330.887	507.69
331.115	488.69
331.344	438.69
331.572	409.69
331.801	410.69
332.03	415.69
332.258	388.69
332.486	376.69
332.715	345.69
332.943	376.69
333.172	384.69
333.4	383.69
333.629	375.69
333.857	389.69
334.085	409.69
334.314	413.69
334.542	426.69
334.771	442.69
334.999	430.69
335.227	387.69
335.455	380.69
335.684	396.69
335.912	381.69
336.14	360.69
336.369	356.69
336.597	362.69
336.825	376.69
337.053	394.69
337.281	368.69
337.51	386.69
337.738	356.69
337.966	390.69
338.194	370.69
338.422	379.69
338.65	361.69
338.878	340.69
339.106	353.69
339.334	344.69
339.562	352.69
339.79	378.69
340.018	355.69
340.246	375.69
340.474	366.69
340.702	377.69
340.93	371.69
341.158	371.69
341.386	371.69
341.614	380.69
341.842	370.69
342.07	351.69
342.298	351.69
342.526	333.69
342.754	351.69
342.981	355.69
343.209	343.69
343.437	330.69
343.665	356.69
343.893	349.69
344.12	366.69
344.348	352.69
344.576	364.69
344.804	365.69
345.031	357.69
345.259	374.69
345.487	360.69
345.714	372.69
345.942	372.69
346.17	363.69
346.397	347.69
346.625	341.69
346.853	353.69
347.08	341.69
347.308	348.69
347.535	369.69
347.763	335.69
347.99	371.69
348.218	339.69
348.445	348.69
348.673	368.69
348.9	338.69
349.128	327.69
349.355	343.69
349.583	355.69
349.81	351.69
350.037	358.69
350.265	340.69
350.492	323.69
350.72	354.69
350.947	336.69
351.174	350.69
351.402	355.69
351.629	362.69
351.856	359.69
352.083	346.69
352.311	338.69
352.538	347.69
352.765	344.69
352.992	348.69
353.22	339.69
353.447	325.69
353.674	335.69
353.901	344.69
354.128	328.69
354.355	335.69
354.583	328.69
354.81	327.69
355.037	332.69
355.264	324.69
355.491	317.69
355.718	320.69
355.945	353.69
356.172	320.69
356.399	351.69
356.626	322.69
356.853	322.69
357.08	331.69
357.307	330.69
357.534	316.69
357.761	335.69
357.988	325.69
358.215	316.69
358.441	320.69
358.668	324.69
358.895	308.69
359.122	332.69
359.349	331.69
359.576	341.69
359.802	348.69
360.029	386.69
360.256	389.69
360.483	370.69
360.709	346.69
360.936	358.69
361.163	354.69
361.39	363.69
361.616	345.69
361.843	356.69
362.07	340.69
362.296	353.69
362.523	337.69
362.749	354.69
362.976	354.69
363.203	345.69
363.429	340.69
363.656	316.69
363.882	342.69
364.109	339.69
364.335	342.69
364.562	345.69
364.788	343.69
365.015	322.69
365.241	318.69
365.468	330.69
365.694	338.69
365.92	334.69
366.147	336.69
366.373	334.69
366.599	338.69
366.826	307.69
367.052	340.69
367.278	321.69
367.505	325.69
367.731	346.69
367.957	318.69
368.184	328.69
368.41	344.69
368.636	338.69
368.862	356.69
369.089	330.69
369.315	332.69
369.541	346.69
369.767	330.69
369.993	322.69
370.219	316.69
370.445	330.69
370.672	336.69
370.898	330.69
371.124	319.69
371.35	349.69
371.576	323.69
371.802	331.69
372.028	337.69
372.254	322.69
372.48	329.69
372.706	344.69
372.932	320.69
373.158	337.69
373.384	329.69
373.61	322.69
373.835	335.69
374.061	317.69
374.287	351.69
374.513	342.69
374.739	344.69
374.965	347.69
375.191	338.69
375.416	340.69
375.642	329.69
375.868	345.69
376.094	333.69
376.319	332.69
376.545	318.69
376.771	337.69
376.997	350.69
377.222	316.69
377.448	317.69
377.674	321.69
377.899	335.69
378.125	322.69
378.35	316.69
378.576	306.69
378.802	331.69
379.027	336.69
379.253	308.69
379.478	317.69
379.704	323.69
379.929	342.69
380.155	314.69
380.38	332.69
380.606	346.69
380.831	324.69
381.057	342.69
381.282	327.69
381.507	335.69
381.733	311.69
381.958	344.69
382.184	338.69
382.409	328.69
382.634	324.69
382.86	315.69
383.085	326.69
383.31	324.69
383.535	346.69
383.761	327.69
383.986	340.69
384.211	345.69
384.436	333.69
384.662	351.69
384.887	347.69
385.112	355.69
385.337	348.69
385.562	332.69
385.787	356.69
386.013	367.69
386.238	362.69
386.463	341.69
386.688	360.69
386.913	359.69
387.138	356.69
387.363	351.69
387.588	348.69
387.813	342.69
388.038	349.69
388.263	355.69
388.488	361.69
388.713	352.69
388.938	345.69
389.163	346.69
389.387	346.69
389.612	368.69
389.837	358.69
390.062	354.69
390.287	351.69
390.512	332.69
390.736	344.69
390.961	360.69
391.186	336.69
391.411	367.69
391.636	363.69
391.86	330.69
392.085	357.69
392.31	358.69
392.534	354.69
392.759	363.69
392.984	366.69
393.208	366.69
393.433	369.69
393.658	386.69
393.882	356.69
394.107	352.69
394.331	359.69
394.556	361.69
394.78	359.69
395.005	368.69
395.229	339.69
395.454	361.69
395.678	371.69
395.903	375.69
396.127	404.69
396.352	406.69
396.576	366.69
396.801	384.69
397.025	374.69
397.249	386.69
397.474	390.69
397.698	383.69
397.922	364.69
398.147	404.69
398.371	394.69
398.595	408.69
398.82	400.69
399.044	396.69
399.268	418.69
399.492	432.69
399.717	437.69
399.941	460.69
400.165	489.69
400.389	490.69
400.613	445.69
400.837	430.69
401.062	404.69
401.286	408.69
401.51	406.69
401.734	402.69
401.958	397.69
402.182	425.69
402.406	416.69
402.63	425.69
402.854	415.69
403.078	398.69
403.302	412.69
403.526	405.69
403.75	418.69
403.974	416.69
404.198	403.69
404.422	408.69
404.645	430.69
404.869	409.69
405.093	433.69
405.317	471.69
405.541	515.69
405.765	466.69
405.988	451.69
406.212	442.69
406.436	434.69
406.66	455.69
406.883	443.69
407.107	466.69
407.331	491.69
407.555	526.69
407.778	535.69
408.002	508.69
408.226	468.69
408.449	460.69
408.673	433.69
408.896	473.69
409.12	511.69
409.344	483.69
409.567	438.69
409.791	427.69
410.014	417.69
410.238	414.69
410.461	415.69
410.685	440.69
410.908	423.69
411.132	466.69
411.355	496.69
411.578	473.69
411.802	428.69
412.025	382.69
412.249	428.69
412.472	441.69
412.695	488.69
412.919	473.69
413.142	414.69
413.365	412.69
413.589	396.69
413.812	396.69
414.035	387.69
414.258	391.69
414.482	395.69
414.705	393.69
414.928	376.69
415.151	390.69
415.374	396.69
415.597	393.69
415.821	389.69
416.044	397.69
416.267	392.69
416.49	384.69
416.713	404.69
416.936	401.69
417.159	387.69
417.382	377.69
417.605	383.69
417.828	390.69
418.051	416.69
418.274	408.69
418.497	375.69
418.72	378.69
418.943	390.69
419.166	391.69
419.389	426.69
419.611	404.69
419.834	397.69
420.057	418.69
420.28	402.69
420.503	406.69
420.726	423.69
420.948	427.69
421.171	463.69
421.394	489.69
421.617	432.69
421.839	390.69
422.062	413.69
422.285	426.69
422.507	482.69
422.73	554.69
422.953	541.69
423.175	451.69
423.398	427.69
423.621	419.69
423.843	446.69
424.066	439.69
424.288	446.69
424.511	458.69
424.733	508.69
424.956	577.69
425.178	562.69
425.401	532.69
425.623	576.69
425.846	492.69
426.068	434.69
426.291	442.69
426.513	428.69
426.735	458.69
426.958	485.69
427.18	556.69
427.402	660.69
427.625	754.69
427.847	645.69
428.069	537.69
428.292	482.69
428.514	447.69
428.736	430.69
428.958	415.69
429.181	394.69
429.403	406.69
429.625	434.69
429.847	463.69
430.069	496.69
430.292	492.69
430.514	411.69
430.736	418.69
430.958	422.69
431.18	402.69
431.402	371.69
431.624	386.69
431.846	391.69
432.068	394.69
432.29	384.69
432.512	408.69
432.734	405.69
432.956	391.69
433.178	404.69
433.4	418.69
433.622	415.69
433.844	410.69
434.066	392.69
434.287	399.69
434.509	385.69
434.731	376.69
434.953	411.69
435.175	417.69
435.397	436.69
435.618	449.69
435.84	502.69
436.062	579.69
436.284	642.69
436.505	512.69
436.727	448.69
436.949	439.69
437.17	432.69
437.392	416.69
437.614	452.69
437.835	485.69
438.057	516.69
438.278	632.69
438.5	632.69
438.721	699.69
438.943	650.69
439.165	542.69
439.386	470.69
439.608	447.69
439.829	470.69
440.05	476.69
440.272	521.69
440.493	486.69
440.715	450.69
440.936	437.69
441.158	430.69
441.379	417.69
441.6	432.69
441.822	438.69
442.043	477.69
442.264	546.69
442.486	581.69
442.707	480.69
442.928	458.69
443.149	468.69
443.371	501.69
443.592	508.69
443.813	608.69
444.034	627.69
444.255	552.69
444.476	475.69
444.698	455.69
444.919	456.69
445.14	544.69
445.361	510.69
445.582	480.69
445.803	540.69
446.024	624.69
446.245	632.69
446.466	590.69
446.687	496.69
446.908	478.69
447.129	430.69
447.35	445.69
447.571	410.69
447.792	418.69
448.013	410.69
448.234	437.69
448.455	483.69
448.675	574.69
448.896	653.69
449.117	594.69
449.338	520.69
449.559	633.69
449.779	729.69
450	595.69
450.221	459.69
450.442	420.69
450.662	424.69
450.883	416.69
451.104	423.69
451.324	423.69
451.545	403.69
451.766	380.69
451.986	377.69
452.207	384.69
452.428	386.69
452.648	367.69
452.869	374.69
453.089	380.69
453.31	381.69
453.53	372.69
453.751	367.69
453.971	383.69
454.192	391.69
454.412	381.69
454.633	381.69
454.853	369.69
455.073	347.69
455.294	390.69
455.514	454.69
455.734	463.69
455.955	390.69
456.175	380.69
456.395	363.69
456.616	341.69
456.836	352.69
457.056	340.69
457.276	358.69
457.497	355.69
457.717	356.69
457.937	354.69
458.157	363.69
458.377	376.69
458.598	366.69
458.818	427.69
459.038	484.69
459.258	502.69
459.478	429.69
459.698	400.69
459.918	391.69
460.138	397.69
460.358	393.69
460.578	396.69
460.798	372.69
461.018	396.69
461.238	380.69
461.458	391.69
461.678	384.69
461.898	381.69
462.118	396.69
462.338	401.69
462.558	378.69
462.777	397.69
462.997	419.69
463.217	402.69
463.437	421.69
463.657	414.69
463.876	423.69
464.096	415.69
464.316	408.69
464.536	426.69
464.755	425.69
464.975	404.69
465.195	450.69
465.414	519.69
465.634	473.69
465.854	422.69
466.073	385.69
466.293	406.69
466.512	386.69
466.732	376.69
466.951	383.69
467.171	401.69
467.391	384.69
467.61	376.69
467.829	403.69
468.049	392.69
468.268	368.69
468.488	386.69
468.707	380.69
468.927	351.69
469.146	364.69
469.365	386.69
469.585	362.69
469.804	378.69
470.023	402.69
470.243	398.69
470.462	387.69
470.681	403.69
470.901	400.69
471.12	376.69
471.339	386.69
471.558	389.69
471.777	393.69
471.997	356.69
472.216	374.69
472.435	424.69
472.654	392.69
472.873	413.69
473.092	387.69
473.311	380.69
473.53	363.69
473.749	396.69
473.968	414.69
474.187	505.69
474.406	540.69
474.625	437.69
474.844	418.69
475.063	381.69
475.282	386.69
475.501	397.69
475.72	396.69
475.939	402.69
476.158	406.69
476.377	412.69
476.596	416.69
476.814	415.69
477.033	426.69
477.252	414.69
477.471	413.69
477.69	408.69
477.908	398.69
478.127	398.69
478.346	435.69
478.564	439.69
478.783	430.69
479.002	417.69
479.22	439.69
479.439	444.69
479.658	475.69
479.876	443.69
480.095	452.69
480.313	494.69
480.532	506.69
480.751	456.69
480.969	456.69
481.188	513.69
481.406	554.69
481.624	514.69
481.843	494.69
482.061	459.69
482.28	468.69
482.498	461.69
482.717	449.69
482.935	477.69
483.153	470.69
483.372	456.69
483.59	448.69
483.808	468.69
484.027	460.69
484.245	449.69
484.463	454.69
484.681	483.69
484.9	472.69
485.118	464.69
485.336	452.69
485.554	475.69
485.772	477.69
485.99	473.69
486.209	470.69
486.427	474.69
486.645	486.69
486.863	491.69
487.081	513.69
487.299	488.69
487.517	489.69
487.735	480.69
487.953	483.69
488.171	480.69
488.389	473.69
488.607	483.69
488.825	474.69
489.043	492.69
489.261	499.69
489.479	495.69
489.696	489.69
489.914	488.69
490.132	499.69
490.35	500.69
490.568	503.69
490.786	522.69
491.003	522.69
491.221	555.69
491.439	523.69
491.657	549.69
491.874	543.69
492.092	549.69
492.31	538.69
492.527	544.69
492.745	560.69
492.963	572.69
493.18	568.69
493.398	557.69
493.615	554.69
493.833	562.69
494.05	566.69
494.268	555.69
494.485	565.69
494.703	570.69
494.92	549.69
495.138	568.69
495.355	571.69
495.573	604.69
495.79	584.69
496.008	569.69
496.225	566.69
496.442	582.69
496.66	598.69
496.877	572.69
497.094	583.69
497.312	595.69
497.529	583.69
497.746	597.69
497.963	596.69
498.181	621.69
498.398	608.69
498.615	624.69
498.832	659.69
499.049	670.69
499.267	648.69
499.484	673.69
499.701	663.69
499.918	683.69
500.135	732.69
500.352	741.69
500.569	750.69
500.786	743.69
501.003	730.69
501.22	719.69
501.437	729.69
501.654	683.69
501.871	710.69
502.088	691.69
