Data from 1972.PennyLincolnUp.Lamp.En5.5.200Scan.071719.P1._HRD10591_15-27-47-843.txt Node
Date: Thu Jul 18 15:27:47 EDT 2019
User: cochatt
Spectrometer: HR+D1059
Trigger mode: 1
Integration Time (sec): 1.000000E-1
Scans to average: 1
Electric dark correction enabled: true
Nonlinearity correction enabled: false
Boxcar width: 0
XAxis mode: Wavelengths
Number of Pixels in Spectrum: 2048
>>>>>Begin Spectral Data<<<<<
223.165	-6.25
223.4	-6.25
223.635	-6.25
223.869	-14.25
224.104	-30.25
224.338	-16.25
224.573	-13.25
224.808	-12.25
225.042	0.75
225.277	-7.25
225.511	-9.25
225.746	5.75
225.98	10.75
226.215	4.75
226.449	6.75
226.683	4.75
226.918	30.75
227.152	44.75
227.387	28.75
227.621	28.75
227.856	53.75
228.09	45.75
228.324	41.75
228.559	52.75
228.793	55.75
229.027	85.75
229.262	94.75
229.496	118.75
229.73	129.75
229.964	162.75
230.199	127.75
230.433	122.75
230.667	114.75
230.901	98.75
231.136	114.75
231.37	99.75
231.604	112.75
231.838	130.75
232.072	107.75
232.306	132.75
232.541	121.75
232.775	125.75
233.009	108.75
233.243	118.75
233.477	109.75
233.711	110.75
233.945	122.75
234.179	109.75
234.413	109.75
234.647	131.75
234.881	118.75
235.115	111.75
235.349	129.75
235.583	131.75
235.817	107.75
236.051	133.75
236.285	125.75
236.519	122.75
236.753	134.75
236.987	137.75
237.221	166.75
237.455	236.75
237.689	209.75
237.922	142.75
238.156	141.75
238.39	125.75
238.624	127.75
238.858	130.75
239.091	120.75
239.325	115.75
239.559	136.75
239.793	129.75
240.027	131.75
240.26	137.75
240.494	160.75
240.728	163.75
240.961	154.75
241.195	135.75
241.429	137.75
241.662	132.75
241.896	140.75
242.13	132.75
242.363	138.75
242.597	132.75
242.83	143.75
243.064	147.75
243.298	128.75
243.531	134.75
243.765	143.75
243.998	154.75
244.232	130.75
244.465	132.75
244.699	141.75
244.932	140.75
245.166	146.75
245.399	147.75
245.633	145.75
245.866	151.75
246.099	156.75
246.333	143.75
246.566	157.75
246.8	164.75
247.033	150.75
247.266	149.75
247.5	160.75
247.733	155.75
247.966	163.75
248.2	174.75
248.433	177.75
248.666	187.75
248.899	191.75
249.133	193.75
249.366	213.75
249.599	199.75
249.832	198.75
250.066	182.75
250.299	175.75
250.532	212.75
250.765	227.75
250.998	224.75
251.231	231.75
251.465	204.75
251.698	199.75
251.931	202.75
252.164	204.75
252.397	211.75
252.63	207.75
252.863	206.75
253.096	225.75
253.329	237.75
253.562	213.75
253.795	226.75
254.028	220.75
254.261	193.75
254.494	224.75
254.727	258.75
254.96	296.75
255.193	272.75
255.426	256.75
255.659	248.75
255.892	243.75
256.124	228.75
256.357	233.75
256.59	218.75
256.823	219.75
257.056	217.75
257.289	219.75
257.521	228.75
257.754	205.75
257.987	206.75
258.22	209.75
258.452	209.75
258.685	208.75
258.918	215.75
259.151	222.75
259.383	228.75
259.616	209.75
259.849	225.75
260.081	224.75
260.314	251.75
260.547	259.75
260.779	261.75
261.012	229.75
261.244	223.75
261.477	221.75
261.71	207.75
261.942	235.75
262.175	233.75
262.407	235.75
262.64	223.75
262.872	222.75
263.105	202.75
263.337	202.75
263.57	205.75
263.802	206.75
264.035	204.75
264.267	210.75
264.499	213.75
264.732	220.75
264.964	191.75
265.197	205.75
265.429	205.75
265.661	191.75
265.894	222.75
266.126	227.75
266.358	191.75
266.591	232.75
266.823	232.75
267.055	231.75
267.287	213.75
267.52	220.75
267.752	234.75
267.984	217.75
268.216	221.75
268.448	221.75
268.681	238.75
268.913	238.75
269.145	265.75
269.377	265.75
269.609	253.75
269.841	269.75
270.073	279.75
270.306	286.75
270.538	322.75
270.77	327.75
271.002	282.75
271.234	294.75
271.466	305.75
271.698	299.75
271.93	324.75
272.162	328.75
272.394	323.75
272.626	304.75
272.858	299.75
273.09	297.75
273.322	263.75
273.553	261.75
273.785	266.75
274.017	267.75
274.249	275.75
274.481	248.75
274.713	275.75
274.945	268.75
275.176	261.75
275.408	262.75
275.64	267.75
275.872	287.75
276.104	256.75
276.335	266.75
276.567	262.75
276.799	291.75
277.031	310.75
277.262	300.75
277.494	316.75
277.726	292.75
277.957	290.75
278.189	259.75
278.421	279.75
278.652	260.75
278.884	261.75
279.115	279.75
279.347	245.75
279.579	268.75
279.81	265.75
280.042	256.75
280.273	258.75
280.505	264.75
280.736	263.75
280.968	249.75
281.199	271.75
281.431	263.75
281.662	259.75
281.894	252.75
282.125	261.75
282.356	281.75
282.588	311.75
282.819	311.75
283.051	267.75
283.282	256.75
283.513	262.75
283.745	279.75
283.976	249.75
284.207	271.75
284.439	277.75
284.67	257.75
284.901	279.75
285.132	280.75
285.364	254.75
285.595	283.75
285.826	271.75
286.057	265.75
286.288	257.75
286.52	274.75
286.751	267.75
286.982	263.75
287.213	260.75
287.444	269.75
287.675	285.75
287.906	291.75
288.138	288.75
288.369	289.75
288.6	284.75
288.831	291.75
289.062	287.75
289.293	273.75
289.524	273.75
289.755	282.75
289.986	281.75
290.217	277.75
290.448	282.75
290.679	292.75
290.91	281.75
291.141	271.75
291.371	263.75
291.602	298.75
291.833	275.75
292.064	259.75
292.295	272.75
292.526	268.75
292.757	283.75
292.987	287.75
293.218	291.75
293.449	282.75
293.68	276.75
293.91	281.75
294.141	269.75
294.372	265.75
294.603	286.75
294.833	277.75
295.064	287.75
295.295	266.75
295.525	279.75
295.756	273.75
295.987	297.75
296.217	321.75
296.448	326.75
296.679	306.75
296.909	267.75
297.14	277.75
297.37	269.75
297.601	270.75
297.831	282.75
298.062	287.75
298.292	286.75
298.523	304.75
298.753	277.75
298.984	282.75
299.214	270.75
299.445	276.75
299.675	294.75
299.905	297.75
300.136	291.75
300.366	291.75
300.597	307.75
300.827	325.75
301.057	311.75
301.288	311.75
301.518	300.75
301.748	307.75
301.979	294.75
302.209	297.75
302.439	292.75
302.669	333.75
302.9	313.75
303.13	312.75
303.36	316.75
303.59	306.75
303.82	307.75
304.051	312.75
304.281	315.75
304.511	285.75
304.741	286.75
304.971	303.75
305.201	294.75
305.431	315.75
305.661	317.75
305.891	295.75
306.121	321.75
306.352	309.75
306.582	315.75
306.812	296.75
307.042	313.75
307.272	328.75
307.502	317.75
307.731	302.75
307.961	311.75
308.191	327.75
308.421	323.75
308.651	312.75
308.881	311.75
309.111	332.75
309.341	325.75
309.571	331.75
309.8	355.75
310.03	352.75
310.26	355.75
310.49	379.75
310.72	373.75
310.949	404.75
311.179	387.75
311.409	367.75
311.639	366.75
311.868	355.75
312.098	381.75
312.328	381.75
312.557	399.75
312.787	443.75
313.017	401.75
313.246	362.75
313.476	377.75
313.706	370.75
313.935	374.75
314.165	410.75
314.394	403.75
314.624	390.75
314.853	389.75
315.083	365.75
315.312	367.75
315.542	350.75
315.771	344.75
316.001	353.75
316.23	355.75
316.46	344.75
316.689	370.75
316.919	374.75
317.148	374.75
317.377	372.75
317.607	393.75
317.836	387.75
318.065	361.75
318.295	366.75
318.524	377.75
318.753	356.75
318.983	377.75
319.212	375.75
319.441	385.75
319.67	389.75
319.9	386.75
320.129	397.75
320.358	353.75
320.587	393.75
320.816	385.75
321.046	393.75
321.275	394.75
321.504	389.75
321.733	389.75
321.962	400.75
322.191	409.75
322.42	439.75
322.649	432.75
322.878	472.75
323.108	472.75
323.337	475.75
323.566	512.75
323.795	565.75
324.024	618.75
324.253	761.75
324.482	1088.75
324.71	1721.75
324.939	2492.75
325.168	2175.75
325.397	1115.75
325.626	727.75
325.855	609.75
326.084	555.75
326.313	525.75
326.542	525.75
326.77	579.75
326.999	692.75
327.228	950.75
327.457	1511.75
327.686	1851.75
327.914	1223.75
328.143	806.75
328.372	714.75
328.6	659.75
328.829	578.75
329.058	609.75
329.287	633.75
329.515	577.75
329.744	505.75
329.972	531.75
330.201	567.75
330.43	619.75
330.658	635.75
330.887	687.75
331.115	650.75
331.344	547.75
331.572	515.75
331.801	509.75
332.03	487.75
332.258	478.75
332.486	424.75
332.715	452.75
332.943	450.75
333.172	435.75
333.4	441.75
333.629	436.75
333.857	444.75
334.085	478.75
334.314	485.75
334.542	540.75
334.771	557.75
334.999	514.75
335.227	455.75
335.455	433.75
335.684	437.75
335.912	410.75
336.14	405.75
336.369	426.75
336.597	435.75
336.825	430.75
337.053	435.75
337.281	407.75
337.51	401.75
337.738	414.75
337.966	402.75
338.194	398.75
338.422	429.75
338.65	421.75
338.878	403.75
339.106	412.75
339.334	430.75
339.562	415.75
339.79	405.75
340.018	387.75
340.246	403.75
340.474	414.75
340.702	390.75
340.93	407.75
341.158	381.75
341.386	412.75
341.614	435.75
341.842	400.75
342.07	406.75
342.298	409.75
342.526	403.75
342.754	388.75
342.981	378.75
343.209	393.75
343.437	384.75
343.665	371.75
343.893	387.75
344.12	408.75
344.348	410.75
344.576	401.75
344.804	414.75
345.031	415.75
345.259	435.75
345.487	407.75
345.714	422.75
345.942	402.75
346.17	415.75
346.397	412.75
346.625	405.75
346.853	393.75
347.08	398.75
347.308	395.75
347.535	402.75
347.763	413.75
347.99	438.75
348.218	391.75
348.445	410.75
348.673	404.75
348.9	408.75
349.128	389.75
349.355	379.75
349.583	389.75
349.81	373.75
350.037	374.75
350.265	386.75
350.492	382.75
350.72	363.75
350.947	407.75
351.174	407.75
351.402	416.75
351.629	416.75
351.856	392.75
352.083	406.75
352.311	420.75
352.538	409.75
352.765	402.75
352.992	409.75
353.22	413.75
353.447	389.75
353.674	379.75
353.901	364.75
354.128	375.75
354.355	367.75
354.583	389.75
354.81	367.75
355.037	361.75
355.264	368.75
355.491	346.75
355.718	356.75
355.945	362.75
356.172	358.75
356.399	357.75
356.626	349.75
356.853	365.75
357.08	345.75
357.307	354.75
357.534	338.75
357.761	358.75
357.988	346.75
358.215	360.75
358.441	362.75
358.668	374.75
358.895	364.75
359.122	358.75
359.349	391.75
359.576	403.75
359.802	411.75
360.029	442.75
360.256	469.75
360.483	428.75
360.709	395.75
360.936	406.75
361.163	403.75
361.39	387.75
361.616	401.75
361.843	390.75
362.07	385.75
362.296	385.75
362.523	400.75
362.749	390.75
362.976	387.75
363.203	383.75
363.429	382.75
363.656	374.75
363.882	365.75
364.109	357.75
364.335	362.75
364.562	371.75
364.788	382.75
365.015	365.75
365.241	361.75
365.468	365.75
365.694	398.75
365.92	385.75
366.147	375.75
366.373	382.75
366.599	379.75
366.826	368.75
367.052	377.75
367.278	372.75
367.505	352.75
367.731	365.75
367.957	355.75
368.184	369.75
368.41	359.75
368.636	373.75
368.862	385.75
369.089	357.75
369.315	359.75
369.541	356.75
369.767	367.75
369.993	388.75
370.219	366.75
370.445	359.75
370.672	353.75
370.898	340.75
371.124	354.75
371.35	357.75
371.576	345.75
371.802	363.75
372.028	369.75
372.254	363.75
372.48	370.75
372.706	376.75
372.932	366.75
373.158	359.75
373.384	364.75
373.61	360.75
373.835	354.75
374.061	360.75
374.287	338.75
374.513	354.75
374.739	373.75
374.965	357.75
375.191	345.75
375.416	364.75
375.642	357.75
375.868	366.75
376.094	358.75
376.319	346.75
376.545	362.75
376.771	358.75
376.997	363.75
377.222	350.75
377.448	350.75
377.674	347.75
377.899	366.75
378.125	346.75
378.35	355.75
378.576	357.75
378.802	354.75
379.027	345.75
379.253	361.75
379.478	363.75
379.704	359.75
379.929	360.75
380.155	357.75
380.38	355.75
380.606	359.75
380.831	368.75
381.057	350.75
381.282	355.75
381.507	347.75
381.733	366.75
381.958	348.75
382.184	364.75
382.409	375.75
382.634	369.75
382.86	369.75
383.085	377.75
383.31	363.75
383.535	379.75
383.761	361.75
383.986	364.75
384.211	365.75
384.436	366.75
384.662	389.75
384.887	385.75
385.112	375.75
385.337	349.75
385.562	377.75
385.787	356.75
386.013	371.75
386.238	385.75
386.463	386.75
386.688	383.75
386.913	378.75
387.138	370.75
387.363	383.75
387.588	361.75
387.813	374.75
388.038	383.75
388.263	405.75
388.488	383.75
388.713	370.75
388.938	373.75
389.163	389.75
389.387	374.75
389.612	361.75
389.837	391.75
390.062	367.75
390.287	387.75
390.512	385.75
390.736	383.75
390.961	385.75
391.186	394.75
391.411	388.75
391.636	396.75
391.86	398.75
392.085	387.75
392.31	371.75
392.534	411.75
392.759	391.75
392.984	390.75
393.208	374.75
393.433	406.75
393.658	407.75
393.882	386.75
394.107	389.75
394.331	388.75
394.556	379.75
394.78	386.75
395.005	377.75
395.229	373.75
395.454	390.75
395.678	382.75
395.903	398.75
396.127	420.75
396.352	413.75
396.576	408.75
396.801	403.75
397.025	397.75
397.249	403.75
397.474	410.75
397.698	408.75
397.922	434.75
398.147	423.75
398.371	425.75
398.595	408.75
398.82	414.75
399.044	427.75
399.268	410.75
399.492	459.75
399.717	472.75
399.941	485.75
400.165	530.75
400.389	548.75
400.613	503.75
400.837	449.75
401.062	450.75
401.286	437.75
401.51	422.75
401.734	440.75
401.958	435.75
402.182	430.75
402.406	439.75
402.63	449.75
402.854	422.75
403.078	429.75
403.302	406.75
403.526	455.75
403.75	415.75
403.974	423.75
404.198	433.75
404.422	447.75
404.645	481.75
404.869	449.75
405.093	509.75
405.317	524.75
405.541	549.75
405.765	513.75
405.988	488.75
406.212	484.75
406.436	491.75
406.66	521.75
406.883	485.75
407.107	507.75
407.331	547.75
407.555	622.75
407.778	638.75
408.002	544.75
408.226	525.75
408.449	509.75
408.673	497.75
408.896	533.75
409.12	564.75
409.344	529.75
409.567	489.75
409.791	481.75
410.014	453.75
410.238	440.75
410.461	450.75
410.685	442.75
410.908	476.75
411.132	515.75
411.355	539.75
411.578	527.75
411.802	451.75
412.025	451.75
412.249	455.75
412.472	478.75
412.695	504.75
412.919	515.75
413.142	478.75
413.365	462.75
413.589	445.75
413.812	436.75
414.035	413.75
414.258	434.75
414.482	417.75
414.705	417.75
414.928	415.75
415.151	423.75
415.374	400.75
415.597	411.75
415.821	421.75
416.044	419.75
416.267	428.75
416.49	424.75
416.713	396.75
416.936	413.75
417.159	411.75
417.382	423.75
417.605	409.75
417.828	445.75
418.051	444.75
418.274	429.75
418.497	422.75
418.72	432.75
418.943	418.75
419.166	433.75
419.389	448.75
419.611	436.75
419.834	441.75
420.057	464.75
420.28	457.75
420.503	442.75
420.726	475.75
420.948	459.75
421.171	519.75
421.394	554.75
421.617	503.75
421.839	456.75
422.062	451.75
422.285	494.75
422.507	518.75
422.73	617.75
422.953	595.75
423.175	497.75
423.398	493.75
423.621	472.75
423.843	489.75
424.066	476.75
424.288	473.75
424.511	514.75
424.733	554.75
424.956	668.75
425.178	627.75
425.401	627.75
425.623	637.75
425.846	563.75
426.068	500.75
426.291	524.75
426.513	514.75
426.735	511.75
426.958	535.75
427.18	631.75
427.402	789.75
427.625	852.75
427.847	759.75
428.069	645.75
428.292	566.75
428.514	519.75
428.736	485.75
428.958	483.75
429.181	453.75
429.403	458.75
429.625	452.75
429.847	524.75
430.069	576.75
430.292	594.75
430.514	506.75
430.736	453.75
430.958	449.75
431.18	439.75
431.402	449.75
431.624	430.75
431.846	421.75
432.068	402.75
432.29	428.75
432.512	418.75
432.734	428.75
432.956	422.75
433.178	443.75
433.4	452.75
433.622	449.75
433.844	440.75
434.066	428.75
434.287	415.75
434.509	441.75
434.731	425.75
434.953	434.75
435.175	456.75
435.397	475.75
435.618	500.75
435.84	545.75
436.062	638.75
436.284	739.75
436.505	592.75
436.727	529.75
436.949	461.75
437.17	452.75
437.392	449.75
437.614	487.75
437.835	503.75
438.057	615.75
438.278	750.75
438.5	742.75
438.721	796.75
438.943	739.75
439.165	589.75
439.386	539.75
439.608	529.75
439.829	532.75
440.05	568.75
440.272	620.75
440.493	551.75
440.715	510.75
440.936	514.75
441.158	461.75
441.379	457.75
441.6	492.75
441.822	515.75
442.043	535.75
442.264	626.75
442.486	674.75
442.707	575.75
442.928	521.75
443.149	524.75
443.371	542.75
443.592	611.75
443.813	675.75
444.034	754.75
444.255	611.75
444.476	540.75
444.698	495.75
444.919	503.75
445.14	618.75
445.361	563.75
445.582	558.75
445.803	608.75
446.024	733.75
446.245	765.75
446.466	692.75
446.687	564.75
446.908	526.75
447.129	474.75
447.35	472.75
447.571	467.75
447.792	478.75
448.013	467.75
448.234	510.75
448.455	549.75
448.675	665.75
448.896	803.75
449.117	662.75
449.338	634.75
449.559	728.75
449.779	814.75
450	635.75
450.221	536.75
450.442	486.75
450.662	478.75
450.883	478.75
451.104	470.75
451.324	467.75
451.545	453.75
451.766	439.75
451.986	410.75
452.207	426.75
452.428	426.75
452.648	419.75
452.869	429.75
453.089	433.75
453.31	455.75
453.53	436.75
453.751	430.75
453.971	401.75
454.192	451.75
454.412	444.75
454.633	400.75
454.853	395.75
455.073	407.75
455.294	449.75
455.514	513.75
455.734	519.75
455.955	434.75
456.175	411.75
456.395	393.75
456.616	381.75
456.836	382.75
457.056	398.75
457.276	385.75
457.497	376.75
457.717	382.75
457.937	412.75
458.157	403.75
458.377	390.75
458.598	429.75
458.818	473.75
459.038	577.75
459.258	613.75
459.478	487.75
459.698	454.75
459.918	417.75
460.138	427.75
460.358	431.75
460.578	422.75
460.798	441.75
461.018	422.75
461.238	428.75
461.458	445.75
461.678	420.75
461.898	433.75
462.118	419.75
462.338	429.75
462.558	435.75
462.777	425.75
462.997	453.75
463.217	445.75
463.437	448.75
463.657	462.75
463.876	430.75
464.096	466.75
464.316	458.75
464.536	463.75
464.755	454.75
464.975	451.75
465.195	523.75
465.414	603.75
465.634	534.75
465.854	465.75
466.073	426.75
466.293	445.75
466.512	435.75
466.732	431.75
466.951	408.75
467.171	418.75
467.391	395.75
467.61	447.75
467.829	425.75
468.049	427.75
468.268	454.75
468.488	428.75
468.707	431.75
468.927	391.75
469.146	416.75
469.365	407.75
469.585	411.75
469.804	410.75
470.023	417.75
470.243	420.75
470.462	433.75
470.681	458.75
470.901	442.75
471.12	438.75
471.339	415.75
471.558	435.75
471.777	427.75
471.997	435.75
472.216	430.75
472.435	474.75
472.654	485.75
472.873	441.75
473.092	439.75
473.311	445.75
473.53	419.75
473.749	449.75
473.968	469.75
474.187	589.75
474.406	621.75
474.625	485.75
474.844	441.75
475.063	427.75
475.282	443.75
475.501	421.75
475.72	439.75
475.939	438.75
476.158	432.75
476.377	438.75
476.596	443.75
476.814	446.75
477.033	454.75
477.252	457.75
477.471	455.75
477.69	437.75
477.908	478.75
478.127	445.75
478.346	452.75
478.564	484.75
478.783	474.75
479.002	472.75
479.22	475.75
479.439	486.75
479.658	529.75
479.876	520.75
480.095	519.75
480.313	547.75
480.532	535.75
480.751	542.75
480.969	534.75
481.188	618.75
481.406	650.75
481.624	562.75
481.843	525.75
482.061	531.75
482.28	525.75
482.498	490.75
482.717	493.75
482.935	492.75
483.153	501.75
483.372	497.75
483.59	509.75
483.808	501.75
484.027	498.75
484.245	504.75
484.463	494.75
484.681	521.75
484.9	499.75
485.118	491.75
485.336	519.75
485.554	531.75
485.772	523.75
485.99	509.75
486.209	506.75
486.427	539.75
486.645	544.75
486.863	550.75
487.081	574.75
487.299	551.75
487.517	539.75
487.735	539.75
487.953	539.75
488.171	541.75
488.389	540.75
488.607	534.75
488.825	521.75
489.043	540.75
489.261	559.75
489.479	543.75
489.696	543.75
489.914	551.75
490.132	558.75
490.35	569.75
490.568	551.75
490.786	581.75
491.003	580.75
491.221	572.75
491.439	604.75
491.657	596.75
491.874	600.75
492.092	606.75
492.31	633.75
492.527	615.75
492.745	619.75
492.963	633.75
493.18	630.75
493.398	650.75
493.615	648.75
493.833	639.75
494.05	649.75
494.268	644.75
494.485	642.75
494.703	656.75
494.92	630.75
495.138	649.75
495.355	643.75
495.573	643.75
495.79	626.75
496.008	640.75
496.225	645.75
496.442	647.75
496.66	636.75
496.877	654.75
497.094	642.75
497.312	650.75
497.529	644.75
497.746	651.75
497.963	663.75
498.181	686.75
498.398	693.75
498.615	674.75
498.832	702.75
499.049	712.75
499.267	702.75
499.484	713.75
499.701	734.75
499.918	742.75
500.135	775.75
500.352	779.75
500.569	814.75
500.786	817.75
501.003	798.75
501.22	765.75
501.437	806.75
501.654	797.75
501.871	770.75
502.088	789.75
