Data from 1972.PennyLincolnUp.Lamp.En5.5.200Scan.071719.P1._HRD10591_15-26-52-843.txt Node
Date: Thu Jul 18 15:26:52 EDT 2019
User: cochatt
Spectrometer: HR+D1059
Trigger mode: 1
Integration Time (sec): 1.000000E-1
Scans to average: 1
Electric dark correction enabled: true
Nonlinearity correction enabled: false
Boxcar width: 0
XAxis mode: Wavelengths
Number of Pixels in Spectrum: 2048
>>>>>Begin Spectral Data<<<<<
223.165	-7.94
223.4	-7.94
223.635	-7.94
223.869	-6.94
224.104	-22.94
224.338	-32.94
224.573	-10.94
224.808	-14.94
225.042	-11.94
225.277	-3.94
225.511	-3.94
225.746	-0.94
225.98	9.06
226.215	12.06
226.449	20.06
226.683	16.06
226.918	22.06
227.152	38.06
227.387	44.06
227.621	23.06
227.856	43.06
228.09	50.06
228.324	68.06
228.559	48.06
228.793	73.06
229.027	91.06
229.262	95.06
229.496	93.06
229.73	126.06
229.964	132.06
230.199	123.06
230.433	94.06
230.667	100.06
230.901	105.06
231.136	98.06
231.37	110.06
231.604	110.06
231.838	107.06
232.072	107.06
232.306	113.06
232.541	101.06
232.775	117.06
233.009	112.06
233.243	125.06
233.477	112.06
233.711	106.06
233.945	123.06
234.179	102.06
234.413	113.06
234.647	105.06
234.881	122.06
235.115	100.06
235.349	98.06
235.583	104.06
235.817	116.06
236.051	113.06
236.285	121.06
236.519	116.06
236.753	141.06
236.987	140.06
237.221	145.06
237.455	211.06
237.689	162.06
237.922	132.06
238.156	121.06
238.39	116.06
238.624	86.06
238.858	118.06
239.091	113.06
239.325	124.06
239.559	121.06
239.793	129.06
240.027	115.06
240.26	122.06
240.494	136.06
240.728	130.06
240.961	145.06
241.195	129.06
241.429	133.06
241.662	121.06
241.896	121.06
242.13	127.06
242.363	130.06
242.597	138.06
242.83	116.06
243.064	136.06
243.298	127.06
243.531	129.06
243.765	119.06
243.998	128.06
244.232	139.06
244.465	138.06
244.699	130.06
244.932	127.06
245.166	119.06
245.399	139.06
245.633	138.06
245.866	134.06
246.099	147.06
246.333	138.06
246.566	132.06
246.8	143.06
247.033	153.06
247.266	161.06
247.5	135.06
247.733	154.06
247.966	148.06
248.2	164.06
248.433	161.06
248.666	157.06
248.899	147.06
249.133	174.06
249.366	188.06
249.599	182.06
249.832	158.06
250.066	150.06
250.299	169.06
250.532	166.06
250.765	175.06
250.998	183.06
251.231	196.06
251.465	193.06
251.698	176.06
251.931	177.06
252.164	184.06
252.397	180.06
252.63	182.06
252.863	189.06
253.096	176.06
253.329	194.06
253.562	194.06
253.795	190.06
254.028	193.06
254.261	194.06
254.494	177.06
254.727	209.06
254.96	235.06
255.193	241.06
255.426	205.06
255.659	214.06
255.892	203.06
256.124	201.06
256.357	200.06
256.59	207.06
256.823	197.06
257.056	176.06
257.289	178.06
257.521	191.06
257.754	202.06
257.987	192.06
258.22	193.06
258.452	184.06
258.685	195.06
258.918	186.06
259.151	177.06
259.383	180.06
259.616	199.06
259.849	197.06
260.081	220.06
260.314	216.06
260.547	219.06
260.779	203.06
261.012	205.06
261.244	191.06
261.477	202.06
261.71	197.06
261.942	212.06
262.175	205.06
262.407	183.06
262.64	196.06
262.872	186.06
263.105	176.06
263.337	184.06
263.57	185.06
263.802	174.06
264.035	178.06
264.267	180.06
264.499	188.06
264.732	184.06
264.964	184.06
265.197	177.06
265.429	189.06
265.661	197.06
265.894	190.06
266.126	192.06
266.358	195.06
266.591	194.06
266.823	196.06
267.055	190.06
267.287	201.06
267.52	193.06
267.752	204.06
267.984	196.06
268.216	200.06
268.448	207.06
268.681	198.06
268.913	224.06
269.145	208.06
269.377	213.06
269.609	223.06
269.841	226.06
270.073	232.06
270.306	229.06
270.538	255.06
270.77	262.06
271.002	229.06
271.234	243.06
271.466	251.06
271.698	238.06
271.93	276.06
272.162	267.06
272.394	245.06
272.626	248.06
272.858	247.06
273.09	253.06
273.322	225.06
273.553	225.06
273.785	227.06
274.017	232.06
274.249	228.06
274.481	229.06
274.713	237.06
274.945	238.06
275.176	233.06
275.408	216.06
275.64	209.06
275.872	229.06
276.104	213.06
276.335	219.06
276.567	205.06
276.799	245.06
277.031	249.06
277.262	247.06
277.494	264.06
277.726	244.06
277.957	241.06
278.189	244.06
278.421	232.06
278.652	221.06
278.884	217.06
279.115	223.06
279.347	221.06
279.579	240.06
279.81	244.06
280.042	233.06
280.273	231.06
280.505	204.06
280.736	215.06
280.968	232.06
281.199	232.06
281.431	213.06
281.662	231.06
281.894	223.06
282.125	231.06
282.356	237.06
282.588	245.06
282.819	260.06
283.051	213.06
283.282	218.06
283.513	223.06
283.745	226.06
283.976	224.06
284.207	228.06
284.439	236.06
284.67	234.06
284.901	221.06
285.132	226.06
285.364	221.06
285.595	228.06
285.826	233.06
286.057	239.06
286.288	223.06
286.52	218.06
286.751	236.06
286.982	248.06
287.213	232.06
287.444	237.06
287.675	238.06
287.906	244.06
288.138	241.06
288.369	258.06
288.6	262.06
288.831	241.06
289.062	213.06
289.293	240.06
289.524	224.06
289.755	241.06
289.986	239.06
290.217	232.06
290.448	217.06
290.679	232.06
290.91	245.06
291.141	224.06
291.371	238.06
291.602	246.06
291.833	221.06
292.064	227.06
292.295	245.06
292.526	251.06
292.757	231.06
292.987	232.06
293.218	245.06
293.449	238.06
293.68	219.06
293.91	241.06
294.141	250.06
294.372	241.06
294.603	232.06
294.833	235.06
295.064	246.06
295.295	234.06
295.525	232.06
295.756	233.06
295.987	246.06
296.217	267.06
296.448	255.06
296.679	257.06
296.909	247.06
297.14	255.06
297.37	247.06
297.601	253.06
297.831	229.06
298.062	249.06
298.292	235.06
298.523	266.06
298.753	239.06
298.984	258.06
299.214	244.06
299.445	248.06
299.675	242.06
299.905	268.06
300.136	265.06
300.366	231.06
300.597	244.06
300.827	266.06
301.057	264.06
301.288	269.06
301.518	267.06
301.748	260.06
301.979	268.06
302.209	277.06
302.439	248.06
302.669	251.06
302.9	269.06
303.13	265.06
303.36	254.06
303.59	274.06
303.82	261.06
304.051	272.06
304.281	278.06
304.511	271.06
304.741	246.06
304.971	247.06
305.201	254.06
305.431	272.06
305.661	273.06
305.891	247.06
306.121	244.06
306.352	259.06
306.582	278.06
306.812	284.06
307.042	284.06
307.272	281.06
307.502	288.06
307.731	269.06
307.961	270.06
308.191	268.06
308.421	284.06
308.651	269.06
308.881	266.06
309.111	264.06
309.341	278.06
309.571	280.06
309.8	279.06
310.03	288.06
310.26	285.06
310.49	303.06
310.72	299.06
310.949	309.06
311.179	313.06
311.409	294.06
311.639	289.06
311.868	298.06
312.098	299.06
312.328	310.06
312.557	320.06
312.787	308.06
313.017	332.06
313.246	318.06
313.476	299.06
313.706	309.06
313.935	323.06
314.165	313.06
314.394	311.06
314.624	312.06
314.853	330.06
315.083	316.06
315.312	314.06
315.542	297.06
315.771	275.06
316.001	294.06
316.23	306.06
316.46	297.06
316.689	292.06
316.919	302.06
317.148	315.06
317.377	302.06
317.607	310.06
317.836	310.06
318.065	299.06
318.295	316.06
318.524	292.06
318.753	310.06
318.983	309.06
319.212	308.06
319.441	308.06
319.67	297.06
319.9	327.06
320.129	313.06
320.358	313.06
320.587	314.06
320.816	315.06
321.046	315.06
321.275	312.06
321.504	314.06
321.733	311.06
321.962	332.06
322.191	328.06
322.42	329.06
322.649	353.06
322.878	366.06
323.108	348.06
323.337	367.06
323.566	382.06
323.795	406.06
324.024	436.06
324.253	519.06
324.482	723.06
324.71	1135.06
324.939	1613.06
325.168	1458.06
325.397	714.06
325.626	508.06
325.855	446.06
326.084	406.06
326.313	402.06
326.542	382.06
326.77	432.06
326.999	500.06
327.228	680.06
327.457	958.06
327.686	1245.06
327.914	835.06
328.143	537.06
328.372	469.06
328.6	441.06
328.829	433.06
329.058	421.06
329.287	434.06
329.515	424.06
329.744	409.06
329.972	372.06
330.201	410.06
330.43	425.06
330.658	458.06
330.887	476.06
331.115	432.06
331.344	398.06
331.572	385.06
331.801	382.06
332.03	372.06
332.258	381.06
332.486	370.06
332.715	342.06
332.943	349.06
333.172	349.06
333.4	344.06
333.629	339.06
333.857	363.06
334.085	360.06
334.314	376.06
334.542	392.06
334.771	390.06
334.999	389.06
335.227	358.06
335.455	363.06
335.684	351.06
335.912	364.06
336.14	350.06
336.369	349.06
336.597	367.06
336.825	369.06
337.053	349.06
337.281	358.06
337.51	359.06
337.738	340.06
337.966	331.06
338.194	345.06
338.422	349.06
338.65	356.06
338.878	341.06
339.106	336.06
339.334	331.06
339.562	333.06
339.79	337.06
340.018	343.06
340.246	332.06
340.474	340.06
340.702	335.06
340.93	342.06
341.158	332.06
341.386	336.06
341.614	356.06
341.842	338.06
342.07	331.06
342.298	346.06
342.526	348.06
342.754	329.06
342.981	320.06
343.209	326.06
343.437	342.06
343.665	337.06
343.893	346.06
344.12	363.06
344.348	340.06
344.576	349.06
344.804	349.06
345.031	366.06
345.259	342.06
345.487	339.06
345.714	324.06
345.942	339.06
346.17	325.06
346.397	328.06
346.625	333.06
346.853	328.06
347.08	322.06
347.308	327.06
347.535	345.06
347.763	338.06
347.99	343.06
348.218	329.06
348.445	329.06
348.673	330.06
348.9	315.06
349.128	313.06
349.355	344.06
349.583	322.06
349.81	331.06
350.037	322.06
350.265	332.06
350.492	318.06
350.72	333.06
350.947	319.06
351.174	333.06
351.402	344.06
351.629	342.06
351.856	331.06
352.083	341.06
352.311	346.06
352.538	345.06
352.765	346.06
352.992	341.06
353.22	330.06
353.447	336.06
353.674	322.06
353.901	318.06
354.128	314.06
354.355	325.06
354.583	315.06
354.81	313.06
355.037	291.06
355.264	307.06
355.491	305.06
355.718	299.06
355.945	314.06
356.172	321.06
356.399	311.06
356.626	308.06
356.853	293.06
357.08	305.06
357.307	297.06
357.534	323.06
357.761	316.06
357.988	327.06
358.215	282.06
358.441	318.06
358.668	299.06
358.895	305.06
359.122	305.06
359.349	327.06
359.576	356.06
359.802	332.06
360.029	349.06
360.256	353.06
360.483	352.06
360.709	351.06
360.936	331.06
361.163	326.06
361.39	327.06
361.616	329.06
361.843	335.06
362.07	310.06
362.296	320.06
362.523	325.06
362.749	330.06
362.976	328.06
363.203	310.06
363.429	304.06
363.656	310.06
363.882	310.06
364.109	310.06
364.335	324.06
364.562	315.06
364.788	308.06
365.015	307.06
365.241	305.06
365.468	320.06
365.694	314.06
365.92	330.06
366.147	325.06
366.373	321.06
366.599	303.06
366.826	320.06
367.052	306.06
367.278	319.06
367.505	314.06
367.731	315.06
367.957	312.06
368.184	332.06
368.41	329.06
368.636	333.06
368.862	323.06
369.089	338.06
369.315	309.06
369.541	333.06
369.767	325.06
369.993	312.06
370.219	312.06
370.445	311.06
370.672	302.06
370.898	319.06
371.124	314.06
371.35	321.06
371.576	312.06
371.802	310.06
372.028	334.06
372.254	326.06
372.48	305.06
372.706	317.06
372.932	322.06
373.158	321.06
373.384	323.06
373.61	320.06
373.835	304.06
374.061	340.06
374.287	330.06
374.513	313.06
374.739	317.06
374.965	314.06
375.191	323.06
375.416	320.06
375.642	326.06
375.868	315.06
376.094	308.06
376.319	312.06
376.545	312.06
376.771	322.06
376.997	313.06
377.222	317.06
377.448	315.06
377.674	300.06
377.899	312.06
378.125	314.06
378.35	320.06
378.576	304.06
378.802	313.06
379.027	287.06
379.253	324.06
379.478	317.06
379.704	333.06
379.929	329.06
380.155	304.06
380.38	334.06
380.606	321.06
380.831	331.06
381.057	318.06
381.282	306.06
381.507	318.06
381.733	318.06
381.958	313.06
382.184	313.06
382.409	314.06
382.634	318.06
382.86	331.06
383.085	321.06
383.31	309.06
383.535	303.06
383.761	341.06
383.986	332.06
384.211	345.06
384.436	331.06
384.662	327.06
384.887	348.06
385.112	345.06
385.337	342.06
385.562	323.06
385.787	342.06
386.013	362.06
386.238	340.06
386.463	334.06
386.688	332.06
386.913	346.06
387.138	330.06
387.363	345.06
387.588	326.06
387.813	330.06
388.038	334.06
388.263	317.06
388.488	340.06
388.713	341.06
388.938	346.06
389.163	343.06
389.387	337.06
389.612	343.06
389.837	335.06
390.062	326.06
390.287	348.06
390.512	348.06
390.736	324.06
390.961	333.06
391.186	335.06
391.411	330.06
391.636	335.06
391.86	325.06
392.085	362.06
392.31	348.06
392.534	343.06
392.759	350.06
392.984	360.06
393.208	378.06
393.433	389.06
393.658	388.06
393.882	336.06
394.107	353.06
394.331	350.06
394.556	333.06
394.78	336.06
395.005	339.06
395.229	337.06
395.454	353.06
395.678	354.06
395.903	368.06
396.127	360.06
396.352	364.06
396.576	382.06
396.801	382.06
397.025	396.06
397.249	380.06
397.474	358.06
397.698	383.06
397.922	376.06
398.147	381.06
398.371	374.06
398.595	385.06
398.82	361.06
399.044	369.06
399.268	398.06
399.492	390.06
399.717	441.06
399.941	432.06
400.165	467.06
400.389	465.06
400.613	449.06
400.837	394.06
401.062	394.06
401.286	387.06
401.51	400.06
401.734	381.06
401.958	388.06
402.182	386.06
402.406	392.06
402.63	388.06
402.854	391.06
403.078	391.06
403.302	382.06
403.526	413.06
403.75	375.06
403.974	386.06
404.198	393.06
404.422	384.06
404.645	412.06
404.869	415.06
405.093	406.06
405.317	445.06
405.541	473.06
405.765	433.06
405.988	403.06
406.212	406.06
406.436	416.06
406.66	454.06
406.883	444.06
407.107	433.06
407.331	478.06
407.555	530.06
407.778	515.06
408.002	462.06
408.226	457.06
408.449	431.06
408.673	441.06
408.896	454.06
409.12	488.06
409.344	453.06
409.567	422.06
409.791	413.06
410.014	389.06
410.238	400.06
410.461	399.06
410.685	409.06
410.908	392.06
411.132	430.06
411.355	476.06
411.578	446.06
411.802	433.06
412.025	410.06
412.249	415.06
412.472	433.06
412.695	440.06
412.919	432.06
413.142	389.06
413.365	401.06
413.589	369.06
413.812	369.06
414.035	383.06
414.258	374.06
414.482	379.06
414.705	360.06
414.928	353.06
415.151	365.06
415.374	376.06
415.597	378.06
415.821	373.06
416.044	378.06
416.267	359.06
416.49	375.06
416.713	386.06
416.936	372.06
417.159	378.06
417.382	385.06
417.605	364.06
417.828	384.06
418.051	409.06
418.274	390.06
418.497	380.06
418.72	381.06
418.943	365.06
419.166	378.06
419.389	387.06
419.611	389.06
419.834	409.06
420.057	398.06
420.28	398.06
420.503	366.06
420.726	370.06
420.948	405.06
421.171	456.06
421.394	472.06
421.617	403.06
421.839	376.06
422.062	398.06
422.285	392.06
422.507	441.06
422.73	503.06
422.953	482.06
423.175	439.06
423.398	420.06
423.621	415.06
423.843	427.06
424.066	440.06
424.288	435.06
424.511	449.06
424.733	476.06
424.956	540.06
425.178	519.06
425.401	530.06
425.623	549.06
425.846	474.06
426.068	427.06
426.291	420.06
426.513	401.06
426.735	444.06
426.958	473.06
427.18	520.06
427.402	642.06
427.625	702.06
427.847	591.06
428.069	539.06
428.292	466.06
428.514	430.06
428.736	425.06
428.958	412.06
429.181	398.06
429.403	400.06
429.625	395.06
429.847	434.06
430.069	484.06
430.292	491.06
430.514	424.06
430.736	401.06
430.958	370.06
431.18	372.06
431.402	361.06
431.624	374.06
431.846	380.06
432.068	357.06
432.29	380.06
432.512	380.06
432.734	381.06
432.956	367.06
433.178	390.06
433.4	378.06
433.622	350.06
433.844	379.06
434.066	356.06
434.287	380.06
434.509	360.06
434.731	361.06
434.953	386.06
435.175	380.06
435.397	415.06
435.618	421.06
435.84	449.06
436.062	553.06
436.284	603.06
436.505	478.06
436.727	452.06
436.949	426.06
437.17	392.06
437.392	400.06
437.614	418.06
437.835	433.06
438.057	485.06
438.278	600.06
438.5	583.06
438.721	641.06
438.943	612.06
439.165	473.06
439.386	453.06
439.608	440.06
439.829	433.06
440.05	457.06
440.272	506.06
440.493	467.06
440.715	423.06
440.936	420.06
441.158	388.06
441.379	416.06
441.6	423.06
441.822	432.06
442.043	453.06
442.264	530.06
442.486	555.06
442.707	479.06
442.928	445.06
443.149	428.06
443.371	475.06
443.592	469.06
443.813	586.06
444.034	623.06
444.255	498.06
444.476	460.06
444.698	418.06
444.919	413.06
445.14	528.06
445.361	469.06
445.582	465.06
445.803	515.06
446.024	589.06
446.245	598.06
446.466	555.06
446.687	486.06
446.908	428.06
447.129	425.06
447.35	406.06
447.571	387.06
447.792	401.06
448.013	422.06
448.234	417.06
448.455	463.06
448.675	547.06
448.896	647.06
449.117	544.06
449.338	506.06
449.559	608.06
449.779	698.06
450	528.06
450.221	440.06
450.442	416.06
450.662	412.06
450.883	393.06
451.104	389.06
451.324	384.06
451.545	374.06
451.766	378.06
451.986	335.06
452.207	358.06
452.428	331.06
452.648	364.06
452.869	354.06
453.089	366.06
453.31	377.06
453.53	376.06
453.751	353.06
453.971	378.06
454.192	363.06
454.412	368.06
454.633	354.06
454.853	368.06
455.073	346.06
455.294	375.06
455.514	416.06
455.734	404.06
455.955	363.06
456.175	364.06
456.395	339.06
456.616	342.06
456.836	337.06
457.056	337.06
457.276	337.06
457.497	352.06
457.717	326.06
457.937	347.06
458.157	329.06
458.377	353.06
458.598	370.06
458.818	397.06
459.038	467.06
459.258	484.06
459.478	426.06
459.698	385.06
459.918	365.06
460.138	372.06
460.358	348.06
460.578	369.06
460.798	393.06
461.018	402.06
461.238	389.06
461.458	384.06
461.678	362.06
461.898	381.06
462.118	394.06
462.338	388.06
462.558	405.06
462.777	377.06
462.997	380.06
463.217	405.06
463.437	390.06
463.657	406.06
463.876	407.06
464.096	389.06
464.316	384.06
464.536	390.06
464.755	373.06
464.975	402.06
465.195	422.06
465.414	472.06
465.634	408.06
465.854	416.06
466.073	379.06
466.293	361.06
466.512	365.06
466.732	371.06
466.951	352.06
467.171	361.06
467.391	360.06
467.61	366.06
467.829	366.06
468.049	373.06
468.268	372.06
468.488	352.06
468.707	365.06
468.927	344.06
469.146	369.06
469.365	358.06
469.585	346.06
469.804	372.06
470.023	369.06
470.243	361.06
470.462	378.06
470.681	366.06
470.901	359.06
471.12	354.06
471.339	372.06
471.558	363.06
471.777	352.06
471.997	372.06
472.216	377.06
472.435	388.06
472.654	379.06
472.873	373.06
473.092	389.06
473.311	371.06
473.53	373.06
473.749	369.06
473.968	399.06
474.187	485.06
474.406	505.06
474.625	422.06
474.844	391.06
475.063	362.06
475.282	385.06
475.501	380.06
475.72	374.06
475.939	365.06
476.158	368.06
476.377	384.06
476.596	348.06
476.814	383.06
477.033	392.06
477.252	401.06
477.471	396.06
477.69	403.06
477.908	406.06
478.127	403.06
478.346	397.06
478.564	378.06
478.783	410.06
479.002	431.06
479.22	416.06
479.439	420.06
479.658	411.06
479.876	433.06
480.095	440.06
480.313	458.06
480.532	442.06
480.751	420.06
480.969	465.06
481.188	488.06
481.406	494.06
481.624	487.06
481.843	444.06
482.061	453.06
482.28	444.06
482.498	434.06
482.717	417.06
482.935	424.06
483.153	429.06
483.372	425.06
483.59	425.06
483.808	430.06
484.027	414.06
484.245	444.06
484.463	411.06
484.681	448.06
484.9	442.06
485.118	433.06
485.336	439.06
485.554	446.06
485.772	458.06
485.99	437.06
486.209	464.06
486.427	440.06
486.645	448.06
486.863	469.06
487.081	462.06
487.299	444.06
487.517	462.06
487.735	459.06
487.953	456.06
488.171	457.06
488.389	457.06
488.607	459.06
488.825	465.06
489.043	472.06
489.261	475.06
489.479	473.06
489.696	471.06
489.914	473.06
490.132	482.06
490.35	496.06
490.568	491.06
490.786	495.06
491.003	513.06
491.221	500.06
491.439	515.06
491.657	489.06
491.874	542.06
492.092	534.06
492.31	522.06
492.527	529.06
492.745	497.06
492.963	535.06
493.18	520.06
493.398	541.06
493.615	568.06
493.833	537.06
494.05	544.06
494.268	566.06
494.485	515.06
494.703	545.06
494.92	535.06
495.138	528.06
495.355	543.06
495.573	538.06
495.79	518.06
496.008	542.06
496.225	553.06
496.442	536.06
496.66	550.06
496.877	544.06
497.094	543.06
497.312	553.06
497.529	571.06
497.746	569.06
497.963	568.06
498.181	588.06
498.398	589.06
498.615	595.06
498.832	601.06
499.049	604.06
499.267	596.06
499.484	629.06
499.701	644.06
499.918	670.06
500.135	676.06
500.352	670.06
500.569	688.06
500.786	737.06
501.003	711.06
501.22	705.06
501.437	696.06
501.654	689.06
501.871	683.06
502.088	686.06
