Data from 1972.PennyLincolnUp.Lamp.En5.5.200Scan.071719.P1._HRD10591_15-28-51-844.txt Node
Date: Thu Jul 18 15:28:51 EDT 2019
User: cochatt
Spectrometer: HR+D1059
Trigger mode: 1
Integration Time (sec): 1.000000E-1
Scans to average: 1
Electric dark correction enabled: true
Nonlinearity correction enabled: false
Boxcar width: 0
XAxis mode: Wavelengths
Number of Pixels in Spectrum: 2048
>>>>>Begin Spectral Data<<<<<
223.165	-19.25
223.4	-19.25
223.635	-19.25
223.869	-18.25
224.104	-10.25
224.338	-12.25
224.573	-13.25
224.808	-13.25
225.042	-24.25
225.277	3.75
225.511	5.75
225.746	4.75
225.98	8.75
226.215	15.75
226.449	4.75
226.683	25.75
226.918	15.75
227.152	25.75
227.387	47.75
227.621	37.75
227.856	57.75
228.09	45.75
228.324	59.75
228.559	63.75
228.793	81.75
229.027	93.75
229.262	115.75
229.496	128.75
229.73	150.75
229.964	173.75
230.199	134.75
230.433	122.75
230.667	111.75
230.901	119.75
231.136	105.75
231.37	113.75
231.604	123.75
231.838	123.75
232.072	111.75
232.306	109.75
232.541	119.75
232.775	111.75
233.009	105.75
233.243	119.75
233.477	108.75
233.711	105.75
233.945	105.75
234.179	118.75
234.413	117.75
234.647	106.75
234.881	123.75
235.115	120.75
235.349	127.75
235.583	119.75
235.817	122.75
236.051	135.75
236.285	141.75
236.519	127.75
236.753	135.75
236.987	164.75
237.221	193.75
237.455	241.75
237.689	207.75
237.922	144.75
238.156	135.75
238.39	138.75
238.624	125.75
238.858	139.75
239.091	126.75
239.325	125.75
239.559	126.75
239.793	143.75
240.027	135.75
240.26	152.75
240.494	171.75
240.728	177.75
240.961	149.75
241.195	140.75
241.429	144.75
241.662	139.75
241.896	139.75
242.13	144.75
242.363	142.75
242.597	133.75
242.83	133.75
243.064	133.75
243.298	138.75
243.531	129.75
243.765	126.75
243.998	142.75
244.232	148.75
244.465	154.75
244.699	142.75
244.932	157.75
245.166	143.75
245.399	140.75
245.633	152.75
245.866	157.75
246.099	159.75
246.333	154.75
246.566	146.75
246.8	156.75
247.033	145.75
247.266	134.75
247.5	148.75
247.733	158.75
247.966	181.75
248.2	165.75
248.433	174.75
248.666	175.75
248.899	189.75
249.133	201.75
249.366	222.75
249.599	219.75
249.832	200.75
250.066	192.75
250.299	191.75
250.532	207.75
250.765	226.75
250.998	237.75
251.231	229.75
251.465	223.75
251.698	220.75
251.931	204.75
252.164	198.75
252.397	199.75
252.63	200.75
252.863	200.75
253.096	209.75
253.329	226.75
253.562	231.75
253.795	221.75
254.028	241.75
254.261	229.75
254.494	241.75
254.727	268.75
254.96	311.75
255.193	284.75
255.426	276.75
255.659	237.75
255.892	249.75
256.124	249.75
256.357	246.75
256.59	250.75
256.823	237.75
257.056	213.75
257.289	228.75
257.521	214.75
257.754	215.75
257.987	220.75
258.22	222.75
258.452	208.75
258.685	222.75
258.918	223.75
259.151	211.75
259.383	226.75
259.616	237.75
259.849	231.75
260.081	244.75
260.314	268.75
260.547	281.75
260.779	246.75
261.012	234.75
261.244	231.75
261.477	216.75
261.71	228.75
261.942	245.75
262.175	250.75
262.407	255.75
262.64	230.75
262.872	228.75
263.105	214.75
263.337	211.75
263.57	192.75
263.802	216.75
264.035	225.75
264.267	222.75
264.499	228.75
264.732	222.75
264.964	211.75
265.197	211.75
265.429	214.75
265.661	212.75
265.894	213.75
266.126	228.75
266.358	233.75
266.591	211.75
266.823	213.75
267.055	243.75
267.287	225.75
267.52	216.75
267.752	231.75
267.984	223.75
268.216	236.75
268.448	234.75
268.681	239.75
268.913	277.75
269.145	260.75
269.377	285.75
269.609	295.75
269.841	277.75
270.073	275.75
270.306	291.75
270.538	333.75
270.77	329.75
271.002	329.75
271.234	318.75
271.466	316.75
271.698	330.75
271.93	328.75
272.162	331.75
272.394	336.75
272.626	321.75
272.858	310.75
273.09	296.75
273.322	284.75
273.553	292.75
273.785	272.75
274.017	271.75
274.249	277.75
274.481	278.75
274.713	274.75
274.945	285.75
275.176	296.75
275.408	277.75
275.64	275.75
275.872	276.75
276.104	277.75
276.335	281.75
276.567	291.75
276.799	292.75
277.031	302.75
277.262	335.75
277.494	341.75
277.726	306.75
277.957	310.75
278.189	296.75
278.421	291.75
278.652	279.75
278.884	289.75
279.115	269.75
279.347	284.75
279.579	265.75
279.81	255.75
280.042	271.75
280.273	263.75
280.505	266.75
280.736	264.75
280.968	267.75
281.199	273.75
281.431	276.75
281.662	270.75
281.894	253.75
282.125	272.75
282.356	292.75
282.588	299.75
282.819	317.75
283.051	287.75
283.282	276.75
283.513	276.75
283.745	278.75
283.976	277.75
284.207	289.75
284.439	272.75
284.67	277.75
284.901	278.75
285.132	266.75
285.364	285.75
285.595	277.75
285.826	278.75
286.057	268.75
286.288	279.75
286.52	276.75
286.751	261.75
286.982	271.75
287.213	283.75
287.444	283.75
287.675	285.75
287.906	286.75
288.138	296.75
288.369	292.75
288.6	302.75
288.831	292.75
289.062	279.75
289.293	285.75
289.524	288.75
289.755	279.75
289.986	286.75
290.217	291.75
290.448	285.75
290.679	269.75
290.91	301.75
291.141	283.75
291.371	254.75
291.602	281.75
291.833	291.75
292.064	282.75
292.295	270.75
292.526	287.75
292.757	269.75
292.987	264.75
293.218	275.75
293.449	275.75
293.68	281.75
293.91	284.75
294.141	298.75
294.372	279.75
294.603	280.75
294.833	283.75
295.064	274.75
295.295	300.75
295.525	293.75
295.756	308.75
295.987	304.75
296.217	323.75
296.448	327.75
296.679	301.75
296.909	290.75
297.14	300.75
297.37	291.75
297.601	287.75
297.831	289.75
298.062	294.75
298.292	306.75
298.523	290.75
298.753	297.75
298.984	287.75
299.214	310.75
299.445	283.75
299.675	289.75
299.905	319.75
300.136	316.75
300.366	308.75
300.597	301.75
300.827	295.75
301.057	311.75
301.288	330.75
301.518	323.75
301.748	319.75
301.979	312.75
302.209	318.75
302.439	331.75
302.669	332.75
302.9	321.75
303.13	309.75
303.36	330.75
303.59	307.75
303.82	344.75
304.051	332.75
304.281	344.75
304.511	314.75
304.741	323.75
304.971	302.75
305.201	309.75
305.431	323.75
305.661	311.75
305.891	310.75
306.121	327.75
306.352	314.75
306.582	319.75
306.812	314.75
307.042	306.75
307.272	324.75
307.502	334.75
307.731	340.75
307.961	313.75
308.191	316.75
308.421	305.75
308.651	327.75
308.881	348.75
309.111	346.75
309.341	334.75
309.571	364.75
309.8	370.75
310.03	363.75
310.26	371.75
310.49	373.75
310.72	381.75
310.949	393.75
311.179	413.75
311.409	418.75
311.639	376.75
311.868	381.75
312.098	388.75
312.328	379.75
312.557	406.75
312.787	442.75
313.017	404.75
313.246	383.75
313.476	396.75
313.706	346.75
313.935	403.75
314.165	391.75
314.394	415.75
314.624	402.75
314.853	399.75
315.083	383.75
315.312	390.75
315.542	380.75
315.771	356.75
316.001	353.75
316.23	366.75
316.46	358.75
316.689	354.75
316.919	368.75
317.148	366.75
317.377	409.75
317.607	385.75
317.836	360.75
318.065	379.75
318.295	363.75
318.524	383.75
318.753	362.75
318.983	356.75
319.212	377.75
319.441	396.75
319.67	390.75
319.9	377.75
320.129	379.75
320.358	379.75
320.587	398.75
320.816	381.75
321.046	411.75
321.275	416.75
321.504	418.75
321.733	392.75
321.962	412.75
322.191	442.75
322.42	438.75
322.649	457.75
322.878	466.75
323.108	492.75
323.337	526.75
323.566	541.75
323.795	586.75
324.024	655.75
324.253	811.75
324.482	1186.75
324.71	1878.75
324.939	2715.75
325.168	2411.75
325.397	1205.75
325.626	780.75
325.855	609.75
326.084	569.75
326.313	525.75
326.542	555.75
326.77	610.75
326.999	765.75
327.228	1031.75
327.457	1620.75
327.686	2048.75
327.914	1372.75
328.143	859.75
328.372	709.75
328.6	663.75
328.829	626.75
329.058	640.75
329.287	668.75
329.515	603.75
329.744	543.75
329.972	569.75
330.201	577.75
330.43	645.75
330.658	663.75
330.887	677.75
331.115	653.75
331.344	555.75
331.572	535.75
331.801	517.75
332.03	515.75
332.258	484.75
332.486	462.75
332.715	464.75
332.943	468.75
333.172	441.75
333.4	448.75
333.629	453.75
333.857	496.75
334.085	505.75
334.314	515.75
334.542	549.75
334.771	586.75
334.999	513.75
335.227	470.75
335.455	457.75
335.684	449.75
335.912	446.75
336.14	408.75
336.369	436.75
336.597	440.75
336.825	457.75
337.053	434.75
337.281	415.75
337.51	430.75
337.738	428.75
337.966	447.75
338.194	425.75
338.422	444.75
338.65	433.75
338.878	425.75
339.106	414.75
339.334	422.75
339.562	410.75
339.79	400.75
340.018	419.75
340.246	399.75
340.474	438.75
340.702	410.75
340.93	421.75
341.158	417.75
341.386	407.75
341.614	428.75
341.842	413.75
342.07	402.75
342.298	406.75
342.526	403.75
342.754	407.75
342.981	388.75
343.209	386.75
343.437	371.75
343.665	415.75
343.893	422.75
344.12	421.75
344.348	409.75
344.576	409.75
344.804	420.75
345.031	450.75
345.259	455.75
345.487	437.75
345.714	417.75
345.942	429.75
346.17	407.75
346.397	398.75
346.625	396.75
346.853	411.75
347.08	397.75
347.308	423.75
347.535	437.75
347.763	412.75
347.99	412.75
348.218	397.75
348.445	423.75
348.673	431.75
348.9	404.75
349.128	410.75
349.355	383.75
349.583	389.75
349.81	396.75
350.037	390.75
350.265	390.75
350.492	391.75
350.72	386.75
350.947	394.75
351.174	413.75
351.402	436.75
351.629	418.75
351.856	426.75
352.083	424.75
352.311	429.75
352.538	430.75
352.765	409.75
352.992	427.75
353.22	420.75
353.447	412.75
353.674	392.75
353.901	387.75
354.128	380.75
354.355	366.75
354.583	365.75
354.81	385.75
355.037	375.75
355.264	369.75
355.491	350.75
355.718	363.75
355.945	377.75
356.172	377.75
356.399	358.75
356.626	356.75
356.853	354.75
357.08	358.75
357.307	356.75
357.534	349.75
357.761	383.75
357.988	381.75
358.215	360.75
358.441	362.75
358.668	365.75
358.895	380.75
359.122	399.75
359.349	406.75
359.576	405.75
359.802	436.75
360.029	455.75
360.256	480.75
360.483	471.75
360.709	389.75
360.936	405.75
361.163	391.75
361.39	396.75
361.616	410.75
361.843	389.75
362.07	417.75
362.296	385.75
362.523	392.75
362.749	403.75
362.976	403.75
363.203	379.75
363.429	394.75
363.656	384.75
363.882	388.75
364.109	391.75
364.335	379.75
364.562	365.75
364.788	373.75
365.015	380.75
365.241	374.75
365.468	393.75
365.694	373.75
365.92	387.75
366.147	369.75
366.373	378.75
366.599	379.75
366.826	371.75
367.052	382.75
367.278	369.75
367.505	371.75
367.731	380.75
367.957	366.75
368.184	373.75
368.41	395.75
368.636	373.75
368.862	382.75
369.089	373.75
369.315	383.75
369.541	392.75
369.767	389.75
369.993	369.75
370.219	372.75
370.445	390.75
370.672	381.75
370.898	348.75
371.124	354.75
371.35	357.75
371.576	357.75
371.802	348.75
372.028	369.75
372.254	357.75
372.48	357.75
372.706	358.75
372.932	361.75
373.158	364.75
373.384	386.75
373.61	371.75
373.835	358.75
374.061	354.75
374.287	364.75
374.513	359.75
374.739	363.75
374.965	360.75
375.191	382.75
375.416	362.75
375.642	355.75
375.868	379.75
376.094	355.75
376.319	354.75
376.545	349.75
376.771	355.75
376.997	354.75
377.222	347.75
377.448	353.75
377.674	369.75
377.899	379.75
378.125	365.75
378.35	350.75
378.576	347.75
378.802	346.75
379.027	348.75
379.253	360.75
379.478	356.75
379.704	370.75
379.929	369.75
380.155	359.75
380.38	367.75
380.606	375.75
380.831	361.75
381.057	380.75
381.282	341.75
381.507	345.75
381.733	350.75
381.958	391.75
382.184	373.75
382.409	365.75
382.634	365.75
382.86	367.75
383.085	359.75
383.31	354.75
383.535	365.75
383.761	373.75
383.986	373.75
384.211	380.75
384.436	379.75
384.662	393.75
384.887	376.75
385.112	363.75
385.337	353.75
385.562	357.75
385.787	370.75
386.013	390.75
386.238	394.75
386.463	393.75
386.688	398.75
386.913	379.75
387.138	379.75
387.363	389.75
387.588	389.75
387.813	366.75
388.038	361.75
388.263	397.75
388.488	382.75
388.713	386.75
388.938	401.75
389.163	396.75
389.387	393.75
389.612	371.75
389.837	373.75
390.062	369.75
390.287	388.75
390.512	391.75
390.736	392.75
390.961	404.75
391.186	388.75
391.411	381.75
391.636	395.75
391.86	378.75
392.085	403.75
392.31	382.75
392.534	383.75
392.759	391.75
392.984	392.75
393.208	369.75
393.433	414.75
393.658	382.75
393.882	387.75
394.107	378.75
394.331	389.75
394.556	382.75
394.78	380.75
395.005	393.75
395.229	381.75
395.454	381.75
395.678	381.75
395.903	394.75
396.127	422.75
396.352	424.75
396.576	394.75
396.801	402.75
397.025	417.75
397.249	397.75
397.474	409.75
397.698	410.75
397.922	429.75
398.147	447.75
398.371	435.75
398.595	446.75
398.82	403.75
399.044	434.75
399.268	432.75
399.492	444.75
399.717	465.75
399.941	517.75
400.165	513.75
400.389	513.75
400.613	474.75
400.837	452.75
401.062	473.75
401.286	453.75
401.51	431.75
401.734	439.75
401.958	450.75
402.182	437.75
402.406	455.75
402.63	436.75
402.854	406.75
403.078	465.75
403.302	465.75
403.526	449.75
403.75	466.75
403.974	438.75
404.198	455.75
404.422	452.75
404.645	487.75
404.869	462.75
405.093	517.75
405.317	553.75
405.541	578.75
405.765	531.75
405.988	469.75
406.212	483.75
406.436	538.75
406.66	540.75
406.883	512.75
407.107	527.75
407.331	544.75
407.555	634.75
407.778	631.75
408.002	554.75
408.226	497.75
408.449	516.75
408.673	506.75
408.896	551.75
409.12	603.75
409.344	565.75
409.567	506.75
409.791	477.75
410.014	455.75
410.238	446.75
410.461	462.75
410.685	455.75
410.908	470.75
411.132	530.75
411.355	543.75
411.578	515.75
411.802	462.75
412.025	469.75
412.249	463.75
412.472	493.75
412.695	535.75
412.919	536.75
413.142	474.75
413.365	466.75
413.589	451.75
413.812	443.75
414.035	415.75
414.258	420.75
414.482	414.75
414.705	402.75
414.928	437.75
415.151	433.75
415.374	416.75
415.597	435.75
415.821	421.75
416.044	433.75
416.267	408.75
416.49	437.75
416.713	414.75
416.936	409.75
417.159	420.75
417.382	431.75
417.605	445.75
417.828	437.75
418.051	455.75
418.274	471.75
418.497	425.75
418.72	412.75
418.943	426.75
419.166	423.75
419.389	479.75
419.611	464.75
419.834	454.75
420.057	452.75
420.28	461.75
420.503	476.75
420.726	457.75
420.948	476.75
421.171	520.75
421.394	554.75
421.617	477.75
421.839	468.75
422.062	455.75
422.285	469.75
422.507	554.75
422.73	647.75
422.953	603.75
423.175	523.75
423.398	482.75
423.621	493.75
423.843	500.75
424.066	498.75
424.288	501.75
424.511	515.75
424.733	574.75
424.956	667.75
425.178	654.75
425.401	639.75
425.623	663.75
425.846	554.75
426.068	493.75
426.291	499.75
426.513	501.75
426.735	536.75
426.958	582.75
427.18	645.75
427.402	802.75
427.625	856.75
427.847	813.75
428.069	703.75
428.292	597.75
428.514	532.75
428.736	516.75
428.958	485.75
429.181	473.75
429.403	458.75
429.625	486.75
429.847	531.75
430.069	606.75
430.292	585.75
430.514	499.75
430.736	462.75
430.958	469.75
431.18	457.75
431.402	446.75
431.624	426.75
431.846	445.75
432.068	441.75
432.29	454.75
432.512	422.75
432.734	440.75
432.956	456.75
433.178	454.75
433.4	466.75
433.622	448.75
433.844	448.75
434.066	433.75
434.287	455.75
434.509	443.75
434.731	436.75
434.953	461.75
435.175	464.75
435.397	507.75
435.618	513.75
435.84	559.75
436.062	670.75
436.284	734.75
436.505	626.75
436.727	525.75
436.949	490.75
437.17	477.75
437.392	487.75
437.614	486.75
437.835	543.75
438.057	625.75
438.278	761.75
438.5	755.75
438.721	813.75
438.943	732.75
439.165	622.75
439.386	550.75
439.608	529.75
439.829	551.75
440.05	576.75
440.272	661.75
440.493	567.75
440.715	519.75
440.936	490.75
441.158	476.75
441.379	468.75
441.6	490.75
441.822	513.75
442.043	569.75
442.264	653.75
442.486	689.75
442.707	572.75
442.928	520.75
443.149	554.75
443.371	566.75
443.592	612.75
443.813	710.75
444.034	757.75
444.255	612.75
444.476	540.75
444.698	500.75
444.919	528.75
445.14	573.75
445.361	571.75
445.582	559.75
445.803	632.75
446.024	780.75
446.245	785.75
446.466	706.75
446.687	587.75
446.908	545.75
447.129	502.75
447.35	491.75
447.571	479.75
447.792	492.75
448.013	472.75
448.234	498.75
448.455	550.75
448.675	670.75
448.896	795.75
449.117	678.75
449.338	647.75
449.559	750.75
449.779	834.75
450	689.75
450.221	561.75
450.442	510.75
450.662	493.75
450.883	483.75
451.104	502.75
451.324	486.75
451.545	469.75
451.766	465.75
451.986	423.75
452.207	418.75
452.428	424.75
452.648	415.75
452.869	418.75
453.089	460.75
453.31	441.75
453.53	441.75
453.751	427.75
453.971	435.75
454.192	446.75
454.412	435.75
454.633	442.75
454.853	430.75
455.073	434.75
455.294	455.75
455.514	544.75
455.734	525.75
455.955	445.75
456.175	420.75
456.395	403.75
456.616	391.75
456.836	398.75
457.056	397.75
457.276	373.75
457.497	403.75
457.717	396.75
457.937	417.75
458.157	387.75
458.377	411.75
458.598	437.75
458.818	517.75
459.038	620.75
459.258	604.75
459.478	516.75
459.698	450.75
459.918	456.75
460.138	423.75
460.358	438.75
460.578	446.75
460.798	427.75
461.018	429.75
461.238	463.75
461.458	425.75
461.678	430.75
461.898	430.75
462.118	408.75
462.338	445.75
462.558	454.75
462.777	421.75
462.997	430.75
463.217	449.75
463.437	456.75
463.657	469.75
463.876	422.75
464.096	427.75
464.316	445.75
464.536	462.75
464.755	458.75
464.975	472.75
465.195	537.75
465.414	618.75
465.634	530.75
465.854	487.75
466.073	459.75
466.293	452.75
466.512	418.75
466.732	435.75
466.951	434.75
467.171	422.75
467.391	420.75
467.61	451.75
467.829	462.75
468.049	457.75
468.268	463.75
468.488	445.75
468.707	437.75
468.927	436.75
469.146	418.75
469.365	426.75
469.585	406.75
469.804	421.75
470.023	434.75
470.243	445.75
470.462	439.75
470.681	450.75
470.901	455.75
471.12	432.75
471.339	433.75
471.558	423.75
471.777	418.75
471.997	427.75
472.216	431.75
472.435	484.75
472.654	507.75
472.873	440.75
473.092	448.75
473.311	426.75
473.53	440.75
473.749	445.75
473.968	492.75
474.187	611.75
474.406	629.75
474.625	507.75
474.844	470.75
475.063	426.75
475.282	447.75
475.501	450.75
475.72	434.75
475.939	428.75
476.158	449.75
476.377	444.75
476.596	455.75
476.814	455.75
477.033	444.75
477.252	443.75
477.471	465.75
477.69	449.75
477.908	445.75
478.127	458.75
478.346	481.75
478.564	487.75
478.783	467.75
479.002	490.75
479.22	497.75
479.439	516.75
479.658	520.75
479.876	535.75
480.095	524.75
480.313	572.75
480.532	546.75
480.751	522.75
480.969	554.75
481.188	636.75
481.406	684.75
481.624	593.75
481.843	554.75
482.061	534.75
482.28	528.75
482.498	527.75
482.717	521.75
482.935	495.75
483.153	520.75
483.372	514.75
483.59	500.75
483.808	523.75
484.027	504.75
484.245	500.75
484.463	502.75
484.681	505.75
484.9	530.75
485.118	525.75
485.336	511.75
485.554	543.75
485.772	527.75
485.99	518.75
486.209	531.75
486.427	528.75
486.645	554.75
486.863	577.75
487.081	585.75
487.299	572.75
487.517	579.75
487.735	575.75
487.953	549.75
488.171	553.75
488.389	552.75
488.607	545.75
488.825	557.75
489.043	552.75
489.261	539.75
489.479	573.75
489.696	578.75
489.914	540.75
490.132	567.75
490.35	583.75
490.568	594.75
490.786	597.75
491.003	592.75
491.221	596.75
491.439	598.75
491.657	626.75
491.874	616.75
492.092	618.75
492.31	634.75
492.527	622.75
492.745	637.75
492.963	636.75
493.18	622.75
493.398	659.75
493.615	665.75
493.833	646.75
494.05	655.75
494.268	644.75
494.485	656.75
494.703	611.75
494.92	655.75
495.138	663.75
495.355	660.75
495.573	661.75
495.79	652.75
496.008	659.75
496.225	661.75
496.442	664.75
496.66	674.75
496.877	649.75
497.094	646.75
497.312	664.75
497.529	668.75
497.746	681.75
497.963	675.75
498.181	690.75
498.398	699.75
498.615	701.75
498.832	702.75
499.049	701.75
499.267	735.75
499.484	742.75
499.701	739.75
499.918	742.75
500.135	783.75
500.352	818.75
500.569	801.75
500.786	814.75
501.003	800.75
501.22	778.75
501.437	784.75
501.654	797.75
501.871	775.75
