Data from 1972.PennyLincolnUp.Lamp.En5.5.200Scan.071719.P1._HRD10591_15-27-30-844.txt Node
Date: Thu Jul 18 15:27:30 EDT 2019
User: cochatt
Spectrometer: HR+D1059
Trigger mode: 1
Integration Time (sec): 1.000000E-1
Scans to average: 1
Electric dark correction enabled: true
Nonlinearity correction enabled: false
Boxcar width: 0
XAxis mode: Wavelengths
Number of Pixels in Spectrum: 2048
>>>>>Begin Spectral Data<<<<<
223.165	-28.44
223.4	-28.44
223.635	-28.44
223.869	-0.44
224.104	-15.44
224.338	-7.44
224.573	-3.44
224.808	-8.44
225.042	-16.44
225.277	-12.44
225.511	2.56
225.746	-10.44
225.98	6.56
226.215	2.56
226.449	7.56
226.683	23.56
226.918	30.56
227.152	29.56
227.387	39.56
227.621	33.56
227.856	50.56
228.09	35.56
228.324	47.56
228.559	61.56
228.793	79.56
229.027	105.56
229.262	94.56
229.496	109.56
229.73	131.56
229.964	161.56
230.199	129.56
230.433	105.56
230.667	111.56
230.901	103.56
231.136	115.56
231.37	116.56
231.604	122.56
231.838	113.56
232.072	115.56
232.306	107.56
232.541	117.56
232.775	111.56
233.009	112.56
233.243	114.56
233.477	119.56
233.711	123.56
233.945	119.56
234.179	121.56
234.413	121.56
234.647	120.56
234.881	129.56
235.115	122.56
235.349	111.56
235.583	118.56
235.817	109.56
236.051	105.56
236.285	109.56
236.519	127.56
236.753	122.56
236.987	135.56
237.221	173.56
237.455	236.56
237.689	209.56
237.922	153.56
238.156	139.56
238.39	135.56
238.624	131.56
238.858	133.56
239.091	117.56
239.325	126.56
239.559	122.56
239.793	124.56
240.027	133.56
240.26	131.56
240.494	145.56
240.728	154.56
240.961	144.56
241.195	148.56
241.429	145.56
241.662	134.56
241.896	127.56
242.13	119.56
242.363	123.56
242.597	145.56
242.83	133.56
243.064	137.56
243.298	143.56
243.531	136.56
243.765	142.56
243.998	133.56
244.232	139.56
244.465	156.56
244.699	151.56
244.932	130.56
245.166	149.56
245.399	135.56
245.633	151.56
245.866	143.56
246.099	154.56
246.333	153.56
246.566	154.56
246.8	145.56
247.033	150.56
247.266	154.56
247.5	162.56
247.733	165.56
247.966	174.56
248.2	175.56
248.433	159.56
248.666	181.56
248.899	189.56
249.133	198.56
249.366	198.56
249.599	200.56
249.832	198.56
250.066	172.56
250.299	191.56
250.532	182.56
250.765	198.56
250.998	230.56
251.231	215.56
251.465	226.56
251.698	196.56
251.931	205.56
252.164	182.56
252.397	204.56
252.63	211.56
252.863	208.56
253.096	210.56
253.329	206.56
253.562	216.56
253.795	224.56
254.028	226.56
254.261	211.56
254.494	225.56
254.727	255.56
254.96	267.56
255.193	282.56
255.426	247.56
255.659	247.56
255.892	232.56
256.124	251.56
256.357	239.56
256.59	206.56
256.823	219.56
257.056	195.56
257.289	230.56
257.521	215.56
257.754	221.56
257.987	209.56
258.22	211.56
258.452	227.56
258.685	213.56
258.918	198.56
259.151	213.56
259.383	215.56
259.616	213.56
259.849	218.56
260.081	219.56
260.314	242.56
260.547	266.56
260.779	240.56
261.012	235.56
261.244	220.56
261.477	212.56
261.71	221.56
261.942	224.56
262.175	235.56
262.407	216.56
262.64	221.56
262.872	208.56
263.105	202.56
263.337	203.56
263.57	211.56
263.802	205.56
264.035	192.56
264.267	212.56
264.499	211.56
264.732	231.56
264.964	196.56
265.197	193.56
265.429	215.56
265.661	218.56
265.894	211.56
266.126	213.56
266.358	217.56
266.591	219.56
266.823	215.56
267.055	210.56
267.287	217.56
267.52	211.56
267.752	220.56
267.984	226.56
268.216	217.56
268.448	228.56
268.681	235.56
268.913	239.56
269.145	255.56
269.377	271.56
269.609	256.56
269.841	259.56
270.073	268.56
270.306	297.56
270.538	303.56
270.77	298.56
271.002	300.56
271.234	289.56
271.466	297.56
271.698	289.56
271.93	305.56
272.162	324.56
272.394	302.56
272.626	301.56
272.858	300.56
273.09	284.56
273.322	268.56
273.553	242.56
273.785	270.56
274.017	260.56
274.249	271.56
274.481	264.56
274.713	261.56
274.945	262.56
275.176	253.56
275.408	267.56
275.64	267.56
275.872	252.56
276.104	246.56
276.335	243.56
276.567	257.56
276.799	259.56
277.031	315.56
277.262	317.56
277.494	310.56
277.726	287.56
277.957	284.56
278.189	280.56
278.421	273.56
278.652	244.56
278.884	259.56
279.115	260.56
279.347	254.56
279.579	252.56
279.81	239.56
280.042	246.56
280.273	260.56
280.505	243.56
280.736	258.56
280.968	250.56
281.199	266.56
281.431	267.56
281.662	249.56
281.894	268.56
282.125	262.56
282.356	281.56
282.588	281.56
282.819	285.56
283.051	265.56
283.282	265.56
283.513	278.56
283.745	269.56
283.976	264.56
284.207	261.56
284.439	254.56
284.67	247.56
284.901	249.56
285.132	256.56
285.364	263.56
285.595	267.56
285.826	263.56
286.057	286.56
286.288	262.56
286.52	258.56
286.751	248.56
286.982	266.56
287.213	242.56
287.444	270.56
287.675	257.56
287.906	291.56
288.138	285.56
288.369	265.56
288.6	293.56
288.831	286.56
289.062	266.56
289.293	263.56
289.524	291.56
289.755	277.56
289.986	262.56
290.217	272.56
290.448	275.56
290.679	259.56
290.91	272.56
291.141	258.56
291.371	268.56
291.602	253.56
291.833	285.56
292.064	275.56
292.295	295.56
292.526	279.56
292.757	280.56
292.987	258.56
293.218	253.56
293.449	271.56
293.68	279.56
293.91	275.56
294.141	261.56
294.372	271.56
294.603	261.56
294.833	284.56
295.064	281.56
295.295	276.56
295.525	271.56
295.756	282.56
295.987	267.56
296.217	305.56
296.448	328.56
296.679	279.56
296.909	265.56
297.14	276.56
297.37	275.56
297.601	286.56
297.831	281.56
298.062	295.56
298.292	301.56
298.523	284.56
298.753	297.56
298.984	259.56
299.214	287.56
299.445	287.56
299.675	265.56
299.905	281.56
300.136	289.56
300.366	287.56
300.597	290.56
300.827	303.56
301.057	318.56
301.288	294.56
301.518	306.56
301.748	295.56
301.979	305.56
302.209	302.56
302.439	297.56
302.669	287.56
302.9	297.56
303.13	300.56
303.36	293.56
303.59	303.56
303.82	313.56
304.051	298.56
304.281	301.56
304.511	280.56
304.741	283.56
304.971	310.56
305.201	287.56
305.431	309.56
305.661	289.56
305.891	302.56
306.121	300.56
306.352	296.56
306.582	307.56
306.812	294.56
307.042	307.56
307.272	315.56
307.502	307.56
307.731	327.56
307.961	307.56
308.191	325.56
308.421	289.56
308.651	306.56
308.881	313.56
309.111	349.56
309.341	318.56
309.571	323.56
309.8	350.56
310.03	369.56
310.26	364.56
310.49	365.56
310.72	365.56
310.949	357.56
311.179	365.56
311.409	367.56
311.639	350.56
311.868	351.56
312.098	349.56
312.328	382.56
312.557	386.56
312.787	395.56
313.017	400.56
313.246	375.56
313.476	337.56
313.706	356.56
313.935	373.56
314.165	368.56
314.394	383.56
314.624	369.56
314.853	350.56
315.083	353.56
315.312	354.56
315.542	342.56
315.771	349.56
316.001	353.56
316.23	348.56
316.46	326.56
316.689	353.56
316.919	361.56
317.148	363.56
317.377	389.56
317.607	373.56
317.836	358.56
318.065	348.56
318.295	370.56
318.524	346.56
318.753	321.56
318.983	357.56
319.212	333.56
319.441	367.56
319.67	378.56
319.9	346.56
320.129	352.56
320.358	373.56
320.587	369.56
320.816	359.56
321.046	383.56
321.275	368.56
321.504	370.56
321.733	379.56
321.962	389.56
322.191	417.56
322.42	396.56
322.649	425.56
322.878	433.56
323.108	448.56
323.337	469.56
323.566	481.56
323.795	514.56
324.024	578.56
324.253	743.56
324.482	1037.56
324.71	1617.56
324.939	2338.56
325.168	2077.56
325.397	1051.56
325.626	687.56
325.855	569.56
326.084	512.56
326.313	507.56
326.542	493.56
326.77	553.56
326.999	648.56
327.228	899.56
327.457	1423.56
327.686	1779.56
327.914	1200.56
328.143	741.56
328.372	642.56
328.6	600.56
328.829	567.56
329.058	583.56
329.287	608.56
329.515	538.56
329.744	497.56
329.972	513.56
330.201	529.56
330.43	554.56
330.658	577.56
330.887	612.56
331.115	573.56
331.344	502.56
331.572	461.56
331.801	469.56
332.03	466.56
332.258	447.56
332.486	446.56
332.715	412.56
332.943	425.56
333.172	416.56
333.4	432.56
333.629	423.56
333.857	434.56
334.085	444.56
334.314	462.56
334.542	497.56
334.771	537.56
334.999	480.56
335.227	451.56
335.455	443.56
335.684	435.56
335.912	419.56
336.14	403.56
336.369	391.56
336.597	403.56
336.825	430.56
337.053	422.56
337.281	399.56
337.51	398.56
337.738	410.56
337.966	417.56
338.194	419.56
338.422	397.56
338.65	381.56
338.878	382.56
339.106	397.56
339.334	405.56
339.562	391.56
339.79	394.56
340.018	399.56
340.246	398.56
340.474	391.56
340.702	397.56
340.93	404.56
341.158	394.56
341.386	401.56
341.614	400.56
341.842	398.56
342.07	398.56
342.298	378.56
342.526	390.56
342.754	377.56
342.981	358.56
343.209	389.56
343.437	382.56
343.665	381.56
343.893	364.56
344.12	391.56
344.348	383.56
344.576	398.56
344.804	403.56
345.031	405.56
345.259	437.56
345.487	404.56
345.714	415.56
345.942	400.56
346.17	383.56
346.397	374.56
346.625	388.56
346.853	386.56
347.08	383.56
347.308	396.56
347.535	393.56
347.763	409.56
347.99	385.56
348.218	406.56
348.445	418.56
348.673	406.56
348.9	387.56
349.128	387.56
349.355	366.56
349.583	373.56
349.81	375.56
350.037	381.56
350.265	382.56
350.492	370.56
350.72	381.56
350.947	354.56
351.174	378.56
351.402	411.56
351.629	396.56
351.856	371.56
352.083	394.56
352.311	385.56
352.538	403.56
352.765	403.56
352.992	397.56
353.22	394.56
353.447	394.56
353.674	381.56
353.901	373.56
354.128	355.56
354.355	361.56
354.583	349.56
354.81	351.56
355.037	360.56
355.264	353.56
355.491	353.56
355.718	354.56
355.945	345.56
356.172	338.56
356.399	345.56
356.626	341.56
356.853	340.56
357.08	350.56
357.307	380.56
357.534	352.56
357.761	353.56
357.988	346.56
358.215	359.56
358.441	347.56
358.668	353.56
358.895	360.56
359.122	349.56
359.349	377.56
359.576	386.56
359.802	401.56
360.029	412.56
360.256	439.56
360.483	417.56
360.709	395.56
360.936	381.56
361.163	365.56
361.39	392.56
361.616	394.56
361.843	389.56
362.07	373.56
362.296	382.56
362.523	392.56
362.749	387.56
362.976	380.56
363.203	377.56
363.429	376.56
363.656	377.56
363.882	355.56
364.109	366.56
364.335	368.56
364.562	388.56
364.788	366.56
365.015	355.56
365.241	341.56
365.468	383.56
365.694	365.56
365.92	385.56
366.147	366.56
366.373	357.56
366.599	345.56
366.826	358.56
367.052	352.56
367.278	350.56
367.505	354.56
367.731	343.56
367.957	348.56
368.184	355.56
368.41	375.56
368.636	382.56
368.862	373.56
369.089	358.56
369.315	348.56
369.541	367.56
369.767	370.56
369.993	341.56
370.219	360.56
370.445	352.56
370.672	360.56
370.898	340.56
371.124	339.56
371.35	350.56
371.576	349.56
371.802	359.56
372.028	345.56
372.254	354.56
372.48	339.56
372.706	334.56
372.932	364.56
373.158	339.56
373.384	349.56
373.61	366.56
373.835	350.56
374.061	358.56
374.287	364.56
374.513	376.56
374.739	350.56
374.965	366.56
375.191	379.56
375.416	358.56
375.642	349.56
375.868	377.56
376.094	355.56
376.319	362.56
376.545	344.56
376.771	337.56
376.997	355.56
377.222	347.56
377.448	338.56
377.674	353.56
377.899	344.56
378.125	354.56
378.35	362.56
378.576	362.56
378.802	339.56
379.027	351.56
379.253	352.56
379.478	329.56
379.704	344.56
379.929	361.56
380.155	341.56
380.38	352.56
380.606	367.56
380.831	377.56
381.057	361.56
381.282	353.56
381.507	338.56
381.733	351.56
381.958	361.56
382.184	349.56
382.409	355.56
382.634	359.56
382.86	364.56
383.085	366.56
383.31	355.56
383.535	361.56
383.761	369.56
383.986	358.56
384.211	348.56
384.436	365.56
384.662	347.56
384.887	370.56
385.112	358.56
385.337	358.56
385.562	365.56
385.787	357.56
386.013	373.56
386.238	365.56
386.463	375.56
386.688	365.56
386.913	365.56
387.138	377.56
387.363	377.56
387.588	349.56
387.813	380.56
388.038	372.56
388.263	369.56
388.488	370.56
388.713	364.56
388.938	374.56
389.163	377.56
389.387	383.56
389.612	376.56
389.837	377.56
390.062	368.56
390.287	383.56
390.512	363.56
390.736	354.56
390.961	375.56
391.186	368.56
391.411	361.56
391.636	379.56
391.86	381.56
392.085	373.56
392.31	397.56
392.534	381.56
392.759	381.56
392.984	378.56
393.208	380.56
393.433	401.56
393.658	391.56
393.882	366.56
394.107	365.56
394.331	374.56
394.556	361.56
394.78	373.56
395.005	375.56
395.229	375.56
395.454	398.56
395.678	393.56
395.903	395.56
396.127	403.56
396.352	422.56
396.576	401.56
396.801	386.56
397.025	415.56
397.249	383.56
397.474	393.56
397.698	400.56
397.922	410.56
398.147	405.56
398.371	427.56
398.595	434.56
398.82	428.56
399.044	406.56
399.268	418.56
399.492	441.56
399.717	443.56
399.941	488.56
400.165	500.56
400.389	525.56
400.613	476.56
400.837	431.56
401.062	437.56
401.286	418.56
401.51	409.56
401.734	414.56
401.958	411.56
402.182	421.56
402.406	430.56
402.63	458.56
402.854	429.56
403.078	413.56
403.302	457.56
403.526	450.56
403.75	430.56
403.974	450.56
404.198	421.56
404.422	463.56
404.645	455.56
404.869	453.56
405.093	473.56
405.317	525.56
405.541	532.56
405.765	492.56
405.988	480.56
406.212	477.56
406.436	494.56
406.66	518.56
406.883	478.56
407.107	506.56
407.331	546.56
407.555	604.56
407.778	592.56
408.002	543.56
408.226	506.56
408.449	498.56
408.673	489.56
408.896	504.56
409.12	542.56
409.344	523.56
409.567	460.56
409.791	469.56
410.014	448.56
410.238	417.56
410.461	456.56
410.685	448.56
410.908	458.56
411.132	488.56
411.355	509.56
411.578	487.56
411.802	469.56
412.025	435.56
412.249	441.56
412.472	467.56
412.695	489.56
412.919	509.56
413.142	451.56
413.365	422.56
413.589	425.56
413.812	425.56
414.035	391.56
414.258	414.56
414.482	417.56
414.705	416.56
414.928	402.56
415.151	422.56
415.374	395.56
415.597	415.56
415.821	417.56
416.044	413.56
416.267	412.56
416.49	386.56
416.713	398.56
416.936	398.56
417.159	416.56
417.382	421.56
417.605	427.56
417.828	423.56
418.051	434.56
418.274	432.56
418.497	411.56
418.72	417.56
418.943	421.56
419.166	433.56
419.389	444.56
419.611	439.56
419.834	427.56
420.057	438.56
420.28	431.56
420.503	427.56
420.726	437.56
420.948	427.56
421.171	507.56
421.394	526.56
421.617	462.56
421.839	452.56
422.062	453.56
422.285	453.56
422.507	509.56
422.73	580.56
422.953	541.56
423.175	476.56
423.398	485.56
423.621	452.56
423.843	473.56
424.066	494.56
424.288	487.56
424.511	487.56
424.733	538.56
424.956	619.56
425.178	607.56
425.401	617.56
425.623	606.56
425.846	531.56
426.068	482.56
426.291	470.56
426.513	470.56
426.735	489.56
426.958	537.56
427.18	619.56
427.402	733.56
427.625	840.56
427.847	777.56
428.069	630.56
428.292	567.56
428.514	499.56
428.736	471.56
428.958	468.56
429.181	457.56
429.403	441.56
429.625	456.56
429.847	504.56
430.069	574.56
430.292	580.56
430.514	475.56
430.736	451.56
430.958	451.56
431.18	411.56
431.402	418.56
431.624	422.56
431.846	421.56
432.068	409.56
432.29	420.56
432.512	409.56
432.734	401.56
432.956	422.56
433.178	437.56
433.4	434.56
433.622	437.56
433.844	435.56
434.066	425.56
434.287	401.56
434.509	406.56
434.731	418.56
434.953	440.56
435.175	455.56
435.397	482.56
435.618	469.56
435.84	523.56
436.062	609.56
436.284	663.56
436.505	581.56
436.727	503.56
436.949	475.56
437.17	450.56
437.392	437.56
437.614	461.56
437.835	491.56
438.057	598.56
438.278	689.56
438.5	730.56
438.721	766.56
438.943	720.56
439.165	585.56
439.386	535.56
439.608	517.56
439.829	518.56
440.05	535.56
440.272	591.56
440.493	556.56
440.715	507.56
440.936	473.56
441.158	449.56
441.379	454.56
441.6	470.56
441.822	478.56
442.043	545.56
442.264	601.56
442.486	667.56
442.707	545.56
442.928	494.56
443.149	506.56
443.371	530.56
443.592	583.56
443.813	641.56
444.034	711.56
444.255	601.56
444.476	517.56
444.698	498.56
444.919	467.56
445.14	597.56
445.361	545.56
445.582	529.56
445.803	598.56
446.024	687.56
446.245	721.56
446.466	660.56
446.687	551.56
446.908	500.56
447.129	475.56
447.35	466.56
447.571	439.56
447.792	439.56
448.013	461.56
448.234	485.56
448.455	520.56
448.675	623.56
448.896	760.56
449.117	661.56
449.338	617.56
449.559	673.56
449.779	785.56
450	630.56
450.221	522.56
450.442	489.56
450.662	460.56
450.883	476.56
451.104	482.56
451.324	462.56
451.545	420.56
451.766	444.56
451.986	419.56
452.207	389.56
452.428	409.56
452.648	402.56
452.869	393.56
453.089	414.56
453.31	433.56
453.53	409.56
453.751	410.56
453.971	427.56
454.192	441.56
454.412	425.56
454.633	399.56
454.853	395.56
455.073	419.56
455.294	433.56
455.514	530.56
455.734	509.56
455.955	424.56
456.175	370.56
456.395	387.56
456.616	359.56
456.836	389.56
457.056	372.56
457.276	361.56
457.497	383.56
457.717	378.56
457.937	385.56
458.157	385.56
458.377	363.56
458.598	403.56
458.818	474.56
459.038	576.56
459.258	587.56
459.478	490.56
459.698	430.56
459.918	410.56
460.138	412.56
460.358	418.56
460.578	403.56
460.798	418.56
461.018	400.56
461.238	431.56
461.458	414.56
461.678	412.56
461.898	402.56
462.118	413.56
462.338	409.56
462.558	406.56
462.777	422.56
462.997	416.56
463.217	441.56
463.437	440.56
463.657	427.56
463.876	420.56
464.096	438.56
464.316	433.56
464.536	449.56
464.755	442.56
464.975	453.56
465.195	501.56
465.414	585.56
465.634	528.56
465.854	470.56
466.073	422.56
466.293	438.56
466.512	398.56
466.732	413.56
466.951	401.56
467.171	407.56
467.391	407.56
467.61	410.56
467.829	410.56
468.049	414.56
468.268	430.56
468.488	420.56
468.707	400.56
468.927	397.56
469.146	395.56
469.365	389.56
469.585	389.56
469.804	403.56
470.023	416.56
470.243	421.56
470.462	403.56
470.681	428.56
470.901	445.56
471.12	422.56
471.339	410.56
471.558	437.56
471.777	422.56
471.997	413.56
472.216	432.56
472.435	463.56
472.654	450.56
472.873	430.56
473.092	437.56
473.311	404.56
473.53	410.56
473.749	418.56
473.968	464.56
474.187	588.56
474.406	598.56
474.625	504.56
474.844	427.56
475.063	412.56
475.282	434.56
475.501	407.56
475.72	430.56
475.939	433.56
476.158	407.56
476.377	432.56
476.596	433.56
476.814	439.56
477.033	450.56
477.252	445.56
477.471	445.56
477.69	441.56
477.908	433.56
478.127	444.56
478.346	445.56
478.564	462.56
478.783	463.56
479.002	452.56
479.22	466.56
479.439	492.56
479.658	496.56
479.876	493.56
480.095	504.56
480.313	524.56
480.532	513.56
480.751	491.56
480.969	509.56
481.188	593.56
481.406	625.56
481.624	553.56
481.843	505.56
482.061	508.56
482.28	486.56
482.498	509.56
482.717	484.56
482.935	477.56
483.153	483.56
483.372	472.56
483.59	492.56
483.808	470.56
484.027	499.56
484.245	470.56
484.463	513.56
484.681	495.56
484.9	521.56
485.118	486.56
485.336	490.56
485.554	466.56
485.772	505.56
485.99	517.56
486.209	501.56
486.427	513.56
486.645	523.56
486.863	555.56
487.081	547.56
487.299	504.56
487.517	517.56
487.735	496.56
487.953	511.56
488.171	523.56
488.389	513.56
488.607	528.56
488.825	520.56
489.043	522.56
489.261	506.56
489.479	539.56
489.696	533.56
489.914	535.56
490.132	514.56
490.35	535.56
490.568	543.56
490.786	562.56
491.003	572.56
491.221	567.56
491.439	585.56
491.657	585.56
491.874	603.56
492.092	596.56
492.31	602.56
492.527	585.56
492.745	603.56
492.963	613.56
493.18	589.56
493.398	602.56
493.615	611.56
493.833	613.56
494.05	630.56
494.268	605.56
494.485	599.56
494.703	630.56
494.92	619.56
495.138	623.56
495.355	632.56
495.573	608.56
495.79	600.56
496.008	610.56
496.225	630.56
496.442	637.56
496.66	611.56
496.877	623.56
497.094	629.56
497.312	622.56
497.529	611.56
497.746	654.56
497.963	645.56
498.181	668.56
498.398	673.56
498.615	659.56
498.832	684.56
499.049	671.56
499.267	685.56
499.484	714.56
499.701	733.56
499.918	773.56
500.135	760.56
500.352	746.56
500.569	784.56
500.786	778.56
501.003	808.56
501.22	779.56
501.437	761.56
501.654	749.56
501.871	761.56
