Data from 1972.PennyLincolnUp.Lamp.En5.5.200Scan.071719.P1._HRD10591_15-28-58-844.txt Node
Date: Thu Jul 18 15:28:58 EDT 2019
User: cochatt
Spectrometer: HR+D1059
Trigger mode: 1
Integration Time (sec): 1.000000E-1
Scans to average: 1
Electric dark correction enabled: true
Nonlinearity correction enabled: false
Boxcar width: 0
XAxis mode: Wavelengths
Number of Pixels in Spectrum: 2048
>>>>>Begin Spectral Data<<<<<
223.165	-18.5
223.4	-18.5
223.635	-18.5
223.869	-24.5
224.104	-2.5
224.338	-6.5
224.573	-17.5
224.808	-14.5
225.042	-17.5
225.277	-7.5
225.511	2.5
225.746	3.5
225.98	11.5
226.215	-2.5
226.449	8.5
226.683	29.5
226.918	32.5
227.152	23.5
227.387	33.5
227.621	19.5
227.856	40.5
228.09	37.5
228.324	54.5
228.559	56.5
228.793	67.5
229.027	107.5
229.262	125.5
229.496	116.5
229.73	143.5
229.964	172.5
230.199	129.5
230.433	120.5
230.667	131.5
230.901	120.5
231.136	102.5
231.37	108.5
231.604	121.5
231.838	120.5
232.072	104.5
232.306	124.5
232.541	116.5
232.775	122.5
233.009	108.5
233.243	119.5
233.477	122.5
233.711	121.5
233.945	125.5
234.179	128.5
234.413	124.5
234.647	119.5
234.881	130.5
235.115	118.5
235.349	112.5
235.583	123.5
235.817	117.5
236.051	124.5
236.285	139.5
236.519	131.5
236.753	119.5
236.987	141.5
237.221	209.5
237.455	252.5
237.689	217.5
237.922	172.5
238.156	122.5
238.39	144.5
238.624	140.5
238.858	123.5
239.091	117.5
239.325	130.5
239.559	132.5
239.793	128.5
240.027	119.5
240.26	147.5
240.494	167.5
240.728	161.5
240.961	162.5
241.195	142.5
241.429	148.5
241.662	131.5
241.896	142.5
242.13	137.5
242.363	137.5
242.597	136.5
242.83	154.5
243.064	132.5
243.298	153.5
243.531	146.5
243.765	146.5
243.998	133.5
244.232	144.5
244.465	140.5
244.699	160.5
244.932	141.5
245.166	125.5
245.399	141.5
245.633	142.5
245.866	144.5
246.099	168.5
246.333	136.5
246.566	149.5
246.8	154.5
247.033	166.5
247.266	176.5
247.5	167.5
247.733	150.5
247.966	165.5
248.2	172.5
248.433	183.5
248.666	173.5
248.899	201.5
249.133	213.5
249.366	220.5
249.599	213.5
249.832	197.5
250.066	193.5
250.299	201.5
250.532	202.5
250.765	206.5
250.998	238.5
251.231	256.5
251.465	236.5
251.698	216.5
251.931	201.5
252.164	202.5
252.397	209.5
252.63	197.5
252.863	217.5
253.096	246.5
253.329	231.5
253.562	234.5
253.795	236.5
254.028	220.5
254.261	243.5
254.494	237.5
254.727	271.5
254.96	300.5
255.193	302.5
255.426	251.5
255.659	276.5
255.892	261.5
256.124	254.5
256.357	253.5
256.59	222.5
256.823	232.5
257.056	236.5
257.289	234.5
257.521	226.5
257.754	229.5
257.987	217.5
258.22	206.5
258.452	208.5
258.685	216.5
258.918	219.5
259.151	218.5
259.383	226.5
259.616	244.5
259.849	240.5
260.081	245.5
260.314	282.5
260.547	266.5
260.779	260.5
261.012	256.5
261.244	242.5
261.477	222.5
261.71	229.5
261.942	234.5
262.175	261.5
262.407	236.5
262.64	215.5
262.872	209.5
263.105	233.5
263.337	232.5
263.57	189.5
263.802	215.5
264.035	216.5
264.267	227.5
264.499	209.5
264.732	212.5
264.964	211.5
265.197	219.5
265.429	220.5
265.661	224.5
265.894	219.5
266.126	226.5
266.358	210.5
266.591	226.5
266.823	225.5
267.055	216.5
267.287	233.5
267.52	222.5
267.752	246.5
267.984	232.5
268.216	232.5
268.448	236.5
268.681	246.5
268.913	251.5
269.145	277.5
269.377	288.5
269.609	281.5
269.841	302.5
270.073	285.5
270.306	323.5
270.538	350.5
270.77	320.5
271.002	317.5
271.234	319.5
271.466	323.5
271.698	335.5
271.93	349.5
272.162	362.5
272.394	353.5
272.626	314.5
272.858	318.5
273.09	303.5
273.322	289.5
273.553	298.5
273.785	276.5
274.017	263.5
274.249	275.5
274.481	269.5
274.713	290.5
274.945	291.5
275.176	297.5
275.408	290.5
275.64	274.5
275.872	259.5
276.104	292.5
276.335	273.5
276.567	280.5
276.799	299.5
277.031	324.5
277.262	342.5
277.494	336.5
277.726	316.5
277.957	308.5
278.189	312.5
278.421	285.5
278.652	286.5
278.884	279.5
279.115	273.5
279.347	267.5
279.579	278.5
279.81	267.5
280.042	266.5
280.273	261.5
280.505	267.5
280.736	262.5
280.968	280.5
281.199	289.5
281.431	264.5
281.662	270.5
281.894	280.5
282.125	281.5
282.356	295.5
282.588	316.5
282.819	341.5
283.051	304.5
283.282	286.5
283.513	294.5
283.745	283.5
283.976	298.5
284.207	270.5
284.439	287.5
284.67	280.5
284.901	288.5
285.132	267.5
285.364	267.5
285.595	279.5
285.826	271.5
286.057	284.5
286.288	252.5
286.52	270.5
286.751	287.5
286.982	289.5
287.213	294.5
287.444	273.5
287.675	292.5
287.906	293.5
288.138	305.5
288.369	319.5
288.6	327.5
288.831	289.5
289.062	291.5
289.293	300.5
289.524	288.5
289.755	300.5
289.986	279.5
290.217	293.5
290.448	292.5
290.679	290.5
290.91	280.5
291.141	293.5
291.371	296.5
291.602	287.5
291.833	283.5
292.064	291.5
292.295	285.5
292.526	291.5
292.757	288.5
292.987	287.5
293.218	284.5
293.449	296.5
293.68	288.5
293.91	290.5
294.141	292.5
294.372	282.5
294.603	278.5
294.833	283.5
295.064	288.5
295.295	293.5
295.525	285.5
295.756	310.5
295.987	295.5
296.217	326.5
296.448	332.5
296.679	305.5
296.909	293.5
297.14	293.5
297.37	292.5
297.601	304.5
297.831	288.5
298.062	290.5
298.292	303.5
298.523	285.5
298.753	292.5
298.984	308.5
299.214	305.5
299.445	299.5
299.675	316.5
299.905	314.5
300.136	313.5
300.366	324.5
300.597	302.5
300.827	290.5
301.057	323.5
301.288	331.5
301.518	322.5
301.748	313.5
301.979	329.5
302.209	320.5
302.439	331.5
302.669	334.5
302.9	326.5
303.13	313.5
303.36	312.5
303.59	334.5
303.82	325.5
304.051	345.5
304.281	316.5
304.511	313.5
304.741	313.5
304.971	316.5
305.201	322.5
305.431	315.5
305.661	336.5
305.891	339.5
306.121	327.5
306.352	312.5
306.582	335.5
306.812	333.5
307.042	329.5
307.272	340.5
307.502	320.5
307.731	320.5
307.961	325.5
308.191	341.5
308.421	334.5
308.651	342.5
308.881	337.5
309.111	350.5
309.341	337.5
309.571	362.5
309.8	375.5
310.03	386.5
310.26	374.5
310.49	384.5
310.72	375.5
310.949	419.5
311.179	418.5
311.409	412.5
311.639	386.5
311.868	405.5
312.098	387.5
312.328	386.5
312.557	432.5
312.787	422.5
313.017	422.5
313.246	411.5
313.476	405.5
313.706	387.5
313.935	407.5
314.165	426.5
314.394	426.5
314.624	396.5
314.853	383.5
315.083	396.5
315.312	386.5
315.542	373.5
315.771	398.5
316.001	386.5
316.23	377.5
316.46	381.5
316.689	387.5
316.919	394.5
317.148	395.5
317.377	395.5
317.607	399.5
317.836	388.5
318.065	396.5
318.295	375.5
318.524	388.5
318.753	389.5
318.983	389.5
319.212	389.5
319.441	405.5
319.67	386.5
319.9	383.5
320.129	398.5
320.358	367.5
320.587	403.5
320.816	394.5
321.046	420.5
321.275	411.5
321.504	427.5
321.733	412.5
321.962	429.5
322.191	439.5
322.42	452.5
322.649	477.5
322.878	489.5
323.108	500.5
323.337	532.5
323.566	537.5
323.795	602.5
324.024	658.5
324.253	816.5
324.482	1224.5
324.71	1977.5
324.939	2897.5
325.168	2517.5
325.397	1289.5
325.626	817.5
325.855	637.5
326.084	588.5
326.313	557.5
326.542	582.5
326.77	642.5
326.999	766.5
327.228	1086.5
327.457	1751.5
327.686	2151.5
327.914	1432.5
328.143	898.5
328.372	758.5
328.6	693.5
328.829	649.5
329.058	661.5
329.287	689.5
329.515	616.5
329.744	578.5
329.972	566.5
330.201	597.5
330.43	659.5
330.658	694.5
330.887	698.5
331.115	699.5
331.344	600.5
331.572	540.5
331.801	538.5
332.03	526.5
332.258	500.5
332.486	473.5
332.715	461.5
332.943	457.5
333.172	475.5
333.4	481.5
333.629	452.5
333.857	508.5
334.085	502.5
334.314	533.5
334.542	565.5
334.771	609.5
334.999	519.5
335.227	506.5
335.455	477.5
335.684	456.5
335.912	446.5
336.14	453.5
336.369	442.5
336.597	459.5
336.825	457.5
337.053	442.5
337.281	435.5
337.51	429.5
337.738	432.5
337.966	438.5
338.194	443.5
338.422	451.5
338.65	424.5
338.878	426.5
339.106	410.5
339.334	403.5
339.562	416.5
339.79	404.5
340.018	419.5
340.246	437.5
340.474	440.5
340.702	437.5
340.93	434.5
341.158	412.5
341.386	419.5
341.614	444.5
341.842	438.5
342.07	426.5
342.298	421.5
342.526	407.5
342.754	409.5
342.981	408.5
343.209	409.5
343.437	400.5
343.665	401.5
343.893	444.5
344.12	420.5
344.348	427.5
344.576	419.5
344.804	424.5
345.031	437.5
345.259	448.5
345.487	456.5
345.714	440.5
345.942	421.5
346.17	415.5
346.397	419.5
346.625	410.5
346.853	427.5
347.08	395.5
347.308	435.5
347.535	425.5
347.763	448.5
347.99	429.5
348.218	436.5
348.445	447.5
348.673	458.5
348.9	444.5
349.128	410.5
349.355	385.5
349.583	390.5
349.81	391.5
350.037	402.5
350.265	401.5
350.492	402.5
350.72	413.5
350.947	405.5
351.174	426.5
351.402	420.5
351.629	428.5
351.856	428.5
352.083	448.5
352.311	448.5
352.538	439.5
352.765	468.5
352.992	439.5
353.22	434.5
353.447	412.5
353.674	395.5
353.901	387.5
354.128	373.5
354.355	378.5
354.583	372.5
354.81	390.5
355.037	384.5
355.264	375.5
355.491	354.5
355.718	373.5
355.945	373.5
356.172	365.5
356.399	364.5
356.626	342.5
356.853	366.5
357.08	382.5
357.307	370.5
357.534	359.5
357.761	368.5
357.988	358.5
358.215	365.5
358.441	374.5
358.668	377.5
358.895	385.5
359.122	394.5
359.349	412.5
359.576	409.5
359.802	472.5
360.029	464.5
360.256	488.5
360.483	456.5
360.709	418.5
360.936	418.5
361.163	403.5
361.39	402.5
361.616	421.5
361.843	412.5
362.07	399.5
362.296	405.5
362.523	399.5
362.749	406.5
362.976	399.5
363.203	409.5
363.429	382.5
363.656	398.5
363.882	388.5
364.109	404.5
364.335	395.5
364.562	367.5
364.788	391.5
365.015	402.5
365.241	379.5
365.468	388.5
365.694	401.5
365.92	392.5
366.147	381.5
366.373	397.5
366.599	380.5
366.826	387.5
367.052	373.5
367.278	373.5
367.505	368.5
367.731	389.5
367.957	381.5
368.184	358.5
368.41	382.5
368.636	412.5
368.862	404.5
369.089	397.5
369.315	381.5
369.541	381.5
369.767	355.5
369.993	382.5
370.219	384.5
370.445	376.5
370.672	362.5
370.898	384.5
371.124	370.5
371.35	370.5
371.576	382.5
371.802	354.5
372.028	359.5
372.254	364.5
372.48	375.5
372.706	372.5
372.932	362.5
373.158	363.5
373.384	398.5
373.61	386.5
373.835	370.5
374.061	362.5
374.287	380.5
374.513	336.5
374.739	380.5
374.965	379.5
375.191	380.5
375.416	379.5
375.642	361.5
375.868	356.5
376.094	371.5
376.319	364.5
376.545	358.5
376.771	356.5
376.997	360.5
377.222	372.5
377.448	362.5
377.674	382.5
377.899	358.5
378.125	370.5
378.35	356.5
378.576	356.5
378.802	355.5
379.027	352.5
379.253	372.5
379.478	359.5
379.704	363.5
379.929	374.5
380.155	377.5
380.38	362.5
380.606	367.5
380.831	366.5
381.057	376.5
381.282	375.5
381.507	380.5
381.733	360.5
381.958	388.5
382.184	353.5
382.409	376.5
382.634	376.5
382.86	373.5
383.085	386.5
383.31	360.5
383.535	382.5
383.761	404.5
383.986	378.5
384.211	387.5
384.436	378.5
384.662	388.5
384.887	372.5
385.112	384.5
385.337	377.5
385.562	373.5
385.787	389.5
386.013	392.5
386.238	392.5
386.463	401.5
386.688	367.5
386.913	387.5
387.138	383.5
387.363	377.5
387.588	384.5
387.813	376.5
388.038	378.5
388.263	400.5
388.488	374.5
388.713	372.5
388.938	404.5
389.163	394.5
389.387	396.5
389.612	385.5
389.837	384.5
390.062	371.5
390.287	385.5
390.512	385.5
390.736	387.5
390.961	381.5
391.186	373.5
391.411	391.5
391.636	392.5
391.86	394.5
392.085	394.5
392.31	399.5
392.534	380.5
392.759	390.5
392.984	392.5
393.208	401.5
393.433	392.5
393.658	404.5
393.882	396.5
394.107	390.5
394.331	380.5
394.556	384.5
394.78	377.5
395.005	365.5
395.229	389.5
395.454	412.5
395.678	393.5
395.903	423.5
396.127	430.5
396.352	430.5
396.576	415.5
396.801	406.5
397.025	405.5
397.249	418.5
397.474	413.5
397.698	406.5
397.922	429.5
398.147	430.5
398.371	435.5
398.595	437.5
398.82	427.5
399.044	448.5
399.268	450.5
399.492	476.5
399.717	482.5
399.941	517.5
400.165	542.5
400.389	554.5
400.613	501.5
400.837	461.5
401.062	461.5
401.286	453.5
401.51	434.5
401.734	455.5
401.958	433.5
402.182	460.5
402.406	462.5
402.63	467.5
402.854	448.5
403.078	452.5
403.302	447.5
403.526	450.5
403.75	468.5
403.974	462.5
404.198	454.5
404.422	463.5
404.645	456.5
404.869	468.5
405.093	510.5
405.317	565.5
405.541	614.5
405.765	526.5
405.988	500.5
406.212	526.5
406.436	533.5
406.66	555.5
406.883	516.5
407.107	541.5
407.331	562.5
407.555	655.5
407.778	651.5
408.002	599.5
408.226	530.5
408.449	502.5
408.673	521.5
408.896	544.5
409.12	573.5
409.344	560.5
409.567	514.5
409.791	480.5
410.014	471.5
410.238	447.5
410.461	449.5
410.685	489.5
410.908	500.5
411.132	527.5
411.355	596.5
411.578	532.5
411.802	463.5
412.025	447.5
412.249	462.5
412.472	496.5
412.695	570.5
412.919	540.5
413.142	492.5
413.365	466.5
413.589	454.5
413.812	437.5
414.035	445.5
414.258	446.5
414.482	439.5
414.705	428.5
414.928	434.5
415.151	412.5
415.374	435.5
415.597	446.5
415.821	446.5
416.044	433.5
416.267	427.5
416.49	437.5
416.713	424.5
416.936	445.5
417.159	452.5
417.382	437.5
417.605	457.5
417.828	462.5
418.051	482.5
418.274	469.5
418.497	432.5
418.72	438.5
418.943	446.5
419.166	469.5
419.389	485.5
419.611	483.5
419.834	450.5
420.057	469.5
420.28	465.5
420.503	468.5
420.726	467.5
420.948	476.5
421.171	534.5
421.394	583.5
421.617	506.5
421.839	448.5
422.062	452.5
422.285	502.5
422.507	553.5
422.73	656.5
422.953	596.5
423.175	521.5
423.398	509.5
423.621	482.5
423.843	508.5
424.066	526.5
424.288	517.5
424.511	558.5
424.733	603.5
424.956	664.5
425.178	660.5
425.401	658.5
425.623	700.5
425.846	587.5
426.068	520.5
426.291	536.5
426.513	522.5
426.735	515.5
426.958	551.5
427.18	653.5
427.402	801.5
427.625	890.5
427.847	804.5
428.069	693.5
428.292	591.5
428.514	539.5
428.736	498.5
428.958	477.5
429.181	493.5
429.403	466.5
429.625	516.5
429.847	518.5
430.069	614.5
430.292	610.5
430.514	505.5
430.736	497.5
430.958	462.5
431.18	465.5
431.402	452.5
431.624	452.5
431.846	426.5
432.068	423.5
432.29	424.5
432.512	434.5
432.734	448.5
432.956	439.5
433.178	473.5
433.4	484.5
433.622	458.5
433.844	456.5
434.066	450.5
434.287	454.5
434.509	436.5
434.731	446.5
434.953	440.5
435.175	462.5
435.397	488.5
435.618	510.5
435.84	578.5
436.062	668.5
436.284	754.5
436.505	619.5
436.727	562.5
436.949	517.5
437.17	493.5
437.392	491.5
437.614	500.5
437.835	552.5
438.057	664.5
438.278	782.5
438.5	764.5
438.721	852.5
438.943	804.5
439.165	631.5
439.386	572.5
439.608	551.5
439.829	538.5
440.05	571.5
440.272	638.5
440.493	594.5
440.715	548.5
440.936	493.5
441.158	475.5
441.379	498.5
441.6	466.5
441.822	505.5
442.043	564.5
442.264	657.5
442.486	729.5
442.707	600.5
442.928	545.5
443.149	566.5
443.371	586.5
443.592	618.5
443.813	700.5
444.034	789.5
444.255	616.5
444.476	550.5
444.698	531.5
444.919	493.5
445.14	611.5
445.361	578.5
445.582	573.5
445.803	673.5
446.024	804.5
446.245	805.5
446.466	726.5
446.687	597.5
446.908	532.5
447.129	521.5
447.35	500.5
447.571	498.5
447.792	473.5
448.013	509.5
448.234	529.5
448.455	594.5
448.675	686.5
448.896	780.5
449.117	699.5
449.338	651.5
449.559	744.5
449.779	861.5
450	682.5
450.221	582.5
450.442	505.5
450.662	478.5
450.883	489.5
451.104	526.5
451.324	487.5
451.545	477.5
451.766	482.5
451.986	452.5
452.207	434.5
452.428	424.5
452.648	425.5
452.869	455.5
453.089	452.5
453.31	436.5
453.53	442.5
453.751	416.5
453.971	435.5
454.192	456.5
454.412	478.5
454.633	436.5
454.853	420.5
455.073	449.5
455.294	466.5
455.514	544.5
455.734	510.5
455.955	466.5
456.175	403.5
456.395	414.5
456.616	408.5
456.836	411.5
457.056	391.5
457.276	397.5
457.497	379.5
457.717	422.5
457.937	388.5
458.157	432.5
458.377	414.5
458.598	468.5
458.818	529.5
459.038	632.5
459.258	652.5
459.478	520.5
459.698	461.5
459.918	449.5
460.138	432.5
460.358	456.5
460.578	428.5
460.798	463.5
461.018	453.5
461.238	434.5
461.458	453.5
461.678	429.5
461.898	424.5
462.118	439.5
462.338	436.5
462.558	441.5
462.777	458.5
462.997	443.5
463.217	471.5
463.437	473.5
463.657	477.5
463.876	438.5
464.096	460.5
464.316	442.5
464.536	483.5
464.755	470.5
464.975	486.5
465.195	539.5
465.414	667.5
465.634	557.5
465.854	486.5
466.073	475.5
466.293	448.5
466.512	445.5
466.732	429.5
466.951	444.5
467.171	422.5
467.391	440.5
467.61	425.5
467.829	464.5
468.049	450.5
468.268	476.5
468.488	442.5
468.707	422.5
468.927	415.5
469.146	413.5
469.365	403.5
469.585	411.5
469.804	454.5
470.023	463.5
470.243	445.5
470.462	462.5
470.681	478.5
470.901	461.5
471.12	441.5
471.339	416.5
471.558	428.5
471.777	427.5
471.997	421.5
472.216	464.5
472.435	519.5
472.654	485.5
472.873	452.5
473.092	460.5
473.311	457.5
473.53	458.5
473.749	461.5
473.968	501.5
474.187	642.5
474.406	656.5
474.625	519.5
474.844	456.5
475.063	458.5
475.282	450.5
475.501	452.5
475.72	458.5
475.939	445.5
476.158	454.5
476.377	451.5
476.596	445.5
476.814	483.5
477.033	477.5
477.252	466.5
477.471	476.5
477.69	465.5
477.908	470.5
478.127	464.5
478.346	466.5
478.564	483.5
478.783	490.5
479.002	475.5
479.22	494.5
479.439	539.5
479.658	517.5
479.876	533.5
480.095	542.5
480.313	575.5
480.532	542.5
480.751	559.5
480.969	576.5
481.188	638.5
481.406	724.5
481.624	626.5
481.843	577.5
482.061	526.5
482.28	513.5
482.498	543.5
482.717	527.5
482.935	522.5
483.153	524.5
483.372	497.5
483.59	521.5
483.808	524.5
484.027	531.5
484.245	499.5
484.463	534.5
484.681	514.5
484.9	538.5
485.118	530.5
485.336	541.5
485.554	557.5
485.772	544.5
485.99	533.5
486.209	564.5
486.427	568.5
486.645	558.5
486.863	576.5
487.081	584.5
487.299	576.5
487.517	549.5
487.735	569.5
487.953	558.5
488.171	562.5
488.389	558.5
488.607	569.5
488.825	555.5
489.043	560.5
489.261	553.5
489.479	551.5
489.696	564.5
489.914	564.5
490.132	562.5
490.35	583.5
490.568	593.5
490.786	607.5
491.003	610.5
491.221	590.5
491.439	609.5
491.657	629.5
491.874	642.5
492.092	657.5
492.31	651.5
492.527	664.5
492.745	641.5
492.963	660.5
493.18	646.5
493.398	648.5
493.615	688.5
493.833	684.5
494.05	659.5
494.268	652.5
494.485	682.5
494.703	662.5
494.92	674.5
495.138	655.5
495.355	683.5
495.573	685.5
495.79	684.5
496.008	684.5
496.225	677.5
496.442	653.5
496.66	672.5
496.877	655.5
497.094	667.5
497.312	693.5
497.529	659.5
497.746	691.5
497.963	720.5
498.181	705.5
498.398	682.5
498.615	708.5
498.832	718.5
499.049	723.5
499.267	736.5
499.484	722.5
499.701	768.5
499.918	797.5
500.135	806.5
500.352	836.5
500.569	805.5
500.786	835.5
501.003	818.5
501.22	788.5
501.437	810.5
501.654	809.5
501.871	812.5
502.088	770.5
502.305	776.5
502.522	760.5
502.739	737.5
502.956	681.5
503.172	700.5
503.389	706.5
503.606	700.5
503.823	702.5
504.04	671.5
504.256	692.5
504.473	675.5
504.69	665.5
504.907	652.5
505.123	650.5
505.34	645.5
505.557	658.5
505.773	640.5
505.99	629.5
506.207	657.5
506.423	670.5
506.64	648.5
506.856	654.5
507.073	634.5
507.289	650.5
507.506	629.5
507.722	652.5
507.939	674.5
508.155	644.5
508.372	627.5
508.588	639.5
508.805	619.5
509.021	635.5
509.238	646.5
509.454	664.5
509.67	640.5
509.887	638.5
510.103	662.5
510.319	644.5
510.536	776.5
510.752	1409.5
510.968	1096.5
511.184	696.5
511.401	637.5
511.617	627.5
511.833	595.5
512.049	612.5
512.265	584.5
512.481	610.5
512.698	602.5
512.914	622.5
513.13	627.5
513.346	606.5
513.562	603.5
513.778	626.5
513.994	612.5
514.21	639.5
514.426	654.5
514.642	714.5
514.858	790.5
515.074	804.5
515.29	1035.5
515.506	1544.5
515.721	1239.5
515.937	795.5
516.153	693.5
516.369	670.5
516.585	623.5
516.801	634.5
517.016	607.5
517.232	591.5
517.448	619.5
517.664	628.5
517.879	594.5
518.095	569.5
518.311	584.5
518.527	603.5
518.742	604.5
518.958	601.5
519.173	589.5
519.389	593.5
519.605	602.5
519.82	625.5
