Data from 1972.PennyLincolnUp.Lamp.En5.5.200Scan.071719.P1._HRD10591_15-27-24-844.txt Node
Date: Thu Jul 18 15:27:24 EDT 2019
User: cochatt
Spectrometer: HR+D1059
Trigger mode: 1
Integration Time (sec): 1.000000E-1
Scans to average: 1
Electric dark correction enabled: true
Nonlinearity correction enabled: false
Boxcar width: 0
XAxis mode: Wavelengths
Number of Pixels in Spectrum: 2048
>>>>>Begin Spectral Data<<<<<
223.165	-13.94
223.4	-13.94
223.635	-13.94
223.869	-25.94
224.104	-18.94
224.338	-8.94
224.573	-27.94
224.808	-19.94
225.042	4.06
225.277	-9.94
225.511	0.06
225.746	6.06
225.98	11.06
226.215	19.06
226.449	10.06
226.683	15.06
226.918	31.06
227.152	29.06
227.387	24.06
227.621	29.06
227.856	39.06
228.09	46.06
228.324	58.06
228.559	63.06
228.793	71.06
229.027	101.06
229.262	93.06
229.496	105.06
229.73	128.06
229.964	155.06
230.199	133.06
230.433	97.06
230.667	115.06
230.901	102.06
231.136	103.06
231.37	105.06
231.604	107.06
231.838	108.06
232.072	100.06
232.306	105.06
232.541	121.06
232.775	110.06
233.009	106.06
233.243	105.06
233.477	113.06
233.711	114.06
233.945	115.06
234.179	99.06
234.413	121.06
234.647	108.06
234.881	101.06
235.115	116.06
235.349	108.06
235.583	114.06
235.817	116.06
236.051	97.06
236.285	124.06
236.519	118.06
236.753	99.06
236.987	146.06
237.221	180.06
237.455	227.06
237.689	194.06
237.922	142.06
238.156	129.06
238.39	130.06
238.624	115.06
238.858	130.06
239.091	124.06
239.325	121.06
239.559	124.06
239.793	136.06
240.027	126.06
240.26	127.06
240.494	136.06
240.728	153.06
240.961	143.06
241.195	141.06
241.429	123.06
241.662	130.06
241.896	118.06
242.13	125.06
242.363	133.06
242.597	128.06
242.83	128.06
243.064	153.06
243.298	139.06
243.531	110.06
243.765	128.06
243.998	128.06
244.232	132.06
244.465	136.06
244.699	137.06
244.932	142.06
245.166	146.06
245.399	124.06
245.633	129.06
245.866	146.06
246.099	133.06
246.333	154.06
246.566	142.06
246.8	141.06
247.033	137.06
247.266	140.06
247.5	147.06
247.733	156.06
247.966	165.06
248.2	151.06
248.433	162.06
248.666	164.06
248.899	167.06
249.133	192.06
249.366	194.06
249.599	182.06
249.832	169.06
250.066	163.06
250.299	170.06
250.532	191.06
250.765	199.06
250.998	202.06
251.231	224.06
251.465	207.06
251.698	191.06
251.931	205.06
252.164	197.06
252.397	184.06
252.63	176.06
252.863	200.06
253.096	212.06
253.329	209.06
253.562	198.06
253.795	227.06
254.028	205.06
254.261	196.06
254.494	225.06
254.727	228.06
254.96	274.06
255.193	253.06
255.426	246.06
255.659	219.06
255.892	256.06
256.124	227.06
256.357	228.06
256.59	214.06
256.823	206.06
257.056	225.06
257.289	199.06
257.521	188.06
257.754	198.06
257.987	212.06
258.22	203.06
258.452	201.06
258.685	203.06
258.918	200.06
259.151	202.06
259.383	206.06
259.616	216.06
259.849	216.06
260.081	227.06
260.314	245.06
260.547	246.06
260.779	235.06
261.012	228.06
261.244	224.06
261.477	219.06
261.71	227.06
261.942	221.06
262.175	210.06
262.407	233.06
262.64	209.06
262.872	212.06
263.105	204.06
263.337	205.06
263.57	207.06
263.802	203.06
264.035	206.06
264.267	211.06
264.499	191.06
264.732	219.06
264.964	207.06
265.197	203.06
265.429	211.06
265.661	206.06
265.894	226.06
266.126	203.06
266.358	203.06
266.591	196.06
266.823	195.06
267.055	215.06
267.287	224.06
267.52	213.06
267.752	218.06
267.984	201.06
268.216	224.06
268.448	210.06
268.681	239.06
268.913	214.06
269.145	255.06
269.377	268.06
269.609	252.06
269.841	263.06
270.073	268.06
270.306	277.06
270.538	312.06
270.77	289.06
271.002	277.06
271.234	262.06
271.466	275.06
271.698	302.06
271.93	289.06
272.162	293.06
272.394	304.06
272.626	276.06
272.858	265.06
273.09	279.06
273.322	245.06
273.553	241.06
273.785	248.06
274.017	253.06
274.249	242.06
274.481	245.06
274.713	238.06
274.945	259.06
275.176	257.06
275.408	264.06
275.64	243.06
275.872	260.06
276.104	243.06
276.335	249.06
276.567	262.06
276.799	270.06
277.031	266.06
277.262	315.06
277.494	285.06
277.726	290.06
277.957	262.06
278.189	268.06
278.421	248.06
278.652	262.06
278.884	252.06
279.115	256.06
279.347	244.06
279.579	246.06
279.81	228.06
280.042	255.06
280.273	242.06
280.505	267.06
280.736	234.06
280.968	238.06
281.199	234.06
281.431	229.06
281.662	235.06
281.894	239.06
282.125	252.06
282.356	273.06
282.588	290.06
282.819	273.06
283.051	264.06
283.282	253.06
283.513	240.06
283.745	256.06
283.976	265.06
284.207	259.06
284.439	266.06
284.67	265.06
284.901	256.06
285.132	252.06
285.364	248.06
285.595	256.06
285.826	249.06
286.057	253.06
286.288	261.06
286.52	240.06
286.751	248.06
286.982	249.06
287.213	258.06
287.444	260.06
287.675	259.06
287.906	276.06
288.138	285.06
288.369	274.06
288.6	283.06
288.831	256.06
289.062	268.06
289.293	265.06
289.524	264.06
289.755	282.06
289.986	262.06
290.217	266.06
290.448	269.06
290.679	251.06
290.91	281.06
291.141	256.06
291.371	254.06
291.602	259.06
291.833	277.06
292.064	242.06
292.295	256.06
292.526	277.06
292.757	269.06
292.987	262.06
293.218	264.06
293.449	253.06
293.68	262.06
293.91	271.06
294.141	244.06
294.372	266.06
294.603	259.06
294.833	272.06
295.064	256.06
295.295	275.06
295.525	282.06
295.756	278.06
295.987	287.06
296.217	310.06
296.448	323.06
296.679	290.06
296.909	274.06
297.14	281.06
297.37	266.06
297.601	265.06
297.831	279.06
298.062	274.06
298.292	279.06
298.523	277.06
298.753	265.06
298.984	271.06
299.214	271.06
299.445	273.06
299.675	283.06
299.905	276.06
300.136	279.06
300.366	277.06
300.597	285.06
300.827	296.06
301.057	297.06
301.288	300.06
301.518	290.06
301.748	291.06
301.979	285.06
302.209	304.06
302.439	296.06
302.669	309.06
302.9	294.06
303.13	274.06
303.36	288.06
303.59	294.06
303.82	287.06
304.051	304.06
304.281	287.06
304.511	305.06
304.741	289.06
304.971	292.06
305.201	282.06
305.431	281.06
305.661	284.06
305.891	286.06
306.121	301.06
306.352	300.06
306.582	298.06
306.812	294.06
307.042	305.06
307.272	300.06
307.502	313.06
307.731	298.06
307.961	299.06
308.191	316.06
308.421	299.06
308.651	317.06
308.881	305.06
309.111	318.06
309.341	318.06
309.571	339.06
309.8	321.06
310.03	329.06
310.26	330.06
310.49	329.06
310.72	342.06
310.949	366.06
311.179	367.06
311.409	362.06
311.639	350.06
311.868	345.06
312.098	344.06
312.328	343.06
312.557	365.06
312.787	388.06
313.017	402.06
313.246	375.06
313.476	344.06
313.706	346.06
313.935	361.06
314.165	370.06
314.394	390.06
314.624	365.06
314.853	338.06
315.083	363.06
315.312	327.06
315.542	355.06
315.771	345.06
316.001	343.06
316.23	324.06
316.46	335.06
316.689	338.06
316.919	369.06
317.148	346.06
317.377	350.06
317.607	344.06
317.836	348.06
318.065	357.06
318.295	346.06
318.524	320.06
318.753	352.06
318.983	331.06
319.212	329.06
319.441	350.06
319.67	354.06
319.9	349.06
320.129	351.06
320.358	355.06
320.587	348.06
320.816	371.06
321.046	370.06
321.275	374.06
321.504	365.06
321.733	352.06
321.962	391.06
322.191	410.06
322.42	401.06
322.649	419.06
322.878	437.06
323.108	434.06
323.337	458.06
323.566	480.06
323.795	517.06
324.024	566.06
324.253	706.06
324.482	979.06
324.71	1526.06
324.939	2228.06
325.168	1980.06
325.397	997.06
325.626	646.06
325.855	558.06
326.084	497.06
326.313	475.06
326.542	475.06
326.77	534.06
326.999	616.06
327.228	860.06
327.457	1353.06
327.686	1694.06
327.914	1125.06
328.143	740.06
328.372	632.06
328.6	578.06
328.829	549.06
329.058	558.06
329.287	568.06
329.515	546.06
329.744	494.06
329.972	485.06
330.201	506.06
330.43	540.06
330.658	574.06
330.887	611.06
331.115	590.06
331.344	505.06
331.572	449.06
331.801	466.06
332.03	438.06
332.258	445.06
332.486	434.06
332.715	407.06
332.943	402.06
333.172	395.06
333.4	419.06
333.629	439.06
333.857	445.06
334.085	445.06
334.314	441.06
334.542	483.06
334.771	510.06
334.999	445.06
335.227	425.06
335.455	390.06
335.684	396.06
335.912	406.06
336.14	389.06
336.369	410.06
336.597	398.06
336.825	398.06
337.053	407.06
337.281	392.06
337.51	386.06
337.738	406.06
337.966	397.06
338.194	380.06
338.422	396.06
338.65	392.06
338.878	388.06
339.106	381.06
339.334	387.06
339.562	386.06
339.79	381.06
340.018	370.06
340.246	381.06
340.474	403.06
340.702	381.06
340.93	374.06
341.158	397.06
341.386	378.06
341.614	384.06
341.842	388.06
342.07	376.06
342.298	374.06
342.526	381.06
342.754	371.06
342.981	373.06
343.209	359.06
343.437	366.06
343.665	370.06
343.893	374.06
344.12	377.06
344.348	391.06
344.576	397.06
344.804	389.06
345.031	391.06
345.259	393.06
345.487	410.06
345.714	387.06
345.942	377.06
346.17	377.06
346.397	382.06
346.625	370.06
346.853	362.06
347.08	386.06
347.308	370.06
347.535	383.06
347.763	395.06
347.99	375.06
348.218	396.06
348.445	402.06
348.673	378.06
348.9	398.06
349.128	384.06
349.355	350.06
349.583	348.06
349.81	369.06
350.037	360.06
350.265	358.06
350.492	349.06
350.72	364.06
350.947	377.06
351.174	378.06
351.402	393.06
351.629	399.06
351.856	368.06
352.083	372.06
352.311	408.06
352.538	398.06
352.765	387.06
352.992	394.06
353.22	400.06
353.447	387.06
353.674	361.06
353.901	362.06
354.128	359.06
354.355	352.06
354.583	352.06
354.81	354.06
355.037	345.06
355.264	332.06
355.491	363.06
355.718	339.06
355.945	349.06
356.172	340.06
356.399	340.06
356.626	343.06
356.853	355.06
357.08	329.06
357.307	328.06
357.534	351.06
357.761	324.06
357.988	324.06
358.215	355.06
358.441	339.06
358.668	341.06
358.895	334.06
359.122	354.06
359.349	366.06
359.576	369.06
359.802	389.06
360.029	436.06
360.256	439.06
360.483	399.06
360.709	391.06
360.936	377.06
361.163	376.06
361.39	372.06
361.616	379.06
361.843	386.06
362.07	366.06
362.296	378.06
362.523	380.06
362.749	366.06
362.976	347.06
363.203	358.06
363.429	361.06
363.656	352.06
363.882	362.06
364.109	346.06
364.335	359.06
364.562	360.06
364.788	351.06
365.015	354.06
365.241	348.06
365.468	376.06
365.694	374.06
365.92	358.06
366.147	348.06
366.373	342.06
366.599	372.06
366.826	354.06
367.052	338.06
367.278	355.06
367.505	344.06
367.731	360.06
367.957	356.06
368.184	356.06
368.41	350.06
368.636	350.06
368.862	374.06
369.089	350.06
369.315	348.06
369.541	354.06
369.767	361.06
369.993	361.06
370.219	347.06
370.445	333.06
370.672	348.06
370.898	353.06
371.124	346.06
371.35	348.06
371.576	353.06
371.802	348.06
372.028	319.06
372.254	334.06
372.48	355.06
372.706	347.06
372.932	355.06
373.158	330.06
373.384	335.06
373.61	329.06
373.835	359.06
374.061	349.06
374.287	356.06
374.513	340.06
374.739	330.06
374.965	353.06
375.191	337.06
375.416	347.06
375.642	362.06
375.868	360.06
376.094	356.06
376.319	332.06
376.545	349.06
376.771	352.06
376.997	338.06
377.222	330.06
377.448	341.06
377.674	330.06
377.899	347.06
378.125	337.06
378.35	364.06
378.576	339.06
378.802	338.06
379.027	327.06
379.253	332.06
379.478	342.06
379.704	337.06
379.929	350.06
380.155	328.06
380.38	332.06
380.606	340.06
380.831	351.06
381.057	353.06
381.282	334.06
381.507	353.06
381.733	361.06
381.958	337.06
382.184	349.06
382.409	340.06
382.634	345.06
382.86	352.06
383.085	346.06
383.31	349.06
383.535	344.06
383.761	342.06
383.986	363.06
384.211	355.06
384.436	360.06
384.662	362.06
384.887	362.06
385.112	348.06
385.337	359.06
385.562	371.06
385.787	365.06
386.013	378.06
386.238	370.06
386.463	350.06
386.688	374.06
386.913	359.06
387.138	354.06
387.363	371.06
387.588	350.06
387.813	360.06
388.038	352.06
388.263	354.06
388.488	354.06
388.713	373.06
388.938	368.06
389.163	374.06
389.387	355.06
389.612	360.06
389.837	370.06
390.062	359.06
390.287	360.06
390.512	362.06
390.736	387.06
390.961	378.06
391.186	382.06
391.411	370.06
391.636	355.06
391.86	365.06
392.085	371.06
392.31	377.06
392.534	370.06
392.759	383.06
392.984	355.06
393.208	375.06
393.433	398.06
393.658	387.06
393.882	381.06
394.107	356.06
394.331	364.06
394.556	361.06
394.78	381.06
395.005	376.06
395.229	360.06
395.454	384.06
395.678	365.06
395.903	410.06
396.127	389.06
396.352	410.06
396.576	399.06
396.801	376.06
397.025	392.06
397.249	382.06
397.474	382.06
397.698	387.06
397.922	390.06
398.147	417.06
398.371	406.06
398.595	403.06
398.82	402.06
399.044	399.06
399.268	397.06
399.492	420.06
399.717	436.06
399.941	476.06
400.165	498.06
400.389	535.06
400.613	490.06
400.837	430.06
401.062	436.06
401.286	405.06
401.51	412.06
401.734	408.06
401.958	403.06
402.182	435.06
402.406	427.06
402.63	448.06
402.854	434.06
403.078	412.06
403.302	441.06
403.526	449.06
403.75	438.06
403.974	433.06
404.198	430.06
404.422	431.06
404.645	426.06
404.869	432.06
405.093	470.06
405.317	498.06
405.541	551.06
405.765	503.06
405.988	452.06
406.212	464.06
406.436	480.06
406.66	485.06
406.883	471.06
407.107	491.06
407.331	531.06
407.555	588.06
407.778	598.06
408.002	548.06
408.226	482.06
408.449	476.06
408.673	478.06
408.896	517.06
409.12	531.06
409.344	514.06
409.567	456.06
409.791	471.06
410.014	427.06
410.238	440.06
410.461	425.06
410.685	449.06
410.908	443.06
411.132	486.06
411.355	537.06
411.578	476.06
411.802	472.06
412.025	441.06
412.249	427.06
412.472	458.06
412.695	509.06
412.919	493.06
413.142	468.06
413.365	424.06
413.589	415.06
413.812	426.06
414.035	406.06
414.258	407.06
414.482	396.06
414.705	401.06
414.928	391.06
415.151	393.06
415.374	390.06
415.597	398.06
415.821	404.06
416.044	421.06
416.267	408.06
416.49	410.06
416.713	400.06
416.936	405.06
417.159	397.06
417.382	420.06
417.605	404.06
417.828	424.06
418.051	447.06
418.274	415.06
418.497	422.06
418.72	412.06
418.943	395.06
419.166	397.06
419.389	459.06
419.611	429.06
419.834	443.06
420.057	452.06
420.28	434.06
420.503	433.06
420.726	420.06
420.948	449.06
421.171	483.06
421.394	522.06
421.617	458.06
421.839	437.06
422.062	441.06
422.285	430.06
422.507	495.06
422.73	579.06
422.953	563.06
423.175	504.06
423.398	470.06
423.621	447.06
423.843	460.06
424.066	468.06
424.288	454.06
424.511	483.06
424.733	544.06
424.956	601.06
425.178	588.06
425.401	590.06
425.623	609.06
425.846	520.06
426.068	454.06
426.291	452.06
426.513	475.06
426.735	482.06
426.958	544.06
427.18	606.06
427.402	714.06
427.625	812.06
427.847	724.06
428.069	631.06
428.292	527.06
428.514	455.06
428.736	450.06
428.958	458.06
429.181	430.06
429.403	436.06
429.625	449.06
429.847	470.06
430.069	560.06
430.292	557.06
430.514	464.06
430.736	446.06
430.958	434.06
431.18	422.06
431.402	414.06
431.624	403.06
431.846	398.06
432.068	403.06
432.29	419.06
432.512	406.06
432.734	407.06
432.956	409.06
433.178	431.06
433.4	444.06
433.622	400.06
433.844	405.06
434.066	414.06
434.287	408.06
434.509	412.06
434.731	407.06
434.953	418.06
435.175	425.06
435.397	458.06
435.618	471.06
435.84	524.06
436.062	606.06
436.284	676.06
436.505	565.06
436.727	498.06
436.949	458.06
437.17	452.06
437.392	427.06
437.614	452.06
437.835	488.06
438.057	582.06
438.278	691.06
438.5	678.06
438.721	719.06
438.943	713.06
439.165	591.06
439.386	516.06
439.608	493.06
439.829	488.06
440.05	535.06
440.272	573.06
440.493	532.06
440.715	502.06
440.936	461.06
441.158	448.06
441.379	452.06
441.6	461.06
441.822	484.06
442.043	503.06
442.264	601.06
442.486	632.06
442.707	541.06
442.928	494.06
443.149	515.06
443.371	517.06
443.592	552.06
443.813	621.06
444.034	685.06
444.255	590.06
444.476	509.06
444.698	489.06
444.919	470.06
445.14	552.06
445.361	541.06
445.582	509.06
445.803	608.06
446.024	705.06
446.245	736.06
446.466	645.06
446.687	548.06
446.908	471.06
447.129	461.06
447.35	444.06
447.571	474.06
447.792	421.06
448.013	433.06
448.234	476.06
448.455	500.06
448.675	658.06
448.896	726.06
449.117	621.06
449.338	591.06
449.559	702.06
449.779	760.06
450	639.06
450.221	510.06
450.442	471.06
450.662	459.06
450.883	446.06
451.104	476.06
451.324	435.06
451.545	419.06
451.766	434.06
451.986	410.06
452.207	390.06
452.428	407.06
452.648	398.06
452.869	382.06
453.089	395.06
453.31	427.06
453.53	406.06
453.751	412.06
453.971	411.06
454.192	435.06
454.412	424.06
454.633	392.06
454.853	396.06
455.073	408.06
455.294	442.06
455.514	504.06
455.734	497.06
455.955	402.06
456.175	389.06
456.395	363.06
456.616	351.06
456.836	370.06
457.056	383.06
457.276	364.06
457.497	378.06
457.717	362.06
457.937	369.06
458.157	380.06
458.377	388.06
458.598	390.06
458.818	458.06
459.038	550.06
459.258	556.06
459.478	466.06
459.698	416.06
459.918	404.06
460.138	411.06
460.358	404.06
460.578	412.06
460.798	416.06
461.018	433.06
461.238	414.06
461.458	422.06
461.678	397.06
461.898	413.06
462.118	398.06
462.338	397.06
462.558	414.06
462.777	430.06
462.997	421.06
463.217	445.06
463.437	450.06
463.657	414.06
463.876	441.06
464.096	443.06
464.316	440.06
464.536	428.06
464.755	453.06
464.975	448.06
465.195	496.06
465.414	568.06
465.634	520.06
465.854	439.06
466.073	409.06
466.293	412.06
466.512	400.06
466.732	385.06
466.951	410.06
467.171	416.06
467.391	405.06
467.61	415.06
467.829	428.06
468.049	422.06
468.268	414.06
468.488	408.06
468.707	396.06
468.927	403.06
469.146	389.06
469.365	401.06
469.585	384.06
469.804	408.06
470.023	399.06
470.243	402.06
470.462	413.06
470.681	423.06
470.901	433.06
471.12	430.06
471.339	416.06
471.558	399.06
471.777	409.06
471.997	398.06
472.216	412.06
472.435	448.06
472.654	437.06
472.873	419.06
473.092	420.06
473.311	409.06
473.53	422.06
473.749	430.06
473.968	467.06
474.187	544.06
474.406	589.06
474.625	470.06
474.844	439.06
475.063	414.06
475.282	441.06
475.501	425.06
475.72	419.06
475.939	429.06
476.158	431.06
476.377	426.06
476.596	417.06
476.814	434.06
477.033	439.06
477.252	446.06
477.471	421.06
477.69	410.06
477.908	425.06
478.127	438.06
478.346	463.06
478.564	460.06
478.783	448.06
479.002	454.06
479.22	482.06
479.439	478.06
479.658	516.06
479.876	488.06
480.095	501.06
480.313	508.06
480.532	480.06
480.751	501.06
480.969	499.06
481.188	557.06
481.406	630.06
481.624	539.06
481.843	478.06
482.061	474.06
482.28	474.06
482.498	488.06
482.717	481.06
482.935	477.06
483.153	482.06
483.372	478.06
483.59	482.06
483.808	475.06
484.027	476.06
484.245	480.06
484.463	474.06
484.681	494.06
484.9	518.06
485.118	488.06
485.336	501.06
485.554	507.06
485.772	499.06
485.99	494.06
486.209	512.06
486.427	474.06
486.645	520.06
486.863	522.06
487.081	554.06
487.299	513.06
487.517	516.06
487.735	522.06
487.953	519.06
488.171	523.06
488.389	492.06
488.607	512.06
488.825	504.06
489.043	538.06
489.261	513.06
489.479	526.06
489.696	536.06
489.914	520.06
490.132	539.06
490.35	550.06
490.568	533.06
490.786	564.06
491.003	563.06
491.221	551.06
491.439	570.06
491.657	553.06
491.874	588.06
492.092	595.06
492.31	590.06
492.527	588.06
492.745	600.06
492.963	604.06
493.18	594.06
493.398	606.06
493.615	633.06
493.833	600.06
494.05	625.06
494.268	607.06
494.485	591.06
494.703	615.06
494.92	611.06
495.138	591.06
495.355	610.06
495.573	625.06
495.79	608.06
496.008	626.06
496.225	609.06
496.442	610.06
496.66	615.06
496.877	617.06
497.094	600.06
497.312	620.06
497.529	609.06
497.746	636.06
497.963	628.06
498.181	650.06
498.398	631.06
498.615	653.06
498.832	676.06
499.049	647.06
499.267	688.06
499.484	708.06
499.701	724.06
499.918	729.06
500.135	749.06
500.352	758.06
500.569	767.06
500.786	777.06
501.003	755.06
501.22	762.06
501.437	749.06
501.654	757.06
501.871	758.06
502.088	748.06
