Data from 1972.PennyLincolnUp.Lamp.En5.5.200Scan.071719.P1._HRD10591_15-26-44-843.txt Node
Date: Thu Jul 18 15:26:44 EDT 2019
User: cochatt
Spectrometer: HR+D1059
Trigger mode: 1
Integration Time (sec): 1.000000E-1
Scans to average: 1
Electric dark correction enabled: true
Nonlinearity correction enabled: false
Boxcar width: 0
XAxis mode: Wavelengths
Number of Pixels in Spectrum: 2048
>>>>>Begin Spectral Data<<<<<
223.165	-11.69
223.4	-11.69
223.635	-11.69
223.869	-1.69
224.104	-18.69
224.338	-3.69
224.573	-11.69
224.808	-1.69
225.042	-5.69
225.277	-3.69
225.511	-17.69
225.746	-3.69
225.98	-0.69
226.215	7.31
226.449	15.31
226.683	14.31
226.918	22.31
227.152	21.31
227.387	34.31
227.621	26.31
227.856	41.31
228.09	58.31
228.324	50.31
228.559	59.31
228.793	67.31
229.027	87.31
229.262	84.31
229.496	98.31
229.73	100.31
229.964	123.31
230.199	110.31
230.433	93.31
230.667	90.31
230.901	101.31
231.136	110.31
231.37	104.31
231.604	91.31
231.838	104.31
232.072	97.31
232.306	91.31
232.541	95.31
232.775	99.31
233.009	103.31
233.243	107.31
233.477	96.31
233.711	106.31
233.945	112.31
234.179	120.31
234.413	106.31
234.647	122.31
234.881	104.31
235.115	122.31
235.349	108.31
235.583	100.31
235.817	108.31
236.051	117.31
236.285	128.31
236.519	117.31
236.753	108.31
236.987	113.31
237.221	144.31
237.455	180.31
237.689	152.31
237.922	114.31
238.156	114.31
238.39	109.31
238.624	126.31
238.858	96.31
239.091	103.31
239.325	99.31
239.559	125.31
239.793	94.31
240.027	125.31
240.26	110.31
240.494	124.31
240.728	122.31
240.961	129.31
241.195	128.31
241.429	98.31
241.662	102.31
241.896	105.31
242.13	117.31
242.363	109.31
242.597	122.31
242.83	120.31
243.064	129.31
243.298	132.31
243.531	116.31
243.765	124.31
243.998	130.31
244.232	133.31
244.465	126.31
244.699	128.31
244.932	129.31
245.166	129.31
245.399	116.31
245.633	140.31
245.866	121.31
246.099	124.31
246.333	128.31
246.566	142.31
246.8	136.31
247.033	125.31
247.266	120.31
247.5	134.31
247.733	148.31
247.966	143.31
248.2	161.31
248.433	136.31
248.666	154.31
248.899	165.31
249.133	165.31
249.366	168.31
249.599	150.31
249.832	150.31
250.066	165.31
250.299	164.31
250.532	170.31
250.765	171.31
250.998	180.31
251.231	193.31
251.465	194.31
251.698	160.31
251.931	165.31
252.164	174.31
252.397	167.31
252.63	181.31
252.863	186.31
253.096	179.31
253.329	188.31
253.562	186.31
253.795	192.31
254.028	176.31
254.261	184.31
254.494	191.31
254.727	198.31
254.96	227.31
255.193	216.31
255.426	203.31
255.659	199.31
255.892	213.31
256.124	183.31
256.357	183.31
256.59	201.31
256.823	199.31
257.056	178.31
257.289	183.31
257.521	171.31
257.754	176.31
257.987	166.31
258.22	192.31
258.452	173.31
258.685	182.31
258.918	182.31
259.151	174.31
259.383	194.31
259.616	182.31
259.849	176.31
260.081	196.31
260.314	218.31
260.547	207.31
260.779	188.31
261.012	183.31
261.244	197.31
261.477	185.31
261.71	181.31
261.942	184.31
262.175	204.31
262.407	179.31
262.64	180.31
262.872	180.31
263.105	172.31
263.337	171.31
263.57	162.31
263.802	176.31
264.035	190.31
264.267	190.31
264.499	198.31
264.732	166.31
264.964	170.31
265.197	173.31
265.429	185.31
265.661	188.31
265.894	170.31
266.126	175.31
266.358	170.31
266.591	174.31
266.823	175.31
267.055	188.31
267.287	181.31
267.52	179.31
267.752	185.31
267.984	186.31
268.216	194.31
268.448	174.31
268.681	184.31
268.913	197.31
269.145	219.31
269.377	212.31
269.609	227.31
269.841	210.31
270.073	229.31
270.306	226.31
270.538	252.31
270.77	241.31
271.002	254.31
271.234	247.31
271.466	240.31
271.698	231.31
271.93	244.31
272.162	242.31
272.394	236.31
272.626	248.31
272.858	222.31
273.09	229.31
273.322	225.31
273.553	212.31
273.785	220.31
274.017	220.31
274.249	233.31
274.481	231.31
274.713	230.31
274.945	222.31
275.176	233.31
275.408	210.31
275.64	201.31
275.872	216.31
276.104	216.31
276.335	228.31
276.567	233.31
276.799	235.31
277.031	243.31
277.262	235.31
277.494	260.31
277.726	242.31
277.957	228.31
278.189	228.31
278.421	207.31
278.652	217.31
278.884	225.31
279.115	207.31
279.347	245.31
279.579	231.31
279.81	229.31
280.042	243.31
280.273	226.31
280.505	241.31
280.736	223.31
280.968	221.31
281.199	206.31
281.431	219.31
281.662	211.31
281.894	215.31
282.125	226.31
282.356	238.31
282.588	228.31
282.819	245.31
283.051	216.31
283.282	236.31
283.513	232.31
283.745	244.31
283.976	204.31
284.207	228.31
284.439	230.31
284.67	235.31
284.901	241.31
285.132	237.31
285.364	243.31
285.595	244.31
285.826	213.31
286.057	230.31
286.288	229.31
286.52	238.31
286.751	235.31
286.982	227.31
287.213	227.31
287.444	253.31
287.675	229.31
287.906	234.31
288.138	245.31
288.369	255.31
288.6	236.31
288.831	217.31
289.062	226.31
289.293	236.31
289.524	215.31
289.755	237.31
289.986	239.31
290.217	223.31
290.448	237.31
290.679	226.31
290.91	220.31
291.141	236.31
291.371	232.31
291.602	243.31
291.833	237.31
292.064	219.31
292.295	243.31
292.526	241.31
292.757	238.31
292.987	225.31
293.218	245.31
293.449	232.31
293.68	229.31
293.91	224.31
294.141	222.31
294.372	228.31
294.603	229.31
294.833	227.31
295.064	230.31
295.295	241.31
295.525	226.31
295.756	220.31
295.987	233.31
296.217	258.31
296.448	253.31
296.679	243.31
296.909	244.31
297.14	237.31
297.37	236.31
297.601	234.31
297.831	231.31
298.062	249.31
298.292	241.31
298.523	235.31
298.753	234.31
298.984	220.31
299.214	247.31
299.445	247.31
299.675	254.31
299.905	260.31
300.136	238.31
300.366	242.31
300.597	246.31
300.827	262.31
301.057	260.31
301.288	261.31
301.518	261.31
301.748	269.31
301.979	260.31
302.209	262.31
302.439	259.31
302.669	275.31
302.9	280.31
303.13	253.31
303.36	261.31
303.59	266.31
303.82	252.31
304.051	279.31
304.281	282.31
304.511	245.31
304.741	252.31
304.971	258.31
305.201	242.31
305.431	276.31
305.661	268.31
305.891	252.31
306.121	253.31
306.352	245.31
306.582	260.31
306.812	268.31
307.042	254.31
307.272	262.31
307.502	266.31
307.731	263.31
307.961	266.31
308.191	241.31
308.421	267.31
308.651	264.31
308.881	276.31
309.111	263.31
309.341	264.31
309.571	270.31
309.8	278.31
310.03	281.31
310.26	272.31
310.49	291.31
310.72	294.31
310.949	276.31
311.179	293.31
311.409	288.31
311.639	278.31
311.868	289.31
312.098	273.31
312.328	296.31
312.557	288.31
312.787	310.31
313.017	330.31
313.246	313.31
313.476	277.31
313.706	296.31
313.935	293.31
314.165	316.31
314.394	322.31
314.624	306.31
314.853	299.31
315.083	310.31
315.312	299.31
315.542	290.31
315.771	301.31
316.001	292.31
316.23	308.31
316.46	285.31
316.689	304.31
316.919	290.31
317.148	298.31
317.377	335.31
317.607	320.31
317.836	308.31
318.065	331.31
318.295	316.31
318.524	323.31
318.753	309.31
318.983	299.31
319.212	298.31
319.441	312.31
319.67	320.31
319.9	313.31
320.129	302.31
320.358	315.31
320.587	302.31
320.816	311.31
321.046	326.31
321.275	309.31
321.504	312.31
321.733	300.31
321.962	304.31
322.191	315.31
322.42	336.31
322.649	333.31
322.878	344.31
323.108	358.31
323.337	357.31
323.566	366.31
323.795	388.31
324.024	430.31
324.253	504.31
324.482	710.31
324.71	1081.31
324.939	1604.31
325.168	1417.31
325.397	723.31
325.626	495.31
325.855	420.31
326.084	398.31
326.313	387.31
326.542	388.31
326.77	420.31
326.999	494.31
327.228	660.31
327.457	983.31
327.686	1245.31
327.914	790.31
328.143	512.31
328.372	456.31
328.6	442.31
328.829	414.31
329.058	413.31
329.287	441.31
329.515	403.31
329.744	380.31
329.972	381.31
330.201	397.31
330.43	426.31
330.658	443.31
330.887	439.31
331.115	447.31
331.344	378.31
331.572	377.31
331.801	374.31
332.03	369.31
332.258	369.31
332.486	354.31
332.715	341.31
332.943	348.31
333.172	333.31
333.4	354.31
333.629	359.31
333.857	354.31
334.085	356.31
334.314	364.31
334.542	373.31
334.771	398.31
334.999	383.31
335.227	360.31
335.455	364.31
335.684	346.31
335.912	330.31
336.14	330.31
336.369	363.31
336.597	357.31
336.825	342.31
337.053	355.31
337.281	355.31
337.51	333.31
337.738	353.31
337.966	329.31
338.194	347.31
338.422	330.31
338.65	355.31
338.878	332.31
339.106	326.31
339.334	348.31
339.562	333.31
339.79	333.31
340.018	332.31
340.246	340.31
340.474	321.31
340.702	331.31
340.93	337.31
341.158	331.31
341.386	347.31
341.614	334.31
341.842	326.31
342.07	334.31
342.298	317.31
342.526	327.31
342.754	330.31
342.981	315.31
343.209	317.31
343.437	319.31
343.665	330.31
343.893	328.31
344.12	335.31
344.348	338.31
344.576	342.31
344.804	324.31
345.031	348.31
345.259	354.31
345.487	334.31
345.714	337.31
345.942	333.31
346.17	312.31
346.397	316.31
346.625	318.31
346.853	317.31
347.08	307.31
347.308	329.31
347.535	328.31
347.763	329.31
347.99	331.31
348.218	334.31
348.445	332.31
348.673	358.31
348.9	329.31
349.128	309.31
349.355	325.31
349.583	317.31
349.81	307.31
350.037	315.31
350.265	308.31
350.492	310.31
350.72	325.31
350.947	334.31
351.174	324.31
351.402	347.31
351.629	333.31
351.856	322.31
352.083	342.31
352.311	324.31
352.538	316.31
352.765	341.31
352.992	312.31
353.22	321.31
353.447	322.31
353.674	318.31
353.901	304.31
354.128	294.31
354.355	300.31
354.583	318.31
354.81	302.31
355.037	304.31
355.264	295.31
355.491	318.31
355.718	290.31
355.945	307.31
356.172	276.31
356.399	304.31
356.626	301.31
356.853	302.31
357.08	315.31
357.307	313.31
357.534	286.31
357.761	287.31
357.988	306.31
358.215	306.31
358.441	310.31
358.668	299.31
358.895	318.31
359.122	315.31
359.349	340.31
359.576	333.31
359.802	308.31
360.029	349.31
360.256	345.31
360.483	360.31
360.709	316.31
360.936	318.31
361.163	310.31
361.39	331.31
361.616	336.31
361.843	312.31
362.07	332.31
362.296	325.31
362.523	312.31
362.749	316.31
362.976	328.31
363.203	293.31
363.429	310.31
363.656	328.31
363.882	316.31
364.109	329.31
364.335	317.31
364.562	299.31
364.788	298.31
365.015	333.31
365.241	305.31
365.468	321.31
365.694	298.31
365.92	318.31
366.147	312.31
366.373	309.31
366.599	312.31
366.826	306.31
367.052	309.31
367.278	307.31
367.505	303.31
367.731	299.31
367.957	328.31
368.184	324.31
368.41	304.31
368.636	322.31
368.862	320.31
369.089	321.31
369.315	325.31
369.541	312.31
369.767	307.31
369.993	280.31
370.219	315.31
370.445	304.31
370.672	314.31
370.898	329.31
371.124	311.31
371.35	311.31
371.576	305.31
371.802	310.31
372.028	302.31
372.254	318.31
372.48	302.31
372.706	295.31
372.932	308.31
373.158	309.31
373.384	314.31
373.61	314.31
373.835	307.31
374.061	323.31
374.287	325.31
374.513	325.31
374.739	306.31
374.965	318.31
375.191	322.31
375.416	319.31
375.642	313.31
375.868	327.31
376.094	310.31
376.319	307.31
376.545	331.31
376.771	310.31
376.997	315.31
377.222	321.31
377.448	339.31
377.674	304.31
377.899	302.31
378.125	294.31
378.35	300.31
378.576	304.31
378.802	286.31
379.027	312.31
379.253	318.31
379.478	305.31
379.704	328.31
379.929	300.31
380.155	297.31
380.38	311.31
380.606	336.31
380.831	308.31
381.057	306.31
381.282	301.31
381.507	321.31
381.733	328.31
381.958	320.31
382.184	309.31
382.409	324.31
382.634	331.31
382.86	322.31
383.085	330.31
383.31	316.31
383.535	325.31
383.761	309.31
383.986	313.31
384.211	337.31
384.436	332.31
384.662	329.31
384.887	346.31
385.112	337.31
385.337	317.31
385.562	326.31
385.787	339.31
386.013	328.31
386.238	348.31
386.463	342.31
386.688	355.31
386.913	340.31
387.138	334.31
387.363	324.31
387.588	330.31
387.813	342.31
388.038	354.31
388.263	354.31
388.488	338.31
388.713	350.31
388.938	339.31
389.163	325.31
389.387	314.31
389.612	325.31
389.837	345.31
390.062	334.31
390.287	338.31
390.512	350.31
390.736	330.31
390.961	333.31
391.186	334.31
391.411	338.31
391.636	348.31
391.86	336.31
392.085	338.31
392.31	345.31
392.534	349.31
392.759	373.31
392.984	374.31
393.208	427.31
393.433	563.31
393.658	605.31
393.882	417.31
394.107	348.31
394.331	352.31
394.556	350.31
394.78	327.31
395.005	342.31
395.229	328.31
395.454	345.31
395.678	348.31
395.903	343.31
396.127	377.31
396.352	362.31
396.576	388.31
396.801	427.31
397.025	516.31
397.249	436.31
397.474	363.31
397.698	350.31
397.922	353.31
398.147	373.31
398.371	372.31
398.595	374.31
398.82	359.31
399.044	378.31
399.268	380.31
399.492	390.31
399.717	408.31
399.941	440.31
400.165	470.31
400.389	467.31
400.613	420.31
400.837	386.31
401.062	388.31
401.286	384.31
401.51	379.31
401.734	384.31
401.958	380.31
402.182	380.31
402.406	383.31
402.63	369.31
402.854	377.31
403.078	397.31
403.302	393.31
403.526	401.31
403.75	398.31
403.974	368.31
404.198	362.31
404.422	390.31
404.645	378.31
404.869	405.31
405.093	413.31
405.317	427.31
405.541	478.31
405.765	422.31
405.988	419.31
406.212	415.31
406.436	428.31
406.66	428.31
406.883	409.31
407.107	420.31
407.331	470.31
407.555	508.31
407.778	541.31
408.002	486.31
408.226	423.31
408.449	426.31
408.673	423.31
408.896	445.31
409.12	491.31
409.344	448.31
409.567	436.31
409.791	391.31
410.014	392.31
410.238	395.31
410.461	381.31
410.685	375.31
410.908	415.31
411.132	440.31
411.355	452.31
411.578	435.31
411.802	406.31
412.025	376.31
412.249	395.31
412.472	414.31
412.695	429.31
412.919	435.31
413.142	396.31
413.365	375.31
413.589	388.31
413.812	386.31
414.035	376.31
414.258	386.31
414.482	381.31
414.705	366.31
414.928	380.31
415.151	362.31
415.374	384.31
415.597	380.31
415.821	374.31
416.044	374.31
416.267	389.31
416.49	368.31
416.713	365.31
416.936	370.31
417.159	370.31
417.382	360.31
417.605	378.31
417.828	392.31
418.051	380.31
418.274	384.31
418.497	361.31
418.72	367.31
418.943	376.31
419.166	365.31
419.389	397.31
419.611	379.31
419.834	390.31
420.057	381.31
420.28	373.31
420.503	387.31
420.726	361.31
420.948	384.31
421.171	411.31
421.394	469.31
421.617	384.31
421.839	388.31
422.062	395.31
422.285	393.31
422.507	438.31
422.73	520.31
422.953	524.31
423.175	422.31
423.398	398.31
423.621	409.31
423.843	423.31
424.066	411.31
424.288	408.31
424.511	429.31
424.733	490.31
424.956	541.31
425.178	512.31
425.401	519.31
425.623	515.31
425.846	453.31
426.068	441.31
426.291	433.31
426.513	417.31
426.735	442.31
426.958	438.31
427.18	533.31
427.402	644.31
427.625	676.31
427.847	600.31
428.069	514.31
428.292	458.31
428.514	419.31
428.736	419.31
428.958	401.31
429.181	389.31
429.403	400.31
429.625	380.31
429.847	412.31
430.069	493.31
430.292	488.31
430.514	419.31
430.736	388.31
430.958	376.31
431.18	360.31
431.402	375.31
431.624	380.31
431.846	381.31
432.068	349.31
432.29	368.31
432.512	372.31
432.734	379.31
432.956	378.31
433.178	381.31
433.4	388.31
433.622	376.31
433.844	368.31
434.066	348.31
434.287	390.31
434.509	392.31
434.731	371.31
434.953	393.31
435.175	385.31
435.397	422.31
435.618	421.31
435.84	412.31
436.062	523.31
436.284	585.31
436.505	477.31
436.727	440.31
436.949	406.31
437.17	392.31
437.392	391.31
437.614	411.31
437.835	426.31
438.057	482.31
438.278	571.31
438.5	578.31
438.721	640.31
438.943	628.31
439.165	478.31
439.386	439.31
439.608	406.31
439.829	397.31
440.05	422.31
440.272	479.31
440.493	453.31
440.715	398.31
440.936	404.31
441.158	405.31
441.379	410.31
441.6	392.31
441.822	420.31
442.043	453.31
442.264	505.31
442.486	546.31
442.707	456.31
442.928	414.31
443.149	422.31
443.371	445.31
443.592	469.31
443.813	546.31
444.034	586.31
444.255	504.31
444.476	460.31
444.698	439.31
444.919	415.31
445.14	531.31
445.361	480.31
445.582	446.31
445.803	501.31
446.024	589.31
446.245	595.31
446.466	546.31
446.687	448.31
446.908	448.31
447.129	416.31
447.35	390.31
447.571	404.31
447.792	389.31
448.013	417.31
448.234	408.31
448.455	463.31
448.675	526.31
448.896	626.31
449.117	549.31
449.338	501.31
449.559	580.31
449.779	678.31
450	534.31
450.221	438.31
450.442	398.31
450.662	394.31
450.883	385.31
451.104	408.31
451.324	378.31
451.545	350.31
451.766	368.31
451.986	346.31
452.207	337.31
452.428	342.31
452.648	359.31
452.869	357.31
453.089	358.31
453.31	359.31
453.53	334.31
453.751	333.31
453.971	348.31
454.192	360.31
454.412	346.31
454.633	348.31
454.853	330.31
455.073	337.31
455.294	368.31
455.514	427.31
455.734	399.31
455.955	352.31
456.175	342.31
456.395	336.31
456.616	320.31
456.836	336.31
457.056	346.31
457.276	326.31
457.497	344.31
457.717	336.31
457.937	357.31
458.157	338.31
458.377	358.31
458.598	374.31
458.818	409.31
459.038	468.31
459.258	453.31
459.478	410.31
459.698	367.31
459.918	363.31
460.138	376.31
460.358	388.31
460.578	376.31
460.798	370.31
461.018	358.31
461.238	374.31
461.458	374.31
461.678	373.31
461.898	363.31
462.118	380.31
462.338	395.31
462.558	385.31
462.777	373.31
462.997	410.31
463.217	406.31
463.437	401.31
463.657	378.31
463.876	385.31
464.096	396.31
464.316	392.31
464.536	401.31
464.755	411.31
464.975	390.31
465.195	426.31
465.414	455.31
465.634	433.31
465.854	392.31
466.073	378.31
466.293	365.31
466.512	357.31
466.732	361.31
466.951	352.31
467.171	371.31
467.391	365.31
467.61	370.31
467.829	384.31
468.049	372.31
468.268	366.31
468.488	355.31
468.707	332.31
468.927	322.31
469.146	342.31
469.365	352.31
469.585	356.31
469.804	367.31
470.023	376.31
470.243	383.31
470.462	365.31
470.681	387.31
470.901	365.31
471.12	370.31
471.339	355.31
471.558	376.31
471.777	373.31
471.997	372.31
472.216	376.31
472.435	389.31
472.654	379.31
472.873	371.31
473.092	359.31
473.311	360.31
473.53	373.31
473.749	361.31
473.968	414.31
474.187	472.31
474.406	508.31
474.625	413.31
474.844	380.31
475.063	371.31
475.282	362.31
475.501	376.31
475.72	377.31
475.939	369.31
476.158	377.31
476.377	378.31
476.596	393.31
476.814	383.31
477.033	401.31
477.252	359.31
477.471	381.31
477.69	395.31
477.908	398.31
478.127	403.31
478.346	396.31
478.564	412.31
478.783	416.31
479.002	405.31
479.22	399.31
479.439	428.31
479.658	411.31
479.876	428.31
480.095	462.31
480.313	469.31
480.532	439.31
480.751	450.31
480.969	445.31
481.188	477.31
481.406	481.31
481.624	453.31
481.843	435.31
482.061	453.31
482.28	416.31
482.498	416.31
482.717	419.31
482.935	406.31
483.153	435.31
483.372	429.31
483.59	437.31
483.808	440.31
484.027	428.31
484.245	420.31
484.463	399.31
484.681	429.31
484.9	445.31
485.118	446.31
485.336	432.31
485.554	444.31
485.772	461.31
485.99	458.31
486.209	452.31
486.427	446.31
486.645	438.31
486.863	445.31
487.081	456.31
487.299	468.31
487.517	473.31
487.735	477.31
487.953	457.31
488.171	453.31
488.389	465.31
488.607	454.31
488.825	464.31
489.043	446.31
489.261	455.31
489.479	448.31
489.696	461.31
489.914	461.31
490.132	516.31
490.35	470.31
490.568	482.31
490.786	465.31
491.003	491.31
491.221	502.31
491.439	500.31
491.657	501.31
491.874	514.31
492.092	501.31
492.31	509.31
492.527	503.31
492.745	514.31
492.963	518.31
493.18	546.31
493.398	523.31
493.615	544.31
493.833	541.31
494.05	536.31
494.268	511.31
494.485	526.31
494.703	544.31
494.92	556.31
495.138	535.31
495.355	515.31
495.573	536.31
495.79	539.31
496.008	550.31
496.225	533.31
496.442	544.31
496.66	547.31
496.877	552.31
497.094	545.31
497.312	547.31
497.529	557.31
497.746	561.31
497.963	573.31
498.181	580.31
498.398	567.31
498.615	599.31
498.832	600.31
499.049	590.31
499.267	630.31
499.484	626.31
499.701	662.31
499.918	674.31
500.135	693.31
500.352	709.31
500.569	708.31
500.786	698.31
501.003	691.31
501.22	685.31
501.437	660.31
501.654	660.31
501.871	691.31
502.088	638.31
