Data from 1972.PennyLincolnUp.Lamp.En5.5.200Scan.071719.P1._HRD10591_15-27-01-843.txt Node
Date: Thu Jul 18 15:27:01 EDT 2019
User: cochatt
Spectrometer: HR+D1059
Trigger mode: 1
Integration Time (sec): 1.000000E-1
Scans to average: 1
Electric dark correction enabled: true
Nonlinearity correction enabled: false
Boxcar width: 0
XAxis mode: Wavelengths
Number of Pixels in Spectrum: 2048
>>>>>Begin Spectral Data<<<<<
223.165	-4.06
223.4	-4.06
223.635	-4.06
223.869	-23.06
224.104	-15.06
224.338	-15.06
224.573	-4.06
224.808	-9.06
225.042	-10.06
225.277	-7.06
225.511	-4.06
225.746	-9.06
225.98	3.94
226.215	19.94
226.449	11.94
226.683	22.94
226.918	17.94
227.152	23.94
227.387	46.94
227.621	34.94
227.856	44.94
228.09	45.94
228.324	44.94
228.559	58.94
228.793	63.94
229.027	92.94
229.262	94.94
229.496	112.94
229.73	97.94
229.964	134.94
230.199	118.94
230.433	114.94
230.667	110.94
230.901	99.94
231.136	117.94
231.37	106.94
231.604	101.94
231.838	99.94
232.072	107.94
232.306	97.94
232.541	102.94
232.775	101.94
233.009	108.94
233.243	107.94
233.477	97.94
233.711	114.94
233.945	98.94
234.179	92.94
234.413	111.94
234.647	100.94
234.881	99.94
235.115	107.94
235.349	120.94
235.583	123.94
235.817	115.94
236.051	110.94
236.285	121.94
236.519	114.94
236.753	125.94
236.987	134.94
237.221	154.94
237.455	222.94
237.689	181.94
237.922	125.94
238.156	120.94
238.39	112.94
238.624	112.94
238.858	101.94
239.091	130.94
239.325	106.94
239.559	114.94
239.793	114.94
240.027	129.94
240.26	129.94
240.494	140.94
240.728	134.94
240.961	135.94
241.195	128.94
241.429	124.94
241.662	122.94
241.896	129.94
242.13	130.94
242.363	134.94
242.597	123.94
242.83	135.94
243.064	125.94
243.298	111.94
243.531	124.94
243.765	125.94
243.998	134.94
244.232	119.94
244.465	129.94
244.699	146.94
244.932	125.94
245.166	114.94
245.399	124.94
245.633	147.94
245.866	150.94
246.099	130.94
246.333	119.94
246.566	128.94
246.8	133.94
247.033	134.94
247.266	145.94
247.5	147.94
247.733	158.94
247.966	164.94
248.2	162.94
248.433	134.94
248.666	155.94
248.899	158.94
249.133	176.94
249.366	182.94
249.599	179.94
249.832	173.94
250.066	159.94
250.299	172.94
250.532	184.94
250.765	182.94
250.998	192.94
251.231	201.94
251.465	199.94
251.698	170.94
251.931	170.94
252.164	187.94
252.397	170.94
252.63	173.94
252.863	190.94
253.096	191.94
253.329	199.94
253.562	211.94
253.795	196.94
254.028	208.94
254.261	188.94
254.494	210.94
254.727	216.94
254.96	242.94
255.193	226.94
255.426	220.94
255.659	207.94
255.892	208.94
256.124	199.94
256.357	219.94
256.59	216.94
256.823	192.94
257.056	196.94
257.289	188.94
257.521	188.94
257.754	179.94
257.987	181.94
258.22	197.94
258.452	187.94
258.685	171.94
258.918	195.94
259.151	189.94
259.383	192.94
259.616	193.94
259.849	190.94
260.081	205.94
260.314	209.94
260.547	215.94
260.779	237.94
261.012	206.94
261.244	203.94
261.477	200.94
261.71	199.94
261.942	190.94
262.175	216.94
262.407	205.94
262.64	182.94
262.872	195.94
263.105	174.94
263.337	204.94
263.57	189.94
263.802	204.94
264.035	173.94
264.267	188.94
264.499	189.94
264.732	169.94
264.964	174.94
265.197	178.94
265.429	186.94
265.661	184.94
265.894	184.94
266.126	198.94
266.358	188.94
266.591	207.94
266.823	192.94
267.055	181.94
267.287	201.94
267.52	185.94
267.752	194.94
267.984	197.94
268.216	209.94
268.448	191.94
268.681	208.94
268.913	213.94
269.145	224.94
269.377	227.94
269.609	232.94
269.841	234.94
270.073	218.94
270.306	243.94
270.538	266.94
270.77	247.94
271.002	262.94
271.234	243.94
271.466	235.94
271.698	258.94
271.93	238.94
272.162	269.94
272.394	254.94
272.626	254.94
272.858	230.94
273.09	244.94
273.322	243.94
273.553	243.94
273.785	234.94
274.017	226.94
274.249	229.94
274.481	227.94
274.713	223.94
274.945	238.94
275.176	227.94
275.408	218.94
275.64	229.94
275.872	256.94
276.104	231.94
276.335	235.94
276.567	239.94
276.799	225.94
277.031	263.94
277.262	276.94
277.494	261.94
277.726	250.94
277.957	243.94
278.189	246.94
278.421	238.94
278.652	224.94
278.884	236.94
279.115	231.94
279.347	216.94
279.579	244.94
279.81	223.94
280.042	211.94
280.273	226.94
280.505	216.94
280.736	221.94
280.968	211.94
281.199	222.94
281.431	219.94
281.662	232.94
281.894	226.94
282.125	213.94
282.356	228.94
282.588	260.94
282.819	264.94
283.051	234.94
283.282	232.94
283.513	234.94
283.745	227.94
283.976	237.94
284.207	251.94
284.439	229.94
284.67	244.94
284.901	230.94
285.132	224.94
285.364	241.94
285.595	239.94
285.826	230.94
286.057	231.94
286.288	223.94
286.52	219.94
286.751	236.94
286.982	227.94
287.213	238.94
287.444	235.94
287.675	244.94
287.906	238.94
288.138	246.94
288.369	251.94
288.6	246.94
288.831	228.94
289.062	262.94
289.293	254.94
289.524	247.94
289.755	234.94
289.986	232.94
290.217	242.94
290.448	238.94
290.679	259.94
290.91	236.94
291.141	219.94
291.371	237.94
291.602	252.94
291.833	223.94
292.064	237.94
292.295	250.94
292.526	226.94
292.757	227.94
292.987	255.94
293.218	226.94
293.449	240.94
293.68	232.94
293.91	221.94
294.141	232.94
294.372	230.94
294.603	245.94
294.833	241.94
295.064	243.94
295.295	265.94
295.525	247.94
295.756	235.94
295.987	238.94
296.217	269.94
296.448	290.94
296.679	229.94
296.909	250.94
297.14	248.94
297.37	234.94
297.601	249.94
297.831	260.94
298.062	246.94
298.292	260.94
298.523	247.94
298.753	236.94
298.984	244.94
299.214	235.94
299.445	262.94
299.675	248.94
299.905	269.94
300.136	263.94
300.366	248.94
300.597	249.94
300.827	266.94
301.057	278.94
301.288	263.94
301.518	264.94
301.748	270.94
301.979	262.94
302.209	272.94
302.439	276.94
302.669	268.94
302.9	278.94
303.13	257.94
303.36	269.94
303.59	266.94
303.82	269.94
304.051	276.94
304.281	255.94
304.511	237.94
304.741	263.94
304.971	265.94
305.201	264.94
305.431	265.94
305.661	279.94
305.891	248.94
306.121	272.94
306.352	268.94
306.582	295.94
306.812	269.94
307.042	282.94
307.272	276.94
307.502	287.94
307.731	295.94
307.961	268.94
308.191	258.94
308.421	267.94
308.651	276.94
308.881	290.94
309.111	270.94
309.341	268.94
309.571	298.94
309.8	286.94
310.03	318.94
310.26	308.94
310.49	298.94
310.72	325.94
310.949	344.94
311.179	339.94
311.409	295.94
311.639	307.94
311.868	292.94
312.098	308.94
312.328	314.94
312.557	312.94
312.787	330.94
313.017	316.94
313.246	309.94
313.476	314.94
313.706	301.94
313.935	289.94
314.165	319.94
314.394	331.94
314.624	337.94
314.853	322.94
315.083	292.94
315.312	315.94
315.542	314.94
315.771	317.94
316.001	303.94
316.23	304.94
316.46	288.94
316.689	298.94
316.919	321.94
317.148	310.94
317.377	322.94
317.607	302.94
317.836	314.94
318.065	304.94
318.295	312.94
318.524	295.94
318.753	316.94
318.983	309.94
319.212	310.94
319.441	306.94
319.67	307.94
319.9	301.94
320.129	321.94
320.358	308.94
320.587	327.94
320.816	326.94
321.046	345.94
321.275	337.94
321.504	320.94
321.733	327.94
321.962	363.94
322.191	341.94
322.42	335.94
322.649	357.94
322.878	384.94
323.108	374.94
323.337	387.94
323.566	412.94
323.795	446.94
324.024	450.94
324.253	551.94
324.482	786.94
324.71	1211.94
324.939	1751.94
325.168	1552.94
325.397	794.94
325.626	519.94
325.855	449.94
326.084	416.94
326.313	399.94
326.542	414.94
326.77	441.94
326.999	520.94
327.228	696.94
327.457	1070.94
327.686	1345.94
327.914	902.94
328.143	560.94
328.372	496.94
328.6	469.94
328.829	458.94
329.058	455.94
329.287	478.94
329.515	437.94
329.744	407.94
329.972	416.94
330.201	446.94
330.43	436.94
330.658	442.94
330.887	489.94
331.115	464.94
331.344	428.94
331.572	392.94
331.801	394.94
332.03	377.94
332.258	377.94
332.486	364.94
332.715	368.94
332.943	367.94
333.172	376.94
333.4	370.94
333.629	370.94
333.857	370.94
334.085	374.94
334.314	409.94
334.542	412.94
334.771	411.94
334.999	404.94
335.227	367.94
335.455	376.94
335.684	366.94
335.912	344.94
336.14	353.94
336.369	355.94
336.597	375.94
336.825	346.94
337.053	370.94
337.281	374.94
337.51	344.94
337.738	349.94
337.966	352.94
338.194	355.94
338.422	354.94
338.65	346.94
338.878	348.94
339.106	336.94
339.334	344.94
339.562	331.94
339.79	338.94
340.018	338.94
340.246	333.94
340.474	353.94
340.702	355.94
340.93	342.94
341.158	355.94
341.386	329.94
341.614	338.94
341.842	338.94
342.07	347.94
342.298	315.94
342.526	320.94
342.754	323.94
342.981	331.94
343.209	347.94
343.437	340.94
343.665	328.94
343.893	347.94
344.12	361.94
344.348	347.94
344.576	350.94
344.804	350.94
345.031	344.94
345.259	358.94
345.487	337.94
345.714	343.94
345.942	356.94
346.17	350.94
346.397	332.94
346.625	333.94
346.853	351.94
347.08	343.94
347.308	358.94
347.535	354.94
347.763	339.94
347.99	346.94
348.218	355.94
348.445	354.94
348.673	351.94
348.9	347.94
349.128	327.94
349.355	335.94
349.583	321.94
349.81	328.94
350.037	326.94
350.265	318.94
350.492	326.94
350.72	329.94
350.947	329.94
351.174	329.94
351.402	347.94
351.629	342.94
351.856	335.94
352.083	346.94
352.311	343.94
352.538	361.94
352.765	351.94
352.992	335.94
353.22	336.94
353.447	332.94
353.674	344.94
353.901	321.94
354.128	328.94
354.355	319.94
354.583	303.94
354.81	316.94
355.037	319.94
355.264	308.94
355.491	313.94
355.718	310.94
355.945	308.94
356.172	317.94
356.399	327.94
356.626	313.94
356.853	318.94
357.08	294.94
357.307	314.94
357.534	317.94
357.761	302.94
357.988	327.94
358.215	314.94
358.441	310.94
358.668	330.94
358.895	311.94
359.122	317.94
359.349	347.94
359.576	348.94
359.802	354.94
360.029	358.94
360.256	374.94
360.483	356.94
360.709	342.94
360.936	311.94
361.163	328.94
361.39	334.94
361.616	330.94
361.843	323.94
362.07	317.94
362.296	335.94
362.523	336.94
362.749	346.94
362.976	341.94
363.203	318.94
363.429	322.94
363.656	332.94
363.882	330.94
364.109	319.94
364.335	344.94
364.562	343.94
364.788	322.94
365.015	299.94
365.241	332.94
365.468	336.94
365.694	330.94
365.92	330.94
366.147	325.94
366.373	314.94
366.599	335.94
366.826	323.94
367.052	297.94
367.278	322.94
367.505	317.94
367.731	310.94
367.957	318.94
368.184	320.94
368.41	334.94
368.636	336.94
368.862	352.94
369.089	328.94
369.315	302.94
369.541	303.94
369.767	331.94
369.993	313.94
370.219	349.94
370.445	314.94
370.672	315.94
370.898	326.94
371.124	290.94
371.35	312.94
371.576	316.94
371.802	304.94
372.028	310.94
372.254	318.94
372.48	302.94
372.706	324.94
372.932	323.94
373.158	313.94
373.384	322.94
373.61	326.94
373.835	315.94
374.061	334.94
374.287	316.94
374.513	319.94
374.739	318.94
374.965	339.94
375.191	313.94
375.416	347.94
375.642	324.94
375.868	334.94
376.094	322.94
376.319	314.94
376.545	312.94
376.771	293.94
376.997	329.94
377.222	320.94
377.448	313.94
377.674	318.94
377.899	310.94
378.125	311.94
378.35	337.94
378.576	298.94
378.802	294.94
379.027	292.94
379.253	333.94
379.478	302.94
379.704	325.94
379.929	319.94
380.155	306.94
380.38	319.94
380.606	318.94
380.831	312.94
381.057	324.94
381.282	314.94
381.507	334.94
381.733	323.94
381.958	317.94
382.184	331.94
382.409	343.94
382.634	318.94
382.86	314.94
383.085	329.94
383.31	332.94
383.535	336.94
383.761	331.94
383.986	316.94
384.211	326.94
384.436	337.94
384.662	343.94
384.887	318.94
385.112	345.94
385.337	344.94
385.562	325.94
385.787	350.94
386.013	356.94
386.238	368.94
386.463	346.94
386.688	361.94
386.913	326.94
387.138	363.94
387.363	335.94
387.588	330.94
387.813	339.94
388.038	334.94
388.263	352.94
388.488	351.94
388.713	347.94
388.938	354.94
389.163	338.94
389.387	343.94
389.612	331.94
389.837	337.94
390.062	333.94
390.287	350.94
390.512	347.94
390.736	341.94
390.961	344.94
391.186	336.94
391.411	323.94
391.636	334.94
391.86	348.94
392.085	343.94
392.31	340.94
392.534	336.94
392.759	350.94
392.984	343.94
393.208	368.94
393.433	365.94
393.658	392.94
393.882	351.94
394.107	351.94
394.331	347.94
394.556	337.94
394.78	348.94
395.005	344.94
395.229	335.94
395.454	366.94
395.678	349.94
395.903	371.94
396.127	369.94
396.352	386.94
396.576	361.94
396.801	362.94
397.025	373.94
397.249	365.94
397.474	372.94
397.698	352.94
397.922	366.94
398.147	390.94
398.371	406.94
398.595	379.94
398.82	372.94
399.044	386.94
399.268	392.94
399.492	391.94
399.717	421.94
399.941	452.94
400.165	465.94
400.389	480.94
400.613	451.94
400.837	397.94
401.062	404.94
401.286	388.94
401.51	381.94
401.734	386.94
401.958	384.94
402.182	381.94
402.406	385.94
402.63	397.94
402.854	400.94
403.078	412.94
403.302	396.94
403.526	400.94
403.75	400.94
403.974	379.94
404.198	387.94
404.422	385.94
404.645	399.94
404.869	396.94
405.093	427.94
405.317	442.94
405.541	479.94
405.765	431.94
405.988	416.94
406.212	444.94
406.436	441.94
406.66	438.94
406.883	420.94
407.107	444.94
407.331	461.94
407.555	546.94
407.778	535.94
408.002	462.94
408.226	432.94
408.449	435.94
408.673	447.94
408.896	462.94
409.12	494.94
409.344	479.94
409.567	437.94
409.791	417.94
410.014	409.94
410.238	391.94
410.461	403.94
410.685	411.94
410.908	425.94
411.132	440.94
411.355	478.94
411.578	452.94
411.802	404.94
412.025	392.94
412.249	388.94
412.472	411.94
412.695	442.94
412.919	474.94
413.142	401.94
413.365	381.94
413.589	373.94
413.812	381.94
414.035	361.94
414.258	370.94
414.482	377.94
414.705	388.94
414.928	383.94
415.151	349.94
415.374	372.94
415.597	372.94
415.821	370.94
416.044	385.94
416.267	390.94
416.49	378.94
416.713	362.94
416.936	376.94
417.159	380.94
417.382	390.94
417.605	373.94
417.828	396.94
418.051	400.94
418.274	377.94
418.497	390.94
418.72	390.94
418.943	374.94
419.166	380.94
419.389	406.94
419.611	411.94
419.834	394.94
420.057	407.94
420.28	394.94
420.503	407.94
420.726	384.94
420.948	416.94
421.171	422.94
421.394	464.94
421.617	397.94
421.839	389.94
422.062	421.94
422.285	423.94
422.507	446.94
422.73	510.94
422.953	501.94
423.175	442.94
423.398	427.94
423.621	428.94
423.843	447.94
424.066	431.94
424.288	416.94
424.511	449.94
424.733	500.94
424.956	560.94
425.178	523.94
425.401	536.94
425.623	554.94
425.846	474.94
426.068	438.94
426.291	442.94
426.513	418.94
426.735	429.94
426.958	484.94
427.18	514.94
427.402	633.94
427.625	682.94
427.847	609.94
428.069	538.94
428.292	496.94
428.514	446.94
428.736	448.94
428.958	392.94
429.181	403.94
429.403	396.94
429.625	410.94
429.847	424.94
430.069	490.94
430.292	499.94
430.514	418.94
430.736	404.94
430.958	404.94
431.18	372.94
431.402	372.94
431.624	365.94
431.846	372.94
432.068	382.94
432.29	385.94
432.512	374.94
432.734	371.94
432.956	386.94
433.178	397.94
433.4	411.94
433.622	372.94
433.844	395.94
434.066	395.94
434.287	389.94
434.509	367.94
434.731	378.94
434.953	377.94
435.175	399.94
435.397	422.94
435.618	430.94
435.84	462.94
436.062	553.94
436.284	633.94
436.505	526.94
436.727	468.94
436.949	420.94
437.17	415.94
437.392	426.94
437.614	426.94
437.835	432.94
438.057	518.94
438.278	614.94
438.5	611.94
438.721	670.94
438.943	628.94
439.165	510.94
439.386	454.94
439.608	462.94
439.829	479.94
440.05	470.94
440.272	506.94
440.493	469.94
440.715	439.94
440.936	401.94
441.158	410.94
441.379	410.94
441.6	420.94
441.822	454.94
442.043	475.94
442.264	524.94
442.486	580.94
442.707	489.94
442.928	457.94
443.149	440.94
443.371	484.94
443.592	514.94
443.813	581.94
444.034	620.94
444.255	518.94
444.476	454.94
444.698	453.94
444.919	428.94
445.14	527.94
445.361	495.94
445.582	482.94
445.803	528.94
446.024	635.94
446.245	603.94
446.466	563.94
446.687	491.94
446.908	434.94
447.129	416.94
447.35	395.94
447.571	406.94
447.792	401.94
448.013	381.94
448.234	418.94
448.455	472.94
448.675	563.94
448.896	662.94
449.117	578.94
449.338	526.94
449.559	612.94
449.779	696.94
450	555.94
450.221	454.94
450.442	424.94
450.662	399.94
450.883	392.94
451.104	394.94
451.324	406.94
451.545	378.94
451.766	374.94
451.986	358.94
452.207	359.94
452.428	363.94
452.648	367.94
452.869	352.94
453.089	367.94
453.31	373.94
453.53	366.94
453.751	350.94
453.971	342.94
454.192	398.94
454.412	391.94
454.633	363.94
454.853	360.94
455.073	362.94
455.294	386.94
455.514	440.94
455.734	446.94
455.955	372.94
456.175	340.94
456.395	335.94
456.616	341.94
456.836	336.94
457.056	335.94
457.276	330.94
457.497	342.94
457.717	332.94
457.937	345.94
458.157	351.94
458.377	365.94
458.598	397.94
458.818	421.94
459.038	483.94
459.258	500.94
459.478	421.94
459.698	382.94
459.918	388.94
460.138	364.94
460.358	374.94
460.578	383.94
460.798	379.94
461.018	388.94
461.238	390.94
461.458	388.94
461.678	371.94
461.898	379.94
462.118	350.94
462.338	402.94
462.558	380.94
462.777	394.94
462.997	402.94
463.217	401.94
463.437	415.94
463.657	387.94
463.876	395.94
464.096	409.94
464.316	405.94
464.536	410.94
464.755	392.94
464.975	413.94
465.195	449.94
465.414	483.94
465.634	436.94
465.854	406.94
466.073	406.94
466.293	407.94
466.512	387.94
466.732	393.94
466.951	374.94
467.171	364.94
467.391	381.94
467.61	378.94
467.829	370.94
468.049	382.94
468.268	389.94
468.488	387.94
468.707	359.94
468.927	357.94
469.146	359.94
469.365	349.94
469.585	352.94
469.804	374.94
470.023	382.94
470.243	371.94
470.462	365.94
470.681	397.94
470.901	388.94
471.12	374.94
471.339	367.94
471.558	380.94
471.777	382.94
471.997	358.94
472.216	373.94
472.435	386.94
472.654	405.94
472.873	386.94
473.092	372.94
473.311	363.94
473.53	370.94
473.749	386.94
473.968	416.94
474.187	492.94
474.406	538.94
474.625	416.94
474.844	388.94
475.063	384.94
475.282	370.94
475.501	378.94
475.72	394.94
475.939	391.94
476.158	367.94
476.377	386.94
476.596	358.94
476.814	391.94
477.033	402.94
477.252	400.94
477.471	402.94
477.69	406.94
477.908	418.94
478.127	395.94
478.346	421.94
478.564	418.94
478.783	395.94
479.002	422.94
479.22	413.94
479.439	432.94
479.658	417.94
479.876	446.94
480.095	442.94
480.313	468.94
480.532	452.94
480.751	464.94
480.969	458.94
481.188	502.94
481.406	534.94
481.624	492.94
481.843	457.94
482.061	445.94
482.28	446.94
482.498	459.94
482.717	436.94
482.935	440.94
483.153	443.94
483.372	435.94
483.59	453.94
483.808	438.94
484.027	447.94
484.245	444.94
484.463	445.94
484.681	446.94
484.9	450.94
485.118	456.94
485.336	462.94
485.554	462.94
485.772	464.94
485.99	452.94
486.209	460.94
486.427	460.94
486.645	469.94
486.863	485.94
487.081	476.94
487.299	485.94
487.517	470.94
487.735	462.94
487.953	466.94
488.171	469.94
488.389	452.94
488.607	464.94
488.825	453.94
489.043	476.94
489.261	470.94
489.479	472.94
489.696	471.94
489.914	463.94
490.132	478.94
490.35	503.94
490.568	499.94
490.786	514.94
491.003	495.94
491.221	530.94
491.439	524.94
491.657	521.94
491.874	534.94
492.092	526.94
492.31	543.94
492.527	537.94
492.745	535.94
492.963	532.94
493.18	540.94
493.398	545.94
493.615	552.94
493.833	538.94
494.05	525.94
494.268	549.94
494.485	558.94
494.703	550.94
494.92	552.94
495.138	531.94
495.355	565.94
495.573	543.94
495.79	537.94
496.008	528.94
496.225	546.94
496.442	562.94
496.66	546.94
496.877	584.94
497.094	568.94
497.312	567.94
497.529	555.94
497.746	587.94
497.963	604.94
498.181	602.94
498.398	587.94
498.615	606.94
498.832	619.94
499.049	626.94
499.267	648.94
499.484	660.94
499.701	670.94
499.918	668.94
500.135	703.94
500.352	702.94
500.569	709.94
500.786	706.94
501.003	695.94
501.22	696.94
501.437	701.94
501.654	671.94
501.871	681.94
502.088	686.94
