Data from 1972.PennyLincolnUp.Lamp.En5.5.200Scan.071719.P1._HRD10591_15-27-49-844.txt Node
Date: Thu Jul 18 15:27:49 EDT 2019
User: cochatt
Spectrometer: HR+D1059
Trigger mode: 1
Integration Time (sec): 1.000000E-1
Scans to average: 1
Electric dark correction enabled: true
Nonlinearity correction enabled: false
Boxcar width: 0
XAxis mode: Wavelengths
Number of Pixels in Spectrum: 2048
>>>>>Begin Spectral Data<<<<<
223.165	-16.75
223.4	-16.75
223.635	-16.75
223.869	-0.75
224.104	-24.75
224.338	-10.75
224.573	-1.75
224.808	-29.75
225.042	-13.75
225.277	-6.75
225.511	4.25
225.746	-0.75
225.98	15.25
226.215	14.25
226.449	10.25
226.683	21.25
226.918	27.25
227.152	13.25
227.387	24.25
227.621	25.25
227.856	43.25
228.09	44.25
228.324	49.25
228.559	53.25
228.793	81.25
229.027	93.25
229.262	110.25
229.496	106.25
229.73	134.25
229.964	161.25
230.199	137.25
230.433	105.25
230.667	125.25
230.901	98.25
231.136	95.25
231.37	109.25
231.604	115.25
231.838	105.25
232.072	110.25
232.306	110.25
232.541	116.25
232.775	113.25
233.009	113.25
233.243	113.25
233.477	115.25
233.711	115.25
233.945	120.25
234.179	115.25
234.413	122.25
234.647	102.25
234.881	102.25
235.115	111.25
235.349	106.25
235.583	120.25
235.817	111.25
236.051	121.25
236.285	139.25
236.519	119.25
236.753	135.25
236.987	133.25
237.221	205.25
237.455	246.25
237.689	193.25
237.922	148.25
238.156	151.25
238.39	124.25
238.624	139.25
238.858	123.25
239.091	140.25
239.325	120.25
239.559	131.25
239.793	125.25
240.027	132.25
240.26	139.25
240.494	149.25
240.728	139.25
240.961	140.25
241.195	158.25
241.429	134.25
241.662	133.25
241.896	137.25
242.13	125.25
242.363	132.25
242.597	152.25
242.83	145.25
243.064	147.25
243.298	142.25
243.531	141.25
243.765	119.25
243.998	137.25
244.232	143.25
244.465	136.25
244.699	146.25
244.932	142.25
245.166	147.25
245.399	131.25
245.633	147.25
245.866	129.25
246.099	135.25
246.333	150.25
246.566	148.25
246.8	143.25
247.033	148.25
247.266	144.25
247.5	165.25
247.733	187.25
247.966	169.25
248.2	163.25
248.433	162.25
248.666	179.25
248.899	185.25
249.133	193.25
249.366	202.25
249.599	201.25
249.832	177.25
250.066	187.25
250.299	177.25
250.532	200.25
250.765	210.25
250.998	232.25
251.231	231.25
251.465	207.25
251.698	201.25
251.931	201.25
252.164	185.25
252.397	187.25
252.63	203.25
252.863	220.25
253.096	221.25
253.329	234.25
253.562	225.25
253.795	214.25
254.028	228.25
254.261	223.25
254.494	229.25
254.727	271.25
254.96	296.25
255.193	294.25
255.426	247.25
255.659	242.25
255.892	226.25
256.124	261.25
256.357	247.25
256.59	211.25
256.823	222.25
257.056	205.25
257.289	246.25
257.521	204.25
257.754	206.25
257.987	226.25
258.22	213.25
258.452	206.25
258.685	199.25
258.918	206.25
259.151	227.25
259.383	217.25
259.616	223.25
259.849	231.25
260.081	234.25
260.314	253.25
260.547	267.25
260.779	255.25
261.012	249.25
261.244	238.25
261.477	242.25
261.71	231.25
261.942	216.25
262.175	233.25
262.407	239.25
262.64	210.25
262.872	217.25
263.105	203.25
263.337	210.25
263.57	220.25
263.802	202.25
264.035	208.25
264.267	217.25
264.499	214.25
264.732	182.25
264.964	207.25
265.197	215.25
265.429	205.25
265.661	198.25
265.894	212.25
266.126	215.25
266.358	211.25
266.591	193.25
266.823	200.25
267.055	212.25
267.287	225.25
267.52	218.25
267.752	226.25
267.984	226.25
268.216	230.25
268.448	220.25
268.681	226.25
268.913	231.25
269.145	250.25
269.377	267.25
269.609	284.25
269.841	264.25
270.073	285.25
270.306	298.25
270.538	286.25
270.77	309.25
271.002	289.25
271.234	295.25
271.466	301.25
271.698	312.25
271.93	328.25
272.162	295.25
272.394	325.25
272.626	300.25
272.858	290.25
273.09	290.25
273.322	291.25
273.553	259.25
273.785	247.25
274.017	262.25
274.249	256.25
274.481	271.25
274.713	259.25
274.945	271.25
275.176	279.25
275.408	263.25
275.64	242.25
275.872	246.25
276.104	285.25
276.335	280.25
276.567	276.25
276.799	278.25
277.031	314.25
277.262	326.25
277.494	328.25
277.726	309.25
277.957	297.25
278.189	280.25
278.421	273.25
278.652	270.25
278.884	268.25
279.115	268.25
279.347	276.25
279.579	265.25
279.81	265.25
280.042	263.25
280.273	252.25
280.505	251.25
280.736	247.25
280.968	262.25
281.199	265.25
281.431	255.25
281.662	263.25
281.894	250.25
282.125	262.25
282.356	282.25
282.588	313.25
282.819	311.25
283.051	293.25
283.282	288.25
283.513	263.25
283.745	277.25
283.976	294.25
284.207	277.25
284.439	268.25
284.67	276.25
284.901	282.25
285.132	261.25
285.364	272.25
285.595	256.25
285.826	261.25
286.057	267.25
286.288	264.25
286.52	274.25
286.751	269.25
286.982	263.25
287.213	251.25
287.444	276.25
287.675	268.25
287.906	296.25
288.138	283.25
288.369	300.25
288.6	306.25
288.831	280.25
289.062	287.25
289.293	292.25
289.524	268.25
289.755	288.25
289.986	277.25
290.217	275.25
290.448	277.25
290.679	297.25
290.91	272.25
291.141	282.25
291.371	278.25
291.602	282.25
291.833	268.25
292.064	289.25
292.295	266.25
292.526	277.25
292.757	246.25
292.987	278.25
293.218	267.25
293.449	278.25
293.68	282.25
293.91	266.25
294.141	266.25
294.372	260.25
294.603	285.25
294.833	274.25
295.064	299.25
295.295	267.25
295.525	282.25
295.756	267.25
295.987	284.25
296.217	314.25
296.448	309.25
296.679	277.25
296.909	280.25
297.14	270.25
297.37	284.25
297.601	292.25
297.831	284.25
298.062	287.25
298.292	281.25
298.523	301.25
298.753	295.25
298.984	280.25
299.214	297.25
299.445	301.25
299.675	282.25
299.905	288.25
300.136	294.25
300.366	289.25
300.597	292.25
300.827	297.25
301.057	313.25
301.288	307.25
301.518	290.25
301.748	289.25
301.979	302.25
302.209	305.25
302.439	291.25
302.669	307.25
302.9	300.25
303.13	307.25
303.36	307.25
303.59	303.25
303.82	296.25
304.051	302.25
304.281	323.25
304.511	317.25
304.741	313.25
304.971	300.25
305.201	307.25
305.431	309.25
305.661	309.25
305.891	301.25
306.121	310.25
306.352	323.25
306.582	302.25
306.812	315.25
307.042	321.25
307.272	311.25
307.502	296.25
307.731	305.25
307.961	319.25
308.191	315.25
308.421	337.25
308.651	319.25
308.881	332.25
309.111	345.25
309.341	342.25
309.571	336.25
309.8	344.25
310.03	359.25
310.26	375.25
310.49	371.25
310.72	382.25
310.949	384.25
311.179	403.25
311.409	380.25
311.639	370.25
311.868	349.25
312.098	362.25
312.328	371.25
312.557	377.25
312.787	385.25
313.017	393.25
313.246	367.25
313.476	349.25
313.706	366.25
313.935	364.25
314.165	382.25
314.394	377.25
314.624	406.25
314.853	381.25
315.083	351.25
315.312	345.25
315.542	369.25
315.771	370.25
316.001	358.25
316.23	358.25
316.46	359.25
316.689	343.25
316.919	382.25
317.148	375.25
317.377	373.25
317.607	389.25
317.836	370.25
318.065	371.25
318.295	350.25
318.524	357.25
318.753	343.25
318.983	349.25
319.212	354.25
319.441	378.25
319.67	378.25
319.9	386.25
320.129	369.25
320.358	369.25
320.587	386.25
320.816	385.25
321.046	383.25
321.275	374.25
321.504	398.25
321.733	401.25
321.962	419.25
322.191	409.25
322.42	421.25
322.649	449.25
322.878	442.25
323.108	471.25
323.337	480.25
323.566	517.25
323.795	544.25
324.024	600.25
324.253	719.25
324.482	1108.25
324.71	1717.25
324.939	2477.25
325.168	2197.25
325.397	1094.25
325.626	729.25
325.855	594.25
326.084	555.25
326.313	545.25
326.542	539.25
326.77	582.25
326.999	703.25
327.228	971.25
327.457	1464.25
327.686	1865.25
327.914	1233.25
328.143	791.25
328.372	677.25
328.6	650.25
328.829	599.25
329.058	606.25
329.287	635.25
329.515	577.25
329.744	540.25
329.972	549.25
330.201	547.25
330.43	584.25
330.658	625.25
330.887	623.25
331.115	616.25
331.344	533.25
331.572	481.25
331.801	482.25
332.03	480.25
332.258	455.25
332.486	437.25
332.715	431.25
332.943	435.25
333.172	450.25
333.4	421.25
333.629	447.25
333.857	464.25
334.085	452.25
334.314	479.25
334.542	533.25
334.771	539.25
334.999	481.25
335.227	452.25
335.455	448.25
335.684	435.25
335.912	419.25
336.14	405.25
336.369	413.25
336.597	429.25
336.825	410.25
337.053	413.25
337.281	406.25
337.51	414.25
337.738	424.25
337.966	435.25
338.194	410.25
338.422	418.25
338.65	393.25
338.878	396.25
339.106	394.25
339.334	400.25
339.562	387.25
339.79	403.25
340.018	404.25
340.246	417.25
340.474	409.25
340.702	412.25
340.93	414.25
341.158	392.25
341.386	381.25
341.614	396.25
341.842	432.25
342.07	395.25
342.298	410.25
342.526	396.25
342.754	397.25
342.981	406.25
343.209	393.25
343.437	401.25
343.665	390.25
343.893	401.25
344.12	405.25
344.348	395.25
344.576	387.25
344.804	402.25
345.031	407.25
345.259	441.25
345.487	393.25
345.714	397.25
345.942	397.25
346.17	378.25
346.397	406.25
346.625	410.25
346.853	381.25
347.08	385.25
347.308	411.25
347.535	417.25
347.763	415.25
347.99	427.25
348.218	405.25
348.445	425.25
348.673	418.25
348.9	386.25
349.128	395.25
349.355	377.25
349.583	378.25
349.81	381.25
350.037	380.25
350.265	373.25
350.492	371.25
350.72	368.25
350.947	382.25
351.174	405.25
351.402	420.25
351.629	409.25
351.856	377.25
352.083	418.25
352.311	425.25
352.538	402.25
352.765	414.25
352.992	408.25
353.22	404.25
353.447	398.25
353.674	385.25
353.901	366.25
354.128	373.25
354.355	375.25
354.583	352.25
354.81	374.25
355.037	385.25
355.264	369.25
355.491	361.25
355.718	369.25
355.945	356.25
356.172	360.25
356.399	339.25
356.626	347.25
356.853	356.25
357.08	355.25
357.307	355.25
357.534	350.25
357.761	370.25
357.988	357.25
358.215	376.25
358.441	363.25
358.668	355.25
358.895	359.25
359.122	374.25
359.349	377.25
359.576	393.25
359.802	425.25
360.029	438.25
360.256	459.25
360.483	435.25
360.709	403.25
360.936	407.25
361.163	398.25
361.39	397.25
361.616	389.25
361.843	382.25
362.07	400.25
362.296	407.25
362.523	377.25
362.749	385.25
362.976	382.25
363.203	359.25
363.429	364.25
363.656	363.25
363.882	356.25
364.109	384.25
364.335	379.25
364.562	363.25
364.788	359.25
365.015	381.25
365.241	383.25
365.468	372.25
365.694	385.25
365.92	381.25
366.147	358.25
366.373	369.25
366.599	382.25
366.826	369.25
367.052	360.25
367.278	357.25
367.505	373.25
367.731	377.25
367.957	390.25
368.184	361.25
368.41	379.25
368.636	370.25
368.862	363.25
369.089	373.25
369.315	371.25
369.541	359.25
369.767	367.25
369.993	373.25
370.219	359.25
370.445	366.25
370.672	364.25
370.898	350.25
371.124	359.25
371.35	348.25
371.576	357.25
371.802	350.25
372.028	371.25
372.254	343.25
372.48	376.25
372.706	371.25
372.932	364.25
373.158	369.25
373.384	367.25
373.61	349.25
373.835	369.25
374.061	374.25
374.287	355.25
374.513	356.25
374.739	365.25
374.965	383.25
375.191	347.25
375.416	364.25
375.642	347.25
375.868	364.25
376.094	347.25
376.319	359.25
376.545	348.25
376.771	346.25
376.997	344.25
377.222	350.25
377.448	349.25
377.674	357.25
377.899	354.25
378.125	335.25
378.35	363.25
378.576	351.25
378.802	328.25
379.027	354.25
379.253	373.25
379.478	364.25
379.704	344.25
379.929	365.25
380.155	385.25
380.38	358.25
380.606	366.25
380.831	340.25
381.057	350.25
381.282	348.25
381.507	352.25
381.733	375.25
381.958	349.25
382.184	374.25
382.409	361.25
382.634	342.25
382.86	355.25
383.085	364.25
383.31	358.25
383.535	354.25
383.761	374.25
383.986	354.25
384.211	376.25
384.436	379.25
384.662	363.25
384.887	383.25
385.112	355.25
385.337	379.25
385.562	383.25
385.787	375.25
386.013	386.25
386.238	381.25
386.463	382.25
386.688	368.25
386.913	363.25
387.138	367.25
387.363	353.25
387.588	376.25
387.813	371.25
388.038	369.25
388.263	385.25
388.488	386.25
388.713	377.25
388.938	373.25
389.163	374.25
389.387	385.25
389.612	377.25
389.837	368.25
390.062	371.25
390.287	374.25
390.512	381.25
390.736	386.25
390.961	387.25
391.186	349.25
391.411	377.25
391.636	375.25
391.86	383.25
392.085	372.25
392.31	391.25
392.534	389.25
392.759	394.25
392.984	376.25
393.208	389.25
393.433	397.25
393.658	381.25
393.882	389.25
394.107	383.25
394.331	384.25
394.556	393.25
394.78	403.25
395.005	386.25
395.229	371.25
395.454	361.25
395.678	387.25
395.903	393.25
396.127	420.25
396.352	434.25
396.576	403.25
396.801	400.25
397.025	389.25
397.249	394.25
397.474	421.25
397.698	409.25
397.922	415.25
398.147	434.25
398.371	434.25
398.595	427.25
398.82	427.25
399.044	407.25
399.268	436.25
399.492	453.25
399.717	472.25
399.941	509.25
400.165	522.25
400.389	518.25
400.613	490.25
400.837	442.25
401.062	426.25
401.286	427.25
401.51	428.25
401.734	443.25
401.958	417.25
402.182	427.25
402.406	443.25
402.63	444.25
402.854	425.25
403.078	435.25
403.302	455.25
403.526	454.25
403.75	441.25
403.974	438.25
404.198	453.25
404.422	424.25
404.645	463.25
404.869	466.25
405.093	501.25
405.317	540.25
405.541	572.25
405.765	517.25
405.988	493.25
406.212	517.25
406.436	483.25
406.66	516.25
406.883	489.25
407.107	493.25
407.331	554.25
407.555	605.25
407.778	607.25
408.002	553.25
408.226	507.25
408.449	478.25
408.673	481.25
408.896	523.25
409.12	569.25
409.344	539.25
409.567	473.25
409.791	458.25
410.014	458.25
410.238	459.25
410.461	453.25
410.685	445.25
410.908	450.25
411.132	519.25
411.355	549.25
411.578	521.25
411.802	471.25
412.025	464.25
412.249	454.25
412.472	492.25
412.695	502.25
412.919	537.25
413.142	467.25
413.365	444.25
413.589	459.25
413.812	430.25
414.035	430.25
414.258	409.25
414.482	436.25
414.705	434.25
414.928	429.25
415.151	408.25
415.374	411.25
415.597	428.25
415.821	414.25
416.044	403.25
416.267	437.25
416.49	408.25
416.713	427.25
416.936	425.25
417.159	440.25
417.382	435.25
417.605	429.25
417.828	435.25
418.051	452.25
418.274	447.25
418.497	434.25
418.72	416.25
418.943	425.25
419.166	423.25
419.389	463.25
419.611	442.25
419.834	458.25
420.057	455.25
420.28	449.25
420.503	433.25
420.726	463.25
420.948	490.25
421.171	507.25
421.394	523.25
421.617	475.25
421.839	451.25
422.062	458.25
422.285	465.25
422.507	540.25
422.73	585.25
422.953	590.25
423.175	524.25
423.398	455.25
423.621	466.25
423.843	471.25
424.066	505.25
424.288	479.25
424.511	519.25
424.733	553.25
424.956	640.25
425.178	622.25
425.401	610.25
425.623	652.25
425.846	543.25
426.068	486.25
426.291	481.25
426.513	489.25
426.735	513.25
426.958	546.25
427.18	630.25
427.402	763.25
427.625	850.25
427.847	749.25
428.069	631.25
428.292	567.25
428.514	522.25
428.736	488.25
428.958	473.25
429.181	452.25
429.403	452.25
429.625	468.25
429.847	509.25
430.069	572.25
430.292	586.25
430.514	486.25
430.736	466.25
430.958	459.25
431.18	453.25
431.402	435.25
431.624	416.25
431.846	430.25
432.068	438.25
432.29	400.25
432.512	422.25
432.734	430.25
432.956	449.25
433.178	445.25
433.4	454.25
433.622	434.25
433.844	452.25
434.066	443.25
434.287	427.25
434.509	421.25
434.731	438.25
434.953	455.25
435.175	440.25
435.397	481.25
435.618	500.25
435.84	542.25
436.062	653.25
436.284	739.25
436.505	588.25
436.727	533.25
436.949	481.25
437.17	469.25
437.392	469.25
437.614	487.25
437.835	540.25
438.057	618.25
438.278	733.25
438.5	708.25
438.721	781.25
438.943	746.25
439.165	582.25
439.386	529.25
439.608	551.25
439.829	538.25
440.05	545.25
440.272	583.25
440.493	534.25
440.715	523.25
440.936	473.25
441.158	479.25
441.379	454.25
441.6	464.25
441.822	495.25
442.043	531.25
442.264	617.25
442.486	670.25
442.707	563.25
442.928	505.25
443.149	521.25
443.371	548.25
443.592	585.25
443.813	685.25
444.034	739.25
444.255	587.25
444.476	523.25
444.698	517.25
444.919	515.25
445.14	623.25
445.361	545.25
445.582	553.25
445.803	616.25
446.024	742.25
446.245	745.25
446.466	677.25
446.687	561.25
446.908	523.25
447.129	478.25
447.35	468.25
447.571	473.25
447.792	477.25
448.013	470.25
448.234	495.25
448.455	573.25
448.675	653.25
448.896	774.25
449.117	654.25
449.338	632.25
449.559	694.25
449.779	804.25
450	639.25
450.221	550.25
450.442	476.25
450.662	473.25
450.883	472.25
451.104	490.25
451.324	473.25
451.545	454.25
451.766	445.25
451.986	415.25
452.207	413.25
452.428	413.25
452.648	410.25
452.869	426.25
453.089	434.25
453.31	435.25
453.53	425.25
453.751	416.25
453.971	415.25
454.192	437.25
454.412	436.25
454.633	438.25
454.853	391.25
455.073	413.25
455.294	445.25
455.514	522.25
455.734	509.25
455.955	419.25
456.175	394.25
456.395	393.25
456.616	379.25
456.836	400.25
457.056	378.25
457.276	373.25
457.497	377.25
457.717	373.25
457.937	408.25
458.157	399.25
458.377	409.25
458.598	420.25
458.818	497.25
459.038	558.25
459.258	583.25
459.478	491.25
459.698	427.25
459.918	441.25
460.138	421.25
460.358	416.25
460.578	397.25
460.798	422.25
461.018	439.25
461.238	435.25
461.458	422.25
461.678	419.25
461.898	422.25
462.118	408.25
462.338	429.25
462.558	450.25
462.777	428.25
462.997	435.25
463.217	430.25
463.437	437.25
463.657	430.25
463.876	435.25
464.096	437.25
464.316	444.25
464.536	438.25
464.755	470.25
464.975	465.25
465.195	509.25
465.414	585.25
465.634	509.25
465.854	470.25
466.073	443.25
466.293	448.25
466.512	441.25
466.732	419.25
466.951	437.25
467.171	422.25
467.391	429.25
467.61	436.25
467.829	429.25
468.049	449.25
468.268	449.25
468.488	438.25
468.707	428.25
468.927	409.25
469.146	413.25
469.365	395.25
469.585	391.25
469.804	447.25
470.023	433.25
470.243	441.25
470.462	431.25
470.681	473.25
470.901	457.25
471.12	418.25
471.339	411.25
471.558	442.25
471.777	442.25
471.997	434.25
472.216	452.25
472.435	475.25
472.654	461.25
472.873	425.25
473.092	436.25
473.311	405.25
473.53	416.25
473.749	452.25
473.968	461.25
474.187	568.25
474.406	613.25
474.625	491.25
474.844	455.25
475.063	449.25
475.282	427.25
475.501	430.25
475.72	425.25
475.939	423.25
476.158	443.25
476.377	453.25
476.596	439.25
476.814	442.25
477.033	456.25
477.252	457.25
477.471	474.25
477.69	452.25
477.908	477.25
478.127	466.25
478.346	454.25
478.564	448.25
478.783	451.25
479.002	465.25
479.22	479.25
479.439	490.25
479.658	497.25
479.876	523.25
480.095	523.25
480.313	553.25
480.532	550.25
480.751	505.25
480.969	523.25
481.188	607.25
481.406	654.25
481.624	557.25
481.843	545.25
482.061	515.25
482.28	509.25
482.498	495.25
482.717	527.25
482.935	498.25
483.153	510.25
483.372	502.25
483.59	501.25
483.808	501.25
484.027	521.25
484.245	518.25
484.463	503.25
484.681	519.25
484.9	510.25
485.118	536.25
485.336	507.25
485.554	494.25
485.772	500.25
485.99	519.25
486.209	531.25
486.427	521.25
486.645	546.25
486.863	543.25
487.081	539.25
487.299	558.25
487.517	519.25
487.735	548.25
487.953	540.25
488.171	533.25
488.389	560.25
488.607	559.25
488.825	525.25
489.043	515.25
489.261	561.25
489.479	535.25
489.696	551.25
489.914	539.25
490.132	535.25
490.35	562.25
490.568	573.25
490.786	595.25
491.003	576.25
491.221	582.25
491.439	604.25
491.657	622.25
491.874	604.25
492.092	606.25
492.31	614.25
492.527	614.25
492.745	623.25
492.963	623.25
493.18	630.25
493.398	647.25
493.615	622.25
493.833	643.25
494.05	635.25
494.268	637.25
494.485	639.25
494.703	651.25
494.92	613.25
495.138	635.25
495.355	668.25
495.573	626.25
495.79	623.25
496.008	663.25
496.225	621.25
496.442	643.25
496.66	606.25
496.877	627.25
497.094	639.25
497.312	647.25
497.529	651.25
497.746	665.25
497.963	677.25
498.181	674.25
498.398	677.25
498.615	705.25
498.832	685.25
499.049	691.25
499.267	703.25
499.484	727.25
499.701	720.25
499.918	779.25
500.135	759.25
500.352	795.25
500.569	788.25
500.786	806.25
501.003	824.25
501.22	780.25
501.437	779.25
501.654	775.25
501.871	783.25
