Data from 1972.PennyLincolnUp.Lamp.En5.5.200Scan.071719.P1._HRD10591_15-26-45-843.txt Node
Date: Thu Jul 18 15:26:45 EDT 2019
User: cochatt
Spectrometer: HR+D1059
Trigger mode: 1
Integration Time (sec): 1.000000E-1
Scans to average: 1
Electric dark correction enabled: true
Nonlinearity correction enabled: false
Boxcar width: 0
XAxis mode: Wavelengths
Number of Pixels in Spectrum: 2048
>>>>>Begin Spectral Data<<<<<
223.165	-13.31
223.4	-13.31
223.635	-13.31
223.869	-8.31
224.104	-21.31
224.338	-17.31
224.573	-12.31
224.808	-14.31
225.042	-1.31
225.277	-7.31
225.511	-19.31
225.746	8.69
225.98	12.69
226.215	4.69
226.449	13.69
226.683	18.69
226.918	29.69
227.152	26.69
227.387	21.69
227.621	44.69
227.856	45.69
228.09	51.69
228.324	46.69
228.559	57.69
228.793	66.69
229.027	85.69
229.262	89.69
229.496	104.69
229.73	114.69
229.964	126.69
230.199	104.69
230.433	101.69
230.667	108.69
230.901	109.69
231.136	89.69
231.37	104.69
231.604	99.69
231.838	99.69
232.072	103.69
232.306	108.69
232.541	104.69
232.775	99.69
233.009	94.69
233.243	101.69
233.477	99.69
233.711	96.69
233.945	107.69
234.179	114.69
234.413	109.69
234.647	108.69
234.881	92.69
235.115	102.69
235.349	111.69
235.583	120.69
235.817	111.69
236.051	105.69
236.285	96.69
236.519	104.69
236.753	115.69
236.987	114.69
237.221	148.69
237.455	202.69
237.689	151.69
237.922	122.69
238.156	111.69
238.39	105.69
238.624	114.69
238.858	114.69
239.091	120.69
239.325	90.69
239.559	101.69
239.793	123.69
240.027	111.69
240.26	117.69
240.494	132.69
240.728	126.69
240.961	107.69
241.195	97.69
241.429	95.69
241.662	123.69
241.896	108.69
242.13	120.69
242.363	110.69
242.597	111.69
242.83	134.69
243.064	106.69
243.298	130.69
243.531	124.69
243.765	127.69
243.998	130.69
244.232	130.69
244.465	111.69
244.699	124.69
244.932	120.69
245.166	127.69
245.399	124.69
245.633	134.69
245.866	136.69
246.099	129.69
246.333	128.69
246.566	119.69
246.8	138.69
247.033	138.69
247.266	132.69
247.5	135.69
247.733	133.69
247.966	146.69
248.2	149.69
248.433	154.69
248.666	156.69
248.899	152.69
249.133	155.69
249.366	172.69
249.599	176.69
249.832	143.69
250.066	171.69
250.299	150.69
250.532	143.69
250.765	173.69
250.998	191.69
251.231	194.69
251.465	179.69
251.698	168.69
251.931	156.69
252.164	163.69
252.397	165.69
252.63	164.69
252.863	169.69
253.096	186.69
253.329	197.69
253.562	169.69
253.795	174.69
254.028	179.69
254.261	193.69
254.494	192.69
254.727	199.69
254.96	222.69
255.193	212.69
255.426	194.69
255.659	187.69
255.892	194.69
256.124	190.69
256.357	178.69
256.59	184.69
256.823	193.69
257.056	172.69
257.289	180.69
257.521	182.69
257.754	158.69
257.987	152.69
258.22	168.69
258.452	163.69
258.685	181.69
258.918	176.69
259.151	172.69
259.383	185.69
259.616	190.69
259.849	197.69
260.081	191.69
260.314	189.69
260.547	200.69
260.779	208.69
261.012	185.69
261.244	182.69
261.477	187.69
261.71	180.69
261.942	176.69
262.175	178.69
262.407	201.69
262.64	167.69
262.872	166.69
263.105	177.69
263.337	166.69
263.57	186.69
263.802	169.69
264.035	184.69
264.267	174.69
264.499	172.69
264.732	165.69
264.964	162.69
265.197	178.69
265.429	173.69
265.661	174.69
265.894	175.69
266.126	159.69
266.358	176.69
266.591	178.69
266.823	182.69
267.055	190.69
267.287	191.69
267.52	179.69
267.752	188.69
267.984	189.69
268.216	190.69
268.448	185.69
268.681	183.69
268.913	194.69
269.145	188.69
269.377	218.69
269.609	214.69
269.841	201.69
270.073	204.69
270.306	227.69
270.538	227.69
270.77	228.69
271.002	230.69
271.234	224.69
271.466	219.69
271.698	231.69
271.93	248.69
272.162	230.69
272.394	235.69
272.626	207.69
272.858	218.69
273.09	209.69
273.322	211.69
273.553	205.69
273.785	220.69
274.017	190.69
274.249	194.69
274.481	212.69
274.713	205.69
274.945	220.69
275.176	202.69
275.408	196.69
275.64	211.69
275.872	191.69
276.104	194.69
276.335	199.69
276.567	204.69
276.799	202.69
277.031	219.69
277.262	224.69
277.494	229.69
277.726	226.69
277.957	217.69
278.189	215.69
278.421	207.69
278.652	207.69
278.884	222.69
279.115	208.69
279.347	208.69
279.579	192.69
279.81	222.69
280.042	218.69
280.273	220.69
280.505	221.69
280.736	201.69
280.968	194.69
281.199	212.69
281.431	211.69
281.662	210.69
281.894	189.69
282.125	222.69
282.356	220.69
282.588	226.69
282.819	224.69
283.051	222.69
283.282	219.69
283.513	220.69
283.745	243.69
283.976	218.69
284.207	208.69
284.439	214.69
284.67	223.69
284.901	208.69
285.132	219.69
285.364	214.69
285.595	226.69
285.826	204.69
286.057	218.69
286.288	204.69
286.52	212.69
286.751	227.69
286.982	219.69
287.213	205.69
287.444	206.69
287.675	218.69
287.906	222.69
288.138	214.69
288.369	237.69
288.6	227.69
288.831	228.69
289.062	219.69
289.293	217.69
289.524	211.69
289.755	223.69
289.986	226.69
290.217	239.69
290.448	237.69
290.679	208.69
290.91	215.69
291.141	227.69
291.371	228.69
291.602	217.69
291.833	223.69
292.064	221.69
292.295	209.69
292.526	215.69
292.757	220.69
292.987	226.69
293.218	234.69
293.449	223.69
293.68	220.69
293.91	210.69
294.141	222.69
294.372	218.69
294.603	237.69
294.833	224.69
295.064	219.69
295.295	226.69
295.525	206.69
295.756	214.69
295.987	238.69
296.217	252.69
296.448	256.69
296.679	239.69
296.909	220.69
297.14	234.69
297.37	223.69
297.601	227.69
297.831	207.69
298.062	232.69
298.292	234.69
298.523	241.69
298.753	234.69
298.984	228.69
299.214	237.69
299.445	234.69
299.675	238.69
299.905	221.69
300.136	234.69
300.366	246.69
300.597	227.69
300.827	232.69
301.057	244.69
301.288	254.69
301.518	263.69
301.748	247.69
301.979	255.69
302.209	236.69
302.439	259.69
302.669	247.69
302.9	242.69
303.13	251.69
303.36	242.69
303.59	230.69
303.82	250.69
304.051	243.69
304.281	253.69
304.511	242.69
304.741	250.69
304.971	236.69
305.201	234.69
305.431	222.69
305.661	233.69
305.891	232.69
306.121	226.69
306.352	252.69
306.582	254.69
306.812	249.69
307.042	254.69
307.272	230.69
307.502	238.69
307.731	240.69
307.961	271.69
308.191	249.69
308.421	234.69
308.651	258.69
308.881	241.69
309.111	261.69
309.341	260.69
309.571	257.69
309.8	272.69
310.03	276.69
310.26	290.69
310.49	277.69
310.72	295.69
310.949	294.69
311.179	292.69
311.409	278.69
311.639	282.69
311.868	271.69
312.098	265.69
312.328	286.69
312.557	291.69
312.787	298.69
313.017	300.69
313.246	301.69
313.476	271.69
313.706	280.69
313.935	257.69
314.165	286.69
314.394	285.69
314.624	281.69
314.853	273.69
315.083	290.69
315.312	287.69
315.542	275.69
315.771	279.69
316.001	276.69
316.23	298.69
316.46	286.69
316.689	285.69
316.919	282.69
317.148	290.69
317.377	289.69
317.607	274.69
317.836	310.69
318.065	299.69
318.295	300.69
318.524	294.69
318.753	287.69
318.983	279.69
319.212	278.69
319.441	290.69
319.67	288.69
319.9	292.69
320.129	273.69
320.358	308.69
320.587	287.69
320.816	300.69
321.046	306.69
321.275	297.69
321.504	298.69
321.733	298.69
321.962	297.69
322.191	304.69
322.42	321.69
322.649	308.69
322.878	314.69
323.108	332.69
323.337	344.69
323.566	350.69
323.795	367.69
324.024	387.69
324.253	454.69
324.482	633.69
324.71	976.69
324.939	1414.69
325.168	1251.69
325.397	664.69
325.626	434.69
325.855	384.69
326.084	359.69
326.313	353.69
326.542	351.69
326.77	371.69
326.999	432.69
327.228	581.69
327.457	873.69
327.686	1067.69
327.914	723.69
328.143	467.69
328.372	421.69
328.6	365.69
328.829	368.69
329.058	397.69
329.287	390.69
329.515	385.69
329.744	354.69
329.972	362.69
330.201	358.69
330.43	381.69
330.658	404.69
330.887	421.69
331.115	396.69
331.344	350.69
331.572	342.69
331.801	333.69
332.03	344.69
332.258	327.69
332.486	334.69
332.715	327.69
332.943	323.69
333.172	319.69
333.4	309.69
333.629	336.69
333.857	336.69
334.085	326.69
334.314	344.69
334.542	358.69
334.771	367.69
334.999	370.69
335.227	327.69
335.455	330.69
335.684	321.69
335.912	329.69
336.14	317.69
336.369	322.69
336.597	322.69
336.825	326.69
337.053	332.69
337.281	305.69
337.51	317.69
337.738	312.69
337.966	326.69
338.194	303.69
338.422	312.69
338.65	304.69
338.878	317.69
339.106	306.69
339.334	312.69
339.562	314.69
339.79	303.69
340.018	304.69
340.246	318.69
340.474	314.69
340.702	300.69
340.93	319.69
341.158	311.69
341.386	312.69
341.614	311.69
341.842	320.69
342.07	300.69
342.298	306.69
342.526	304.69
342.754	299.69
342.981	302.69
343.209	297.69
343.437	304.69
343.665	319.69
343.893	298.69
344.12	312.69
344.348	325.69
344.576	314.69
344.804	318.69
345.031	314.69
345.259	313.69
345.487	319.69
345.714	312.69
345.942	311.69
346.17	317.69
346.397	299.69
346.625	311.69
346.853	313.69
347.08	296.69
347.308	295.69
347.535	307.69
347.763	327.69
347.99	308.69
348.218	302.69
348.445	310.69
348.673	307.69
348.9	306.69
349.128	311.69
349.355	300.69
349.583	318.69
349.81	315.69
350.037	300.69
350.265	284.69
350.492	292.69
350.72	306.69
350.947	304.69
351.174	288.69
351.402	315.69
351.629	299.69
351.856	308.69
352.083	309.69
352.311	302.69
352.538	314.69
352.765	318.69
352.992	308.69
353.22	308.69
353.447	307.69
353.674	307.69
353.901	308.69
354.128	274.69
354.355	278.69
354.583	306.69
354.81	304.69
355.037	312.69
355.264	285.69
355.491	296.69
355.718	284.69
355.945	293.69
356.172	296.69
356.399	286.69
356.626	288.69
356.853	279.69
357.08	293.69
357.307	276.69
357.534	282.69
357.761	280.69
357.988	295.69
358.215	294.69
358.441	304.69
358.668	297.69
358.895	294.69
359.122	291.69
359.349	285.69
359.576	310.69
359.802	326.69
360.029	334.69
360.256	338.69
360.483	332.69
360.709	298.69
360.936	309.69
361.163	315.69
361.39	291.69
361.616	299.69
361.843	311.69
362.07	310.69
362.296	291.69
362.523	309.69
362.749	283.69
362.976	291.69
363.203	286.69
363.429	301.69
363.656	302.69
363.882	295.69
364.109	292.69
364.335	284.69
364.562	296.69
364.788	295.69
365.015	289.69
365.241	291.69
365.468	299.69
365.694	297.69
365.92	288.69
366.147	292.69
366.373	297.69
366.599	282.69
366.826	302.69
367.052	306.69
367.278	296.69
367.505	291.69
367.731	290.69
367.957	280.69
368.184	295.69
368.41	293.69
368.636	295.69
368.862	299.69
369.089	307.69
369.315	285.69
369.541	295.69
369.767	294.69
369.993	277.69
370.219	295.69
370.445	288.69
370.672	306.69
370.898	303.69
371.124	302.69
371.35	291.69
371.576	290.69
371.802	305.69
372.028	302.69
372.254	278.69
372.48	271.69
372.706	293.69
372.932	316.69
373.158	301.69
373.384	310.69
373.61	280.69
373.835	303.69
374.061	292.69
374.287	297.69
374.513	307.69
374.739	327.69
374.965	302.69
375.191	298.69
375.416	310.69
375.642	306.69
375.868	299.69
376.094	301.69
376.319	307.69
376.545	312.69
376.771	292.69
376.997	294.69
377.222	286.69
377.448	307.69
377.674	310.69
377.899	302.69
378.125	306.69
378.35	300.69
378.576	291.69
378.802	307.69
379.027	293.69
379.253	296.69
379.478	292.69
379.704	295.69
379.929	292.69
380.155	312.69
380.38	306.69
380.606	308.69
380.831	300.69
381.057	320.69
381.282	301.69
381.507	288.69
381.733	304.69
381.958	309.69
382.184	308.69
382.409	298.69
382.634	315.69
382.86	296.69
383.085	306.69
383.31	320.69
383.535	316.69
383.761	321.69
383.986	328.69
384.211	303.69
384.436	313.69
384.662	328.69
384.887	326.69
385.112	323.69
385.337	327.69
385.562	332.69
385.787	313.69
386.013	331.69
386.238	345.69
386.463	344.69
386.688	327.69
386.913	313.69
387.138	320.69
387.363	317.69
387.588	320.69
387.813	320.69
388.038	321.69
388.263	326.69
388.488	343.69
388.713	316.69
388.938	324.69
389.163	322.69
389.387	318.69
389.612	329.69
389.837	324.69
390.062	313.69
390.287	326.69
390.512	300.69
390.736	308.69
390.961	303.69
391.186	325.69
391.411	318.69
391.636	322.69
391.86	319.69
392.085	330.69
392.31	330.69
392.534	338.69
392.759	323.69
392.984	344.69
393.208	377.69
393.433	450.69
393.658	488.69
393.882	373.69
394.107	316.69
394.331	318.69
394.556	330.69
394.78	312.69
395.005	341.69
395.229	323.69
395.454	330.69
395.678	342.69
395.903	327.69
396.127	367.69
396.352	372.69
396.576	342.69
396.801	374.69
397.025	414.69
397.249	412.69
397.474	364.69
397.698	338.69
397.922	365.69
398.147	370.69
398.371	357.69
398.595	354.69
398.82	358.69
399.044	362.69
399.268	377.69
399.492	364.69
399.717	388.69
399.941	396.69
400.165	415.69
400.389	451.69
400.613	404.69
400.837	367.69
401.062	374.69
401.286	356.69
401.51	358.69
401.734	356.69
401.958	352.69
402.182	354.69
402.406	389.69
402.63	368.69
402.854	366.69
403.078	344.69
403.302	362.69
403.526	357.69
403.75	371.69
403.974	372.69
404.198	360.69
404.422	383.69
404.645	380.69
404.869	370.69
405.093	399.69
405.317	396.69
405.541	447.69
405.765	416.69
405.988	396.69
406.212	384.69
406.436	388.69
406.66	399.69
406.883	399.69
407.107	418.69
407.331	414.69
407.555	496.69
407.778	500.69
408.002	450.69
408.226	416.69
408.449	406.69
408.673	407.69
408.896	436.69
409.12	450.69
409.344	444.69
409.567	411.69
409.791	390.69
410.014	378.69
410.238	377.69
410.461	365.69
410.685	390.69
410.908	397.69
411.132	412.69
411.355	446.69
411.578	418.69
411.802	380.69
412.025	379.69
412.249	371.69
412.472	391.69
412.695	399.69
412.919	401.69
413.142	393.69
413.365	365.69
413.589	366.69
413.812	356.69
414.035	381.69
414.258	349.69
414.482	347.69
414.705	343.69
414.928	350.69
415.151	323.69
415.374	334.69
415.597	347.69
415.821	344.69
416.044	362.69
416.267	366.69
416.49	342.69
416.713	349.69
416.936	348.69
417.159	359.69
417.382	380.69
417.605	366.69
417.828	356.69
418.051	359.69
418.274	365.69
418.497	353.69
418.72	358.69
418.943	356.69
419.166	377.69
419.389	369.69
419.611	362.69
419.834	370.69
420.057	370.69
420.28	368.69
420.503	364.69
420.726	372.69
420.948	371.69
421.171	396.69
421.394	413.69
421.617	399.69
421.839	363.69
422.062	362.69
422.285	374.69
422.507	438.69
422.73	467.69
422.953	453.69
423.175	400.69
423.398	382.69
423.621	392.69
423.843	374.69
424.066	387.69
424.288	386.69
424.511	393.69
424.733	460.69
424.956	504.69
425.178	478.69
425.401	499.69
425.623	506.69
425.846	420.69
426.068	408.69
426.291	386.69
426.513	392.69
426.735	413.69
426.958	416.69
427.18	501.69
427.402	594.69
427.625	587.69
427.847	542.69
428.069	474.69
428.292	434.69
428.514	389.69
428.736	384.69
428.958	394.69
429.181	349.69
429.403	380.69
429.625	381.69
429.847	409.69
430.069	457.69
430.292	447.69
430.514	371.69
430.736	366.69
430.958	346.69
431.18	359.69
431.402	361.69
431.624	352.69
431.846	334.69
432.068	343.69
432.29	348.69
432.512	359.69
432.734	359.69
432.956	371.69
433.178	369.69
433.4	354.69
433.622	349.69
433.844	357.69
434.066	352.69
434.287	361.69
434.509	365.69
434.731	367.69
434.953	364.69
435.175	388.69
435.397	397.69
435.618	382.69
435.84	438.69
436.062	482.69
436.284	541.69
436.505	453.69
436.727	411.69
436.949	392.69
437.17	371.69
437.392	377.69
437.614	396.69
437.835	390.69
438.057	452.69
438.278	530.69
438.5	549.69
438.721	600.69
438.943	581.69
439.165	463.69
439.386	423.69
439.608	394.69
439.829	416.69
440.05	420.69
440.272	453.69
440.493	422.69
440.715	397.69
440.936	382.69
441.158	374.69
441.379	358.69
441.6	367.69
441.822	358.69
442.043	415.69
442.264	474.69
442.486	515.69
442.707	446.69
442.928	409.69
443.149	411.69
443.371	414.69
443.592	464.69
443.813	527.69
444.034	585.69
444.255	468.69
444.476	428.69
444.698	402.69
444.919	403.69
445.14	472.69
445.361	448.69
445.582	429.69
445.803	484.69
446.024	547.69
446.245	569.69
446.466	511.69
446.687	418.69
446.908	412.69
447.129	403.69
447.35	382.69
447.571	357.69
447.792	386.69
448.013	364.69
448.234	377.69
448.455	409.69
448.675	517.69
448.896	604.69
449.117	516.69
449.338	480.69
449.559	520.69
449.779	637.69
450	514.69
450.221	434.69
450.442	383.69
450.662	404.69
450.883	366.69
451.104	364.69
451.324	366.69
451.545	344.69
451.766	347.69
451.986	326.69
452.207	340.69
452.428	321.69
452.648	322.69
452.869	316.69
453.089	332.69
453.31	346.69
453.53	327.69
453.751	333.69
453.971	327.69
454.192	335.69
454.412	351.69
454.633	317.69
454.853	323.69
455.073	320.69
455.294	350.69
455.514	403.69
455.734	394.69
455.955	343.69
456.175	328.69
456.395	323.69
456.616	316.69
456.836	336.69
457.056	326.69
457.276	298.69
457.497	318.69
457.717	310.69
457.937	330.69
458.157	335.69
458.377	320.69
458.598	342.69
458.818	363.69
459.038	406.69
459.258	432.69
459.478	376.69
459.698	363.69
459.918	351.69
460.138	349.69
460.358	348.69
460.578	346.69
460.798	348.69
461.018	349.69
461.238	351.69
461.458	344.69
461.678	378.69
461.898	358.69
462.118	346.69
462.338	368.69
462.558	344.69
462.777	383.69
462.997	367.69
463.217	364.69
463.437	383.69
463.657	386.69
463.876	382.69
464.096	388.69
464.316	385.69
464.536	363.69
464.755	368.69
464.975	377.69
465.195	384.69
465.414	430.69
465.634	388.69
465.854	367.69
466.073	366.69
466.293	350.69
466.512	353.69
466.732	352.69
466.951	353.69
467.171	328.69
467.391	354.69
467.61	342.69
467.829	345.69
468.049	342.69
468.268	317.69
468.488	351.69
468.707	338.69
468.927	349.69
469.146	332.69
469.365	338.69
469.585	330.69
469.804	327.69
470.023	344.69
470.243	334.69
470.462	349.69
470.681	356.69
470.901	365.69
471.12	331.69
471.339	356.69
471.558	335.69
471.777	362.69
471.997	345.69
472.216	356.69
472.435	368.69
472.654	360.69
472.873	350.69
473.092	366.69
473.311	348.69
473.53	335.69
473.749	362.69
473.968	378.69
474.187	435.69
474.406	468.69
474.625	371.69
474.844	373.69
475.063	343.69
475.282	366.69
475.501	355.69
475.72	363.69
475.939	351.69
476.158	368.69
476.377	377.69
476.596	366.69
476.814	367.69
477.033	357.69
477.252	359.69
477.471	375.69
477.69	364.69
477.908	366.69
478.127	372.69
478.346	363.69
478.564	388.69
478.783	370.69
479.002	370.69
479.22	392.69
479.439	416.69
479.658	411.69
479.876	406.69
480.095	423.69
480.313	418.69
480.532	423.69
480.751	405.69
480.969	433.69
481.188	438.69
481.406	460.69
481.624	446.69
481.843	421.69
482.061	418.69
482.28	403.69
482.498	393.69
482.717	415.69
482.935	392.69
483.153	406.69
483.372	407.69
483.59	397.69
483.808	406.69
484.027	412.69
484.245	407.69
484.463	413.69
484.681	418.69
484.9	418.69
485.118	427.69
485.336	429.69
485.554	426.69
485.772	439.69
485.99	434.69
486.209	400.69
486.427	439.69
486.645	428.69
486.863	421.69
487.081	431.69
487.299	445.69
487.517	440.69
487.735	429.69
487.953	429.69
488.171	453.69
488.389	446.69
488.607	438.69
488.825	417.69
489.043	440.69
489.261	434.69
489.479	473.69
489.696	440.69
489.914	426.69
490.132	460.69
490.35	446.69
490.568	461.69
490.786	478.69
491.003	478.69
491.221	473.69
491.439	488.69
491.657	482.69
491.874	472.69
492.092	489.69
492.31	492.69
492.527	491.69
492.745	489.69
492.963	510.69
493.18	510.69
493.398	496.69
493.615	484.69
493.833	502.69
494.05	514.69
494.268	497.69
494.485	486.69
494.703	486.69
494.92	484.69
495.138	495.69
495.355	499.69
495.573	491.69
495.79	529.69
496.008	532.69
496.225	511.69
496.442	514.69
496.66	531.69
496.877	502.69
497.094	506.69
497.312	491.69
497.529	522.69
497.746	546.69
497.963	547.69
498.181	565.69
498.398	572.69
498.615	555.69
498.832	583.69
499.049	578.69
499.267	602.69
499.484	606.69
499.701	587.69
499.918	650.69
500.135	660.69
500.352	667.69
500.569	660.69
500.786	680.69
501.003	662.69
501.22	690.69
501.437	619.69
501.654	638.69
501.871	621.69
502.088	606.69
