Data from 1972.PennyLincolnUp.Lamp.En5.5.200Scan.071719.P1._HRD10591_15-28-00-843.txt Node
Date: Thu Jul 18 15:28:00 EDT 2019
User: cochatt
Spectrometer: HR+D1059
Trigger mode: 1
Integration Time (sec): 1.000000E-1
Scans to average: 1
Electric dark correction enabled: true
Nonlinearity correction enabled: false
Boxcar width: 0
XAxis mode: Wavelengths
Number of Pixels in Spectrum: 2048
>>>>>Begin Spectral Data<<<<<
223.165	-7.75
223.4	-7.75
223.635	-7.75
223.869	-16.75
224.104	-22.75
224.338	-15.75
224.573	-9.75
224.808	-7.75
225.042	-8.75
225.277	0.25
225.511	-9.75
225.746	0.25
225.98	5.25
226.215	5.25
226.449	22.25
226.683	12.25
226.918	27.25
227.152	26.25
227.387	28.25
227.621	33.25
227.856	45.25
228.09	35.25
228.324	45.25
228.559	46.25
228.793	58.25
229.027	93.25
229.262	93.25
229.496	95.25
229.73	138.25
229.964	162.25
230.199	140.25
230.433	120.25
230.667	107.25
230.901	116.25
231.136	112.25
231.37	112.25
231.604	120.25
231.838	124.25
232.072	122.25
232.306	109.25
232.541	110.25
232.775	120.25
233.009	103.25
233.243	103.25
233.477	120.25
233.711	120.25
233.945	104.25
234.179	116.25
234.413	117.25
234.647	103.25
234.881	108.25
235.115	115.25
235.349	118.25
235.583	111.25
235.817	116.25
236.051	126.25
236.285	121.25
236.519	127.25
236.753	125.25
236.987	159.25
237.221	192.25
237.455	259.25
237.689	189.25
237.922	150.25
238.156	130.25
238.39	128.25
238.624	143.25
238.858	126.25
239.091	119.25
239.325	140.25
239.559	129.25
239.793	134.25
240.027	134.25
240.26	136.25
240.494	157.25
240.728	154.25
240.961	157.25
241.195	143.25
241.429	147.25
241.662	150.25
241.896	135.25
242.13	131.25
242.363	144.25
242.597	140.25
242.83	145.25
243.064	136.25
243.298	148.25
243.531	125.25
243.765	126.25
243.998	136.25
244.232	140.25
244.465	142.25
244.699	144.25
244.932	134.25
245.166	135.25
245.399	127.25
245.633	147.25
245.866	141.25
246.099	148.25
246.333	148.25
246.566	151.25
246.8	175.25
247.033	147.25
247.266	158.25
247.5	166.25
247.733	183.25
247.966	173.25
248.2	172.25
248.433	172.25
248.666	172.25
248.899	184.25
249.133	208.25
249.366	219.25
249.599	199.25
249.832	194.25
250.066	182.25
250.299	190.25
250.532	188.25
250.765	203.25
250.998	230.25
251.231	226.25
251.465	228.25
251.698	197.25
251.931	209.25
252.164	207.25
252.397	195.25
252.63	217.25
252.863	207.25
253.096	209.25
253.329	232.25
253.562	231.25
253.795	232.25
254.028	205.25
254.261	223.25
254.494	234.25
254.727	248.25
254.96	279.25
255.193	275.25
255.426	240.25
255.659	226.25
255.892	236.25
256.124	242.25
256.357	239.25
256.59	229.25
256.823	226.25
257.056	196.25
257.289	199.25
257.521	218.25
257.754	206.25
257.987	206.25
258.22	199.25
258.452	213.25
258.685	208.25
258.918	194.25
259.151	216.25
259.383	222.25
259.616	226.25
259.849	230.25
260.081	233.25
260.314	259.25
260.547	262.25
260.779	256.25
261.012	243.25
261.244	216.25
261.477	222.25
261.71	219.25
261.942	236.25
262.175	243.25
262.407	231.25
262.64	224.25
262.872	225.25
263.105	215.25
263.337	219.25
263.57	218.25
263.802	199.25
264.035	199.25
264.267	223.25
264.499	221.25
264.732	215.25
264.964	212.25
265.197	217.25
265.429	234.25
265.661	218.25
265.894	220.25
266.126	214.25
266.358	192.25
266.591	219.25
266.823	228.25
267.055	228.25
267.287	208.25
267.52	215.25
267.752	229.25
267.984	215.25
268.216	232.25
268.448	234.25
268.681	233.25
268.913	238.25
269.145	263.25
269.377	285.25
269.609	282.25
269.841	275.25
270.073	276.25
270.306	294.25
270.538	314.25
270.77	320.25
271.002	301.25
271.234	273.25
271.466	300.25
271.698	312.25
271.93	325.25
272.162	334.25
272.394	312.25
272.626	318.25
272.858	312.25
273.09	284.25
273.322	275.25
273.553	281.25
273.785	265.25
274.017	272.25
274.249	260.25
274.481	266.25
274.713	261.25
274.945	268.25
275.176	266.25
275.408	284.25
275.64	262.25
275.872	245.25
276.104	265.25
276.335	262.25
276.567	257.25
276.799	280.25
277.031	313.25
277.262	328.25
277.494	309.25
277.726	287.25
277.957	283.25
278.189	265.25
278.421	249.25
278.652	273.25
278.884	274.25
279.115	267.25
279.347	256.25
279.579	272.25
279.81	246.25
280.042	263.25
280.273	279.25
280.505	261.25
280.736	255.25
280.968	255.25
281.199	254.25
281.431	244.25
281.662	250.25
281.894	270.25
282.125	258.25
282.356	286.25
282.588	319.25
282.819	317.25
283.051	272.25
283.282	248.25
283.513	279.25
283.745	249.25
283.976	255.25
284.207	277.25
284.439	266.25
284.67	273.25
284.901	290.25
285.132	254.25
285.364	259.25
285.595	258.25
285.826	276.25
286.057	252.25
286.288	259.25
286.52	263.25
286.751	270.25
286.982	250.25
287.213	262.25
287.444	286.25
287.675	278.25
287.906	288.25
288.138	298.25
288.369	289.25
288.6	308.25
288.831	304.25
289.062	286.25
289.293	266.25
289.524	293.25
289.755	263.25
289.986	284.25
290.217	278.25
290.448	271.25
290.679	284.25
290.91	274.25
291.141	274.25
291.371	279.25
291.602	276.25
291.833	271.25
292.064	268.25
292.295	268.25
292.526	261.25
292.757	275.25
292.987	270.25
293.218	282.25
293.449	280.25
293.68	279.25
293.91	247.25
294.141	279.25
294.372	260.25
294.603	272.25
294.833	274.25
295.064	273.25
295.295	283.25
295.525	275.25
295.756	262.25
295.987	300.25
296.217	326.25
296.448	319.25
296.679	302.25
296.909	280.25
297.14	272.25
297.37	287.25
297.601	272.25
297.831	301.25
298.062	290.25
298.292	279.25
298.523	291.25
298.753	291.25
298.984	289.25
299.214	292.25
299.445	297.25
299.675	301.25
299.905	302.25
300.136	287.25
300.366	264.25
300.597	284.25
300.827	297.25
301.057	282.25
301.288	306.25
301.518	314.25
301.748	290.25
301.979	322.25
302.209	297.25
302.439	307.25
302.669	317.25
302.9	315.25
303.13	300.25
303.36	308.25
303.59	303.25
303.82	325.25
304.051	324.25
304.281	310.25
304.511	293.25
304.741	292.25
304.971	313.25
305.201	311.25
305.431	304.25
305.661	303.25
305.891	279.25
306.121	290.25
306.352	312.25
306.582	296.25
306.812	310.25
307.042	319.25
307.272	326.25
307.502	316.25
307.731	314.25
307.961	333.25
308.191	306.25
308.421	318.25
308.651	324.25
308.881	338.25
309.111	315.25
309.341	331.25
309.571	347.25
309.8	339.25
310.03	343.25
310.26	335.25
310.49	387.25
310.72	360.25
310.949	390.25
311.179	392.25
311.409	373.25
311.639	376.25
311.868	378.25
312.098	372.25
312.328	371.25
312.557	396.25
312.787	415.25
313.017	401.25
313.246	382.25
313.476	364.25
313.706	366.25
313.935	383.25
314.165	384.25
314.394	391.25
314.624	395.25
314.853	392.25
315.083	366.25
315.312	360.25
315.542	378.25
315.771	340.25
316.001	370.25
316.23	366.25
316.46	375.25
316.689	366.25
316.919	362.25
317.148	380.25
317.377	369.25
317.607	366.25
317.836	382.25
318.065	364.25
318.295	365.25
318.524	360.25
318.753	358.25
318.983	350.25
319.212	356.25
319.441	373.25
319.67	368.25
319.9	360.25
320.129	356.25
320.358	366.25
320.587	374.25
320.816	354.25
321.046	374.25
321.275	388.25
321.504	366.25
321.733	382.25
321.962	394.25
322.191	406.25
322.42	436.25
322.649	426.25
322.878	468.25
323.108	472.25
323.337	490.25
323.566	524.25
323.795	574.25
324.024	598.25
324.253	762.25
324.482	1091.25
324.71	1718.25
324.939	2536.25
325.168	2196.25
325.397	1116.25
325.626	726.25
325.855	579.25
326.084	526.25
326.313	495.25
326.542	536.25
326.77	564.25
326.999	695.25
327.228	970.25
327.457	1500.25
327.686	1864.25
327.914	1262.25
328.143	780.25
328.372	676.25
328.6	638.25
328.829	594.25
329.058	597.25
329.287	611.25
329.515	580.25
329.744	530.25
329.972	527.25
330.201	562.25
330.43	591.25
330.658	638.25
330.887	638.25
331.115	623.25
331.344	532.25
331.572	495.25
331.801	486.25
332.03	484.25
332.258	473.25
332.486	451.25
332.715	416.25
332.943	437.25
333.172	447.25
333.4	457.25
333.629	444.25
333.857	459.25
334.085	482.25
334.314	487.25
334.542	537.25
334.771	565.25
334.999	499.25
335.227	440.25
335.455	432.25
335.684	440.25
335.912	412.25
336.14	412.25
336.369	408.25
336.597	418.25
336.825	444.25
337.053	412.25
337.281	412.25
337.51	403.25
337.738	406.25
337.966	420.25
338.194	416.25
338.422	426.25
338.65	427.25
338.878	404.25
339.106	400.25
339.334	391.25
339.562	397.25
339.79	383.25
340.018	402.25
340.246	390.25
340.474	394.25
340.702	404.25
340.93	406.25
341.158	395.25
341.386	408.25
341.614	393.25
341.842	400.25
342.07	402.25
342.298	392.25
342.526	385.25
342.754	394.25
342.981	380.25
343.209	385.25
343.437	393.25
343.665	378.25
343.893	387.25
344.12	384.25
344.348	395.25
344.576	407.25
344.804	401.25
345.031	432.25
345.259	425.25
345.487	393.25
345.714	388.25
345.942	396.25
346.17	391.25
346.397	376.25
346.625	368.25
346.853	380.25
347.08	383.25
347.308	396.25
347.535	421.25
347.763	408.25
347.99	416.25
348.218	396.25
348.445	419.25
348.673	406.25
348.9	380.25
349.128	392.25
349.355	377.25
349.583	384.25
349.81	396.25
350.037	362.25
350.265	374.25
350.492	380.25
350.72	378.25
350.947	360.25
351.174	406.25
351.402	436.25
351.629	429.25
351.856	420.25
352.083	401.25
352.311	412.25
352.538	426.25
352.765	425.25
352.992	414.25
353.22	392.25
353.447	383.25
353.674	397.25
353.901	371.25
354.128	362.25
354.355	380.25
354.583	358.25
354.81	366.25
355.037	356.25
355.264	351.25
355.491	374.25
355.718	364.25
355.945	338.25
356.172	357.25
356.399	343.25
356.626	349.25
356.853	349.25
357.08	331.25
357.307	351.25
357.534	346.25
357.761	360.25
357.988	368.25
358.215	366.25
358.441	362.25
358.668	348.25
358.895	366.25
359.122	356.25
359.349	379.25
359.576	379.25
359.802	403.25
360.029	447.25
360.256	463.25
360.483	437.25
360.709	406.25
360.936	389.25
361.163	372.25
361.39	398.25
361.616	404.25
361.843	393.25
362.07	397.25
362.296	386.25
362.523	371.25
362.749	372.25
362.976	366.25
363.203	372.25
363.429	357.25
363.656	360.25
363.882	363.25
364.109	346.25
364.335	361.25
364.562	367.25
364.788	373.25
365.015	361.25
365.241	354.25
365.468	371.25
365.694	394.25
365.92	366.25
366.147	363.25
366.373	362.25
366.599	366.25
366.826	364.25
367.052	361.25
367.278	354.25
367.505	363.25
367.731	356.25
367.957	357.25
368.184	359.25
368.41	363.25
368.636	364.25
368.862	364.25
369.089	365.25
369.315	350.25
369.541	359.25
369.767	355.25
369.993	372.25
370.219	360.25
370.445	360.25
370.672	338.25
370.898	343.25
371.124	346.25
371.35	363.25
371.576	349.25
371.802	342.25
372.028	346.25
372.254	333.25
372.48	355.25
372.706	364.25
372.932	360.25
373.158	334.25
373.384	360.25
373.61	356.25
373.835	347.25
374.061	347.25
374.287	376.25
374.513	364.25
374.739	342.25
374.965	335.25
375.191	359.25
375.416	361.25
375.642	333.25
375.868	357.25
376.094	350.25
376.319	334.25
376.545	340.25
376.771	340.25
376.997	350.25
377.222	342.25
377.448	315.25
377.674	333.25
377.899	344.25
378.125	325.25
378.35	337.25
378.576	356.25
378.802	326.25
379.027	335.25
379.253	341.25
379.478	328.25
379.704	355.25
379.929	341.25
380.155	348.25
380.38	340.25
380.606	365.25
380.831	365.25
381.057	358.25
381.282	344.25
381.507	357.25
381.733	374.25
381.958	360.25
382.184	350.25
382.409	375.25
382.634	348.25
382.86	346.25
383.085	363.25
383.31	355.25
383.535	344.25
383.761	348.25
383.986	345.25
384.211	346.25
384.436	366.25
384.662	373.25
384.887	351.25
385.112	364.25
385.337	367.25
385.562	366.25
385.787	375.25
386.013	361.25
386.238	386.25
386.463	386.25
386.688	383.25
386.913	352.25
387.138	349.25
387.363	374.25
387.588	360.25
387.813	356.25
388.038	355.25
388.263	362.25
388.488	381.25
388.713	372.25
388.938	357.25
389.163	367.25
389.387	399.25
389.612	374.25
389.837	379.25
390.062	378.25
390.287	391.25
390.512	365.25
390.736	380.25
390.961	379.25
391.186	359.25
391.411	370.25
391.636	373.25
391.86	378.25
392.085	382.25
392.31	391.25
392.534	365.25
392.759	384.25
392.984	372.25
393.208	380.25
393.433	364.25
393.658	396.25
393.882	379.25
394.107	379.25
394.331	376.25
394.556	333.25
394.78	362.25
395.005	386.25
395.229	379.25
395.454	381.25
395.678	387.25
395.903	386.25
396.127	388.25
396.352	401.25
396.576	386.25
396.801	399.25
397.025	392.25
397.249	407.25
397.474	390.25
397.698	391.25
397.922	406.25
398.147	412.25
398.371	427.25
398.595	386.25
398.82	404.25
399.044	406.25
399.268	395.25
399.492	430.25
399.717	442.25
399.941	462.25
400.165	472.25
400.389	520.25
400.613	489.25
400.837	443.25
401.062	439.25
401.286	424.25
401.51	425.25
401.734	413.25
401.958	415.25
402.182	450.25
402.406	422.25
402.63	444.25
402.854	406.25
403.078	434.25
403.302	439.25
403.526	443.25
403.75	455.25
403.974	420.25
404.198	409.25
404.422	426.25
404.645	430.25
404.869	448.25
405.093	482.25
405.317	519.25
405.541	548.25
405.765	502.25
405.988	469.25
406.212	470.25
406.436	522.25
406.66	520.25
406.883	480.25
407.107	498.25
407.331	546.25
407.555	615.25
407.778	589.25
408.002	565.25
408.226	503.25
408.449	489.25
408.673	492.25
408.896	534.25
409.12	535.25
409.344	540.25
409.567	467.25
409.791	458.25
410.014	442.25
410.238	458.25
410.461	427.25
410.685	436.25
410.908	457.25
411.132	495.25
411.355	550.25
411.578	514.25
411.802	452.25
412.025	426.25
412.249	446.25
412.472	477.25
412.695	510.25
412.919	503.25
413.142	461.25
413.365	451.25
413.589	442.25
413.812	444.25
414.035	443.25
414.258	409.25
414.482	406.25
414.705	421.25
414.928	430.25
415.151	428.25
415.374	406.25
415.597	404.25
415.821	410.25
416.044	403.25
416.267	424.25
416.49	421.25
416.713	396.25
416.936	411.25
417.159	423.25
417.382	428.25
417.605	405.25
417.828	422.25
418.051	446.25
418.274	436.25
418.497	416.25
418.72	425.25
418.943	405.25
419.166	427.25
419.389	459.25
419.611	428.25
419.834	440.25
420.057	436.25
420.28	448.25
420.503	432.25
420.726	439.25
420.948	448.25
421.171	485.25
421.394	508.25
421.617	471.25
421.839	440.25
422.062	434.25
422.285	456.25
422.507	526.25
422.73	612.25
422.953	573.25
423.175	522.25
423.398	460.25
423.621	445.25
423.843	499.25
424.066	492.25
424.288	463.25
424.511	473.25
424.733	552.25
424.956	629.25
425.178	605.25
425.401	607.25
425.623	623.25
425.846	564.25
426.068	494.25
426.291	488.25
426.513	487.25
426.735	517.25
426.958	541.25
427.18	630.25
427.402	770.25
427.625	819.25
427.847	726.25
428.069	654.25
428.292	555.25
428.514	525.25
428.736	471.25
428.958	457.25
429.181	452.25
429.403	459.25
429.625	458.25
429.847	489.25
430.069	548.25
430.292	584.25
430.514	473.25
430.736	443.25
430.958	433.25
431.18	426.25
431.402	416.25
431.624	416.25
431.846	410.25
432.068	420.25
432.29	400.25
432.512	427.25
432.734	422.25
432.956	431.25
433.178	458.25
433.4	428.25
433.622	435.25
433.844	428.25
434.066	411.25
434.287	424.25
434.509	434.25
434.731	434.25
434.953	419.25
435.175	448.25
435.397	463.25
435.618	480.25
435.84	534.25
436.062	620.25
436.284	719.25
436.505	563.25
436.727	522.25
436.949	483.25
437.17	451.25
437.392	473.25
437.614	463.25
437.835	519.25
438.057	628.25
438.278	712.25
438.5	705.25
438.721	780.25
438.943	737.25
439.165	592.25
439.386	522.25
439.608	526.25
439.829	510.25
440.05	528.25
440.272	605.25
440.493	568.25
440.715	494.25
440.936	453.25
441.158	450.25
441.379	478.25
441.6	477.25
441.822	504.25
442.043	530.25
442.264	586.25
442.486	665.25
442.707	543.25
442.928	526.25
443.149	521.25
443.371	554.25
443.592	583.25
443.813	671.25
444.034	721.25
444.255	576.25
444.476	514.25
444.698	492.25
444.919	488.25
445.14	583.25
445.361	553.25
445.582	541.25
445.803	638.25
446.024	718.25
446.245	726.25
446.466	648.25
446.687	568.25
446.908	497.25
447.129	484.25
447.35	447.25
447.571	444.25
447.792	458.25
448.013	498.25
448.234	488.25
448.455	550.25
448.675	653.25
448.896	743.25
449.117	655.25
449.338	605.25
449.559	713.25
449.779	799.25
450	634.25
450.221	524.25
450.442	484.25
450.662	464.25
450.883	459.25
451.104	474.25
451.324	447.25
451.545	426.25
451.766	423.25
451.986	420.25
452.207	399.25
452.428	412.25
452.648	404.25
452.869	418.25
453.089	414.25
453.31	435.25
453.53	412.25
453.751	423.25
453.971	429.25
454.192	430.25
454.412	428.25
454.633	409.25
454.853	401.25
455.073	406.25
455.294	452.25
455.514	508.25
455.734	515.25
455.955	410.25
456.175	406.25
456.395	377.25
456.616	388.25
456.836	388.25
457.056	384.25
457.276	387.25
457.497	378.25
457.717	386.25
457.937	394.25
458.157	377.25
458.377	410.25
458.598	422.25
458.818	490.25
459.038	576.25
459.258	610.25
459.478	485.25
459.698	440.25
459.918	440.25
460.138	409.25
460.358	405.25
460.578	429.25
460.798	407.25
461.018	416.25
461.238	406.25
461.458	416.25
461.678	400.25
461.898	394.25
462.118	409.25
462.338	416.25
462.558	415.25
462.777	411.25
462.997	425.25
463.217	429.25
463.437	457.25
463.657	442.25
463.876	429.25
464.096	455.25
464.316	422.25
464.536	435.25
464.755	444.25
464.975	453.25
465.195	512.25
465.414	604.25
465.634	544.25
465.854	485.25
466.073	440.25
466.293	404.25
466.512	401.25
466.732	412.25
466.951	410.25
467.171	417.25
467.391	426.25
467.61	410.25
467.829	436.25
468.049	417.25
468.268	446.25
468.488	427.25
468.707	414.25
468.927	394.25
469.146	400.25
469.365	401.25
469.585	412.25
469.804	424.25
470.023	422.25
470.243	427.25
470.462	422.25
470.681	448.25
470.901	444.25
471.12	423.25
471.339	431.25
471.558	446.25
471.777	419.25
471.997	426.25
472.216	420.25
472.435	469.25
472.654	466.25
472.873	423.25
473.092	429.25
473.311	425.25
473.53	428.25
473.749	435.25
473.968	466.25
474.187	579.25
474.406	622.25
474.625	506.25
474.844	460.25
475.063	434.25
475.282	410.25
475.501	439.25
475.72	439.25
475.939	417.25
476.158	432.25
476.377	436.25
476.596	437.25
476.814	438.25
477.033	432.25
477.252	452.25
477.471	442.25
477.69	450.25
477.908	447.25
478.127	458.25
478.346	429.25
478.564	445.25
478.783	454.25
479.002	488.25
479.22	465.25
479.439	479.25
479.658	498.25
479.876	524.25
480.095	505.25
480.313	535.25
480.532	523.25
480.751	489.25
480.969	516.25
481.188	596.25
481.406	666.25
481.624	563.25
481.843	524.25
482.061	517.25
482.28	507.25
482.498	504.25
482.717	493.25
482.935	502.25
483.153	512.25
483.372	473.25
483.59	502.25
483.808	498.25
484.027	494.25
484.245	487.25
484.463	511.25
484.681	495.25
484.9	479.25
485.118	500.25
485.336	512.25
485.554	528.25
485.772	499.25
485.99	509.25
486.209	523.25
486.427	508.25
486.645	544.25
486.863	555.25
487.081	543.25
487.299	528.25
487.517	522.25
487.735	515.25
487.953	540.25
488.171	510.25
488.389	555.25
488.607	532.25
488.825	533.25
489.043	536.25
489.261	534.25
489.479	536.25
489.696	548.25
489.914	565.25
490.132	560.25
490.35	541.25
490.568	552.25
490.786	550.25
491.003	583.25
491.221	579.25
491.439	588.25
491.657	608.25
491.874	614.25
492.092	596.25
492.31	617.25
492.527	605.25
492.745	620.25
492.963	614.25
493.18	589.25
493.398	605.25
493.615	633.25
493.833	621.25
494.05	603.25
494.268	599.25
494.485	619.25
494.703	626.25
494.92	615.25
495.138	633.25
495.355	626.25
495.573	629.25
495.79	629.25
496.008	651.25
496.225	612.25
496.442	646.25
496.66	613.25
496.877	604.25
497.094	625.25
497.312	630.25
497.529	655.25
497.746	633.25
497.963	652.25
498.181	660.25
498.398	673.25
498.615	671.25
498.832	709.25
499.049	680.25
499.267	688.25
499.484	710.25
499.701	726.25
499.918	750.25
500.135	739.25
500.352	766.25
500.569	778.25
500.786	783.25
501.003	762.25
501.22	787.25
501.437	760.25
501.654	759.25
501.871	776.25
502.088	735.25
