Data from 1972.PennyLincolnUp.Lamp.En5.5.200Scan.071719.P1._HRD10591_15-27-29-845.txt Node
Date: Thu Jul 18 15:27:29 EDT 2019
User: cochatt
Spectrometer: HR+D1059
Trigger mode: 1
Integration Time (sec): 1.000000E-1
Scans to average: 1
Electric dark correction enabled: true
Nonlinearity correction enabled: false
Boxcar width: 0
XAxis mode: Wavelengths
Number of Pixels in Spectrum: 2048
>>>>>Begin Spectral Data<<<<<
223.165	-13.88
223.4	-13.88
223.635	-13.88
223.869	-23.88
224.104	-18.88
224.338	-9.88
224.573	-30.88
224.808	-5.88
225.042	2.12
225.277	-14.88
225.511	4.12
225.746	1.12
225.98	1.12
226.215	13.12
226.449	22.12
226.683	8.12
226.918	31.12
227.152	35.12
227.387	28.12
227.621	32.12
227.856	56.12
228.09	50.12
228.324	59.12
228.559	59.12
228.793	76.12
229.027	104.12
229.262	102.12
229.496	114.12
229.73	123.12
229.964	152.12
230.199	131.12
230.433	112.12
230.667	108.12
230.901	108.12
231.136	118.12
231.37	108.12
231.604	108.12
231.838	104.12
232.072	114.12
232.306	118.12
232.541	117.12
232.775	106.12
233.009	108.12
233.243	107.12
233.477	110.12
233.711	122.12
233.945	115.12
234.179	109.12
234.413	105.12
234.647	121.12
234.881	125.12
235.115	116.12
235.349	133.12
235.583	120.12
235.817	105.12
236.051	123.12
236.285	122.12
236.519	113.12
236.753	132.12
236.987	140.12
237.221	168.12
237.455	224.12
237.689	190.12
237.922	131.12
238.156	142.12
238.39	130.12
238.624	115.12
238.858	125.12
239.091	113.12
239.325	119.12
239.559	128.12
239.793	133.12
240.027	133.12
240.26	140.12
240.494	152.12
240.728	147.12
240.961	129.12
241.195	146.12
241.429	128.12
241.662	132.12
241.896	117.12
242.13	141.12
242.363	129.12
242.597	120.12
242.83	121.12
243.064	130.12
243.298	138.12
243.531	136.12
243.765	129.12
243.998	116.12
244.232	134.12
244.465	152.12
244.699	132.12
244.932	129.12
245.166	138.12
245.399	130.12
245.633	141.12
245.866	139.12
246.099	134.12
246.333	126.12
246.566	131.12
246.8	162.12
247.033	155.12
247.266	156.12
247.5	155.12
247.733	163.12
247.966	161.12
248.2	164.12
248.433	168.12
248.666	164.12
248.899	164.12
249.133	187.12
249.366	190.12
249.599	197.12
249.832	161.12
250.066	183.12
250.299	161.12
250.532	174.12
250.765	183.12
250.998	217.12
251.231	229.12
251.465	203.12
251.698	185.12
251.931	185.12
252.164	178.12
252.397	199.12
252.63	192.12
252.863	196.12
253.096	199.12
253.329	198.12
253.562	221.12
253.795	210.12
254.028	210.12
254.261	200.12
254.494	204.12
254.727	242.12
254.96	272.12
255.193	249.12
255.426	228.12
255.659	227.12
255.892	233.12
256.124	230.12
256.357	222.12
256.59	209.12
256.823	208.12
257.056	209.12
257.289	196.12
257.521	219.12
257.754	198.12
257.987	206.12
258.22	202.12
258.452	199.12
258.685	183.12
258.918	187.12
259.151	204.12
259.383	201.12
259.616	225.12
259.849	213.12
260.081	220.12
260.314	240.12
260.547	266.12
260.779	252.12
261.012	223.12
261.244	225.12
261.477	220.12
261.71	201.12
261.942	230.12
262.175	227.12
262.407	226.12
262.64	214.12
262.872	206.12
263.105	197.12
263.337	189.12
263.57	201.12
263.802	196.12
264.035	211.12
264.267	205.12
264.499	219.12
264.732	205.12
264.964	207.12
265.197	188.12
265.429	203.12
265.661	203.12
265.894	203.12
266.126	206.12
266.358	216.12
266.591	213.12
266.823	217.12
267.055	214.12
267.287	222.12
267.52	212.12
267.752	219.12
267.984	210.12
268.216	210.12
268.448	229.12
268.681	221.12
268.913	224.12
269.145	253.12
269.377	245.12
269.609	259.12
269.841	233.12
270.073	256.12
270.306	292.12
270.538	297.12
270.77	300.12
271.002	314.12
271.234	298.12
271.466	281.12
271.698	298.12
271.93	300.12
272.162	304.12
272.394	296.12
272.626	281.12
272.858	271.12
273.09	270.12
273.322	273.12
273.553	276.12
273.785	248.12
274.017	240.12
274.249	242.12
274.481	243.12
274.713	249.12
274.945	263.12
275.176	256.12
275.408	231.12
275.64	232.12
275.872	245.12
276.104	245.12
276.335	242.12
276.567	245.12
276.799	266.12
277.031	270.12
277.262	296.12
277.494	307.12
277.726	270.12
277.957	265.12
278.189	268.12
278.421	280.12
278.652	236.12
278.884	264.12
279.115	254.12
279.347	219.12
279.579	257.12
279.81	238.12
280.042	247.12
280.273	234.12
280.505	245.12
280.736	238.12
280.968	239.12
281.199	248.12
281.431	232.12
281.662	251.12
281.894	236.12
282.125	265.12
282.356	274.12
282.588	284.12
282.819	292.12
283.051	260.12
283.282	241.12
283.513	266.12
283.745	236.12
283.976	258.12
284.207	242.12
284.439	273.12
284.67	252.12
284.901	260.12
285.132	246.12
285.364	232.12
285.595	229.12
285.826	268.12
286.057	250.12
286.288	248.12
286.52	234.12
286.751	248.12
286.982	256.12
287.213	283.12
287.444	258.12
287.675	248.12
287.906	254.12
288.138	260.12
288.369	274.12
288.6	284.12
288.831	290.12
289.062	281.12
289.293	273.12
289.524	260.12
289.755	262.12
289.986	273.12
290.217	246.12
290.448	253.12
290.679	245.12
290.91	256.12
291.141	264.12
291.371	261.12
291.602	253.12
291.833	253.12
292.064	240.12
292.295	261.12
292.526	254.12
292.757	268.12
292.987	260.12
293.218	234.12
293.449	247.12
293.68	265.12
293.91	257.12
294.141	261.12
294.372	264.12
294.603	269.12
294.833	271.12
295.064	265.12
295.295	274.12
295.525	268.12
295.756	266.12
295.987	285.12
296.217	313.12
296.448	297.12
296.679	288.12
296.909	272.12
297.14	261.12
297.37	264.12
297.601	252.12
297.831	272.12
298.062	267.12
298.292	264.12
298.523	252.12
298.753	285.12
298.984	283.12
299.214	292.12
299.445	290.12
299.675	282.12
299.905	291.12
300.136	289.12
300.366	280.12
300.597	270.12
300.827	292.12
301.057	283.12
301.288	289.12
301.518	294.12
301.748	286.12
301.979	282.12
302.209	290.12
302.439	280.12
302.669	275.12
302.9	276.12
303.13	275.12
303.36	297.12
303.59	293.12
303.82	325.12
304.051	300.12
304.281	286.12
304.511	295.12
304.741	291.12
304.971	285.12
305.201	286.12
305.431	282.12
305.661	301.12
305.891	285.12
306.121	291.12
306.352	297.12
306.582	290.12
306.812	297.12
307.042	285.12
307.272	281.12
307.502	292.12
307.731	300.12
307.961	289.12
308.191	302.12
308.421	296.12
308.651	311.12
308.881	304.12
309.111	325.12
309.341	321.12
309.571	328.12
309.8	349.12
310.03	341.12
310.26	337.12
310.49	335.12
310.72	356.12
310.949	359.12
311.179	377.12
311.409	359.12
311.639	346.12
311.868	353.12
312.098	362.12
312.328	346.12
312.557	370.12
312.787	380.12
313.017	374.12
313.246	352.12
313.476	346.12
313.706	349.12
313.935	348.12
314.165	381.12
314.394	370.12
314.624	377.12
314.853	353.12
315.083	356.12
315.312	359.12
315.542	350.12
315.771	333.12
316.001	338.12
316.23	344.12
316.46	326.12
316.689	354.12
316.919	338.12
317.148	342.12
317.377	353.12
317.607	340.12
317.836	350.12
318.065	353.12
318.295	327.12
318.524	343.12
318.753	330.12
318.983	344.12
319.212	358.12
319.441	358.12
319.67	362.12
319.9	370.12
320.129	353.12
320.358	345.12
320.587	341.12
320.816	354.12
321.046	363.12
321.275	370.12
321.504	360.12
321.733	368.12
321.962	380.12
322.191	388.12
322.42	398.12
322.649	403.12
322.878	441.12
323.108	419.12
323.337	452.12
323.566	485.12
323.795	512.12
324.024	578.12
324.253	720.12
324.482	964.12
324.71	1555.12
324.939	2258.12
325.168	2014.12
325.397	1001.12
325.626	660.12
325.855	549.12
326.084	510.12
326.313	494.12
326.542	486.12
326.77	527.12
326.999	634.12
327.228	892.12
327.457	1369.12
327.686	1733.12
327.914	1167.12
328.143	747.12
328.372	621.12
328.6	590.12
328.829	533.12
329.058	565.12
329.287	587.12
329.515	527.12
329.744	498.12
329.972	499.12
330.201	512.12
330.43	563.12
330.658	604.12
330.887	620.12
331.115	585.12
331.344	496.12
331.572	469.12
331.801	454.12
332.03	457.12
332.258	438.12
332.486	419.12
332.715	394.12
332.943	400.12
333.172	416.12
333.4	404.12
333.629	412.12
333.857	416.12
334.085	429.12
334.314	455.12
334.542	493.12
334.771	491.12
334.999	459.12
335.227	428.12
335.455	401.12
335.684	424.12
335.912	408.12
336.14	386.12
336.369	385.12
336.597	387.12
336.825	410.12
337.053	398.12
337.281	398.12
337.51	376.12
337.738	400.12
337.966	382.12
338.194	405.12
338.422	395.12
338.65	380.12
338.878	382.12
339.106	397.12
339.334	385.12
339.562	393.12
339.79	357.12
340.018	388.12
340.246	398.12
340.474	400.12
340.702	378.12
340.93	386.12
341.158	380.12
341.386	371.12
341.614	379.12
341.842	382.12
342.07	377.12
342.298	383.12
342.526	366.12
342.754	357.12
342.981	359.12
343.209	350.12
343.437	370.12
343.665	354.12
343.893	372.12
344.12	381.12
344.348	384.12
344.576	378.12
344.804	379.12
345.031	402.12
345.259	402.12
345.487	400.12
345.714	392.12
345.942	389.12
346.17	378.12
346.397	370.12
346.625	376.12
346.853	382.12
347.08	371.12
347.308	370.12
347.535	390.12
347.763	387.12
347.99	377.12
348.218	381.12
348.445	395.12
348.673	396.12
348.9	382.12
349.128	377.12
349.355	373.12
349.583	358.12
349.81	357.12
350.037	362.12
350.265	373.12
350.492	361.12
350.72	360.12
350.947	355.12
351.174	373.12
351.402	388.12
351.629	387.12
351.856	379.12
352.083	390.12
352.311	394.12
352.538	400.12
352.765	403.12
352.992	404.12
353.22	375.12
353.447	366.12
353.674	362.12
353.901	352.12
354.128	358.12
354.355	344.12
354.583	335.12
354.81	334.12
355.037	333.12
355.264	340.12
355.491	340.12
355.718	329.12
355.945	350.12
356.172	331.12
356.399	346.12
356.626	331.12
356.853	333.12
357.08	332.12
357.307	336.12
357.534	328.12
357.761	329.12
357.988	340.12
358.215	341.12
358.441	345.12
358.668	344.12
358.895	314.12
359.122	340.12
359.349	342.12
359.576	377.12
359.802	398.12
360.029	410.12
360.256	418.12
360.483	419.12
360.709	370.12
360.936	378.12
361.163	371.12
361.39	370.12
361.616	358.12
361.843	352.12
362.07	369.12
362.296	389.12
362.523	375.12
362.749	372.12
362.976	366.12
363.203	340.12
363.429	349.12
363.656	374.12
363.882	353.12
364.109	338.12
364.335	347.12
364.562	345.12
364.788	348.12
365.015	357.12
365.241	332.12
365.468	364.12
365.694	363.12
365.92	349.12
366.147	343.12
366.373	353.12
366.599	356.12
366.826	336.12
367.052	330.12
367.278	344.12
367.505	356.12
367.731	345.12
367.957	333.12
368.184	348.12
368.41	347.12
368.636	347.12
368.862	361.12
369.089	360.12
369.315	333.12
369.541	347.12
369.767	339.12
369.993	348.12
370.219	357.12
370.445	346.12
370.672	340.12
370.898	352.12
371.124	339.12
371.35	344.12
371.576	351.12
371.802	343.12
372.028	354.12
372.254	337.12
372.48	336.12
372.706	344.12
372.932	335.12
373.158	328.12
373.384	346.12
373.61	347.12
373.835	323.12
374.061	339.12
374.287	333.12
374.513	355.12
374.739	350.12
374.965	327.12
375.191	354.12
375.416	346.12
375.642	333.12
375.868	356.12
376.094	348.12
376.319	337.12
376.545	344.12
376.771	354.12
376.997	328.12
377.222	339.12
377.448	324.12
377.674	328.12
377.899	324.12
378.125	348.12
378.35	335.12
378.576	318.12
378.802	322.12
379.027	328.12
379.253	334.12
379.478	326.12
379.704	340.12
379.929	331.12
380.155	334.12
380.38	359.12
380.606	347.12
380.831	341.12
381.057	341.12
381.282	333.12
381.507	345.12
381.733	325.12
381.958	341.12
382.184	333.12
382.409	357.12
382.634	348.12
382.86	331.12
383.085	343.12
383.31	339.12
383.535	356.12
383.761	338.12
383.986	350.12
384.211	338.12
384.436	345.12
384.662	337.12
384.887	339.12
385.112	334.12
385.337	349.12
385.562	334.12
385.787	366.12
386.013	365.12
386.238	357.12
386.463	372.12
386.688	380.12
386.913	354.12
387.138	357.12
387.363	362.12
387.588	348.12
387.813	375.12
388.038	354.12
388.263	345.12
388.488	342.12
388.713	352.12
388.938	368.12
389.163	356.12
389.387	352.12
389.612	360.12
389.837	342.12
390.062	364.12
390.287	346.12
390.512	357.12
390.736	363.12
390.961	358.12
391.186	376.12
391.411	355.12
391.636	340.12
391.86	361.12
392.085	360.12
392.31	355.12
392.534	353.12
392.759	372.12
392.984	362.12
393.208	370.12
393.433	398.12
393.658	378.12
393.882	369.12
394.107	353.12
394.331	346.12
394.556	361.12
394.78	360.12
395.005	355.12
395.229	360.12
395.454	376.12
395.678	386.12
395.903	392.12
396.127	403.12
396.352	404.12
396.576	360.12
396.801	376.12
397.025	351.12
397.249	384.12
397.474	374.12
397.698	361.12
397.922	412.12
398.147	406.12
398.371	390.12
398.595	411.12
398.82	405.12
399.044	393.12
399.268	396.12
399.492	376.12
399.717	456.12
399.941	449.12
400.165	495.12
400.389	490.12
400.613	460.12
400.837	432.12
401.062	425.12
401.286	397.12
401.51	395.12
401.734	403.12
401.958	391.12
402.182	408.12
402.406	410.12
402.63	410.12
402.854	409.12
403.078	402.12
403.302	422.12
403.526	416.12
403.75	429.12
403.974	414.12
404.198	415.12
404.422	401.12
404.645	422.12
404.869	422.12
405.093	440.12
405.317	526.12
405.541	530.12
405.765	476.12
405.988	479.12
406.212	466.12
406.436	473.12
406.66	484.12
406.883	470.12
407.107	482.12
407.331	535.12
407.555	587.12
407.778	581.12
408.002	540.12
408.226	486.12
408.449	442.12
408.673	474.12
408.896	492.12
409.12	544.12
409.344	487.12
409.567	452.12
409.791	424.12
410.014	418.12
410.238	422.12
410.461	419.12
410.685	413.12
410.908	437.12
411.132	483.12
411.355	499.12
411.578	486.12
411.802	441.12
412.025	422.12
412.249	420.12
412.472	462.12
412.695	502.12
412.919	479.12
413.142	439.12
413.365	429.12
413.589	407.12
413.812	406.12
414.035	417.12
414.258	398.12
414.482	377.12
414.705	401.12
414.928	392.12
415.151	398.12
415.374	398.12
415.597	392.12
415.821	397.12
416.044	403.12
416.267	396.12
416.49	386.12
416.713	412.12
416.936	392.12
417.159	382.12
417.382	414.12
417.605	399.12
417.828	405.12
418.051	421.12
418.274	432.12
418.497	382.12
418.72	397.12
418.943	403.12
419.166	424.12
419.389	438.12
419.611	432.12
419.834	423.12
420.057	447.12
420.28	429.12
420.503	432.12
420.726	403.12
420.948	440.12
421.171	461.12
421.394	492.12
421.617	448.12
421.839	425.12
422.062	447.12
422.285	435.12
422.507	505.12
422.73	563.12
422.953	536.12
423.175	462.12
423.398	438.12
423.621	447.12
423.843	467.12
424.066	434.12
424.288	456.12
424.511	461.12
424.733	530.12
424.956	615.12
425.178	589.12
425.401	586.12
425.623	592.12
425.846	512.12
426.068	481.12
426.291	451.12
426.513	451.12
426.735	480.12
426.958	522.12
427.18	604.12
427.402	711.12
427.625	783.12
427.847	732.12
428.069	617.12
428.292	555.12
428.514	480.12
428.736	456.12
428.958	468.12
429.181	432.12
429.403	437.12
429.625	453.12
429.847	465.12
430.069	552.12
430.292	514.12
430.514	464.12
430.736	438.12
430.958	435.12
431.18	424.12
431.402	387.12
431.624	395.12
431.846	409.12
432.068	406.12
432.29	394.12
432.512	411.12
432.734	393.12
432.956	410.12
433.178	399.12
433.4	418.12
433.622	415.12
433.844	411.12
434.066	400.12
434.287	377.12
434.509	381.12
434.731	418.12
434.953	424.12
435.175	440.12
435.397	463.12
435.618	476.12
435.84	504.12
436.062	592.12
436.284	658.12
436.505	554.12
436.727	488.12
436.949	444.12
437.17	440.12
437.392	456.12
437.614	449.12
437.835	485.12
438.057	582.12
438.278	693.12
438.5	642.12
438.721	768.12
438.943	674.12
439.165	560.12
439.386	493.12
439.608	508.12
439.829	493.12
440.05	526.12
440.272	552.12
440.493	535.12
440.715	474.12
440.936	445.12
441.158	439.12
441.379	440.12
441.6	431.12
441.822	475.12
442.043	507.12
442.264	582.12
442.486	624.12
442.707	530.12
442.928	481.12
443.149	492.12
443.371	515.12
443.592	560.12
443.813	642.12
444.034	698.12
444.255	581.12
444.476	480.12
444.698	462.12
444.919	481.12
445.14	576.12
445.361	557.12
445.582	517.12
445.803	582.12
446.024	702.12
446.245	710.12
446.466	625.12
446.687	521.12
446.908	509.12
447.129	443.12
447.35	445.12
447.571	429.12
447.792	450.12
448.013	450.12
448.234	434.12
448.455	497.12
448.675	624.12
448.896	726.12
449.117	607.12
449.338	573.12
449.559	661.12
449.779	750.12
450	602.12
450.221	509.12
450.442	468.12
450.662	448.12
450.883	444.12
451.104	485.12
451.324	447.12
451.545	433.12
451.766	404.12
451.986	402.12
452.207	387.12
452.428	398.12
452.648	390.12
452.869	391.12
453.089	402.12
453.31	422.12
453.53	409.12
453.751	376.12
453.971	387.12
454.192	420.12
454.412	412.12
454.633	409.12
454.853	395.12
455.073	388.12
455.294	405.12
455.514	490.12
455.734	475.12
455.955	420.12
456.175	388.12
456.395	355.12
456.616	368.12
456.836	345.12
457.056	358.12
457.276	364.12
457.497	366.12
457.717	360.12
457.937	364.12
458.157	374.12
458.377	374.12
458.598	417.12
458.818	459.12
459.038	527.12
459.258	575.12
459.478	473.12
459.698	434.12
459.918	410.12
460.138	383.12
460.358	387.12
460.578	396.12
460.798	388.12
461.018	413.12
461.238	394.12
461.458	384.12
461.678	398.12
461.898	392.12
462.118	385.12
462.338	398.12
462.558	399.12
462.777	391.12
462.997	409.12
463.217	411.12
463.437	418.12
463.657	438.12
463.876	408.12
464.096	424.12
464.316	414.12
464.536	446.12
464.755	434.12
464.975	430.12
465.195	488.12
465.414	566.12
465.634	504.12
465.854	446.12
466.073	446.12
466.293	405.12
466.512	396.12
466.732	392.12
466.951	412.12
467.171	394.12
467.391	401.12
467.61	410.12
467.829	420.12
468.049	411.12
468.268	424.12
468.488	382.12
468.707	376.12
468.927	376.12
469.146	390.12
469.365	386.12
469.585	371.12
469.804	387.12
470.023	402.12
470.243	410.12
470.462	410.12
470.681	420.12
470.901	418.12
471.12	389.12
471.339	414.12
471.558	402.12
471.777	408.12
471.997	386.12
472.216	396.12
472.435	448.12
472.654	420.12
472.873	408.12
473.092	396.12
473.311	388.12
473.53	404.12
473.749	420.12
473.968	456.12
474.187	531.12
474.406	589.12
474.625	455.12
474.844	405.12
475.063	399.12
475.282	393.12
475.501	396.12
475.72	427.12
475.939	417.12
476.158	437.12
476.377	417.12
476.596	402.12
476.814	423.12
477.033	430.12
477.252	434.12
477.471	426.12
477.69	439.12
477.908	429.12
478.127	434.12
478.346	458.12
478.564	426.12
478.783	439.12
479.002	445.12
479.22	452.12
479.439	466.12
479.658	473.12
479.876	492.12
480.095	477.12
480.313	495.12
480.532	496.12
480.751	492.12
480.969	507.12
481.188	570.12
481.406	591.12
481.624	518.12
481.843	492.12
482.061	472.12
482.28	474.12
482.498	475.12
482.717	476.12
482.935	477.12
483.153	473.12
483.372	474.12
483.59	493.12
483.808	466.12
484.027	473.12
484.245	479.12
484.463	490.12
484.681	487.12
484.9	482.12
485.118	476.12
485.336	467.12
485.554	486.12
485.772	517.12
485.99	487.12
486.209	502.12
486.427	499.12
486.645	478.12
486.863	514.12
487.081	509.12
487.299	548.12
487.517	512.12
487.735	513.12
487.953	491.12
488.171	537.12
488.389	518.12
488.607	520.12
488.825	505.12
489.043	499.12
489.261	514.12
489.479	511.12
489.696	517.12
489.914	532.12
490.132	533.12
490.35	519.12
490.568	525.12
490.786	534.12
491.003	553.12
491.221	536.12
491.439	541.12
491.657	577.12
491.874	565.12
492.092	577.12
492.31	578.12
492.527	566.12
492.745	591.12
492.963	563.12
493.18	586.12
493.398	572.12
493.615	609.12
493.833	582.12
494.05	593.12
494.268	594.12
494.485	597.12
494.703	604.12
494.92	602.12
495.138	609.12
495.355	591.12
495.573	585.12
495.79	610.12
496.008	600.12
496.225	606.12
496.442	591.12
496.66	589.12
496.877	598.12
497.094	586.12
497.312	617.12
497.529	607.12
497.746	588.12
497.963	641.12
498.181	658.12
498.398	651.12
498.615	647.12
498.832	663.12
499.049	648.12
499.267	665.12
499.484	693.12
499.701	704.12
499.918	716.12
500.135	724.12
500.352	738.12
500.569	736.12
500.786	766.12
501.003	759.12
501.22	753.12
501.437	747.12
501.654	732.12
501.871	744.12
