Data from 1972.PennyLincolnUp.Lamp.En5.5.200Scan.071719.P1._HRD10591_15-28-41-844.txt Node
Date: Thu Jul 18 15:28:41 EDT 2019
User: cochatt
Spectrometer: HR+D1059
Trigger mode: 1
Integration Time (sec): 1.000000E-1
Scans to average: 1
Electric dark correction enabled: true
Nonlinearity correction enabled: false
Boxcar width: 0
XAxis mode: Wavelengths
Number of Pixels in Spectrum: 2048
>>>>>Begin Spectral Data<<<<<
223.165	-13.75
223.4	-13.75
223.635	-13.75
223.869	-31.75
224.104	-11.75
224.338	-10.75
224.573	-11.75
224.808	7.25
225.042	-6.75
225.277	-7.75
225.511	-1.75
225.746	8.25
225.98	3.25
226.215	0.25
226.449	2.25
226.683	13.25
226.918	27.25
227.152	34.25
227.387	28.25
227.621	35.25
227.856	56.25
228.09	43.25
228.324	41.25
228.559	51.25
228.793	55.25
229.027	101.25
229.262	110.25
229.496	115.25
229.73	136.25
229.964	177.25
230.199	129.25
230.433	131.25
230.667	130.25
230.901	110.25
231.136	113.25
231.37	118.25
231.604	102.25
231.838	127.25
232.072	112.25
232.306	119.25
232.541	122.25
232.775	115.25
233.009	124.25
233.243	113.25
233.477	115.25
233.711	128.25
233.945	121.25
234.179	122.25
234.413	126.25
234.647	123.25
234.881	127.25
235.115	129.25
235.349	127.25
235.583	114.25
235.817	127.25
236.051	134.25
236.285	135.25
236.519	150.25
236.753	126.25
236.987	170.25
237.221	196.25
237.455	259.25
237.689	209.25
237.922	149.25
238.156	124.25
238.39	123.25
238.624	125.25
238.858	129.25
239.091	138.25
239.325	132.25
239.559	119.25
239.793	139.25
240.027	147.25
240.26	157.25
240.494	170.25
240.728	177.25
240.961	181.25
241.195	169.25
241.429	169.25
241.662	143.25
241.896	150.25
242.13	136.25
242.363	141.25
242.597	124.25
242.83	147.25
243.064	149.25
243.298	158.25
243.531	158.25
243.765	140.25
243.998	139.25
244.232	152.25
244.465	149.25
244.699	160.25
244.932	150.25
245.166	154.25
245.399	158.25
245.633	153.25
245.866	146.25
246.099	159.25
246.333	139.25
246.566	161.25
246.8	155.25
247.033	153.25
247.266	161.25
247.5	178.25
247.733	161.25
247.966	189.25
248.2	174.25
248.433	183.25
248.666	201.25
248.899	184.25
249.133	211.25
249.366	214.25
249.599	219.25
249.832	211.25
250.066	200.25
250.299	201.25
250.532	207.25
250.765	222.25
250.998	229.25
251.231	238.25
251.465	236.25
251.698	208.25
251.931	220.25
252.164	225.25
252.397	201.25
252.63	213.25
252.863	210.25
253.096	239.25
253.329	243.25
253.562	232.25
253.795	244.25
254.028	232.25
254.261	231.25
254.494	255.25
254.727	270.25
254.96	301.25
255.193	285.25
255.426	273.25
255.659	252.25
255.892	244.25
256.124	270.25
256.357	252.25
256.59	249.25
256.823	234.25
257.056	235.25
257.289	230.25
257.521	249.25
257.754	225.25
257.987	218.25
258.22	221.25
258.452	218.25
258.685	222.25
258.918	225.25
259.151	231.25
259.383	238.25
259.616	227.25
259.849	244.25
260.081	249.25
260.314	284.25
260.547	277.25
260.779	264.25
261.012	243.25
261.244	240.25
261.477	252.25
261.71	238.25
261.942	262.25
262.175	257.25
262.407	260.25
262.64	243.25
262.872	237.25
263.105	227.25
263.337	245.25
263.57	236.25
263.802	221.25
264.035	243.25
264.267	223.25
264.499	228.25
264.732	243.25
264.964	222.25
265.197	222.25
265.429	228.25
265.661	217.25
265.894	220.25
266.126	236.25
266.358	212.25
266.591	228.25
266.823	247.25
267.055	231.25
267.287	239.25
267.52	234.25
267.752	242.25
267.984	252.25
268.216	243.25
268.448	249.25
268.681	250.25
268.913	271.25
269.145	267.25
269.377	304.25
269.609	296.25
269.841	292.25
270.073	302.25
270.306	323.25
270.538	341.25
270.77	324.25
271.002	328.25
271.234	317.25
271.466	323.25
271.698	341.25
271.93	337.25
272.162	341.25
272.394	349.25
272.626	328.25
272.858	312.25
273.09	327.25
273.322	298.25
273.553	283.25
273.785	290.25
274.017	274.25
274.249	298.25
274.481	289.25
274.713	277.25
274.945	277.25
275.176	282.25
275.408	288.25
275.64	266.25
275.872	281.25
276.104	275.25
276.335	288.25
276.567	291.25
276.799	307.25
277.031	336.25
277.262	341.25
277.494	364.25
277.726	322.25
277.957	318.25
278.189	325.25
278.421	298.25
278.652	293.25
278.884	294.25
279.115	262.25
279.347	277.25
279.579	266.25
279.81	281.25
280.042	273.25
280.273	298.25
280.505	285.25
280.736	277.25
280.968	277.25
281.199	282.25
281.431	269.25
281.662	274.25
281.894	284.25
282.125	278.25
282.356	297.25
282.588	324.25
282.819	340.25
283.051	274.25
283.282	270.25
283.513	287.25
283.745	277.25
283.976	288.25
284.207	284.25
284.439	282.25
284.67	309.25
284.901	291.25
285.132	288.25
285.364	272.25
285.595	289.25
285.826	300.25
286.057	291.25
286.288	273.25
286.52	297.25
286.751	281.25
286.982	299.25
287.213	279.25
287.444	295.25
287.675	291.25
287.906	309.25
288.138	305.25
288.369	315.25
288.6	301.25
288.831	301.25
289.062	307.25
289.293	297.25
289.524	301.25
289.755	295.25
289.986	286.25
290.217	291.25
290.448	282.25
290.679	297.25
290.91	293.25
291.141	286.25
291.371	290.25
291.602	289.25
291.833	291.25
292.064	307.25
292.295	288.25
292.526	302.25
292.757	314.25
292.987	277.25
293.218	292.25
293.449	298.25
293.68	306.25
293.91	282.25
294.141	312.25
294.372	299.25
294.603	284.25
294.833	284.25
295.064	284.25
295.295	299.25
295.525	300.25
295.756	321.25
295.987	326.25
296.217	355.25
296.448	321.25
296.679	321.25
296.909	290.25
297.14	296.25
297.37	309.25
297.601	300.25
297.831	298.25
298.062	299.25
298.292	303.25
298.523	306.25
298.753	295.25
298.984	308.25
299.214	297.25
299.445	319.25
299.675	311.25
299.905	317.25
300.136	293.25
300.366	309.25
300.597	308.25
300.827	291.25
301.057	317.25
301.288	337.25
301.518	340.25
301.748	333.25
301.979	331.25
302.209	328.25
302.439	331.25
302.669	327.25
302.9	328.25
303.13	329.25
303.36	340.25
303.59	337.25
303.82	345.25
304.051	334.25
304.281	339.25
304.511	323.25
304.741	342.25
304.971	325.25
305.201	334.25
305.431	326.25
305.661	338.25
305.891	321.25
306.121	328.25
306.352	341.25
306.582	349.25
306.812	327.25
307.042	342.25
307.272	346.25
307.502	332.25
307.731	342.25
307.961	329.25
308.191	342.25
308.421	339.25
308.651	341.25
308.881	350.25
309.111	361.25
309.341	365.25
309.571	357.25
309.8	376.25
310.03	365.25
310.26	390.25
310.49	398.25
310.72	411.25
310.949	413.25
311.179	433.25
311.409	391.25
311.639	396.25
311.868	396.25
312.098	404.25
312.328	406.25
312.557	412.25
312.787	467.25
313.017	445.25
313.246	417.25
313.476	392.25
313.706	406.25
313.935	396.25
314.165	409.25
314.394	433.25
314.624	426.25
314.853	397.25
315.083	379.25
315.312	388.25
315.542	385.25
315.771	368.25
316.001	386.25
316.23	380.25
316.46	385.25
316.689	402.25
316.919	391.25
317.148	396.25
317.377	425.25
317.607	415.25
317.836	395.25
318.065	375.25
318.295	391.25
318.524	379.25
318.753	384.25
318.983	397.25
319.212	405.25
319.441	400.25
319.67	406.25
319.9	427.25
320.129	380.25
320.358	424.25
320.587	393.25
320.816	416.25
321.046	430.25
321.275	405.25
321.504	409.25
321.733	441.25
321.962	428.25
322.191	455.25
322.42	452.25
322.649	493.25
322.878	501.25
323.108	517.25
323.337	518.25
323.566	582.25
323.795	597.25
324.024	678.25
324.253	854.25
324.482	1248.25
324.71	1964.25
324.939	2878.25
325.168	2511.25
325.397	1271.25
325.626	809.25
325.855	661.25
326.084	610.25
326.313	575.25
326.542	611.25
326.77	646.25
326.999	773.25
327.228	1089.25
327.457	1671.25
327.686	2134.25
327.914	1406.25
328.143	901.25
328.372	772.25
328.6	695.25
328.829	661.25
329.058	672.25
329.287	676.25
329.515	643.25
329.744	592.25
329.972	563.25
330.201	592.25
330.43	669.25
330.658	710.25
330.887	726.25
331.115	711.25
331.344	590.25
331.572	545.25
331.801	549.25
332.03	521.25
332.258	521.25
332.486	482.25
332.715	489.25
332.943	476.25
333.172	488.25
333.4	481.25
333.629	488.25
333.857	495.25
334.085	513.25
334.314	531.25
334.542	591.25
334.771	611.25
334.999	549.25
335.227	495.25
335.455	494.25
335.684	480.25
335.912	459.25
336.14	457.25
336.369	464.25
336.597	457.25
336.825	459.25
337.053	450.25
337.281	458.25
337.51	424.25
337.738	444.25
337.966	457.25
338.194	450.25
338.422	439.25
338.65	451.25
338.878	446.25
339.106	418.25
339.334	444.25
339.562	426.25
339.79	413.25
340.018	423.25
340.246	442.25
340.474	425.25
340.702	419.25
340.93	428.25
341.158	422.25
341.386	427.25
341.614	431.25
341.842	446.25
342.07	426.25
342.298	409.25
342.526	410.25
342.754	409.25
342.981	420.25
343.209	431.25
343.437	426.25
343.665	418.25
343.893	441.25
344.12	435.25
344.348	415.25
344.576	425.25
344.804	445.25
345.031	453.25
345.259	464.25
345.487	463.25
345.714	450.25
345.942	437.25
346.17	423.25
346.397	429.25
346.625	421.25
346.853	432.25
347.08	437.25
347.308	437.25
347.535	444.25
347.763	457.25
347.99	436.25
348.218	434.25
348.445	448.25
348.673	443.25
348.9	438.25
349.128	426.25
349.355	397.25
349.583	392.25
349.81	405.25
350.037	414.25
350.265	380.25
350.492	395.25
350.72	409.25
350.947	421.25
351.174	426.25
351.402	429.25
351.629	417.25
351.856	439.25
352.083	447.25
352.311	458.25
352.538	427.25
352.765	449.25
352.992	457.25
353.22	422.25
353.447	411.25
353.674	413.25
353.901	399.25
354.128	402.25
354.355	402.25
354.583	377.25
354.81	396.25
355.037	385.25
355.264	369.25
355.491	377.25
355.718	386.25
355.945	382.25
356.172	371.25
356.399	380.25
356.626	366.25
356.853	375.25
357.08	371.25
357.307	369.25
357.534	362.25
357.761	383.25
357.988	385.25
358.215	359.25
358.441	382.25
358.668	385.25
358.895	406.25
359.122	417.25
359.349	401.25
359.576	426.25
359.802	441.25
360.029	499.25
360.256	509.25
360.483	471.25
360.709	427.25
360.936	437.25
361.163	423.25
361.39	423.25
361.616	427.25
361.843	420.25
362.07	429.25
362.296	414.25
362.523	398.25
362.749	429.25
362.976	421.25
363.203	397.25
363.429	395.25
363.656	409.25
363.882	388.25
364.109	379.25
364.335	381.25
364.562	394.25
364.788	377.25
365.015	381.25
365.241	390.25
365.468	403.25
365.694	400.25
365.92	386.25
366.147	394.25
366.373	404.25
366.599	391.25
366.826	384.25
367.052	376.25
367.278	395.25
367.505	387.25
367.731	393.25
367.957	387.25
368.184	397.25
368.41	394.25
368.636	414.25
368.862	418.25
369.089	392.25
369.315	378.25
369.541	387.25
369.767	367.25
369.993	396.25
370.219	371.25
370.445	393.25
370.672	376.25
370.898	380.25
371.124	382.25
371.35	403.25
371.576	371.25
371.802	377.25
372.028	386.25
372.254	365.25
372.48	369.25
372.706	354.25
372.932	371.25
373.158	379.25
373.384	392.25
373.61	385.25
373.835	393.25
374.061	361.25
374.287	379.25
374.513	384.25
374.739	392.25
374.965	378.25
375.191	379.25
375.416	386.25
375.642	379.25
375.868	371.25
376.094	378.25
376.319	376.25
376.545	363.25
376.771	363.25
376.997	385.25
377.222	347.25
377.448	366.25
377.674	362.25
377.899	382.25
378.125	364.25
378.35	359.25
378.576	357.25
378.802	374.25
379.027	365.25
379.253	387.25
379.478	377.25
379.704	378.25
379.929	367.25
380.155	383.25
380.38	385.25
380.606	391.25
380.831	372.25
381.057	366.25
381.282	366.25
381.507	386.25
381.733	374.25
381.958	381.25
382.184	373.25
382.409	382.25
382.634	388.25
382.86	388.25
383.085	389.25
383.31	378.25
383.535	396.25
383.761	404.25
383.986	387.25
384.211	377.25
384.436	390.25
384.662	376.25
384.887	405.25
385.112	382.25
385.337	396.25
385.562	382.25
385.787	399.25
386.013	417.25
386.238	398.25
386.463	406.25
386.688	405.25
386.913	408.25
387.138	374.25
387.363	415.25
387.588	389.25
387.813	385.25
388.038	404.25
388.263	409.25
388.488	398.25
388.713	408.25
388.938	396.25
389.163	396.25
389.387	387.25
389.612	391.25
389.837	411.25
390.062	401.25
390.287	406.25
390.512	399.25
390.736	377.25
390.961	396.25
391.186	421.25
391.411	384.25
391.636	411.25
391.86	407.25
392.085	406.25
392.31	396.25
392.534	387.25
392.759	391.25
392.984	419.25
393.208	389.25
393.433	406.25
393.658	420.25
393.882	411.25
394.107	401.25
394.331	395.25
394.556	394.25
394.78	405.25
395.005	408.25
395.229	404.25
395.454	407.25
395.678	424.25
395.903	421.25
396.127	434.25
396.352	432.25
396.576	421.25
396.801	412.25
397.025	396.25
397.249	399.25
397.474	420.25
397.698	429.25
397.922	452.25
398.147	441.25
398.371	449.25
398.595	431.25
398.82	433.25
399.044	453.25
399.268	463.25
399.492	471.25
399.717	499.25
399.941	514.25
400.165	537.25
400.389	564.25
400.613	489.25
400.837	497.25
401.062	462.25
401.286	486.25
401.51	476.25
401.734	437.25
401.958	440.25
402.182	460.25
402.406	458.25
402.63	464.25
402.854	459.25
403.078	465.25
403.302	460.25
403.526	469.25
403.75	456.25
403.974	444.25
404.198	467.25
404.422	475.25
404.645	475.25
404.869	478.25
405.093	511.25
405.317	564.25
405.541	613.25
405.765	541.25
405.988	528.25
406.212	516.25
406.436	548.25
406.66	541.25
406.883	536.25
407.107	547.25
407.331	574.25
407.555	657.25
407.778	661.25
408.002	589.25
408.226	532.25
408.449	516.25
408.673	534.25
408.896	561.25
409.12	593.25
409.344	565.25
409.567	514.25
409.791	471.25
410.014	490.25
410.238	467.25
410.461	486.25
410.685	474.25
410.908	500.25
411.132	530.25
411.355	572.25
411.578	553.25
411.802	526.25
412.025	470.25
412.249	485.25
412.472	546.25
412.695	543.25
412.919	549.25
413.142	517.25
413.365	507.25
413.589	482.25
413.812	472.25
414.035	466.25
414.258	448.25
414.482	429.25
414.705	449.25
414.928	444.25
415.151	434.25
415.374	435.25
415.597	437.25
415.821	443.25
416.044	434.25
416.267	447.25
416.49	453.25
416.713	441.25
416.936	434.25
417.159	436.25
417.382	447.25
417.605	450.25
417.828	472.25
418.051	467.25
418.274	485.25
418.497	470.25
418.72	445.25
418.943	445.25
419.166	460.25
419.389	471.25
419.611	508.25
419.834	467.25
420.057	489.25
420.28	470.25
420.503	472.25
420.726	484.25
420.948	495.25
421.171	549.25
421.394	572.25
421.617	504.25
421.839	476.25
422.062	503.25
422.285	486.25
422.507	547.25
422.73	643.25
422.953	613.25
423.175	542.25
423.398	499.25
423.621	502.25
423.843	508.25
424.066	510.25
424.288	522.25
424.511	537.25
424.733	622.25
424.956	683.25
425.178	667.25
425.401	663.25
425.623	691.25
425.846	589.25
426.068	551.25
426.291	524.25
426.513	516.25
426.735	534.25
426.958	552.25
427.18	671.25
427.402	806.25
427.625	952.25
427.847	841.25
428.069	695.25
428.292	603.25
428.514	558.25
428.736	534.25
428.958	497.25
429.181	470.25
429.403	505.25
429.625	509.25
429.847	534.25
430.069	621.25
430.292	640.25
430.514	517.25
430.736	504.25
430.958	482.25
431.18	466.25
431.402	452.25
431.624	458.25
431.846	453.25
432.068	453.25
432.29	446.25
432.512	462.25
432.734	452.25
432.956	462.25
433.178	482.25
433.4	487.25
433.622	481.25
433.844	460.25
434.066	452.25
434.287	445.25
434.509	462.25
434.731	435.25
434.953	475.25
435.175	483.25
435.397	532.25
435.618	535.25
435.84	591.25
436.062	676.25
436.284	789.25
436.505	665.25
436.727	558.25
436.949	532.25
437.17	489.25
437.392	504.25
437.614	519.25
437.835	559.25
438.057	683.25
438.278	803.25
438.5	763.25
438.721	844.25
438.943	783.25
439.165	636.25
439.386	576.25
439.608	551.25
439.829	554.25
440.05	605.25
440.272	654.25
440.493	602.25
440.715	575.25
440.936	527.25
441.158	546.25
441.379	519.25
441.6	504.25
441.822	549.25
442.043	571.25
442.264	681.25
442.486	722.25
442.707	595.25
442.928	557.25
443.149	567.25
443.371	581.25
443.592	612.25
443.813	724.25
444.034	809.25
444.255	665.25
444.476	570.25
444.698	529.25
444.919	521.25
445.14	613.25
445.361	597.25
445.582	617.25
445.803	703.25
446.024	797.25
446.245	798.25
446.466	722.25
446.687	619.25
446.908	560.25
447.129	535.25
447.35	513.25
447.571	491.25
447.792	502.25
448.013	497.25
448.234	524.25
448.455	585.25
448.675	701.25
448.896	834.25
449.117	717.25
449.338	675.25
449.559	773.25
449.779	868.25
450	703.25
450.221	571.25
450.442	519.25
450.662	492.25
450.883	523.25
451.104	524.25
451.324	510.25
451.545	492.25
451.766	473.25
451.986	474.25
452.207	437.25
452.428	457.25
452.648	433.25
452.869	439.25
453.089	471.25
453.31	491.25
453.53	456.25
453.751	440.25
453.971	472.25
454.192	474.25
454.412	474.25
454.633	443.25
454.853	455.25
455.073	440.25
455.294	476.25
455.514	563.25
455.734	531.25
455.955	463.25
456.175	416.25
456.395	411.25
456.616	409.25
456.836	407.25
457.056	412.25
457.276	394.25
457.497	433.25
457.717	422.25
457.937	415.25
458.157	450.25
458.377	435.25
458.598	436.25
458.818	548.25
459.038	643.25
459.258	631.25
459.478	531.25
459.698	483.25
459.918	461.25
460.138	460.25
460.358	445.25
460.578	454.25
460.798	428.25
461.018	456.25
461.238	439.25
461.458	461.25
461.678	438.25
461.898	452.25
462.118	446.25
462.338	448.25
462.558	469.25
462.777	458.25
462.997	463.25
463.217	484.25
463.437	487.25
463.657	464.25
463.876	466.25
464.096	456.25
464.316	475.25
464.536	477.25
464.755	497.25
464.975	497.25
465.195	543.25
465.414	676.25
465.634	561.25
465.854	523.25
466.073	484.25
466.293	445.25
466.512	460.25
466.732	435.25
466.951	454.25
467.171	457.25
467.391	437.25
467.61	437.25
467.829	476.25
468.049	457.25
468.268	473.25
468.488	458.25
468.707	444.25
468.927	436.25
469.146	442.25
469.365	458.25
469.585	426.25
469.804	457.25
470.023	457.25
470.243	485.25
470.462	456.25
470.681	462.25
470.901	490.25
471.12	463.25
471.339	448.25
471.558	459.25
471.777	460.25
471.997	466.25
472.216	455.25
472.435	506.25
472.654	498.25
472.873	468.25
473.092	450.25
473.311	455.25
473.53	461.25
473.749	472.25
473.968	526.25
474.187	638.25
474.406	667.25
474.625	516.25
474.844	500.25
475.063	470.25
475.282	459.25
475.501	446.25
475.72	475.25
475.939	443.25
476.158	482.25
476.377	467.25
476.596	444.25
476.814	451.25
477.033	488.25
477.252	482.25
477.471	494.25
477.69	476.25
477.908	501.25
478.127	493.25
478.346	469.25
478.564	483.25
478.783	475.25
479.002	493.25
479.22	518.25
479.439	519.25
479.658	547.25
479.876	565.25
480.095	546.25
480.313	603.25
480.532	555.25
480.751	554.25
480.969	588.25
481.188	657.25
481.406	721.25
481.624	603.25
481.843	603.25
482.061	564.25
482.28	573.25
482.498	521.25
482.717	517.25
482.935	538.25
483.153	535.25
483.372	540.25
483.59	531.25
483.808	534.25
484.027	524.25
484.245	525.25
484.463	538.25
484.681	535.25
484.9	564.25
485.118	542.25
485.336	545.25
485.554	537.25
485.772	534.25
485.99	517.25
486.209	538.25
486.427	553.25
486.645	565.25
486.863	582.25
487.081	581.25
487.299	578.25
487.517	567.25
487.735	569.25
487.953	599.25
488.171	578.25
488.389	572.25
488.607	554.25
488.825	585.25
489.043	589.25
489.261	591.25
489.479	588.25
489.696	583.25
489.914	579.25
490.132	601.25
490.35	580.25
490.568	620.25
490.786	610.25
491.003	639.25
491.221	631.25
491.439	671.25
491.657	635.25
491.874	632.25
492.092	638.25
492.31	654.25
492.527	658.25
492.745	701.25
492.963	657.25
493.18	677.25
493.398	691.25
493.615	686.25
493.833	699.25
494.05	683.25
494.268	663.25
494.485	680.25
494.703	694.25
494.92	659.25
495.138	647.25
495.355	675.25
495.573	679.25
495.79	691.25
496.008	693.25
496.225	670.25
496.442	682.25
496.66	697.25
496.877	672.25
497.094	672.25
497.312	699.25
497.529	693.25
497.746	698.25
497.963	733.25
498.181	720.25
498.398	748.25
498.615	723.25
498.832	741.25
499.049	733.25
499.267	758.25
499.484	772.25
499.701	791.25
499.918	798.25
500.135	817.25
500.352	833.25
500.569	844.25
500.786	852.25
501.003	845.25
501.22	850.25
501.437	833.25
501.654	833.25
501.871	834.25
