Data from 1972.PennyLincolnUp.Lamp.En5.5.200Scan.071719.P1._HRD10591_15-27-33-844.txt Node
Date: Thu Jul 18 15:27:33 EDT 2019
User: cochatt
Spectrometer: HR+D1059
Trigger mode: 1
Integration Time (sec): 1.000000E-1
Scans to average: 1
Electric dark correction enabled: true
Nonlinearity correction enabled: false
Boxcar width: 0
XAxis mode: Wavelengths
Number of Pixels in Spectrum: 2048
>>>>>Begin Spectral Data<<<<<
223.165	-22.62
223.4	-22.62
223.635	-22.62
223.869	-9.62
224.104	-9.62
224.338	-10.62
224.573	-8.62
224.808	-13.62
225.042	-25.62
225.277	-10.62
225.511	4.38
225.746	-2.62
225.98	5.38
226.215	8.38
226.449	23.38
226.683	29.38
226.918	15.38
227.152	27.38
227.387	39.38
227.621	34.38
227.856	45.38
228.09	47.38
228.324	70.38
228.559	45.38
228.793	69.38
229.027	100.38
229.262	119.38
229.496	128.38
229.73	136.38
229.964	160.38
230.199	122.38
230.433	120.38
230.667	118.38
230.901	114.38
231.136	119.38
231.37	111.38
231.604	108.38
231.838	100.38
232.072	120.38
232.306	123.38
232.541	105.38
232.775	104.38
233.009	119.38
233.243	133.38
233.477	113.38
233.711	120.38
233.945	108.38
234.179	107.38
234.413	126.38
234.647	116.38
234.881	124.38
235.115	116.38
235.349	124.38
235.583	135.38
235.817	119.38
236.051	128.38
236.285	113.38
236.519	125.38
236.753	141.38
236.987	153.38
237.221	200.38
237.455	233.38
237.689	191.38
237.922	142.38
238.156	126.38
238.39	128.38
238.624	124.38
238.858	126.38
239.091	121.38
239.325	121.38
239.559	126.38
239.793	139.38
240.027	120.38
240.26	128.38
240.494	153.38
240.728	146.38
240.961	140.38
241.195	154.38
241.429	144.38
241.662	135.38
241.896	144.38
242.13	144.38
242.363	141.38
242.597	151.38
242.83	138.38
243.064	139.38
243.298	141.38
243.531	139.38
243.765	132.38
243.998	134.38
244.232	134.38
244.465	144.38
244.699	120.38
244.932	155.38
245.166	136.38
245.399	128.38
245.633	146.38
245.866	140.38
246.099	132.38
246.333	140.38
246.566	141.38
246.8	148.38
247.033	151.38
247.266	148.38
247.5	158.38
247.733	156.38
247.966	151.38
248.2	154.38
248.433	166.38
248.666	174.38
248.899	165.38
249.133	193.38
249.366	212.38
249.599	200.38
249.832	194.38
250.066	184.38
250.299	181.38
250.532	180.38
250.765	193.38
250.998	198.38
251.231	240.38
251.465	222.38
251.698	217.38
251.931	196.38
252.164	193.38
252.397	199.38
252.63	192.38
252.863	189.38
253.096	190.38
253.329	234.38
253.562	233.38
253.795	204.38
254.028	207.38
254.261	214.38
254.494	246.38
254.727	267.38
254.96	266.38
255.193	248.38
255.426	234.38
255.659	235.38
255.892	228.38
256.124	240.38
256.357	230.38
256.59	230.38
256.823	223.38
257.056	201.38
257.289	214.38
257.521	200.38
257.754	209.38
257.987	195.38
258.22	210.38
258.452	224.38
258.685	201.38
258.918	208.38
259.151	223.38
259.383	218.38
259.616	228.38
259.849	231.38
260.081	234.38
260.314	254.38
260.547	266.38
260.779	244.38
261.012	228.38
261.244	202.38
261.477	216.38
261.71	217.38
261.942	219.38
262.175	228.38
262.407	221.38
262.64	206.38
262.872	214.38
263.105	214.38
263.337	207.38
263.57	210.38
263.802	209.38
264.035	196.38
264.267	207.38
264.499	229.38
264.732	210.38
264.964	218.38
265.197	208.38
265.429	215.38
265.661	210.38
265.894	201.38
266.126	204.38
266.358	210.38
266.591	205.38
266.823	221.38
267.055	230.38
267.287	225.38
267.52	216.38
267.752	209.38
267.984	212.38
268.216	224.38
268.448	225.38
268.681	217.38
268.913	230.38
269.145	249.38
269.377	255.38
269.609	264.38
269.841	266.38
270.073	266.38
270.306	276.38
270.538	307.38
270.77	286.38
271.002	292.38
271.234	277.38
271.466	286.38
271.698	292.38
271.93	310.38
272.162	332.38
272.394	322.38
272.626	292.38
272.858	270.38
273.09	271.38
273.322	268.38
273.553	269.38
273.785	260.38
274.017	248.38
274.249	253.38
274.481	278.38
274.713	257.38
274.945	265.38
275.176	246.38
275.408	244.38
275.64	248.38
275.872	258.38
276.104	248.38
276.335	260.38
276.567	243.38
276.799	264.38
277.031	295.38
277.262	294.38
277.494	280.38
277.726	299.38
277.957	280.38
278.189	291.38
278.421	255.38
278.652	237.38
278.884	260.38
279.115	265.38
279.347	254.38
279.579	237.38
279.81	247.38
280.042	244.38
280.273	237.38
280.505	236.38
280.736	257.38
280.968	248.38
281.199	265.38
281.431	232.38
281.662	253.38
281.894	266.38
282.125	260.38
282.356	276.38
282.588	266.38
282.819	315.38
283.051	262.38
283.282	263.38
283.513	247.38
283.745	253.38
283.976	259.38
284.207	256.38
284.439	271.38
284.67	253.38
284.901	248.38
285.132	254.38
285.364	258.38
285.595	253.38
285.826	243.38
286.057	273.38
286.288	260.38
286.52	250.38
286.751	264.38
286.982	246.38
287.213	254.38
287.444	252.38
287.675	262.38
287.906	262.38
288.138	270.38
288.369	289.38
288.6	290.38
288.831	259.38
289.062	276.38
289.293	267.38
289.524	268.38
289.755	256.38
289.986	269.38
290.217	255.38
290.448	268.38
290.679	267.38
290.91	270.38
291.141	272.38
291.371	259.38
291.602	264.38
291.833	277.38
292.064	280.38
292.295	269.38
292.526	270.38
292.757	265.38
292.987	257.38
293.218	259.38
293.449	261.38
293.68	262.38
293.91	265.38
294.141	264.38
294.372	262.38
294.603	273.38
294.833	261.38
295.064	248.38
295.295	261.38
295.525	271.38
295.756	253.38
295.987	291.38
296.217	299.38
296.448	318.38
296.679	278.38
296.909	260.38
297.14	292.38
297.37	277.38
297.601	312.38
297.831	275.38
298.062	290.38
298.292	275.38
298.523	289.38
298.753	284.38
298.984	276.38
299.214	277.38
299.445	274.38
299.675	267.38
299.905	284.38
300.136	272.38
300.366	290.38
300.597	279.38
300.827	288.38
301.057	285.38
301.288	294.38
301.518	298.38
301.748	301.38
301.979	290.38
302.209	278.38
302.439	300.38
302.669	307.38
302.9	293.38
303.13	292.38
303.36	287.38
303.59	313.38
303.82	308.38
304.051	305.38
304.281	288.38
304.511	289.38
304.741	294.38
304.971	301.38
305.201	302.38
305.431	331.38
305.661	306.38
305.891	296.38
306.121	290.38
306.352	316.38
306.582	319.38
306.812	292.38
307.042	286.38
307.272	308.38
307.502	308.38
307.731	299.38
307.961	290.38
308.191	293.38
308.421	302.38
308.651	311.38
308.881	316.38
309.111	327.38
309.341	321.38
309.571	335.38
309.8	333.38
310.03	336.38
310.26	341.38
310.49	337.38
310.72	354.38
310.949	368.38
311.179	394.38
311.409	344.38
311.639	341.38
311.868	355.38
312.098	352.38
312.328	354.38
312.557	374.38
312.787	380.38
313.017	366.38
313.246	364.38
313.476	368.38
313.706	344.38
313.935	360.38
314.165	356.38
314.394	376.38
314.624	379.38
314.853	362.38
315.083	344.38
315.312	335.38
315.542	357.38
315.771	344.38
316.001	340.38
316.23	357.38
316.46	346.38
316.689	348.38
316.919	351.38
317.148	361.38
317.377	343.38
317.607	361.38
317.836	363.38
318.065	337.38
318.295	361.38
318.524	337.38
318.753	350.38
318.983	359.38
319.212	357.38
319.441	349.38
319.67	373.38
319.9	358.38
320.129	348.38
320.358	353.38
320.587	358.38
320.816	365.38
321.046	385.38
321.275	391.38
321.504	387.38
321.733	384.38
321.962	383.38
322.191	403.38
322.42	392.38
322.649	434.38
322.878	432.38
323.108	444.38
323.337	447.38
323.566	497.38
323.795	535.38
324.024	581.38
324.253	698.38
324.482	997.38
324.71	1514.38
324.939	2308.38
325.168	2023.38
325.397	1002.38
325.626	673.38
325.855	561.38
326.084	491.38
326.313	493.38
326.542	493.38
326.77	521.38
326.999	639.38
327.228	897.38
327.457	1352.38
327.686	1722.38
327.914	1156.38
328.143	740.38
328.372	640.38
328.6	584.38
328.829	536.38
329.058	578.38
329.287	587.38
329.515	540.38
329.744	504.38
329.972	489.38
330.201	510.38
330.43	559.38
330.658	577.38
330.887	608.38
331.115	600.38
331.344	516.38
331.572	458.38
331.801	462.38
332.03	465.38
332.258	430.38
332.486	427.38
332.715	424.38
332.943	416.38
333.172	418.38
333.4	398.38
333.629	428.38
333.857	420.38
334.085	445.38
334.314	458.38
334.542	505.38
334.771	530.38
334.999	463.38
335.227	429.38
335.455	414.38
335.684	420.38
335.912	408.38
336.14	405.38
336.369	403.38
336.597	416.38
336.825	432.38
337.053	410.38
337.281	388.38
337.51	368.38
337.738	387.38
337.966	376.38
338.194	400.38
338.422	403.38
338.65	400.38
338.878	386.38
339.106	392.38
339.334	378.38
339.562	389.38
339.79	397.38
340.018	405.38
340.246	374.38
340.474	383.38
340.702	385.38
340.93	385.38
341.158	387.38
341.386	392.38
341.614	396.38
341.842	380.38
342.07	358.38
342.298	374.38
342.526	353.38
342.754	392.38
342.981	368.38
343.209	373.38
343.437	365.38
343.665	382.38
343.893	369.38
344.12	406.38
344.348	382.38
344.576	387.38
344.804	414.38
345.031	397.38
345.259	428.38
345.487	393.38
345.714	394.38
345.942	379.38
346.17	380.38
346.397	376.38
346.625	360.38
346.853	372.38
347.08	365.38
347.308	369.38
347.535	393.38
347.763	397.38
347.99	404.38
348.218	396.38
348.445	367.38
348.673	396.38
348.9	379.38
349.128	391.38
349.355	349.38
349.583	365.38
349.81	350.38
350.037	353.38
350.265	372.38
350.492	370.38
350.72	381.38
350.947	364.38
351.174	376.38
351.402	368.38
351.629	376.38
351.856	377.38
352.083	379.38
352.311	381.38
352.538	402.38
352.765	396.38
352.992	395.38
353.22	383.38
353.447	381.38
353.674	362.38
353.901	368.38
354.128	365.38
354.355	357.38
354.583	339.38
354.81	365.38
355.037	351.38
355.264	333.38
355.491	338.38
355.718	347.38
355.945	337.38
356.172	328.38
356.399	372.38
356.626	337.38
356.853	358.38
357.08	355.38
357.307	361.38
357.534	353.38
357.761	330.38
357.988	351.38
358.215	338.38
358.441	339.38
358.668	341.38
358.895	354.38
359.122	327.38
359.349	352.38
359.576	378.38
359.802	421.38
360.029	432.38
360.256	447.38
360.483	434.38
360.709	394.38
360.936	388.38
361.163	375.38
361.39	358.38
361.616	362.38
361.843	378.38
362.07	370.38
362.296	389.38
362.523	384.38
362.749	374.38
362.976	367.38
363.203	378.38
363.429	352.38
363.656	361.38
363.882	361.38
364.109	346.38
364.335	332.38
364.562	361.38
364.788	331.38
365.015	349.38
365.241	373.38
365.468	359.38
365.694	378.38
365.92	376.38
366.147	353.38
366.373	344.38
366.599	366.38
366.826	357.38
367.052	360.38
367.278	365.38
367.505	349.38
367.731	364.38
367.957	357.38
368.184	352.38
368.41	340.38
368.636	332.38
368.862	380.38
369.089	354.38
369.315	365.38
369.541	350.38
369.767	344.38
369.993	346.38
370.219	333.38
370.445	331.38
370.672	363.38
370.898	334.38
371.124	344.38
371.35	382.38
371.576	346.38
371.802	339.38
372.028	336.38
372.254	353.38
372.48	343.38
372.706	338.38
372.932	338.38
373.158	363.38
373.384	338.38
373.61	346.38
373.835	364.38
374.061	337.38
374.287	377.38
374.513	351.38
374.739	348.38
374.965	358.38
375.191	343.38
375.416	347.38
375.642	348.38
375.868	349.38
376.094	359.38
376.319	350.38
376.545	352.38
376.771	333.38
376.997	328.38
377.222	339.38
377.448	335.38
377.674	328.38
377.899	344.38
378.125	341.38
378.35	338.38
378.576	338.38
378.802	324.38
379.027	338.38
379.253	328.38
379.478	350.38
379.704	349.38
379.929	348.38
380.155	323.38
380.38	351.38
380.606	337.38
380.831	355.38
381.057	339.38
381.282	331.38
381.507	334.38
381.733	333.38
381.958	346.38
382.184	340.38
382.409	343.38
382.634	363.38
382.86	344.38
383.085	354.38
383.31	350.38
383.535	353.38
383.761	356.38
383.986	346.38
384.211	353.38
384.436	372.38
384.662	341.38
384.887	349.38
385.112	354.38
385.337	368.38
385.562	368.38
385.787	363.38
386.013	375.38
386.238	358.38
386.463	377.38
386.688	374.38
386.913	367.38
387.138	383.38
387.363	389.38
387.588	339.38
387.813	377.38
388.038	357.38
388.263	375.38
388.488	357.38
388.713	354.38
388.938	393.38
389.163	386.38
389.387	364.38
389.612	372.38
389.837	346.38
390.062	366.38
390.287	369.38
390.512	365.38
390.736	360.38
390.961	356.38
391.186	366.38
391.411	365.38
391.636	372.38
391.86	368.38
392.085	361.38
392.31	382.38
392.534	377.38
392.759	373.38
392.984	350.38
393.208	373.38
393.433	396.38
393.658	395.38
393.882	372.38
394.107	364.38
394.331	366.38
394.556	365.38
394.78	370.38
395.005	380.38
395.229	357.38
395.454	380.38
395.678	380.38
395.903	374.38
396.127	415.38
396.352	412.38
396.576	390.38
396.801	374.38
397.025	413.38
397.249	389.38
397.474	391.38
397.698	398.38
397.922	393.38
398.147	409.38
398.371	410.38
398.595	403.38
398.82	392.38
399.044	408.38
399.268	416.38
399.492	436.38
399.717	441.38
399.941	468.38
400.165	502.38
400.389	515.38
400.613	479.38
400.837	426.38
401.062	414.38
401.286	426.38
401.51	425.38
401.734	421.38
401.958	416.38
402.182	409.38
402.406	441.38
402.63	432.38
402.854	406.38
403.078	410.38
403.302	429.38
403.526	430.38
403.75	431.38
403.974	442.38
404.198	428.38
404.422	420.38
404.645	429.38
404.869	430.38
405.093	459.38
405.317	510.38
405.541	550.38
405.765	482.38
405.988	460.38
406.212	473.38
406.436	483.38
406.66	509.38
406.883	493.38
407.107	488.38
407.331	517.38
407.555	568.38
407.778	590.38
408.002	540.38
408.226	496.38
408.449	468.38
408.673	477.38
408.896	518.38
409.12	551.38
409.344	503.38
409.567	462.38
409.791	441.38
410.014	441.38
410.238	431.38
410.461	415.38
410.685	431.38
410.908	463.38
411.132	502.38
411.355	510.38
411.578	514.38
411.802	433.38
412.025	436.38
412.249	452.38
412.472	473.38
412.695	504.38
412.919	510.38
413.142	452.38
413.365	439.38
413.589	417.38
413.812	411.38
414.035	426.38
414.258	414.38
414.482	400.38
414.705	409.38
414.928	406.38
415.151	406.38
415.374	406.38
415.597	406.38
415.821	389.38
416.044	415.38
416.267	392.38
416.49	407.38
416.713	404.38
416.936	416.38
417.159	414.38
417.382	430.38
417.605	398.38
417.828	430.38
418.051	437.38
418.274	412.38
418.497	397.38
418.72	402.38
418.943	407.38
419.166	433.38
419.389	438.38
419.611	426.38
419.834	429.38
420.057	423.38
420.28	428.38
420.503	407.38
420.726	453.38
420.948	450.38
421.171	477.38
421.394	502.38
421.617	485.38
421.839	432.38
422.062	448.38
422.285	450.38
422.507	492.38
422.73	574.38
422.953	584.38
423.175	491.38
423.398	463.38
423.621	457.38
423.843	464.38
424.066	444.38
424.288	478.38
424.511	479.38
424.733	534.38
424.956	598.38
425.178	585.38
425.401	581.38
425.623	595.38
425.846	519.38
426.068	473.38
426.291	476.38
426.513	481.38
426.735	470.38
426.958	515.38
427.18	584.38
427.402	722.38
427.625	816.38
427.847	735.38
428.069	600.38
428.292	542.38
428.514	479.38
428.736	465.38
428.958	456.38
429.181	423.38
429.403	465.38
429.625	444.38
429.847	472.38
430.069	562.38
430.292	544.38
430.514	465.38
430.736	454.38
430.958	426.38
431.18	416.38
431.402	390.38
431.624	427.38
431.846	424.38
432.068	410.38
432.29	416.38
432.512	408.38
432.734	446.38
432.956	423.38
433.178	427.38
433.4	440.38
433.622	416.38
433.844	422.38
434.066	409.38
434.287	424.38
434.509	417.38
434.731	418.38
434.953	431.38
435.175	458.38
435.397	480.38
435.618	468.38
435.84	520.38
436.062	582.38
436.284	659.38
436.505	576.38
436.727	512.38
436.949	468.38
437.17	454.38
437.392	429.38
437.614	445.38
437.835	506.38
438.057	593.38
438.278	682.38
438.5	686.38
438.721	751.38
438.943	704.38
439.165	588.38
439.386	505.38
439.608	519.38
439.829	499.38
440.05	531.38
440.272	577.38
440.493	538.38
440.715	497.38
440.936	453.38
441.158	464.38
441.379	451.38
441.6	460.38
441.822	472.38
442.043	501.38
442.264	593.38
442.486	637.38
442.707	559.38
442.928	488.38
443.149	485.38
443.371	496.38
443.592	546.38
443.813	656.38
444.034	690.38
444.255	578.38
444.476	516.38
444.698	482.38
444.919	455.38
445.14	602.38
445.361	535.38
445.582	529.38
445.803	598.38
446.024	695.38
446.245	694.38
446.466	641.38
446.687	550.38
446.908	518.38
447.129	458.38
447.35	452.38
447.571	444.38
447.792	441.38
448.013	458.38
448.234	466.38
448.455	518.38
448.675	632.38
448.896	734.38
449.117	608.38
449.338	601.38
449.559	673.38
449.779	780.38
450	662.38
450.221	516.38
450.442	467.38
450.662	458.38
450.883	473.38
451.104	472.38
451.324	443.38
451.545	446.38
451.766	419.38
451.986	418.38
452.207	394.38
452.428	386.38
452.648	394.38
452.869	397.38
453.089	414.38
453.31	404.38
453.53	398.38
453.751	397.38
453.971	412.38
454.192	420.38
454.412	406.38
454.633	392.38
454.853	387.38
455.073	389.38
455.294	422.38
455.514	473.38
455.734	460.38
455.955	408.38
456.175	372.38
456.395	368.38
456.616	392.38
456.836	356.38
457.056	360.38
457.276	368.38
457.497	384.38
457.717	371.38
457.937	370.38
458.157	377.38
458.377	369.38
458.598	412.38
458.818	472.38
459.038	558.38
459.258	537.38
459.478	479.38
459.698	424.38
459.918	428.38
460.138	394.38
460.358	406.38
460.578	400.38
460.798	408.38
461.018	389.38
461.238	436.38
461.458	407.38
461.678	394.38
461.898	404.38
462.118	397.38
462.338	412.38
462.558	419.38
462.777	409.38
462.997	432.38
463.217	433.38
463.437	452.38
463.657	420.38
463.876	424.38
464.096	422.38
464.316	437.38
464.536	436.38
464.755	451.38
464.975	457.38
465.195	517.38
465.414	591.38
465.634	502.38
465.854	449.38
466.073	422.38
466.293	428.38
466.512	400.38
466.732	406.38
466.951	399.38
467.171	391.38
467.391	407.38
467.61	410.38
467.829	431.38
468.049	403.38
468.268	422.38
468.488	412.38
468.707	413.38
468.927	392.38
469.146	386.38
469.365	391.38
469.585	394.38
469.804	391.38
470.023	396.38
470.243	395.38
470.462	412.38
470.681	420.38
470.901	412.38
471.12	416.38
471.339	382.38
471.558	426.38
471.777	401.38
471.997	421.38
472.216	425.38
472.435	483.38
472.654	447.38
472.873	411.38
473.092	411.38
473.311	409.38
473.53	413.38
473.749	430.38
473.968	465.38
474.187	571.38
474.406	597.38
474.625	485.38
474.844	454.38
475.063	406.38
475.282	402.38
475.501	415.38
475.72	416.38
475.939	437.38
476.158	414.38
476.377	412.38
476.596	425.38
476.814	425.38
477.033	449.38
477.252	406.38
477.471	426.38
477.69	440.38
477.908	460.38
478.127	448.38
478.346	419.38
478.564	436.38
478.783	473.38
479.002	448.38
479.22	454.38
479.439	493.38
479.658	512.38
479.876	487.38
480.095	503.38
480.313	529.38
480.532	497.38
480.751	498.38
480.969	503.38
481.188	578.38
481.406	622.38
481.624	541.38
481.843	499.38
482.061	503.38
482.28	474.38
482.498	485.38
482.717	494.38
482.935	488.38
483.153	470.38
483.372	481.38
483.59	476.38
483.808	473.38
484.027	450.38
484.245	470.38
484.463	495.38
484.681	490.38
484.9	498.38
485.118	502.38
485.336	489.38
485.554	479.38
485.772	481.38
485.99	516.38
486.209	485.38
486.427	488.38
486.645	528.38
486.863	522.38
487.081	525.38
487.299	507.38
487.517	514.38
487.735	505.38
487.953	499.38
488.171	529.38
488.389	534.38
488.607	537.38
488.825	540.38
489.043	522.38
489.261	506.38
489.479	534.38
489.696	504.38
489.914	504.38
490.132	546.38
490.35	538.38
490.568	559.38
490.786	541.38
491.003	544.38
491.221	554.38
491.439	589.38
491.657	587.38
491.874	559.38
492.092	582.38
492.31	581.38
492.527	598.38
492.745	616.38
492.963	604.38
493.18	581.38
493.398	588.38
493.615	618.38
493.833	605.38
494.05	601.38
494.268	597.38
494.485	584.38
494.703	592.38
494.92	616.38
495.138	599.38
495.355	624.38
495.573	614.38
495.79	577.38
496.008	618.38
496.225	619.38
496.442	587.38
496.66	599.38
496.877	632.38
497.094	589.38
497.312	630.38
497.529	620.38
497.746	635.38
497.963	633.38
498.181	648.38
498.398	670.38
498.615	664.38
498.832	675.38
499.049	681.38
499.267	696.38
499.484	676.38
499.701	701.38
499.918	735.38
500.135	747.38
500.352	758.38
500.569	764.38
500.786	762.38
501.003	771.38
501.22	729.38
501.437	768.38
501.654	737.38
501.871	742.38
