Data from 1972.PennyLincolnUp.Lamp.En5.5.200Scan.071719.P1._HRD10591_15-28-08-843.txt Node
Date: Thu Jul 18 15:28:08 EDT 2019
User: cochatt
Spectrometer: HR+D1059
Trigger mode: 1
Integration Time (sec): 1.000000E-1
Scans to average: 1
Electric dark correction enabled: true
Nonlinearity correction enabled: false
Boxcar width: 0
XAxis mode: Wavelengths
Number of Pixels in Spectrum: 2048
>>>>>Begin Spectral Data<<<<<
223.165	-11.56
223.4	-11.56
223.635	-11.56
223.869	-9.56
224.104	-14.56
224.338	-14.56
224.573	-21.56
224.808	-19.56
225.042	-14.56
225.277	-2.56
225.511	5.44
225.746	-1.56
225.98	12.44
226.215	7.44
226.449	18.44
226.683	22.44
226.918	24.44
227.152	19.44
227.387	34.44
227.621	38.44
227.856	44.44
228.09	47.44
228.324	49.44
228.559	50.44
228.793	64.44
229.027	102.44
229.262	115.44
229.496	114.44
229.73	129.44
229.964	157.44
230.199	133.44
230.433	121.44
230.667	129.44
230.901	117.44
231.136	117.44
231.37	116.44
231.604	117.44
231.838	117.44
232.072	113.44
232.306	112.44
232.541	118.44
232.775	119.44
233.009	111.44
233.243	111.44
233.477	106.44
233.711	119.44
233.945	105.44
234.179	100.44
234.413	106.44
234.647	118.44
234.881	105.44
235.115	107.44
235.349	134.44
235.583	124.44
235.817	120.44
236.051	124.44
236.285	125.44
236.519	117.44
236.753	125.44
236.987	152.44
237.221	191.44
237.455	241.44
237.689	197.44
237.922	149.44
238.156	139.44
238.39	151.44
238.624	112.44
238.858	137.44
239.091	107.44
239.325	115.44
239.559	143.44
239.793	129.44
240.027	140.44
240.26	146.44
240.494	156.44
240.728	154.44
240.961	151.44
241.195	130.44
241.429	132.44
241.662	120.44
241.896	129.44
242.13	127.44
242.363	127.44
242.597	130.44
242.83	132.44
243.064	140.44
243.298	120.44
243.531	140.44
243.765	129.44
243.998	156.44
244.232	129.44
244.465	128.44
244.699	152.44
244.932	134.44
245.166	155.44
245.399	139.44
245.633	146.44
245.866	147.44
246.099	169.44
246.333	148.44
246.566	167.44
246.8	153.44
247.033	144.44
247.266	146.44
247.5	169.44
247.733	163.44
247.966	180.44
248.2	178.44
248.433	163.44
248.666	178.44
248.899	188.44
249.133	202.44
249.366	191.44
249.599	182.44
249.832	179.44
250.066	195.44
250.299	179.44
250.532	201.44
250.765	206.44
250.998	232.44
251.231	222.44
251.465	218.44
251.698	203.44
251.931	201.44
252.164	213.44
252.397	188.44
252.63	194.44
252.863	190.44
253.096	237.44
253.329	223.44
253.562	230.44
253.795	243.44
254.028	212.44
254.261	229.44
254.494	231.44
254.727	250.44
254.96	286.44
255.193	298.44
255.426	272.44
255.659	243.44
255.892	234.44
256.124	255.44
256.357	248.44
256.59	224.44
256.823	221.44
257.056	203.44
257.289	218.44
257.521	223.44
257.754	220.44
257.987	205.44
258.22	214.44
258.452	218.44
258.685	216.44
258.918	198.44
259.151	210.44
259.383	215.44
259.616	232.44
259.849	234.44
260.081	235.44
260.314	267.44
260.547	269.44
260.779	239.44
261.012	248.44
261.244	240.44
261.477	236.44
261.71	236.44
261.942	221.44
262.175	241.44
262.407	260.44
262.64	232.44
262.872	209.44
263.105	217.44
263.337	217.44
263.57	222.44
263.802	219.44
264.035	220.44
264.267	211.44
264.499	217.44
264.732	209.44
264.964	203.44
265.197	212.44
265.429	232.44
265.661	220.44
265.894	215.44
266.126	227.44
266.358	224.44
266.591	215.44
266.823	225.44
267.055	221.44
267.287	213.44
267.52	222.44
267.752	220.44
267.984	230.44
268.216	241.44
268.448	229.44
268.681	237.44
268.913	227.44
269.145	270.44
269.377	288.44
269.609	279.44
269.841	271.44
270.073	275.44
270.306	296.44
270.538	314.44
270.77	319.44
271.002	330.44
271.234	310.44
271.466	312.44
271.698	332.44
271.93	344.44
272.162	331.44
272.394	312.44
272.626	315.44
272.858	316.44
273.09	291.44
273.322	279.44
273.553	271.44
273.785	283.44
274.017	265.44
274.249	251.44
274.481	284.44
274.713	280.44
274.945	273.44
275.176	263.44
275.408	259.44
275.64	273.44
275.872	264.44
276.104	271.44
276.335	272.44
276.567	269.44
276.799	298.44
277.031	333.44
277.262	340.44
277.494	327.44
277.726	292.44
277.957	283.44
278.189	296.44
278.421	266.44
278.652	282.44
278.884	280.44
279.115	262.44
279.347	250.44
279.579	290.44
279.81	285.44
280.042	251.44
280.273	280.44
280.505	257.44
280.736	284.44
280.968	270.44
281.199	265.44
281.431	272.44
281.662	274.44
281.894	280.44
282.125	283.44
282.356	293.44
282.588	335.44
282.819	317.44
283.051	288.44
283.282	266.44
283.513	265.44
283.745	270.44
283.976	253.44
284.207	288.44
284.439	275.44
284.67	282.44
284.901	252.44
285.132	264.44
285.364	269.44
285.595	273.44
285.826	281.44
286.057	266.44
286.288	292.44
286.52	289.44
286.751	281.44
286.982	275.44
287.213	270.44
287.444	273.44
287.675	269.44
287.906	295.44
288.138	307.44
288.369	308.44
288.6	305.44
288.831	293.44
289.062	316.44
289.293	289.44
289.524	267.44
289.755	265.44
289.986	287.44
290.217	271.44
290.448	265.44
290.679	289.44
290.91	291.44
291.141	244.44
291.371	285.44
291.602	291.44
291.833	262.44
292.064	267.44
292.295	284.44
292.526	300.44
292.757	278.44
292.987	268.44
293.218	275.44
293.449	277.44
293.68	289.44
293.91	293.44
294.141	271.44
294.372	270.44
294.603	278.44
294.833	280.44
295.064	268.44
295.295	294.44
295.525	282.44
295.756	279.44
295.987	308.44
296.217	324.44
296.448	339.44
296.679	281.44
296.909	280.44
297.14	276.44
297.37	291.44
297.601	290.44
297.831	286.44
298.062	283.44
298.292	285.44
298.523	293.44
298.753	307.44
298.984	283.44
299.214	309.44
299.445	305.44
299.675	299.44
299.905	300.44
300.136	298.44
300.366	298.44
300.597	285.44
300.827	295.44
301.057	305.44
301.288	299.44
301.518	311.44
301.748	302.44
301.979	296.44
302.209	313.44
302.439	328.44
302.669	319.44
302.9	318.44
303.13	328.44
303.36	313.44
303.59	340.44
303.82	308.44
304.051	313.44
304.281	329.44
304.511	325.44
304.741	313.44
304.971	315.44
305.201	332.44
305.431	297.44
305.661	298.44
305.891	337.44
306.121	300.44
306.352	335.44
306.582	322.44
306.812	318.44
307.042	316.44
307.272	317.44
307.502	325.44
307.731	324.44
307.961	310.44
308.191	331.44
308.421	313.44
308.651	327.44
308.881	336.44
309.111	331.44
309.341	341.44
309.571	349.44
309.8	358.44
310.03	381.44
310.26	379.44
310.49	385.44
310.72	401.44
310.949	387.44
311.179	409.44
311.409	397.44
311.639	379.44
311.868	365.44
312.098	377.44
312.328	389.44
312.557	389.44
312.787	436.44
313.017	413.44
313.246	397.44
313.476	377.44
313.706	362.44
313.935	385.44
314.165	403.44
314.394	395.44
314.624	403.44
314.853	382.44
315.083	384.44
315.312	356.44
315.542	361.44
315.771	356.44
316.001	375.44
316.23	362.44
316.46	375.44
316.689	369.44
316.919	378.44
317.148	380.44
317.377	377.44
317.607	395.44
317.836	398.44
318.065	379.44
318.295	381.44
318.524	379.44
318.753	362.44
318.983	363.44
319.212	362.44
319.441	378.44
319.67	399.44
319.9	379.44
320.129	377.44
320.358	386.44
320.587	378.44
320.816	388.44
321.046	416.44
321.275	403.44
321.504	371.44
321.733	407.44
321.962	411.44
322.191	433.44
322.42	431.44
322.649	454.44
322.878	472.44
323.108	499.44
323.337	524.44
323.566	539.44
323.795	597.44
324.024	637.44
324.253	792.44
324.482	1186.44
324.71	1876.44
324.939	2701.44
325.168	2393.44
325.397	1234.44
325.626	771.44
325.855	639.44
326.084	572.44
326.313	569.44
326.542	535.44
326.77	620.44
326.999	730.44
327.228	1033.44
327.457	1591.44
327.686	2052.44
327.914	1308.44
328.143	880.44
328.372	710.44
328.6	691.44
328.829	625.44
329.058	661.44
329.287	633.44
329.515	606.44
329.744	572.44
329.972	573.44
330.201	591.44
330.43	629.44
330.658	636.44
330.887	701.44
331.115	652.44
331.344	559.44
331.572	527.44
331.801	517.44
332.03	501.44
332.258	473.44
332.486	481.44
332.715	447.44
332.943	460.44
333.172	446.44
333.4	452.44
333.629	462.44
333.857	467.44
334.085	499.44
334.314	502.44
334.542	560.44
334.771	572.44
334.999	512.44
335.227	475.44
335.455	468.44
335.684	449.44
335.912	437.44
336.14	439.44
336.369	413.44
336.597	427.44
336.825	453.44
337.053	433.44
337.281	448.44
337.51	429.44
337.738	432.44
337.966	419.44
338.194	427.44
338.422	428.44
338.65	413.44
338.878	420.44
339.106	419.44
339.334	412.44
339.562	414.44
339.79	409.44
340.018	425.44
340.246	435.44
340.474	427.44
340.702	397.44
340.93	416.44
341.158	427.44
341.386	405.44
341.614	416.44
341.842	408.44
342.07	405.44
342.298	402.44
342.526	396.44
342.754	394.44
342.981	401.44
343.209	388.44
343.437	389.44
343.665	396.44
343.893	400.44
344.12	419.44
344.348	420.44
344.576	415.44
344.804	425.44
345.031	458.44
345.259	428.44
345.487	459.44
345.714	442.44
345.942	421.44
346.17	403.44
346.397	402.44
346.625	392.44
346.853	410.44
347.08	397.44
347.308	406.44
347.535	424.44
347.763	447.44
347.99	426.44
348.218	415.44
348.445	418.44
348.673	423.44
348.9	417.44
349.128	397.44
349.355	396.44
349.583	396.44
349.81	384.44
350.037	392.44
350.265	364.44
350.492	395.44
350.72	395.44
350.947	395.44
351.174	413.44
351.402	402.44
351.629	408.44
351.856	418.44
352.083	432.44
352.311	423.44
352.538	427.44
352.765	416.44
352.992	408.44
353.22	426.44
353.447	429.44
353.674	413.44
353.901	387.44
354.128	389.44
354.355	376.44
354.583	383.44
354.81	359.44
355.037	363.44
355.264	375.44
355.491	365.44
355.718	351.44
355.945	363.44
356.172	378.44
356.399	383.44
356.626	371.44
356.853	351.44
357.08	360.44
357.307	368.44
357.534	352.44
357.761	371.44
357.988	339.44
358.215	381.44
358.441	375.44
358.668	358.44
358.895	379.44
359.122	381.44
359.349	379.44
359.576	408.44
359.802	433.44
360.029	474.44
360.256	479.44
360.483	459.44
360.709	435.44
360.936	390.44
361.163	407.44
361.39	404.44
361.616	420.44
361.843	394.44
362.07	403.44
362.296	392.44
362.523	415.44
362.749	403.44
362.976	393.44
363.203	400.44
363.429	364.44
363.656	394.44
363.882	367.44
364.109	376.44
364.335	384.44
364.562	378.44
364.788	374.44
365.015	386.44
365.241	361.44
365.468	372.44
365.694	375.44
365.92	374.44
366.147	389.44
366.373	372.44
366.599	379.44
366.826	373.44
367.052	351.44
367.278	355.44
367.505	376.44
367.731	377.44
367.957	376.44
368.184	367.44
368.41	351.44
368.636	383.44
368.862	399.44
369.089	374.44
369.315	363.44
369.541	354.44
369.767	362.44
369.993	364.44
370.219	363.44
370.445	383.44
370.672	371.44
370.898	360.44
371.124	369.44
371.35	366.44
371.576	361.44
371.802	360.44
372.028	370.44
372.254	351.44
372.48	357.44
372.706	368.44
372.932	357.44
373.158	355.44
373.384	374.44
373.61	349.44
373.835	375.44
374.061	363.44
374.287	369.44
374.513	371.44
374.739	363.44
374.965	374.44
375.191	371.44
375.416	359.44
375.642	351.44
375.868	378.44
376.094	353.44
376.319	354.44
376.545	358.44
376.771	375.44
376.997	360.44
377.222	365.44
377.448	368.44
377.674	348.44
377.899	341.44
378.125	362.44
378.35	345.44
378.576	347.44
378.802	358.44
379.027	343.44
379.253	354.44
379.478	339.44
379.704	349.44
379.929	368.44
380.155	381.44
380.38	383.44
380.606	367.44
380.831	356.44
381.057	356.44
381.282	364.44
381.507	347.44
381.733	364.44
381.958	356.44
382.184	371.44
382.409	367.44
382.634	374.44
382.86	373.44
383.085	377.44
383.31	360.44
383.535	383.44
383.761	357.44
383.986	370.44
384.211	358.44
384.436	369.44
384.662	371.44
384.887	379.44
385.112	372.44
385.337	372.44
385.562	379.44
385.787	402.44
386.013	389.44
386.238	397.44
386.463	360.44
386.688	385.44
386.913	392.44
387.138	378.44
387.363	369.44
387.588	375.44
387.813	401.44
388.038	372.44
388.263	387.44
388.488	391.44
388.713	365.44
388.938	383.44
389.163	375.44
389.387	368.44
389.612	377.44
389.837	369.44
390.062	391.44
390.287	385.44
390.512	374.44
390.736	376.44
390.961	380.44
391.186	383.44
391.411	373.44
391.636	392.44
391.86	391.44
392.085	385.44
392.31	378.44
392.534	387.44
392.759	403.44
392.984	391.44
393.208	394.44
393.433	399.44
393.658	396.44
393.882	381.44
394.107	392.44
394.331	412.44
394.556	368.44
394.78	367.44
395.005	388.44
395.229	405.44
395.454	390.44
395.678	377.44
395.903	384.44
396.127	431.44
396.352	435.44
396.576	402.44
396.801	414.44
397.025	403.44
397.249	408.44
397.474	406.44
397.698	385.44
397.922	395.44
398.147	419.44
398.371	439.44
398.595	407.44
398.82	425.44
399.044	432.44
399.268	420.44
399.492	450.44
399.717	473.44
399.941	497.44
400.165	539.44
400.389	548.44
400.613	523.44
400.837	451.44
401.062	447.44
401.286	420.44
401.51	439.44
401.734	435.44
401.958	416.44
402.182	434.44
402.406	458.44
402.63	451.44
402.854	429.44
403.078	451.44
403.302	456.44
403.526	432.44
403.75	471.44
403.974	442.44
404.198	451.44
404.422	456.44
404.645	451.44
404.869	469.44
405.093	487.44
405.317	563.44
405.541	579.44
405.765	519.44
405.988	495.44
406.212	487.44
406.436	521.44
406.66	549.44
406.883	519.44
407.107	527.44
407.331	565.44
407.555	613.44
407.778	633.44
408.002	569.44
408.226	509.44
408.449	532.44
408.673	491.44
408.896	538.44
409.12	576.44
409.344	555.44
409.567	496.44
409.791	489.44
410.014	472.44
410.238	465.44
410.461	457.44
410.685	469.44
410.908	479.44
411.132	540.44
411.355	575.44
411.578	536.44
411.802	486.44
412.025	458.44
412.249	468.44
412.472	480.44
412.695	521.44
412.919	529.44
413.142	484.44
413.365	461.44
413.589	425.44
413.812	432.44
414.035	450.44
414.258	440.44
414.482	441.44
414.705	424.44
414.928	437.44
415.151	433.44
415.374	446.44
415.597	407.44
415.821	415.44
416.044	419.44
416.267	424.44
416.49	439.44
416.713	419.44
416.936	417.44
417.159	431.44
417.382	447.44
417.605	432.44
417.828	456.44
418.051	449.44
418.274	454.44
418.497	439.44
418.72	430.44
418.943	420.44
419.166	441.44
419.389	482.44
419.611	463.44
419.834	446.44
420.057	461.44
420.28	475.44
420.503	475.44
420.726	466.44
420.948	465.44
421.171	524.44
421.394	556.44
421.617	498.44
421.839	466.44
422.062	457.44
422.285	464.44
422.507	565.44
422.73	644.44
422.953	585.44
423.175	524.44
423.398	487.44
423.621	479.44
423.843	497.44
424.066	497.44
424.288	488.44
424.511	528.44
424.733	606.44
424.956	680.44
425.178	623.44
425.401	668.44
425.623	659.44
425.846	563.44
426.068	518.44
426.291	518.44
426.513	496.44
426.735	531.44
426.958	559.44
427.18	631.44
427.402	791.44
427.625	912.44
427.847	789.44
428.069	660.44
428.292	599.44
428.514	519.44
428.736	496.44
428.958	497.44
429.181	458.44
429.403	500.44
429.625	491.44
429.847	540.44
430.069	588.44
430.292	600.44
430.514	485.44
430.736	472.44
430.958	470.44
431.18	443.44
431.402	448.44
431.624	436.44
431.846	439.44
432.068	437.44
432.29	427.44
432.512	461.44
432.734	459.44
432.956	452.44
433.178	468.44
433.4	450.44
433.622	439.44
433.844	442.44
434.066	426.44
434.287	424.44
434.509	409.44
434.731	444.44
434.953	439.44
435.175	474.44
435.397	517.44
435.618	531.44
435.84	540.44
436.062	662.44
436.284	751.44
436.505	612.44
436.727	551.44
436.949	513.44
437.17	465.44
437.392	458.44
437.614	510.44
437.835	529.44
438.057	643.44
438.278	726.44
438.5	745.44
438.721	790.44
438.943	781.44
439.165	616.44
439.386	572.44
439.608	544.44
439.829	557.44
440.05	577.44
440.272	602.44
440.493	600.44
440.715	542.44
440.936	497.44
441.158	460.44
441.379	484.44
441.6	498.44
441.822	515.44
442.043	554.44
442.264	663.44
442.486	697.44
442.707	586.44
442.928	543.44
443.149	533.44
443.371	561.44
443.592	605.44
443.813	720.44
444.034	788.44
444.255	631.44
444.476	535.44
444.698	521.44
444.919	502.44
445.14	619.44
445.361	550.44
445.582	573.44
445.803	643.44
446.024	779.44
446.245	759.44
446.466	698.44
446.687	586.44
446.908	535.44
447.129	498.44
447.35	467.44
447.571	474.44
447.792	475.44
448.013	498.44
448.234	511.44
448.455	574.44
448.675	667.44
448.896	815.44
449.117	651.44
449.338	633.44
449.559	700.44
449.779	805.44
450	673.44
450.221	556.44
450.442	496.44
450.662	483.44
450.883	481.44
451.104	479.44
451.324	489.44
451.545	459.44
451.766	455.44
451.986	413.44
452.207	436.44
452.428	433.44
452.648	407.44
452.869	423.44
453.089	426.44
453.31	458.44
453.53	437.44
453.751	425.44
453.971	435.44
454.192	458.44
454.412	441.44
454.633	422.44
454.853	412.44
455.073	428.44
455.294	455.44
455.514	523.44
455.734	508.44
455.955	439.44
456.175	394.44
456.395	402.44
456.616	387.44
456.836	380.44
457.056	387.44
457.276	394.44
457.497	407.44
457.717	382.44
457.937	383.44
458.157	398.44
458.377	407.44
458.598	435.44
458.818	521.44
459.038	619.44
459.258	609.44
459.478	486.44
459.698	450.44
459.918	429.44
460.138	420.44
460.358	424.44
460.578	446.44
460.798	450.44
461.018	432.44
461.238	420.44
461.458	409.44
461.678	409.44
461.898	425.44
462.118	426.44
462.338	442.44
462.558	447.44
462.777	454.44
462.997	462.44
463.217	447.44
463.437	467.44
463.657	442.44
463.876	443.44
464.096	445.44
464.316	474.44
464.536	472.44
464.755	475.44
464.975	483.44
465.195	544.44
465.414	635.44
465.634	545.44
465.854	481.44
466.073	445.44
466.293	440.44
466.512	427.44
466.732	428.44
466.951	417.44
467.171	427.44
467.391	420.44
467.61	427.44
467.829	458.44
468.049	456.44
468.268	447.44
468.488	432.44
468.707	422.44
468.927	421.44
469.146	394.44
469.365	407.44
469.585	428.44
469.804	432.44
470.023	424.44
470.243	420.44
470.462	425.44
470.681	463.44
470.901	451.44
471.12	423.44
471.339	427.44
471.558	420.44
471.777	433.44
471.997	407.44
472.216	449.44
472.435	491.44
472.654	481.44
472.873	433.44
473.092	427.44
473.311	405.44
473.53	442.44
473.749	439.44
473.968	493.44
474.187	617.44
474.406	643.44
474.625	524.44
474.844	455.44
475.063	436.44
475.282	453.44
475.501	427.44
475.72	452.44
475.939	459.44
476.158	457.44
476.377	455.44
476.596	439.44
476.814	447.44
477.033	467.44
477.252	440.44
477.471	449.44
477.69	467.44
477.908	481.44
478.127	478.44
478.346	472.44
478.564	452.44
478.783	489.44
479.002	483.44
479.22	483.44
479.439	513.44
479.658	523.44
479.876	532.44
480.095	507.44
480.313	548.44
480.532	531.44
480.751	499.44
480.969	544.44
481.188	620.44
481.406	656.44
481.624	565.44
481.843	541.44
482.061	521.44
482.28	545.44
482.498	518.44
482.717	532.44
482.935	525.44
483.153	513.44
483.372	512.44
483.59	495.44
483.808	516.44
484.027	499.44
484.245	518.44
484.463	506.44
484.681	511.44
484.9	489.44
485.118	520.44
485.336	521.44
485.554	519.44
485.772	523.44
485.99	508.44
486.209	527.44
486.427	537.44
486.645	547.44
486.863	554.44
487.081	555.44
487.299	545.44
487.517	546.44
487.735	553.44
487.953	546.44
488.171	545.44
488.389	546.44
488.607	537.44
488.825	565.44
489.043	567.44
489.261	545.44
489.479	551.44
489.696	551.44
489.914	545.44
490.132	585.44
490.35	581.44
490.568	574.44
490.786	603.44
491.003	606.44
491.221	606.44
491.439	601.44
491.657	633.44
491.874	631.44
492.092	634.44
492.31	636.44
492.527	625.44
492.745	621.44
492.963	657.44
493.18	663.44
493.398	645.44
493.615	633.44
493.833	643.44
494.05	655.44
494.268	671.44
494.485	636.44
494.703	653.44
494.92	672.44
495.138	659.44
495.355	657.44
495.573	660.44
495.79	654.44
496.008	649.44
496.225	667.44
496.442	645.44
496.66	660.44
496.877	667.44
497.094	657.44
497.312	688.44
497.529	674.44
497.746	682.44
497.963	696.44
498.181	673.44
498.398	699.44
498.615	708.44
498.832	712.44
499.049	718.44
499.267	714.44
499.484	729.44
499.701	750.44
499.918	777.44
500.135	771.44
500.352	800.44
500.569	810.44
500.786	790.44
501.003	805.44
501.22	796.44
501.437	781.44
501.654	804.44
501.871	792.44
