Data from 1972.PennyLincolnUp.Lamp.En5.5.200Scan.071719.P1._HRD10591_15-26-48-844.txt Node
Date: Thu Jul 18 15:26:48 EDT 2019
User: cochatt
Spectrometer: HR+D1059
Trigger mode: 1
Integration Time (sec): 1.000000E-1
Scans to average: 1
Electric dark correction enabled: true
Nonlinearity correction enabled: false
Boxcar width: 0
XAxis mode: Wavelengths
Number of Pixels in Spectrum: 2048
>>>>>Begin Spectral Data<<<<<
223.165	-12.38
223.4	-12.38
223.635	-12.38
223.869	-19.38
224.104	-23.38
224.338	-26.38
224.573	-18.38
224.808	-12.38
225.042	-15.38
225.277	-14.38
225.511	4.62
225.746	5.62
225.98	4.62
226.215	23.62
226.449	15.62
226.683	25.62
226.918	29.62
227.152	32.62
227.387	40.62
227.621	38.62
227.856	20.62
228.09	38.62
228.324	48.62
228.559	56.62
228.793	49.62
229.027	87.62
229.262	93.62
229.496	83.62
229.73	110.62
229.964	140.62
230.199	107.62
230.433	101.62
230.667	96.62
230.901	100.62
231.136	98.62
231.37	93.62
231.604	97.62
231.838	115.62
232.072	109.62
232.306	103.62
232.541	98.62
232.775	104.62
233.009	104.62
233.243	111.62
233.477	101.62
233.711	114.62
233.945	108.62
234.179	107.62
234.413	92.62
234.647	90.62
234.881	98.62
235.115	110.62
235.349	108.62
235.583	98.62
235.817	101.62
236.051	113.62
236.285	118.62
236.519	115.62
236.753	115.62
236.987	136.62
237.221	140.62
237.455	185.62
237.689	156.62
237.922	121.62
238.156	112.62
238.39	109.62
238.624	103.62
238.858	101.62
239.091	103.62
239.325	110.62
239.559	104.62
239.793	104.62
240.027	109.62
240.26	124.62
240.494	132.62
240.728	123.62
240.961	126.62
241.195	114.62
241.429	112.62
241.662	105.62
241.896	121.62
242.13	105.62
242.363	128.62
242.597	120.62
242.83	125.62
243.064	119.62
243.298	108.62
243.531	118.62
243.765	122.62
243.998	116.62
244.232	114.62
244.465	113.62
244.699	121.62
244.932	127.62
245.166	121.62
245.399	118.62
245.633	119.62
245.866	132.62
246.099	130.62
246.333	132.62
246.566	109.62
246.8	124.62
247.033	130.62
247.266	134.62
247.5	142.62
247.733	152.62
247.966	143.62
248.2	141.62
248.433	140.62
248.666	165.62
248.899	148.62
249.133	160.62
249.366	163.62
249.599	160.62
249.832	139.62
250.066	153.62
250.299	131.62
250.532	148.62
250.765	157.62
250.998	177.62
251.231	178.62
251.465	191.62
251.698	173.62
251.931	170.62
252.164	174.62
252.397	159.62
252.63	167.62
252.863	177.62
253.096	181.62
253.329	188.62
253.562	186.62
253.795	174.62
254.028	161.62
254.261	170.62
254.494	190.62
254.727	196.62
254.96	220.62
255.193	206.62
255.426	202.62
255.659	184.62
255.892	165.62
256.124	170.62
256.357	180.62
256.59	173.62
256.823	182.62
257.056	170.62
257.289	173.62
257.521	168.62
257.754	176.62
257.987	166.62
258.22	187.62
258.452	163.62
258.685	148.62
258.918	170.62
259.151	184.62
259.383	171.62
259.616	170.62
259.849	165.62
260.081	185.62
260.314	186.62
260.547	204.62
260.779	186.62
261.012	189.62
261.244	172.62
261.477	180.62
261.71	160.62
261.942	167.62
262.175	193.62
262.407	177.62
262.64	159.62
262.872	173.62
263.105	150.62
263.337	153.62
263.57	167.62
263.802	162.62
264.035	170.62
264.267	160.62
264.499	164.62
264.732	176.62
264.964	176.62
265.197	182.62
265.429	165.62
265.661	178.62
265.894	182.62
266.126	171.62
266.358	162.62
266.591	189.62
266.823	198.62
267.055	193.62
267.287	187.62
267.52	179.62
267.752	169.62
267.984	171.62
268.216	184.62
268.448	184.62
268.681	186.62
268.913	190.62
269.145	211.62
269.377	219.62
269.609	204.62
269.841	216.62
270.073	205.62
270.306	212.62
270.538	230.62
270.77	233.62
271.002	228.62
271.234	207.62
271.466	220.62
271.698	223.62
271.93	247.62
272.162	233.62
272.394	231.62
272.626	240.62
272.858	225.62
273.09	219.62
273.322	205.62
273.553	216.62
273.785	206.62
274.017	220.62
274.249	208.62
274.481	205.62
274.713	221.62
274.945	205.62
275.176	213.62
275.408	199.62
275.64	203.62
275.872	203.62
276.104	195.62
276.335	206.62
276.567	225.62
276.799	205.62
277.031	222.62
277.262	244.62
277.494	231.62
277.726	219.62
277.957	232.62
278.189	225.62
278.421	222.62
278.652	210.62
278.884	217.62
279.115	204.62
279.347	212.62
279.579	212.62
279.81	230.62
280.042	215.62
280.273	220.62
280.505	203.62
280.736	217.62
280.968	209.62
281.199	211.62
281.431	198.62
281.662	202.62
281.894	220.62
282.125	221.62
282.356	215.62
282.588	233.62
282.819	230.62
283.051	204.62
283.282	201.62
283.513	245.62
283.745	232.62
283.976	228.62
284.207	225.62
284.439	221.62
284.67	210.62
284.901	220.62
285.132	212.62
285.364	205.62
285.595	208.62
285.826	206.62
286.057	210.62
286.288	220.62
286.52	223.62
286.751	223.62
286.982	214.62
287.213	213.62
287.444	205.62
287.675	226.62
287.906	221.62
288.138	220.62
288.369	225.62
288.6	228.62
288.831	219.62
289.062	233.62
289.293	218.62
289.524	227.62
289.755	221.62
289.986	233.62
290.217	243.62
290.448	228.62
290.679	224.62
290.91	229.62
291.141	228.62
291.371	218.62
291.602	244.62
291.833	210.62
292.064	218.62
292.295	225.62
292.526	228.62
292.757	237.62
292.987	216.62
293.218	214.62
293.449	227.62
293.68	232.62
293.91	227.62
294.141	211.62
294.372	222.62
294.603	226.62
294.833	217.62
295.064	232.62
295.295	235.62
295.525	237.62
295.756	244.62
295.987	228.62
296.217	248.62
296.448	253.62
296.679	230.62
296.909	232.62
297.14	221.62
297.37	228.62
297.601	236.62
297.831	218.62
298.062	231.62
298.292	253.62
298.523	266.62
298.753	233.62
298.984	229.62
299.214	225.62
299.445	235.62
299.675	242.62
299.905	258.62
300.136	238.62
300.366	246.62
300.597	233.62
300.827	234.62
301.057	215.62
301.288	233.62
301.518	263.62
301.748	251.62
301.979	248.62
302.209	265.62
302.439	241.62
302.669	238.62
302.9	237.62
303.13	240.62
303.36	227.62
303.59	252.62
303.82	266.62
304.051	251.62
304.281	234.62
304.511	243.62
304.741	236.62
304.971	258.62
305.201	244.62
305.431	248.62
305.661	268.62
305.891	243.62
306.121	248.62
306.352	264.62
306.582	258.62
306.812	235.62
307.042	258.62
307.272	244.62
307.502	245.62
307.731	243.62
307.961	252.62
308.191	237.62
308.421	263.62
308.651	228.62
308.881	248.62
309.111	243.62
309.341	252.62
309.571	280.62
309.8	272.62
310.03	262.62
310.26	279.62
310.49	243.62
310.72	283.62
310.949	294.62
311.179	272.62
311.409	294.62
311.639	268.62
311.868	274.62
312.098	292.62
312.328	276.62
312.557	290.62
312.787	288.62
313.017	291.62
313.246	281.62
313.476	272.62
313.706	283.62
313.935	277.62
314.165	283.62
314.394	285.62
314.624	295.62
314.853	302.62
315.083	310.62
315.312	262.62
315.542	273.62
315.771	281.62
316.001	277.62
316.23	273.62
316.46	274.62
316.689	281.62
316.919	299.62
317.148	304.62
317.377	291.62
317.607	275.62
317.836	274.62
318.065	283.62
318.295	290.62
318.524	297.62
318.753	292.62
318.983	289.62
319.212	277.62
319.441	307.62
319.67	309.62
319.9	285.62
320.129	288.62
320.358	289.62
320.587	286.62
320.816	295.62
321.046	301.62
321.275	291.62
321.504	296.62
321.733	296.62
321.962	298.62
322.191	309.62
322.42	330.62
322.649	304.62
322.878	307.62
323.108	344.62
323.337	342.62
323.566	341.62
323.795	372.62
324.024	406.62
324.253	470.62
324.482	649.62
324.71	972.62
324.939	1467.62
325.168	1265.62
325.397	673.62
325.626	444.62
325.855	379.62
326.084	381.62
326.313	382.62
326.542	372.62
326.77	373.62
326.999	436.62
327.228	579.62
327.457	901.62
327.686	1108.62
327.914	722.62
328.143	501.62
328.372	415.62
328.6	420.62
328.829	391.62
329.058	380.62
329.287	401.62
329.515	376.62
329.744	353.62
329.972	358.62
330.201	371.62
330.43	364.62
330.658	397.62
330.887	408.62
331.115	412.62
331.344	378.62
331.572	334.62
331.801	333.62
332.03	340.62
332.258	340.62
332.486	324.62
332.715	324.62
332.943	309.62
333.172	328.62
333.4	337.62
333.629	326.62
333.857	357.62
334.085	339.62
334.314	353.62
334.542	373.62
334.771	368.62
334.999	360.62
335.227	349.62
335.455	342.62
335.684	333.62
335.912	331.62
336.14	333.62
336.369	320.62
336.597	327.62
336.825	330.62
337.053	331.62
337.281	317.62
337.51	343.62
337.738	341.62
337.966	319.62
338.194	324.62
338.422	326.62
338.65	329.62
338.878	318.62
339.106	325.62
339.334	322.62
339.562	314.62
339.79	301.62
340.018	339.62
340.246	312.62
340.474	323.62
340.702	326.62
340.93	312.62
341.158	305.62
341.386	321.62
341.614	312.62
341.842	307.62
342.07	326.62
342.298	293.62
342.526	313.62
342.754	304.62
342.981	304.62
343.209	305.62
343.437	317.62
343.665	311.62
343.893	319.62
344.12	317.62
344.348	316.62
344.576	331.62
344.804	329.62
345.031	329.62
345.259	317.62
345.487	320.62
345.714	323.62
345.942	305.62
346.17	320.62
346.397	313.62
346.625	322.62
346.853	288.62
347.08	295.62
347.308	290.62
347.535	309.62
347.763	318.62
347.99	294.62
348.218	310.62
348.445	308.62
348.673	314.62
348.9	320.62
349.128	299.62
349.355	297.62
349.583	304.62
349.81	288.62
350.037	308.62
350.265	296.62
350.492	295.62
350.72	309.62
350.947	312.62
351.174	306.62
351.402	305.62
351.629	312.62
351.856	300.62
352.083	310.62
352.311	315.62
352.538	324.62
352.765	316.62
352.992	299.62
353.22	302.62
353.447	316.62
353.674	294.62
353.901	304.62
354.128	292.62
354.355	294.62
354.583	277.62
354.81	309.62
355.037	305.62
355.264	299.62
355.491	291.62
355.718	306.62
355.945	301.62
356.172	295.62
356.399	285.62
356.626	289.62
356.853	305.62
357.08	281.62
357.307	292.62
357.534	297.62
357.761	288.62
357.988	267.62
358.215	300.62
358.441	300.62
358.668	300.62
358.895	289.62
359.122	311.62
359.349	282.62
359.576	314.62
359.802	291.62
360.029	326.62
360.256	327.62
360.483	326.62
360.709	294.62
360.936	329.62
361.163	301.62
361.39	316.62
361.616	311.62
361.843	310.62
362.07	297.62
362.296	313.62
362.523	290.62
362.749	306.62
362.976	304.62
363.203	304.62
363.429	304.62
363.656	296.62
363.882	304.62
364.109	284.62
364.335	297.62
364.562	294.62
364.788	290.62
365.015	296.62
365.241	294.62
365.468	300.62
365.694	304.62
365.92	302.62
366.147	295.62
366.373	301.62
366.599	289.62
366.826	293.62
367.052	305.62
367.278	304.62
367.505	306.62
367.731	296.62
367.957	290.62
368.184	296.62
368.41	304.62
368.636	318.62
368.862	301.62
369.089	313.62
369.315	301.62
369.541	283.62
369.767	303.62
369.993	304.62
370.219	315.62
370.445	311.62
370.672	296.62
370.898	274.62
371.124	298.62
371.35	298.62
371.576	295.62
371.802	300.62
372.028	300.62
372.254	273.62
372.48	308.62
372.706	291.62
372.932	298.62
373.158	303.62
373.384	326.62
373.61	312.62
373.835	304.62
374.061	300.62
374.287	304.62
374.513	316.62
374.739	306.62
374.965	299.62
375.191	305.62
375.416	299.62
375.642	309.62
375.868	290.62
376.094	313.62
376.319	301.62
376.545	307.62
376.771	282.62
376.997	288.62
377.222	315.62
377.448	304.62
377.674	289.62
377.899	322.62
378.125	324.62
378.35	312.62
378.576	276.62
378.802	311.62
379.027	297.62
379.253	293.62
379.478	315.62
379.704	312.62
379.929	308.62
380.155	300.62
380.38	298.62
380.606	300.62
380.831	292.62
381.057	300.62
381.282	317.62
381.507	306.62
381.733	302.62
381.958	302.62
382.184	298.62
382.409	295.62
382.634	290.62
382.86	311.62
383.085	277.62
383.31	314.62
383.535	313.62
383.761	314.62
383.986	289.62
384.211	310.62
384.436	296.62
384.662	322.62
384.887	310.62
385.112	306.62
385.337	337.62
385.562	308.62
385.787	325.62
386.013	343.62
386.238	308.62
386.463	336.62
386.688	312.62
386.913	305.62
387.138	313.62
387.363	328.62
387.588	329.62
387.813	318.62
388.038	312.62
388.263	327.62
388.488	336.62
388.713	336.62
388.938	333.62
389.163	326.62
389.387	330.62
389.612	305.62
389.837	316.62
390.062	322.62
390.287	321.62
390.512	312.62
390.736	341.62
390.961	318.62
391.186	311.62
391.411	334.62
391.636	323.62
391.86	320.62
392.085	348.62
392.31	325.62
392.534	329.62
392.759	330.62
392.984	312.62
393.208	342.62
393.433	392.62
393.658	398.62
393.882	362.62
394.107	320.62
394.331	332.62
394.556	331.62
394.78	323.62
395.005	341.62
395.229	331.62
395.454	318.62
395.678	346.62
395.903	354.62
396.127	344.62
396.352	345.62
396.576	358.62
396.801	350.62
397.025	366.62
397.249	389.62
397.474	363.62
397.698	340.62
397.922	357.62
398.147	363.62
398.371	374.62
398.595	354.62
398.82	354.62
399.044	364.62
399.268	367.62
399.492	376.62
399.717	398.62
399.941	409.62
400.165	441.62
400.389	459.62
400.613	391.62
400.837	371.62
401.062	370.62
401.286	369.62
401.51	361.62
401.734	345.62
401.958	353.62
402.182	370.62
402.406	355.62
402.63	383.62
402.854	355.62
403.078	353.62
403.302	343.62
403.526	370.62
403.75	376.62
403.974	383.62
404.198	352.62
404.422	379.62
404.645	361.62
404.869	370.62
405.093	392.62
405.317	425.62
405.541	451.62
405.765	406.62
405.988	380.62
406.212	384.62
406.436	398.62
406.66	426.62
406.883	376.62
407.107	388.62
407.331	422.62
407.555	484.62
407.778	468.62
408.002	423.62
408.226	418.62
408.449	420.62
408.673	415.62
408.896	422.62
409.12	484.62
409.344	453.62
409.567	400.62
409.791	391.62
410.014	382.62
410.238	364.62
410.461	379.62
410.685	364.62
410.908	388.62
411.132	416.62
411.355	450.62
411.578	406.62
411.802	386.62
412.025	376.62
412.249	380.62
412.472	398.62
412.695	428.62
412.919	411.62
413.142	375.62
413.365	364.62
413.589	376.62
413.812	361.62
414.035	356.62
414.258	340.62
414.482	349.62
414.705	353.62
414.928	358.62
415.151	357.62
415.374	355.62
415.597	351.62
415.821	345.62
416.044	351.62
416.267	369.62
416.49	361.62
416.713	334.62
416.936	343.62
417.159	365.62
417.382	355.62
417.605	384.62
417.828	378.62
418.051	379.62
418.274	358.62
418.497	350.62
418.72	340.62
418.943	344.62
419.166	361.62
419.389	368.62
419.611	358.62
419.834	370.62
420.057	382.62
420.28	368.62
420.503	355.62
420.726	358.62
420.948	398.62
421.171	389.62
421.394	405.62
421.617	389.62
421.839	376.62
422.062	375.62
422.285	387.62
422.507	426.62
422.73	474.62
422.953	456.62
423.175	391.62
423.398	387.62
423.621	390.62
423.843	400.62
424.066	397.62
424.288	400.62
424.511	406.62
424.733	470.62
424.956	501.62
425.178	498.62
425.401	470.62
425.623	504.62
425.846	445.62
426.068	432.62
426.291	409.62
426.513	382.62
426.735	403.62
426.958	416.62
427.18	501.62
427.402	591.62
427.625	641.62
427.847	582.62
428.069	469.62
428.292	437.62
428.514	397.62
428.736	364.62
428.958	372.62
429.181	374.62
429.403	379.62
429.625	366.62
429.847	394.62
430.069	446.62
430.292	450.62
430.514	386.62
430.736	381.62
430.958	371.62
431.18	360.62
431.402	347.62
431.624	346.62
431.846	354.62
432.068	331.62
432.29	344.62
432.512	337.62
432.734	353.62
432.956	347.62
433.178	377.62
433.4	384.62
433.622	377.62
433.844	363.62
434.066	322.62
434.287	346.62
434.509	355.62
434.731	366.62
434.953	376.62
435.175	364.62
435.397	377.62
435.618	388.62
435.84	411.62
436.062	483.62
436.284	558.62
436.505	451.62
436.727	409.62
436.949	377.62
437.17	369.62
437.392	355.62
437.614	370.62
437.835	414.62
438.057	477.62
438.278	557.62
438.5	548.62
438.721	616.62
438.943	571.62
439.165	450.62
439.386	410.62
439.608	406.62
439.829	409.62
440.05	426.62
440.272	458.62
440.493	449.62
440.715	390.62
440.936	394.62
441.158	360.62
441.379	369.62
441.6	374.62
441.822	414.62
442.043	435.62
442.264	499.62
442.486	502.62
442.707	428.62
442.928	402.62
443.149	405.62
443.371	419.62
443.592	465.62
443.813	512.62
444.034	585.62
444.255	470.62
444.476	409.62
444.698	376.62
444.919	396.62
445.14	497.62
445.361	463.62
445.582	422.62
445.803	471.62
446.024	532.62
446.245	535.62
446.466	517.62
446.687	446.62
446.908	431.62
447.129	388.62
447.35	405.62
447.571	374.62
447.792	365.62
448.013	384.62
448.234	386.62
448.455	426.62
448.675	497.62
448.896	601.62
449.117	516.62
449.338	462.62
449.559	551.62
449.779	642.62
450	496.62
450.221	410.62
450.442	394.62
450.662	390.62
450.883	369.62
451.104	358.62
451.324	384.62
451.545	349.62
451.766	354.62
451.986	347.62
452.207	324.62
452.428	346.62
452.648	329.62
452.869	326.62
453.089	343.62
453.31	337.62
453.53	348.62
453.751	344.62
453.971	336.62
454.192	317.62
454.412	332.62
454.633	314.62
454.853	326.62
455.073	334.62
455.294	347.62
455.514	400.62
455.734	388.62
455.955	325.62
456.175	317.62
456.395	342.62
456.616	323.62
456.836	314.62
457.056	313.62
457.276	312.62
457.497	332.62
457.717	326.62
457.937	326.62
458.157	316.62
458.377	334.62
458.598	362.62
458.818	386.62
459.038	418.62
459.258	426.62
459.478	373.62
459.698	356.62
459.918	359.62
460.138	350.62
460.358	323.62
460.578	351.62
460.798	354.62
461.018	365.62
461.238	355.62
461.458	339.62
461.678	331.62
461.898	361.62
462.118	353.62
462.338	362.62
462.558	362.62
462.777	385.62
462.997	384.62
463.217	377.62
463.437	387.62
463.657	379.62
463.876	376.62
464.096	370.62
464.316	382.62
464.536	371.62
464.755	381.62
464.975	396.62
465.195	401.62
465.414	437.62
465.634	391.62
465.854	371.62
466.073	350.62
466.293	338.62
466.512	323.62
466.732	350.62
466.951	361.62
467.171	330.62
467.391	321.62
467.61	346.62
467.829	342.62
468.049	326.62
468.268	354.62
468.488	338.62
468.707	324.62
468.927	353.62
469.146	342.62
469.365	311.62
469.585	353.62
469.804	329.62
470.023	336.62
470.243	357.62
470.462	354.62
470.681	356.62
470.901	349.62
471.12	344.62
471.339	352.62
471.558	361.62
471.777	344.62
471.997	348.62
472.216	332.62
472.435	361.62
472.654	352.62
472.873	354.62
473.092	353.62
473.311	347.62
473.53	359.62
473.749	356.62
473.968	366.62
474.187	461.62
474.406	468.62
474.625	393.62
474.844	356.62
475.063	349.62
475.282	360.62
475.501	338.62
475.72	359.62
475.939	344.62
476.158	356.62
476.377	368.62
476.596	365.62
476.814	358.62
477.033	370.62
477.252	378.62
477.471	391.62
477.69	384.62
477.908	376.62
478.127	379.62
478.346	377.62
478.564	386.62
478.783	384.62
479.002	403.62
479.22	373.62
479.439	378.62
479.658	421.62
479.876	412.62
480.095	416.62
480.313	444.62
480.532	413.62
480.751	427.62
480.969	443.62
481.188	463.62
481.406	477.62
481.624	437.62
481.843	410.62
482.061	429.62
482.28	420.62
482.498	420.62
482.717	411.62
482.935	411.62
483.153	407.62
483.372	411.62
483.59	408.62
483.808	405.62
484.027	427.62
484.245	408.62
484.463	401.62
484.681	414.62
484.9	408.62
485.118	426.62
485.336	408.62
485.554	426.62
485.772	420.62
485.99	444.62
486.209	436.62
486.427	417.62
486.645	426.62
486.863	436.62
487.081	440.62
487.299	452.62
487.517	451.62
487.735	432.62
487.953	446.62
488.171	432.62
488.389	418.62
488.607	440.62
488.825	432.62
489.043	451.62
489.261	445.62
489.479	418.62
489.696	438.62
489.914	442.62
490.132	459.62
490.35	469.62
490.568	479.62
490.786	482.62
491.003	473.62
491.221	474.62
491.439	454.62
491.657	477.62
491.874	471.62
492.092	492.62
492.31	512.62
492.527	490.62
492.745	501.62
492.963	516.62
493.18	490.62
493.398	479.62
493.615	507.62
493.833	514.62
494.05	502.62
494.268	501.62
494.485	498.62
494.703	502.62
494.92	502.62
495.138	515.62
495.355	534.62
495.573	501.62
495.79	496.62
496.008	514.62
496.225	523.62
496.442	524.62
496.66	511.62
496.877	534.62
497.094	528.62
497.312	502.62
497.529	531.62
497.746	547.62
497.963	549.62
498.181	543.62
498.398	566.62
498.615	583.62
498.832	576.62
499.049	581.62
499.267	598.62
499.484	624.62
499.701	615.62
499.918	619.62
500.135	640.62
500.352	693.62
500.569	691.62
500.786	661.62
501.003	664.62
501.22	669.62
501.437	660.62
501.654	647.62
501.871	616.62
502.088	632.62
