Data from 1972.PennyLincolnUp.Lamp.En5.5.200Scan.071719.P1._HRD10591_15-29-55-845.txt Node
Date: Thu Jul 18 15:29:55 EDT 2019
User: cochatt
Spectrometer: HR+D1059
Trigger mode: 1
Integration Time (sec): 1.000000E-1
Scans to average: 1
Electric dark correction enabled: true
Nonlinearity correction enabled: false
Boxcar width: 0
XAxis mode: Wavelengths
Number of Pixels in Spectrum: 2048
>>>>>Begin Spectral Data<<<<<
223.165	-13.31
223.4	-13.31
223.635	-13.31
223.869	-25.31
224.104	-33.31
224.338	-5.31
224.573	-13.31
224.808	-4.31
225.042	-14.31
225.277	-3.31
225.511	-8.31
225.746	6.69
225.98	10.69
226.215	12.69
226.449	25.69
226.683	14.69
226.918	10.69
227.152	39.69
227.387	43.69
227.621	54.69
227.856	43.69
228.09	31.69
228.324	42.69
228.559	46.69
228.793	65.69
229.027	94.69
229.262	117.69
229.496	116.69
229.73	166.69
229.964	182.69
230.199	130.69
230.433	118.69
230.667	123.69
230.901	117.69
231.136	110.69
231.37	114.69
231.604	120.69
231.838	111.69
232.072	116.69
232.306	126.69
232.541	115.69
232.775	122.69
233.009	112.69
233.243	118.69
233.477	112.69
233.711	118.69
233.945	116.69
234.179	122.69
234.413	127.69
234.647	125.69
234.881	123.69
235.115	140.69
235.349	130.69
235.583	126.69
235.817	122.69
236.051	128.69
236.285	143.69
236.519	119.69
236.753	122.69
236.987	151.69
237.221	212.69
237.455	260.69
237.689	219.69
237.922	144.69
238.156	157.69
238.39	162.69
238.624	138.69
238.858	134.69
239.091	123.69
239.325	130.69
239.559	132.69
239.793	127.69
240.027	120.69
240.26	150.69
240.494	174.69
240.728	162.69
240.961	154.69
241.195	148.69
241.429	141.69
241.662	148.69
241.896	152.69
242.13	129.69
242.363	138.69
242.597	145.69
242.83	129.69
243.064	136.69
243.298	132.69
243.531	165.69
243.765	137.69
243.998	161.69
244.232	159.69
244.465	150.69
244.699	171.69
244.932	145.69
245.166	133.69
245.399	145.69
245.633	152.69
245.866	160.69
246.099	149.69
246.333	156.69
246.566	169.69
246.8	162.69
247.033	148.69
247.266	167.69
247.5	167.69
247.733	175.69
247.966	180.69
248.2	194.69
248.433	178.69
248.666	184.69
248.899	207.69
249.133	211.69
249.366	228.69
249.599	210.69
249.832	205.69
250.066	200.69
250.299	187.69
250.532	213.69
250.765	201.69
250.998	236.69
251.231	241.69
251.465	232.69
251.698	220.69
251.931	228.69
252.164	214.69
252.397	196.69
252.63	227.69
252.863	226.69
253.096	232.69
253.329	260.69
253.562	250.69
253.795	249.69
254.028	243.69
254.261	242.69
254.494	254.69
254.727	263.69
254.96	327.69
255.193	306.69
255.426	270.69
255.659	260.69
255.892	254.69
256.124	254.69
256.357	263.69
256.59	261.69
256.823	220.69
257.056	227.69
257.289	235.69
257.521	250.69
257.754	221.69
257.987	209.69
258.22	238.69
258.452	217.69
258.685	216.69
258.918	221.69
259.151	231.69
259.383	232.69
259.616	242.69
259.849	235.69
260.081	245.69
260.314	280.69
260.547	286.69
260.779	258.69
261.012	258.69
261.244	243.69
261.477	251.69
261.71	253.69
261.942	243.69
262.175	268.69
262.407	267.69
262.64	220.69
262.872	237.69
263.105	237.69
263.337	229.69
263.57	225.69
263.802	223.69
264.035	222.69
264.267	219.69
264.499	205.69
264.732	226.69
264.964	224.69
265.197	232.69
265.429	200.69
265.661	215.69
265.894	213.69
266.126	221.69
266.358	228.69
266.591	236.69
266.823	227.69
267.055	220.69
267.287	245.69
267.52	232.69
267.752	242.69
267.984	260.69
268.216	242.69
268.448	233.69
268.681	249.69
268.913	264.69
269.145	298.69
269.377	304.69
269.609	286.69
269.841	298.69
270.073	299.69
270.306	299.69
270.538	355.69
270.77	356.69
271.002	339.69
271.234	335.69
271.466	320.69
271.698	335.69
271.93	356.69
272.162	356.69
272.394	343.69
272.626	325.69
272.858	309.69
273.09	303.69
273.322	307.69
273.553	289.69
273.785	302.69
274.017	281.69
274.249	297.69
274.481	278.69
274.713	282.69
274.945	278.69
275.176	273.69
275.408	286.69
275.64	298.69
275.872	261.69
276.104	280.69
276.335	290.69
276.567	308.69
276.799	296.69
277.031	337.69
277.262	354.69
277.494	354.69
277.726	349.69
277.957	310.69
278.189	317.69
278.421	298.69
278.652	271.69
278.884	284.69
279.115	282.69
279.347	291.69
279.579	280.69
279.81	291.69
280.042	265.69
280.273	280.69
280.505	285.69
280.736	286.69
280.968	280.69
281.199	284.69
281.431	283.69
281.662	262.69
281.894	285.69
282.125	296.69
282.356	312.69
282.588	335.69
282.819	335.69
283.051	299.69
283.282	283.69
283.513	288.69
283.745	288.69
283.976	286.69
284.207	277.69
284.439	274.69
284.67	296.69
284.901	281.69
285.132	285.69
285.364	273.69
285.595	287.69
285.826	274.69
286.057	304.69
286.288	285.69
286.52	285.69
286.751	297.69
286.982	284.69
287.213	288.69
287.444	291.69
287.675	292.69
287.906	300.69
288.138	317.69
288.369	307.69
288.6	324.69
288.831	288.69
289.062	323.69
289.293	296.69
289.524	292.69
289.755	292.69
289.986	287.69
290.217	286.69
290.448	298.69
290.679	303.69
290.91	298.69
291.141	292.69
291.371	293.69
291.602	265.69
291.833	278.69
292.064	287.69
292.295	288.69
292.526	297.69
292.757	295.69
292.987	291.69
293.218	279.69
293.449	295.69
293.68	306.69
293.91	283.69
294.141	296.69
294.372	283.69
294.603	278.69
294.833	296.69
295.064	266.69
295.295	295.69
295.525	299.69
295.756	298.69
295.987	323.69
296.217	334.69
296.448	375.69
296.679	321.69
296.909	308.69
297.14	291.69
297.37	308.69
297.601	298.69
297.831	309.69
298.062	304.69
298.292	300.69
298.523	313.69
298.753	308.69
298.984	308.69
299.214	299.69
299.445	327.69
299.675	292.69
299.905	314.69
300.136	308.69
300.366	318.69
300.597	310.69
300.827	315.69
301.057	316.69
301.288	338.69
301.518	341.69
301.748	331.69
301.979	332.69
302.209	330.69
302.439	316.69
302.669	327.69
302.9	322.69
303.13	332.69
303.36	337.69
303.59	339.69
303.82	349.69
304.051	351.69
304.281	339.69
304.511	308.69
304.741	311.69
304.971	334.69
305.201	331.69
305.431	308.69
305.661	318.69
305.891	331.69
306.121	319.69
306.352	329.69
306.582	339.69
306.812	333.69
307.042	315.69
307.272	344.69
307.502	339.69
307.731	342.69
307.961	342.69
308.191	340.69
308.421	311.69
308.651	322.69
308.881	341.69
309.111	354.69
309.341	362.69
309.571	356.69
309.8	371.69
310.03	373.69
310.26	408.69
310.49	410.69
310.72	410.69
310.949	414.69
311.179	421.69
311.409	404.69
311.639	402.69
311.868	382.69
312.098	394.69
312.328	386.69
312.557	420.69
312.787	442.69
313.017	443.69
313.246	394.69
313.476	397.69
313.706	386.69
313.935	403.69
314.165	422.69
314.394	412.69
314.624	404.69
314.853	398.69
315.083	388.69
315.312	389.69
315.542	386.69
315.771	375.69
316.001	362.69
316.23	392.69
316.46	380.69
316.689	394.69
316.919	421.69
317.148	407.69
317.377	402.69
317.607	414.69
317.836	392.69
318.065	395.69
318.295	374.69
318.524	374.69
318.753	368.69
318.983	378.69
319.212	380.69
319.441	397.69
319.67	397.69
319.9	403.69
320.129	390.69
320.358	384.69
320.587	390.69
320.816	396.69
321.046	423.69
321.275	421.69
321.504	422.69
321.733	427.69
321.962	425.69
322.191	458.69
322.42	478.69
322.649	468.69
322.878	504.69
323.108	510.69
323.337	529.69
323.566	568.69
323.795	642.69
324.024	696.69
324.253	862.69
324.482	1280.69
324.71	2011.69
324.939	2982.69
325.168	2590.69
325.397	1295.69
325.626	814.69
325.855	664.69
326.084	586.69
326.313	570.69
326.542	585.69
326.77	636.69
326.999	772.69
327.228	1117.69
327.457	1722.69
327.686	2202.69
327.914	1448.69
328.143	928.69
328.372	762.69
328.6	706.69
328.829	670.69
329.058	678.69
329.287	706.69
329.515	643.69
329.744	573.69
329.972	575.69
330.201	617.69
330.43	656.69
330.658	701.69
330.887	721.69
331.115	705.69
331.344	602.69
331.572	547.69
331.801	532.69
332.03	546.69
332.258	522.69
332.486	479.69
332.715	483.69
332.943	463.69
333.172	475.69
333.4	473.69
333.629	480.69
333.857	499.69
334.085	521.69
334.314	527.69
334.542	581.69
334.771	635.69
334.999	555.69
335.227	510.69
335.455	472.69
335.684	467.69
335.912	449.69
336.14	428.69
336.369	450.69
336.597	460.69
336.825	459.69
337.053	440.69
337.281	438.69
337.51	443.69
337.738	449.69
337.966	434.69
338.194	446.69
338.422	439.69
338.65	420.69
338.878	423.69
339.106	444.69
339.334	434.69
339.562	446.69
339.79	419.69
340.018	443.69
340.246	417.69
340.474	454.69
340.702	446.69
340.93	424.69
341.158	407.69
341.386	428.69
341.614	438.69
341.842	440.69
342.07	409.69
342.298	423.69
342.526	424.69
342.754	399.69
342.981	387.69
343.209	415.69
343.437	417.69
343.665	408.69
343.893	423.69
344.12	429.69
344.348	434.69
344.576	422.69
344.804	434.69
345.031	451.69
345.259	463.69
345.487	435.69
345.714	424.69
345.942	429.69
346.17	420.69
346.397	430.69
346.625	397.69
346.853	423.69
347.08	397.69
347.308	419.69
347.535	442.69
347.763	459.69
347.99	449.69
348.218	446.69
348.445	445.69
348.673	407.69
348.9	412.69
349.128	389.69
349.355	404.69
349.583	406.69
349.81	396.69
350.037	384.69
350.265	404.69
350.492	397.69
350.72	401.69
350.947	398.69
351.174	430.69
351.402	436.69
351.629	448.69
351.856	418.69
352.083	454.69
352.311	454.69
352.538	456.69
352.765	447.69
352.992	436.69
353.22	431.69
353.447	412.69
353.674	414.69
353.901	405.69
354.128	384.69
354.355	383.69
354.583	386.69
354.81	396.69
355.037	373.69
355.264	375.69
355.491	375.69
355.718	374.69
355.945	366.69
356.172	371.69
356.399	370.69
356.626	363.69
356.853	372.69
357.08	372.69
357.307	378.69
357.534	387.69
357.761	386.69
357.988	372.69
358.215	372.69
358.441	386.69
358.668	370.69
358.895	396.69
359.122	384.69
359.349	387.69
359.576	418.69
359.802	442.69
360.029	483.69
360.256	508.69
360.483	483.69
360.709	439.69
360.936	406.69
361.163	394.69
361.39	418.69
361.616	438.69
361.843	409.69
362.07	410.69
362.296	420.69
362.523	426.69
362.749	397.69
362.976	406.69
363.203	388.69
363.429	391.69
363.656	396.69
363.882	388.69
364.109	387.69
364.335	390.69
364.562	394.69
364.788	363.69
365.015	380.69
365.241	386.69
365.468	386.69
365.694	396.69
365.92	378.69
366.147	382.69
366.373	368.69
366.599	375.69
366.826	361.69
367.052	376.69
367.278	371.69
367.505	379.69
367.731	381.69
367.957	382.69
368.184	387.69
368.41	389.69
368.636	387.69
368.862	400.69
369.089	387.69
369.315	393.69
369.541	386.69
369.767	362.69
369.993	351.69
370.219	383.69
370.445	374.69
370.672	376.69
370.898	383.69
371.124	370.69
371.35	368.69
371.576	374.69
371.802	390.69
372.028	366.69
372.254	368.69
372.48	358.69
372.706	361.69
372.932	356.69
373.158	384.69
373.384	381.69
373.61	381.69
373.835	372.69
374.061	368.69
374.287	394.69
374.513	374.69
374.739	387.69
374.965	378.69
375.191	376.69
375.416	381.69
375.642	381.69
375.868	383.69
376.094	386.69
376.319	355.69
376.545	376.69
376.771	380.69
376.997	349.69
377.222	394.69
377.448	364.69
377.674	364.69
377.899	353.69
378.125	367.69
378.35	340.69
378.576	351.69
378.802	360.69
379.027	361.69
379.253	370.69
379.478	351.69
379.704	354.69
379.929	353.69
380.155	355.69
380.38	394.69
380.606	352.69
380.831	378.69
381.057	375.69
381.282	355.69
381.507	360.69
381.733	375.69
381.958	348.69
382.184	351.69
382.409	373.69
382.634	368.69
382.86	363.69
383.085	396.69
383.31	392.69
383.535	354.69
383.761	354.69
383.986	362.69
384.211	367.69
384.436	376.69
384.662	343.69
384.887	382.69
385.112	376.69
385.337	383.69
385.562	383.69
385.787	393.69
386.013	408.69
386.238	406.69
386.463	393.69
386.688	414.69
386.913	385.69
387.138	406.69
387.363	402.69
387.588	378.69
387.813	378.69
388.038	378.69
388.263	390.69
388.488	393.69
388.713	365.69
388.938	380.69
389.163	383.69
389.387	424.69
389.612	393.69
389.837	377.69
390.062	374.69
390.287	391.69
390.512	397.69
390.736	393.69
390.961	381.69
391.186	393.69
391.411	405.69
391.636	401.69
391.86	395.69
392.085	399.69
392.31	391.69
392.534	400.69
392.759	397.69
392.984	389.69
393.208	410.69
393.433	400.69
393.658	384.69
393.882	376.69
394.107	378.69
394.331	392.69
394.556	385.69
394.78	372.69
395.005	380.69
395.229	383.69
395.454	407.69
395.678	382.69
395.903	395.69
396.127	436.69
396.352	447.69
396.576	421.69
396.801	408.69
397.025	408.69
397.249	401.69
397.474	378.69
397.698	401.69
397.922	420.69
398.147	452.69
398.371	435.69
398.595	427.69
398.82	423.69
399.044	416.69
399.268	453.69
399.492	463.69
399.717	478.69
399.941	514.69
400.165	520.69
400.389	571.69
400.613	521.69
400.837	486.69
401.062	450.69
401.286	451.69
401.51	443.69
401.734	436.69
401.958	449.69
402.182	444.69
402.406	461.69
402.63	465.69
402.854	467.69
403.078	439.69
403.302	461.69
403.526	480.69
403.75	473.69
403.974	457.69
404.198	445.69
404.422	468.69
404.645	475.69
404.869	471.69
405.093	496.69
405.317	561.69
405.541	614.69
405.765	535.69
405.988	507.69
406.212	506.69
406.436	528.69
406.66	560.69
406.883	515.69
407.107	546.69
407.331	564.69
407.555	651.69
407.778	632.69
408.002	573.69
408.226	532.69
408.449	517.69
408.673	548.69
408.896	530.69
409.12	581.69
409.344	568.69
409.567	505.69
409.791	502.69
410.014	468.69
410.238	451.69
410.461	448.69
410.685	462.69
410.908	484.69
411.132	548.69
411.355	564.69
411.578	540.69
411.802	500.69
412.025	478.69
412.249	483.69
412.472	500.69
412.695	566.69
412.919	527.69
413.142	507.69
413.365	462.69
413.589	450.69
413.812	447.69
414.035	444.69
414.258	426.69
414.482	438.69
414.705	430.69
414.928	422.69
415.151	434.69
415.374	420.69
415.597	419.69
415.821	439.69
416.044	435.69
416.267	468.69
416.49	466.69
416.713	422.69
416.936	454.69
417.159	426.69
417.382	428.69
417.605	450.69
417.828	466.69
418.051	471.69
418.274	495.69
418.497	462.69
418.72	436.69
418.943	436.69
419.166	457.69
419.389	486.69
419.611	469.69
419.834	466.69
420.057	472.69
420.28	479.69
420.503	469.69
420.726	463.69
420.948	482.69
421.171	544.69
421.394	565.69
421.617	484.69
421.839	467.69
422.062	470.69
422.285	486.69
422.507	552.69
422.73	623.69
422.953	594.69
423.175	532.69
423.398	491.69
423.621	500.69
423.843	518.69
424.066	524.69
424.288	516.69
424.511	537.69
424.733	585.69
424.956	697.69
425.178	698.69
425.401	643.69
425.623	651.69
425.846	582.69
426.068	541.69
426.291	500.69
426.513	523.69
426.735	539.69
426.958	588.69
427.18	672.69
427.402	806.69
427.625	934.69
427.847	827.69
428.069	705.69
428.292	608.69
428.514	542.69
428.736	524.69
428.958	480.69
429.181	477.69
429.403	504.69
429.625	506.69
429.847	540.69
430.069	606.69
430.292	589.69
430.514	528.69
430.736	514.69
430.958	469.69
431.18	451.69
431.402	444.69
431.624	438.69
431.846	435.69
432.068	460.69
432.29	438.69
432.512	456.69
432.734	468.69
432.956	463.69
433.178	467.69
433.4	476.69
433.622	460.69
433.844	457.69
434.066	454.69
434.287	435.69
434.509	451.69
434.731	469.69
434.953	456.69
435.175	474.69
435.397	494.69
435.618	548.69
435.84	568.69
436.062	663.69
436.284	773.69
436.505	628.69
436.727	551.69
436.949	509.69
437.17	486.69
437.392	495.69
437.614	511.69
437.835	547.69
438.057	683.69
438.278	793.69
438.5	761.69
438.721	824.69
438.943	764.69
439.165	610.69
439.386	571.69
439.608	559.69
439.829	563.69
440.05	586.69
440.272	662.69
440.493	616.69
440.715	547.69
440.936	504.69
441.158	515.69
441.379	498.69
441.6	509.69
441.822	528.69
442.043	564.69
442.264	650.69
442.486	712.69
442.707	618.69
442.928	546.69
443.149	556.69
443.371	584.69
443.592	633.69
443.813	746.69
444.034	799.69
444.255	654.69
444.476	551.69
444.698	554.69
444.919	529.69
445.14	609.69
445.361	588.69
445.582	596.69
445.803	666.69
446.024	772.69
446.245	820.69
446.466	722.69
446.687	608.69
446.908	550.69
447.129	487.69
447.35	491.69
447.571	508.69
447.792	502.69
448.013	517.69
448.234	535.69
448.455	580.69
448.675	723.69
448.896	814.69
449.117	662.69
449.338	668.69
449.559	762.69
449.779	852.69
450	709.69
450.221	556.69
450.442	522.69
450.662	503.69
450.883	519.69
451.104	519.69
451.324	502.69
451.545	486.69
451.766	464.69
451.986	428.69
452.207	445.69
452.428	430.69
452.648	443.69
452.869	457.69
453.089	459.69
453.31	453.69
453.53	460.69
453.751	438.69
453.971	464.69
454.192	471.69
454.412	459.69
454.633	450.69
454.853	431.69
455.073	438.69
455.294	473.69
455.514	564.69
455.734	547.69
455.955	451.69
456.175	421.69
456.395	419.69
456.616	400.69
456.836	395.69
457.056	403.69
457.276	386.69
457.497	395.69
457.717	404.69
457.937	411.69
458.157	422.69
458.377	415.69
458.598	463.69
458.818	535.69
459.038	638.69
459.258	674.69
459.478	544.69
459.698	482.69
459.918	463.69
460.138	451.69
460.358	455.69
460.578	428.69
460.798	434.69
461.018	462.69
461.238	431.69
461.458	420.69
461.678	430.69
461.898	462.69
462.118	444.69
462.338	430.69
462.558	428.69
462.777	468.69
462.997	427.69
463.217	446.69
463.437	438.69
463.657	438.69
463.876	457.69
464.096	437.69
464.316	443.69
464.536	460.69
464.755	476.69
464.975	470.69
465.195	548.69
465.414	638.69
465.634	553.69
465.854	517.69
466.073	481.69
466.293	453.69
466.512	425.69
466.732	446.69
466.951	438.69
467.171	429.69
467.391	416.69
467.61	438.69
467.829	468.69
468.049	460.69
468.268	469.69
468.488	444.69
468.707	430.69
468.927	432.69
469.146	415.69
469.365	431.69
469.585	405.69
469.804	429.69
470.023	439.69
470.243	461.69
470.462	456.69
470.681	450.69
470.901	472.69
471.12	439.69
471.339	449.69
471.558	451.69
471.777	455.69
471.997	460.69
472.216	464.69
472.435	512.69
472.654	478.69
472.873	463.69
473.092	455.69
473.311	453.69
473.53	424.69
473.749	432.69
473.968	523.69
474.187	619.69
474.406	676.69
474.625	543.69
474.844	463.69
475.063	464.69
475.282	450.69
475.501	455.69
475.72	455.69
475.939	473.69
476.158	446.69
476.377	444.69
476.596	442.69
476.814	470.69
477.033	469.69
477.252	479.69
477.471	470.69
477.69	479.69
477.908	482.69
478.127	491.69
478.346	475.69
478.564	483.69
478.783	477.69
479.002	485.69
479.22	482.69
479.439	500.69
479.658	531.69
479.876	540.69
480.095	562.69
480.313	553.69
480.532	543.69
480.751	539.69
480.969	569.69
481.188	688.69
481.406	715.69
481.624	633.69
481.843	584.69
482.061	550.69
482.28	523.69
482.498	539.69
482.717	519.69
482.935	532.69
483.153	546.69
483.372	502.69
483.59	521.69
483.808	533.69
484.027	520.69
484.245	529.69
484.463	546.69
484.681	508.69
484.9	525.69
485.118	529.69
485.336	545.69
485.554	538.69
485.772	543.69
485.99	533.69
486.209	559.69
486.427	553.69
486.645	575.69
486.863	586.69
487.081	576.69
487.299	589.69
487.517	555.69
487.735	539.69
487.953	564.69
488.171	569.69
488.389	572.69
488.607	577.69
488.825	564.69
489.043	561.69
489.261	585.69
489.479	559.69
489.696	541.69
489.914	557.69
490.132	591.69
490.35	589.69
490.568	599.69
490.786	611.69
491.003	612.69
491.221	638.69
491.439	643.69
491.657	630.69
491.874	656.69
492.092	643.69
492.31	662.69
492.527	653.69
492.745	676.69
492.963	653.69
493.18	650.69
493.398	680.69
493.615	674.69
493.833	669.69
494.05	685.69
494.268	686.69
494.485	663.69
494.703	680.69
494.92	683.69
495.138	688.69
495.355	674.69
495.573	675.69
495.79	647.69
496.008	696.69
496.225	656.69
496.442	674.69
496.66	684.69
496.877	672.69
497.094	661.69
497.312	655.69
497.529	676.69
497.746	692.69
497.963	712.69
498.181	706.69
498.398	738.69
498.615	719.69
498.832	726.69
499.049	742.69
499.267	757.69
499.484	756.69
499.701	755.69
499.918	781.69
500.135	794.69
500.352	818.69
500.569	812.69
500.786	844.69
501.003	834.69
501.22	851.69
501.437	815.69
501.654	788.69
501.871	810.69
