Data from 1972.PennyLincolnUp.Lamp.En5.5.200Scan.071719.P1._HRD10591_15-28-11-844.txt Node
Date: Thu Jul 18 15:28:11 EDT 2019
User: cochatt
Spectrometer: HR+D1059
Trigger mode: 1
Integration Time (sec): 1.000000E-1
Scans to average: 1
Electric dark correction enabled: true
Nonlinearity correction enabled: false
Boxcar width: 0
XAxis mode: Wavelengths
Number of Pixels in Spectrum: 2048
>>>>>Begin Spectral Data<<<<<
223.165	-9.44
223.4	-9.44
223.635	-9.44
223.869	-21.44
224.104	-13.44
224.338	-14.44
224.573	-25.44
224.808	-13.44
225.042	-20.44
225.277	-5.44
225.511	-0.44
225.746	1.56
225.98	11.56
226.215	15.56
226.449	11.56
226.683	1.56
226.918	36.56
227.152	45.56
227.387	35.56
227.621	51.56
227.856	50.56
228.09	37.56
228.324	61.56
228.559	58.56
228.793	56.56
229.027	108.56
229.262	116.56
229.496	106.56
229.73	138.56
229.964	159.56
230.199	138.56
230.433	110.56
230.667	120.56
230.901	123.56
231.136	111.56
231.37	121.56
231.604	103.56
231.838	108.56
232.072	124.56
232.306	116.56
232.541	116.56
232.775	116.56
233.009	116.56
233.243	123.56
233.477	109.56
233.711	121.56
233.945	125.56
234.179	120.56
234.413	108.56
234.647	108.56
234.881	120.56
235.115	124.56
235.349	114.56
235.583	125.56
235.817	137.56
236.051	122.56
236.285	143.56
236.519	124.56
236.753	130.56
236.987	148.56
237.221	189.56
237.455	242.56
237.689	207.56
237.922	164.56
238.156	154.56
238.39	127.56
238.624	136.56
238.858	127.56
239.091	126.56
239.325	137.56
239.559	123.56
239.793	126.56
240.027	132.56
240.26	152.56
240.494	169.56
240.728	162.56
240.961	159.56
241.195	138.56
241.429	130.56
241.662	133.56
241.896	134.56
242.13	134.56
242.363	137.56
242.597	130.56
242.83	143.56
243.064	126.56
243.298	146.56
243.531	148.56
243.765	146.56
243.998	142.56
244.232	146.56
244.465	142.56
244.699	159.56
244.932	143.56
245.166	137.56
245.399	157.56
245.633	149.56
245.866	138.56
246.099	150.56
246.333	162.56
246.566	157.56
246.8	162.56
247.033	157.56
247.266	155.56
247.5	169.56
247.733	166.56
247.966	172.56
248.2	150.56
248.433	188.56
248.666	190.56
248.899	173.56
249.133	198.56
249.366	211.56
249.599	207.56
249.832	196.56
250.066	203.56
250.299	182.56
250.532	178.56
250.765	211.56
250.998	218.56
251.231	247.56
251.465	226.56
251.698	215.56
251.931	202.56
252.164	201.56
252.397	200.56
252.63	219.56
252.863	212.56
253.096	206.56
253.329	243.56
253.562	247.56
253.795	229.56
254.028	237.56
254.261	223.56
254.494	243.56
254.727	273.56
254.96	298.56
255.193	300.56
255.426	273.56
255.659	235.56
255.892	254.56
256.124	265.56
256.357	248.56
256.59	239.56
256.823	240.56
257.056	228.56
257.289	221.56
257.521	211.56
257.754	212.56
257.987	222.56
258.22	212.56
258.452	216.56
258.685	215.56
258.918	226.56
259.151	229.56
259.383	207.56
259.616	215.56
259.849	218.56
260.081	242.56
260.314	270.56
260.547	255.56
260.779	253.56
261.012	247.56
261.244	222.56
261.477	238.56
261.71	239.56
261.942	255.56
262.175	257.56
262.407	237.56
262.64	234.56
262.872	231.56
263.105	222.56
263.337	224.56
263.57	223.56
263.802	207.56
264.035	217.56
264.267	218.56
264.499	214.56
264.732	215.56
264.964	225.56
265.197	221.56
265.429	219.56
265.661	220.56
265.894	236.56
266.126	235.56
266.358	228.56
266.591	229.56
266.823	213.56
267.055	228.56
267.287	234.56
267.52	227.56
267.752	236.56
267.984	224.56
268.216	229.56
268.448	245.56
268.681	245.56
268.913	253.56
269.145	243.56
269.377	278.56
269.609	276.56
269.841	252.56
270.073	280.56
270.306	303.56
270.538	322.56
270.77	350.56
271.002	316.56
271.234	316.56
271.466	312.56
271.698	312.56
271.93	346.56
272.162	351.56
272.394	345.56
272.626	310.56
272.858	295.56
273.09	282.56
273.322	298.56
273.553	281.56
273.785	272.56
274.017	280.56
274.249	287.56
274.481	265.56
274.713	264.56
274.945	275.56
275.176	287.56
275.408	266.56
275.64	266.56
275.872	260.56
276.104	266.56
276.335	264.56
276.567	280.56
276.799	305.56
277.031	318.56
277.262	319.56
277.494	332.56
277.726	328.56
277.957	311.56
278.189	282.56
278.421	286.56
278.652	262.56
278.884	259.56
279.115	268.56
279.347	274.56
279.579	263.56
279.81	267.56
280.042	266.56
280.273	273.56
280.505	272.56
280.736	283.56
280.968	276.56
281.199	266.56
281.431	279.56
281.662	278.56
281.894	281.56
282.125	283.56
282.356	290.56
282.588	298.56
282.819	327.56
283.051	283.56
283.282	271.56
283.513	276.56
283.745	269.56
283.976	257.56
284.207	275.56
284.439	279.56
284.67	281.56
284.901	280.56
285.132	283.56
285.364	277.56
285.595	268.56
285.826	252.56
286.057	283.56
286.288	269.56
286.52	269.56
286.751	275.56
286.982	274.56
287.213	281.56
287.444	300.56
287.675	294.56
287.906	281.56
288.138	314.56
288.369	302.56
288.6	318.56
288.831	298.56
289.062	302.56
289.293	279.56
289.524	284.56
289.755	276.56
289.986	300.56
290.217	298.56
290.448	277.56
290.679	277.56
290.91	297.56
291.141	281.56
291.371	273.56
291.602	271.56
291.833	285.56
292.064	282.56
292.295	293.56
292.526	296.56
292.757	309.56
292.987	287.56
293.218	279.56
293.449	295.56
293.68	298.56
293.91	278.56
294.141	270.56
294.372	281.56
294.603	286.56
294.833	268.56
295.064	291.56
295.295	271.56
295.525	283.56
295.756	274.56
295.987	299.56
296.217	309.56
296.448	343.56
296.679	287.56
296.909	267.56
297.14	283.56
297.37	320.56
297.601	306.56
297.831	308.56
298.062	297.56
298.292	262.56
298.523	274.56
298.753	310.56
298.984	302.56
299.214	307.56
299.445	310.56
299.675	308.56
299.905	312.56
300.136	302.56
300.366	291.56
300.597	316.56
300.827	317.56
301.057	314.56
301.288	326.56
301.518	306.56
301.748	311.56
301.979	333.56
302.209	326.56
302.439	316.56
302.669	333.56
302.9	324.56
303.13	296.56
303.36	318.56
303.59	326.56
303.82	329.56
304.051	312.56
304.281	298.56
304.511	306.56
304.741	322.56
304.971	314.56
305.201	324.56
305.431	326.56
305.661	322.56
305.891	319.56
306.121	320.56
306.352	328.56
306.582	335.56
306.812	329.56
307.042	337.56
307.272	328.56
307.502	338.56
307.731	337.56
307.961	319.56
308.191	309.56
308.421	321.56
308.651	334.56
308.881	351.56
309.111	339.56
309.341	350.56
309.571	358.56
309.8	367.56
310.03	367.56
310.26	382.56
310.49	367.56
310.72	381.56
310.949	404.56
311.179	398.56
311.409	361.56
311.639	377.56
311.868	388.56
312.098	378.56
312.328	396.56
312.557	410.56
312.787	416.56
313.017	435.56
313.246	387.56
313.476	383.56
313.706	389.56
313.935	390.56
314.165	396.56
314.394	400.56
314.624	390.56
314.853	397.56
315.083	381.56
315.312	392.56
315.542	384.56
315.771	384.56
316.001	380.56
316.23	355.56
316.46	392.56
316.689	383.56
316.919	385.56
317.148	382.56
317.377	379.56
317.607	382.56
317.836	406.56
318.065	379.56
318.295	368.56
318.524	386.56
318.753	392.56
318.983	367.56
319.212	381.56
319.441	386.56
319.67	392.56
319.9	386.56
320.129	359.56
320.358	391.56
320.587	388.56
320.816	391.56
321.046	408.56
321.275	394.56
321.504	404.56
321.733	406.56
321.962	440.56
322.191	455.56
322.42	462.56
322.649	459.56
322.878	476.56
323.108	510.56
323.337	523.56
323.566	553.56
323.795	583.56
324.024	680.56
324.253	794.56
324.482	1202.56
324.71	1834.56
324.939	2727.56
325.168	2404.56
325.397	1191.56
325.626	767.56
325.855	628.56
326.084	555.56
326.313	539.56
326.542	565.56
326.77	626.56
326.999	754.56
327.228	1046.56
327.457	1613.56
327.686	1976.56
327.914	1316.56
328.143	839.56
328.372	738.56
328.6	676.56
328.829	655.56
329.058	632.56
329.287	649.56
329.515	634.56
329.744	576.56
329.972	538.56
330.201	599.56
330.43	640.56
330.658	669.56
330.887	679.56
331.115	651.56
331.344	563.56
331.572	525.56
331.801	509.56
332.03	504.56
332.258	502.56
332.486	464.56
332.715	451.56
332.943	464.56
333.172	453.56
333.4	444.56
333.629	470.56
333.857	487.56
334.085	488.56
334.314	508.56
334.542	565.56
334.771	580.56
334.999	526.56
335.227	463.56
335.455	460.56
335.684	442.56
335.912	452.56
336.14	398.56
336.369	419.56
336.597	460.56
336.825	428.56
337.053	452.56
337.281	426.56
337.51	430.56
337.738	442.56
337.966	421.56
338.194	438.56
338.422	462.56
338.65	431.56
338.878	434.56
339.106	407.56
339.334	406.56
339.562	418.56
339.79	392.56
340.018	416.56
340.246	413.56
340.474	427.56
340.702	425.56
340.93	419.56
341.158	411.56
341.386	410.56
341.614	437.56
341.842	407.56
342.07	412.56
342.298	412.56
342.526	414.56
342.754	407.56
342.981	381.56
343.209	400.56
343.437	410.56
343.665	407.56
343.893	420.56
344.12	414.56
344.348	417.56
344.576	401.56
344.804	417.56
345.031	408.56
345.259	468.56
345.487	439.56
345.714	405.56
345.942	418.56
346.17	413.56
346.397	401.56
346.625	412.56
346.853	411.56
347.08	408.56
347.308	401.56
347.535	400.56
347.763	431.56
347.99	438.56
348.218	438.56
348.445	416.56
348.673	434.56
348.9	412.56
349.128	400.56
349.355	395.56
349.583	397.56
349.81	396.56
350.037	399.56
350.265	382.56
350.492	393.56
350.72	399.56
350.947	386.56
351.174	411.56
351.402	421.56
351.629	421.56
351.856	422.56
352.083	444.56
352.311	408.56
352.538	454.56
352.765	417.56
352.992	422.56
353.22	419.56
353.447	408.56
353.674	378.56
353.901	378.56
354.128	368.56
354.355	373.56
354.583	382.56
354.81	377.56
355.037	381.56
355.264	358.56
355.491	392.56
355.718	392.56
355.945	362.56
356.172	355.56
356.399	355.56
356.626	377.56
356.853	384.56
357.08	375.56
357.307	371.56
357.534	369.56
357.761	356.56
357.988	370.56
358.215	369.56
358.441	382.56
358.668	361.56
358.895	377.56
359.122	388.56
359.349	392.56
359.576	426.56
359.802	441.56
360.029	471.56
360.256	468.56
360.483	461.56
360.709	413.56
360.936	415.56
361.163	401.56
361.39	408.56
361.616	409.56
361.843	388.56
362.07	403.56
362.296	418.56
362.523	392.56
362.749	399.56
362.976	380.56
363.203	400.56
363.429	379.56
363.656	385.56
363.882	388.56
364.109	378.56
364.335	372.56
364.562	379.56
364.788	367.56
365.015	379.56
365.241	368.56
365.468	394.56
365.694	390.56
365.92	404.56
366.147	383.56
366.373	365.56
366.599	370.56
366.826	360.56
367.052	367.56
367.278	375.56
367.505	370.56
367.731	378.56
367.957	414.56
368.184	381.56
368.41	407.56
368.636	396.56
368.862	396.56
369.089	385.56
369.315	392.56
369.541	372.56
369.767	377.56
369.993	384.56
370.219	376.56
370.445	383.56
370.672	378.56
370.898	381.56
371.124	348.56
371.35	371.56
371.576	373.56
371.802	356.56
372.028	375.56
372.254	366.56
372.48	363.56
372.706	370.56
372.932	368.56
373.158	362.56
373.384	362.56
373.61	349.56
373.835	358.56
374.061	390.56
374.287	362.56
374.513	360.56
374.739	366.56
374.965	365.56
375.191	361.56
375.416	364.56
375.642	362.56
375.868	376.56
376.094	370.56
376.319	342.56
376.545	350.56
376.771	379.56
376.997	377.56
377.222	380.56
377.448	355.56
377.674	343.56
377.899	364.56
378.125	363.56
378.35	362.56
378.576	367.56
378.802	346.56
379.027	362.56
379.253	352.56
379.478	353.56
379.704	380.56
379.929	367.56
380.155	362.56
380.38	367.56
380.606	366.56
380.831	360.56
381.057	376.56
381.282	374.56
381.507	385.56
381.733	373.56
381.958	355.56
382.184	363.56
382.409	378.56
382.634	357.56
382.86	380.56
383.085	363.56
383.31	364.56
383.535	368.56
383.761	366.56
383.986	378.56
384.211	384.56
384.436	381.56
384.662	389.56
384.887	391.56
385.112	372.56
385.337	378.56
385.562	378.56
385.787	394.56
386.013	419.56
386.238	414.56
386.463	408.56
386.688	393.56
386.913	379.56
387.138	403.56
387.363	380.56
387.588	396.56
387.813	395.56
388.038	405.56
388.263	398.56
388.488	407.56
388.713	379.56
388.938	383.56
389.163	393.56
389.387	388.56
389.612	377.56
389.837	384.56
390.062	398.56
390.287	371.56
390.512	378.56
390.736	375.56
390.961	387.56
391.186	362.56
391.411	384.56
391.636	386.56
391.86	399.56
392.085	387.56
392.31	383.56
392.534	388.56
392.759	392.56
392.984	405.56
393.208	389.56
393.433	400.56
393.658	423.56
393.882	390.56
394.107	396.56
394.331	377.56
394.556	376.56
394.78	387.56
395.005	386.56
395.229	386.56
395.454	380.56
395.678	389.56
395.903	412.56
396.127	432.56
396.352	433.56
396.576	393.56
396.801	403.56
397.025	431.56
397.249	407.56
397.474	408.56
397.698	403.56
397.922	413.56
398.147	451.56
398.371	450.56
398.595	424.56
398.82	427.56
399.044	436.56
399.268	437.56
399.492	473.56
399.717	468.56
399.941	494.56
400.165	532.56
400.389	546.56
400.613	506.56
400.837	449.56
401.062	456.56
401.286	438.56
401.51	427.56
401.734	456.56
401.958	445.56
402.182	435.56
402.406	452.56
402.63	443.56
402.854	452.56
403.078	456.56
403.302	455.56
403.526	470.56
403.75	470.56
403.974	454.56
404.198	446.56
404.422	470.56
404.645	468.56
404.869	471.56
405.093	511.56
405.317	558.56
405.541	589.56
405.765	518.56
405.988	523.56
406.212	512.56
406.436	547.56
406.66	541.56
406.883	500.56
407.107	527.56
407.331	569.56
407.555	633.56
407.778	639.56
408.002	557.56
408.226	529.56
408.449	511.56
408.673	502.56
408.896	550.56
409.12	584.56
409.344	530.56
409.567	482.56
409.791	460.56
410.014	468.56
410.238	463.56
410.461	460.56
410.685	458.56
410.908	488.56
411.132	503.56
411.355	558.56
411.578	527.56
411.802	470.56
412.025	453.56
412.249	458.56
412.472	500.56
412.695	540.56
412.919	522.56
413.142	502.56
413.365	450.56
413.589	459.56
413.812	451.56
414.035	424.56
414.258	427.56
414.482	431.56
414.705	440.56
414.928	434.56
415.151	428.56
415.374	422.56
415.597	426.56
415.821	441.56
416.044	453.56
416.267	452.56
416.49	421.56
416.713	430.56
416.936	428.56
417.159	440.56
417.382	458.56
417.605	439.56
417.828	445.56
418.051	458.56
418.274	454.56
418.497	439.56
418.72	436.56
418.943	436.56
419.166	453.56
419.389	458.56
419.611	458.56
419.834	462.56
420.057	456.56
420.28	463.56
420.503	466.56
420.726	469.56
420.948	477.56
421.171	523.56
421.394	520.56
421.617	489.56
421.839	460.56
422.062	464.56
422.285	494.56
422.507	531.56
422.73	604.56
422.953	610.56
423.175	524.56
423.398	483.56
423.621	501.56
423.843	514.56
424.066	529.56
424.288	507.56
424.511	517.56
424.733	590.56
424.956	674.56
425.178	642.56
425.401	613.56
425.623	662.56
425.846	568.56
426.068	510.56
426.291	479.56
426.513	516.56
426.735	550.56
426.958	558.56
427.18	679.56
427.402	809.56
427.625	870.56
427.847	782.56
428.069	712.56
428.292	590.56
428.514	531.56
428.736	518.56
428.958	485.56
429.181	463.56
429.403	484.56
429.625	488.56
429.847	532.56
430.069	604.56
430.292	607.56
430.514	507.56
430.736	475.56
430.958	445.56
431.18	432.56
431.402	450.56
431.624	442.56
431.846	438.56
432.068	425.56
432.29	429.56
432.512	425.56
432.734	454.56
432.956	448.56
433.178	462.56
433.4	460.56
433.622	467.56
433.844	453.56
434.066	418.56
434.287	421.56
434.509	429.56
434.731	445.56
434.953	465.56
435.175	470.56
435.397	492.56
435.618	498.56
435.84	554.56
436.062	660.56
436.284	727.56
436.505	623.56
436.727	534.56
436.949	512.56
437.17	473.56
437.392	495.56
437.614	475.56
437.835	533.56
438.057	648.56
438.278	776.56
438.5	759.56
438.721	832.56
438.943	784.56
439.165	601.56
439.386	566.56
439.608	564.56
439.829	510.56
440.05	576.56
440.272	637.56
440.493	597.56
440.715	523.56
440.936	509.56
441.158	482.56
441.379	479.56
441.6	495.56
441.822	524.56
442.043	576.56
442.264	630.56
442.486	684.56
442.707	590.56
442.928	531.56
443.149	562.56
443.371	545.56
443.592	596.56
443.813	702.56
444.034	766.56
444.255	604.56
444.476	548.56
444.698	513.56
444.919	520.56
445.14	601.56
445.361	589.56
445.582	558.56
445.803	647.56
446.024	746.56
446.245	766.56
446.466	726.56
446.687	604.56
446.908	534.56
447.129	501.56
447.35	487.56
447.571	507.56
447.792	464.56
448.013	467.56
448.234	503.56
448.455	538.56
448.675	692.56
448.896	816.56
449.117	673.56
449.338	618.56
449.559	741.56
449.779	832.56
450	660.56
450.221	568.56
450.442	506.56
450.662	506.56
450.883	494.56
451.104	516.56
451.324	493.56
451.545	462.56
451.766	442.56
451.986	424.56
452.207	427.56
452.428	410.56
452.648	412.56
452.869	410.56
453.089	444.56
453.31	463.56
453.53	438.56
453.751	435.56
453.971	434.56
454.192	469.56
454.412	464.56
454.633	448.56
454.853	418.56
455.073	443.56
455.294	470.56
455.514	566.56
455.734	517.56
455.955	442.56
456.175	430.56
456.395	389.56
456.616	388.56
456.836	384.56
457.056	398.56
457.276	399.56
457.497	396.56
457.717	398.56
457.937	381.56
458.157	412.56
458.377	406.56
458.598	447.56
458.818	511.56
459.038	619.56
459.258	628.56
459.478	516.56
459.698	459.56
459.918	430.56
460.138	438.56
460.358	435.56
460.578	457.56
460.798	435.56
461.018	456.56
461.238	437.56
461.458	423.56
461.678	442.56
461.898	424.56
462.118	436.56
462.338	441.56
462.558	434.56
462.777	456.56
462.997	447.56
463.217	443.56
463.437	452.56
463.657	443.56
463.876	442.56
464.096	457.56
464.316	451.56
464.536	474.56
464.755	458.56
464.975	489.56
465.195	528.56
465.414	641.56
465.634	532.56
465.854	497.56
466.073	470.56
466.293	436.56
466.512	426.56
466.732	426.56
466.951	439.56
467.171	418.56
467.391	413.56
467.61	427.56
467.829	463.56
468.049	469.56
468.268	451.56
468.488	433.56
468.707	447.56
468.927	418.56
469.146	418.56
469.365	422.56
469.585	426.56
469.804	438.56
470.023	454.56
470.243	460.56
470.462	442.56
470.681	460.56
470.901	454.56
471.12	427.56
471.339	408.56
471.558	442.56
471.777	428.56
471.997	439.56
472.216	449.56
472.435	514.56
472.654	477.56
472.873	463.56
473.092	440.56
473.311	451.56
473.53	445.56
473.749	463.56
473.968	518.56
474.187	636.56
474.406	644.56
474.625	502.56
474.844	457.56
475.063	447.56
475.282	437.56
475.501	454.56
475.72	443.56
475.939	445.56
476.158	449.56
476.377	456.56
476.596	436.56
476.814	459.56
477.033	462.56
477.252	474.56
477.471	467.56
477.69	461.56
477.908	485.56
478.127	459.56
478.346	489.56
478.564	461.56
478.783	479.56
479.002	474.56
479.22	486.56
479.439	504.56
479.658	524.56
479.876	532.56
480.095	534.56
480.313	570.56
480.532	554.56
480.751	543.56
480.969	556.56
481.188	622.56
481.406	674.56
481.624	568.56
481.843	577.56
482.061	522.56
482.28	536.56
482.498	532.56
482.717	529.56
482.935	529.56
483.153	521.56
483.372	520.56
483.59	518.56
483.808	523.56
484.027	512.56
484.245	522.56
484.463	532.56
484.681	536.56
484.9	533.56
485.118	523.56
485.336	542.56
485.554	527.56
485.772	534.56
485.99	536.56
486.209	515.56
486.427	543.56
486.645	557.56
486.863	571.56
487.081	575.56
487.299	552.56
487.517	557.56
487.735	556.56
487.953	551.56
488.171	536.56
488.389	549.56
488.607	539.56
488.825	550.56
489.043	578.56
489.261	553.56
489.479	568.56
489.696	584.56
489.914	567.56
490.132	571.56
490.35	572.56
490.568	571.56
490.786	582.56
491.003	604.56
491.221	616.56
491.439	621.56
491.657	635.56
491.874	623.56
492.092	660.56
492.31	628.56
492.527	635.56
492.745	617.56
492.963	646.56
493.18	679.56
493.398	651.56
493.615	653.56
493.833	655.56
494.05	643.56
494.268	671.56
494.485	659.56
494.703	667.56
494.92	648.56
495.138	676.56
495.355	680.56
495.573	655.56
495.79	687.56
496.008	647.56
496.225	655.56
496.442	668.56
496.66	646.56
496.877	644.56
497.094	644.56
497.312	683.56
497.529	649.56
497.746	674.56
497.963	677.56
498.181	710.56
498.398	704.56
498.615	735.56
498.832	702.56
499.049	720.56
499.267	745.56
499.484	749.56
499.701	736.56
499.918	768.56
500.135	770.56
500.352	806.56
500.569	848.56
500.786	820.56
501.003	829.56
501.22	807.56
501.437	798.56
501.654	795.56
501.871	826.56
