Data from 1972.PennyLincolnUp.Lamp.En5.5.200Scan.071719.P1._HRD10591_15-28-26-844.txt Node
Date: Thu Jul 18 15:28:26 EDT 2019
User: cochatt
Spectrometer: HR+D1059
Trigger mode: 1
Integration Time (sec): 1.000000E-1
Scans to average: 1
Electric dark correction enabled: true
Nonlinearity correction enabled: false
Boxcar width: 0
XAxis mode: Wavelengths
Number of Pixels in Spectrum: 2048
>>>>>Begin Spectral Data<<<<<
223.165	-24.69
223.4	-24.69
223.635	-24.69
223.869	-5.69
224.104	-7.69
224.338	-20.69
224.573	-22.69
224.808	-11.69
225.042	-3.69
225.277	-17.69
225.511	10.31
225.746	-10.69
225.98	11.31
226.215	17.31
226.449	18.31
226.683	25.31
226.918	16.31
227.152	26.31
227.387	37.31
227.621	51.31
227.856	52.31
228.09	50.31
228.324	47.31
228.559	43.31
228.793	76.31
229.027	109.31
229.262	103.31
229.496	106.31
229.73	129.31
229.964	170.31
230.199	145.31
230.433	119.31
230.667	132.31
230.901	133.31
231.136	99.31
231.37	108.31
231.604	118.31
231.838	114.31
232.072	125.31
232.306	123.31
232.541	126.31
232.775	118.31
233.009	115.31
233.243	108.31
233.477	105.31
233.711	104.31
233.945	122.31
234.179	126.31
234.413	122.31
234.647	119.31
234.881	106.31
235.115	125.31
235.349	125.31
235.583	120.31
235.817	123.31
236.051	140.31
236.285	150.31
236.519	121.31
236.753	150.31
236.987	146.31
237.221	192.31
237.455	258.31
237.689	201.31
237.922	156.31
238.156	143.31
238.39	146.31
238.624	132.31
238.858	126.31
239.091	123.31
239.325	128.31
239.559	138.31
239.793	123.31
240.027	137.31
240.26	155.31
240.494	170.31
240.728	157.31
240.961	162.31
241.195	145.31
241.429	132.31
241.662	132.31
241.896	137.31
242.13	122.31
242.363	137.31
242.597	142.31
242.83	151.31
243.064	151.31
243.298	150.31
243.531	140.31
243.765	143.31
243.998	135.31
244.232	140.31
244.465	143.31
244.699	154.31
244.932	141.31
245.166	144.31
245.399	153.31
245.633	162.31
245.866	165.31
246.099	158.31
246.333	151.31
246.566	152.31
246.8	163.31
247.033	158.31
247.266	145.31
247.5	164.31
247.733	195.31
247.966	178.31
248.2	173.31
248.433	175.31
248.666	178.31
248.899	207.31
249.133	206.31
249.366	225.31
249.599	214.31
249.832	200.31
250.066	191.31
250.299	192.31
250.532	193.31
250.765	207.31
250.998	231.31
251.231	245.31
251.465	219.31
251.698	207.31
251.931	216.31
252.164	207.31
252.397	206.31
252.63	216.31
252.863	220.31
253.096	208.31
253.329	239.31
253.562	231.31
253.795	230.31
254.028	222.31
254.261	220.31
254.494	248.31
254.727	256.31
254.96	306.31
255.193	292.31
255.426	274.31
255.659	262.31
255.892	234.31
256.124	246.31
256.357	252.31
256.59	250.31
256.823	233.31
257.056	230.31
257.289	216.31
257.521	228.31
257.754	214.31
257.987	207.31
258.22	210.31
258.452	231.31
258.685	210.31
258.918	231.31
259.151	209.31
259.383	219.31
259.616	217.31
259.849	239.31
260.081	218.31
260.314	263.31
260.547	266.31
260.779	249.31
261.012	244.31
261.244	238.31
261.477	242.31
261.71	237.31
261.942	238.31
262.175	267.31
262.407	252.31
262.64	235.31
262.872	227.31
263.105	216.31
263.337	222.31
263.57	216.31
263.802	228.31
264.035	229.31
264.267	224.31
264.499	222.31
264.732	222.31
264.964	207.31
265.197	230.31
265.429	223.31
265.661	207.31
265.894	220.31
266.126	218.31
266.358	248.31
266.591	215.31
266.823	231.31
267.055	224.31
267.287	234.31
267.52	220.31
267.752	236.31
267.984	224.31
268.216	226.31
268.448	237.31
268.681	226.31
268.913	271.31
269.145	270.31
269.377	294.31
269.609	293.31
269.841	285.31
270.073	280.31
270.306	308.31
270.538	331.31
270.77	324.31
271.002	316.31
271.234	284.31
271.466	325.31
271.698	339.31
271.93	344.31
272.162	346.31
272.394	344.31
272.626	310.31
272.858	299.31
273.09	308.31
273.322	284.31
273.553	281.31
273.785	273.31
274.017	282.31
274.249	264.31
274.481	270.31
274.713	269.31
274.945	292.31
275.176	270.31
275.408	276.31
275.64	286.31
275.872	268.31
276.104	288.31
276.335	290.31
276.567	288.31
276.799	306.31
277.031	317.31
277.262	334.31
277.494	310.31
277.726	302.31
277.957	292.31
278.189	304.31
278.421	294.31
278.652	287.31
278.884	278.31
279.115	266.31
279.347	276.31
279.579	274.31
279.81	277.31
280.042	274.31
280.273	272.31
280.505	266.31
280.736	265.31
280.968	275.31
281.199	275.31
281.431	251.31
281.662	280.31
281.894	254.31
282.125	297.31
282.356	294.31
282.588	334.31
282.819	326.31
283.051	279.31
283.282	278.31
283.513	286.31
283.745	263.31
283.976	291.31
284.207	293.31
284.439	290.31
284.67	268.31
284.901	269.31
285.132	264.31
285.364	283.31
285.595	286.31
285.826	253.31
286.057	288.31
286.288	284.31
286.52	283.31
286.751	282.31
286.982	272.31
287.213	285.31
287.444	301.31
287.675	292.31
287.906	293.31
288.138	312.31
288.369	312.31
288.6	287.31
288.831	284.31
289.062	298.31
289.293	290.31
289.524	307.31
289.755	275.31
289.986	290.31
290.217	284.31
290.448	304.31
290.679	300.31
290.91	292.31
291.141	291.31
291.371	294.31
291.602	274.31
291.833	271.31
292.064	270.31
292.295	284.31
292.526	286.31
292.757	284.31
292.987	288.31
293.218	272.31
293.449	275.31
293.68	284.31
293.91	286.31
294.141	276.31
294.372	285.31
294.603	288.31
294.833	282.31
295.064	264.31
295.295	306.31
295.525	270.31
295.756	295.31
295.987	295.31
296.217	329.31
296.448	342.31
296.679	310.31
296.909	290.31
297.14	288.31
297.37	306.31
297.601	293.31
297.831	299.31
298.062	285.31
298.292	302.31
298.523	303.31
298.753	308.31
298.984	308.31
299.214	304.31
299.445	311.31
299.675	303.31
299.905	307.31
300.136	303.31
300.366	281.31
300.597	297.31
300.827	335.31
301.057	313.31
301.288	326.31
301.518	306.31
301.748	306.31
301.979	315.31
302.209	322.31
302.439	313.31
302.669	310.31
302.9	339.31
303.13	324.31
303.36	318.31
303.59	317.31
303.82	360.31
304.051	340.31
304.281	313.31
304.511	332.31
304.741	324.31
304.971	322.31
305.201	351.31
305.431	325.31
305.661	297.31
305.891	320.31
306.121	317.31
306.352	347.31
306.582	348.31
306.812	332.31
307.042	326.31
307.272	341.31
307.502	343.31
307.731	324.31
307.961	334.31
308.191	320.31
308.421	334.31
308.651	332.31
308.881	358.31
309.111	371.31
309.341	338.31
309.571	354.31
309.8	365.31
310.03	385.31
310.26	384.31
310.49	396.31
310.72	399.31
310.949	400.31
311.179	408.31
311.409	357.31
311.639	378.31
311.868	390.31
312.098	385.31
312.328	391.31
312.557	410.31
312.787	431.31
313.017	411.31
313.246	392.31
313.476	375.31
313.706	386.31
313.935	383.31
314.165	415.31
314.394	423.31
314.624	432.31
314.853	408.31
315.083	398.31
315.312	394.31
315.542	361.31
315.771	377.31
316.001	378.31
316.23	370.31
316.46	376.31
316.689	378.31
316.919	375.31
317.148	410.31
317.377	407.31
317.607	379.31
317.836	391.31
318.065	378.31
318.295	388.31
318.524	371.31
318.753	372.31
318.983	377.31
319.212	382.31
319.441	380.31
319.67	407.31
319.9	373.31
320.129	387.31
320.358	399.31
320.587	400.31
320.816	398.31
321.046	416.31
321.275	413.31
321.504	425.31
321.733	397.31
321.962	430.31
322.191	431.31
322.42	444.31
322.649	482.31
322.878	501.31
323.108	500.31
323.337	540.31
323.566	562.31
323.795	609.31
324.024	672.31
324.253	806.31
324.482	1204.31
324.71	1893.31
324.939	2787.31
325.168	2410.31
325.397	1190.31
325.626	785.31
325.855	650.31
326.084	565.31
326.313	559.31
326.542	598.31
326.77	609.31
326.999	751.31
327.228	1085.31
327.457	1676.31
327.686	2078.31
327.914	1386.31
328.143	859.31
328.372	734.31
328.6	704.31
328.829	631.31
329.058	657.31
329.287	671.31
329.515	601.31
329.744	574.31
329.972	573.31
330.201	601.31
330.43	624.31
330.658	685.31
330.887	686.31
331.115	686.31
331.344	555.31
331.572	529.31
331.801	525.31
332.03	527.31
332.258	487.31
332.486	473.31
332.715	477.31
332.943	471.31
333.172	445.31
333.4	466.31
333.629	458.31
333.857	483.31
334.085	516.31
334.314	520.31
334.542	564.31
334.771	584.31
334.999	532.31
335.227	498.31
335.455	458.31
335.684	460.31
335.912	447.31
336.14	428.31
336.369	422.31
336.597	459.31
336.825	472.31
337.053	451.31
337.281	446.31
337.51	435.31
337.738	431.31
337.966	453.31
338.194	475.31
338.422	452.31
338.65	422.31
338.878	427.31
339.106	406.31
339.334	430.31
339.562	399.31
339.79	414.31
340.018	427.31
340.246	420.31
340.474	431.31
340.702	418.31
340.93	414.31
341.158	436.31
341.386	440.31
341.614	452.31
341.842	411.31
342.07	411.31
342.298	412.31
342.526	418.31
342.754	409.31
342.981	389.31
343.209	404.31
343.437	404.31
343.665	407.31
343.893	408.31
344.12	420.31
344.348	430.31
344.576	430.31
344.804	435.31
345.031	448.31
345.259	474.31
345.487	452.31
345.714	444.31
345.942	429.31
346.17	414.31
346.397	403.31
346.625	415.31
346.853	398.31
347.08	412.31
347.308	428.31
347.535	451.31
347.763	436.31
347.99	446.31
348.218	420.31
348.445	418.31
348.673	447.31
348.9	422.31
349.128	400.31
349.355	390.31
349.583	388.31
349.81	408.31
350.037	396.31
350.265	391.31
350.492	383.31
350.72	394.31
350.947	399.31
351.174	413.31
351.402	455.31
351.629	411.31
351.856	436.31
352.083	420.31
352.311	454.31
352.538	430.31
352.765	424.31
352.992	444.31
353.22	416.31
353.447	422.31
353.674	419.31
353.901	403.31
354.128	378.31
354.355	378.31
354.583	400.31
354.81	380.31
355.037	389.31
355.264	382.31
355.491	364.31
355.718	384.31
355.945	362.31
356.172	373.31
356.399	392.31
356.626	371.31
356.853	358.31
357.08	382.31
357.307	368.31
357.534	378.31
357.761	380.31
357.988	366.31
358.215	351.31
358.441	378.31
358.668	365.31
358.895	379.31
359.122	374.31
359.349	404.31
359.576	402.31
359.802	440.31
360.029	493.31
360.256	488.31
360.483	478.31
360.709	414.31
360.936	409.31
361.163	413.31
361.39	415.31
361.616	408.31
361.843	385.31
362.07	401.31
362.296	398.31
362.523	412.31
362.749	410.31
362.976	406.31
363.203	410.31
363.429	385.31
363.656	379.31
363.882	395.31
364.109	392.31
364.335	408.31
364.562	394.31
364.788	394.31
365.015	376.31
365.241	384.31
365.468	408.31
365.694	391.31
365.92	398.31
366.147	387.31
366.373	393.31
366.599	387.31
366.826	389.31
367.052	367.31
367.278	354.31
367.505	377.31
367.731	380.31
367.957	376.31
368.184	391.31
368.41	396.31
368.636	391.31
368.862	418.31
369.089	382.31
369.315	358.31
369.541	369.31
369.767	372.31
369.993	372.31
370.219	382.31
370.445	382.31
370.672	374.31
370.898	358.31
371.124	382.31
371.35	366.31
371.576	382.31
371.802	373.31
372.028	371.31
372.254	350.31
372.48	370.31
372.706	340.31
372.932	384.31
373.158	376.31
373.384	368.31
373.61	374.31
373.835	365.31
374.061	367.31
374.287	376.31
374.513	366.31
374.739	382.31
374.965	392.31
375.191	372.31
375.416	379.31
375.642	384.31
375.868	374.31
376.094	351.31
376.319	363.31
376.545	366.31
376.771	373.31
376.997	362.31
377.222	370.31
377.448	366.31
377.674	354.31
377.899	358.31
378.125	356.31
378.35	349.31
378.576	368.31
378.802	383.31
379.027	383.31
379.253	343.31
379.478	354.31
379.704	341.31
379.929	351.31
380.155	381.31
380.38	371.31
380.606	363.31
380.831	363.31
381.057	365.31
381.282	376.31
381.507	380.31
381.733	382.31
381.958	383.31
382.184	379.31
382.409	370.31
382.634	377.31
382.86	377.31
383.085	391.31
383.31	376.31
383.535	381.31
383.761	382.31
383.986	392.31
384.211	386.31
384.436	402.31
384.662	388.31
384.887	406.31
385.112	389.31
385.337	385.31
385.562	379.31
385.787	362.31
386.013	384.31
386.238	407.31
386.463	407.31
386.688	393.31
386.913	409.31
387.138	380.31
387.363	396.31
387.588	386.31
387.813	389.31
388.038	385.31
388.263	386.31
388.488	399.31
388.713	418.31
388.938	382.31
389.163	398.31
389.387	409.31
389.612	386.31
389.837	391.31
390.062	382.31
390.287	407.31
390.512	386.31
390.736	401.31
390.961	399.31
391.186	381.31
391.411	385.31
391.636	382.31
391.86	388.31
392.085	421.31
392.31	414.31
392.534	392.31
392.759	397.31
392.984	395.31
393.208	391.31
393.433	391.31
393.658	403.31
393.882	404.31
394.107	404.31
394.331	399.31
394.556	394.31
394.78	413.31
395.005	404.31
395.229	412.31
395.454	399.31
395.678	390.31
395.903	431.31
396.127	443.31
396.352	447.31
396.576	440.31
396.801	411.31
397.025	416.31
397.249	430.31
397.474	430.31
397.698	410.31
397.922	435.31
398.147	442.31
398.371	434.31
398.595	435.31
398.82	445.31
399.044	434.31
399.268	446.31
399.492	472.31
399.717	480.31
399.941	501.31
400.165	556.31
400.389	578.31
400.613	501.31
400.837	461.31
401.062	450.31
401.286	450.31
401.51	462.31
401.734	446.31
401.958	446.31
402.182	450.31
402.406	461.31
402.63	481.31
402.854	452.31
403.078	456.31
403.302	459.31
403.526	474.31
403.75	469.31
403.974	445.31
404.198	472.31
404.422	475.31
404.645	472.31
404.869	474.31
405.093	510.31
405.317	557.31
405.541	611.31
405.765	525.31
405.988	503.31
406.212	501.31
406.436	536.31
406.66	541.31
406.883	510.31
407.107	528.31
407.331	544.31
407.555	646.31
407.778	649.31
408.002	593.31
408.226	528.31
408.449	534.31
408.673	511.31
408.896	542.31
409.12	594.31
409.344	576.31
409.567	487.31
409.791	471.31
410.014	451.31
410.238	466.31
410.461	470.31
410.685	485.31
410.908	507.31
411.132	531.31
411.355	557.31
411.578	519.31
411.802	477.31
412.025	449.31
412.249	487.31
412.472	506.31
412.695	549.31
412.919	537.31
413.142	490.31
413.365	458.31
413.589	467.31
413.812	435.31
414.035	423.31
414.258	449.31
414.482	456.31
414.705	451.31
414.928	424.31
415.151	422.31
415.374	448.31
415.597	415.31
415.821	428.31
416.044	429.31
416.267	432.31
416.49	442.31
416.713	422.31
416.936	437.31
417.159	455.31
417.382	437.31
417.605	455.31
417.828	438.31
418.051	450.31
418.274	460.31
418.497	452.31
418.72	461.31
418.943	448.31
419.166	458.31
419.389	463.31
419.611	474.31
419.834	462.31
420.057	480.31
420.28	488.31
420.503	460.31
420.726	458.31
420.948	504.31
421.171	522.31
421.394	558.31
421.617	500.31
421.839	459.31
422.062	476.31
422.285	492.31
422.507	547.31
422.73	630.31
422.953	615.31
423.175	528.31
423.398	525.31
423.621	496.31
423.843	513.31
424.066	532.31
424.288	514.31
424.511	557.31
424.733	610.31
424.956	671.31
425.178	638.31
425.401	670.31
425.623	651.31
425.846	564.31
426.068	518.31
426.291	527.31
426.513	533.31
426.735	519.31
426.958	582.31
427.18	653.31
427.402	831.31
427.625	898.31
427.847	826.31
428.069	704.31
428.292	605.31
428.514	547.31
428.736	541.31
428.958	485.31
429.181	476.31
429.403	488.31
429.625	492.31
429.847	529.31
430.069	619.31
430.292	607.31
430.514	514.31
430.736	480.31
430.958	460.31
431.18	451.31
431.402	439.31
431.624	436.31
431.846	446.31
432.068	436.31
432.29	436.31
432.512	450.31
432.734	446.31
432.956	442.31
433.178	468.31
433.4	449.31
433.622	443.31
433.844	443.31
434.066	452.31
434.287	436.31
434.509	445.31
434.731	444.31
434.953	469.31
435.175	495.31
435.397	513.31
435.618	537.31
435.84	571.31
436.062	684.31
436.284	742.31
436.505	626.31
436.727	547.31
436.949	514.31
437.17	490.31
437.392	491.31
437.614	527.31
437.835	532.31
438.057	646.31
438.278	770.31
438.5	755.31
438.721	812.31
438.943	794.31
439.165	615.31
439.386	555.31
439.608	564.31
439.829	560.31
440.05	589.31
440.272	646.31
440.493	617.31
440.715	542.31
440.936	522.31
441.158	498.31
441.379	479.31
441.6	516.31
441.822	527.31
442.043	575.31
442.264	658.31
442.486	710.31
442.707	602.31
442.928	558.31
443.149	571.31
443.371	586.31
443.592	605.31
443.813	713.31
444.034	755.31
444.255	626.31
444.476	534.31
444.698	534.31
444.919	529.31
445.14	616.31
445.361	598.31
445.582	581.31
445.803	680.31
446.024	768.31
446.245	788.31
446.466	713.31
446.687	617.31
446.908	540.31
447.129	495.31
447.35	502.31
447.571	502.31
447.792	484.31
448.013	484.31
448.234	542.31
448.455	572.31
448.675	693.31
448.896	825.31
449.117	692.31
449.338	652.31
449.559	743.31
449.779	835.31
450	672.31
450.221	554.31
450.442	520.31
450.662	499.31
450.883	502.31
451.104	526.31
451.324	516.31
451.545	477.31
451.766	457.31
451.986	430.31
452.207	434.31
452.428	424.31
452.648	438.31
452.869	443.31
453.089	442.31
453.31	464.31
453.53	445.31
453.751	439.31
453.971	440.31
454.192	483.31
454.412	476.31
454.633	453.31
454.853	436.31
455.073	427.31
455.294	476.31
455.514	552.31
455.734	542.31
455.955	454.31
456.175	422.31
456.395	427.31
456.616	413.31
456.836	392.31
457.056	397.31
457.276	380.31
457.497	407.31
457.717	406.31
457.937	412.31
458.157	400.31
458.377	413.31
458.598	471.31
458.818	527.31
459.038	603.31
459.258	616.31
459.478	525.31
459.698	448.31
459.918	457.31
460.138	456.31
460.358	439.31
460.578	420.31
460.798	436.31
461.018	448.31
461.238	436.31
461.458	444.31
461.678	435.31
461.898	430.31
462.118	436.31
462.338	448.31
462.558	452.31
462.777	454.31
462.997	443.31
463.217	460.31
463.437	470.31
463.657	466.31
463.876	469.31
464.096	443.31
464.316	476.31
464.536	456.31
464.755	472.31
464.975	487.31
465.195	557.31
465.414	630.31
465.634	544.31
465.854	492.31
466.073	464.31
466.293	451.31
466.512	450.31
466.732	448.31
466.951	432.31
467.171	457.31
467.391	447.31
467.61	453.31
467.829	476.31
468.049	454.31
468.268	440.31
468.488	412.31
468.707	420.31
468.927	434.31
469.146	403.31
469.365	445.31
469.585	437.31
469.804	436.31
470.023	453.31
470.243	462.31
470.462	450.31
470.681	475.31
470.901	470.31
471.12	457.31
471.339	461.31
471.558	446.31
471.777	437.31
471.997	445.31
472.216	449.31
472.435	515.31
472.654	483.31
472.873	469.31
473.092	457.31
473.311	438.31
473.53	474.31
473.749	460.31
473.968	497.31
474.187	626.31
474.406	644.31
474.625	526.31
474.844	463.31
475.063	461.31
475.282	451.31
475.501	448.31
475.72	440.31
475.939	459.31
476.158	460.31
476.377	461.31
476.596	464.31
476.814	465.31
477.033	491.31
477.252	466.31
477.471	473.31
477.69	475.31
477.908	478.31
478.127	456.31
478.346	475.31
478.564	468.31
478.783	479.31
479.002	503.31
479.22	508.31
479.439	515.31
479.658	524.31
479.876	542.31
480.095	537.31
480.313	596.31
480.532	560.31
480.751	549.31
480.969	570.31
481.188	666.31
481.406	725.31
481.624	607.31
481.843	552.31
482.061	521.31
482.28	550.31
482.498	516.31
482.717	538.31
482.935	534.31
483.153	537.31
483.372	526.31
483.59	523.31
483.808	520.31
484.027	508.31
484.245	532.31
484.463	516.31
484.681	547.31
484.9	536.31
485.118	539.31
485.336	557.31
485.554	533.31
485.772	548.31
485.99	583.31
486.209	557.31
486.427	539.31
486.645	551.31
486.863	556.31
487.081	560.31
487.299	596.31
487.517	568.31
487.735	567.31
487.953	557.31
488.171	574.31
488.389	549.31
488.607	578.31
488.825	568.31
489.043	550.31
489.261	604.31
489.479	592.31
489.696	576.31
489.914	568.31
490.132	586.31
490.35	583.31
490.568	578.31
490.786	579.31
491.003	605.31
491.221	655.31
491.439	640.31
491.657	634.31
491.874	650.31
492.092	619.31
492.31	664.31
492.527	653.31
492.745	648.31
492.963	668.31
493.18	681.31
493.398	653.31
493.615	687.31
493.833	669.31
494.05	651.31
494.268	681.31
494.485	677.31
494.703	672.31
494.92	679.31
495.138	662.31
495.355	679.31
495.573	668.31
495.79	660.31
496.008	673.31
496.225	678.31
496.442	648.31
496.66	678.31
496.877	646.31
497.094	670.31
497.312	695.31
497.529	660.31
497.746	708.31
497.963	717.31
498.181	739.31
498.398	735.31
498.615	722.31
498.832	751.31
499.049	708.31
499.267	780.31
499.484	769.31
499.701	768.31
499.918	760.31
500.135	821.31
500.352	812.31
500.569	803.31
500.786	842.31
501.003	846.31
501.22	836.31
501.437	813.31
501.654	804.31
501.871	824.31
