Data from 1972.PennyLincolnUp.Lamp.En5.5.200Scan.071719.P1._HRD10591_15-28-05-843.txt Node
Date: Thu Jul 18 15:28:05 EDT 2019
User: cochatt
Spectrometer: HR+D1059
Trigger mode: 1
Integration Time (sec): 1.000000E-1
Scans to average: 1
Electric dark correction enabled: true
Nonlinearity correction enabled: false
Boxcar width: 0
XAxis mode: Wavelengths
Number of Pixels in Spectrum: 2048
>>>>>Begin Spectral Data<<<<<
223.165	-12.06
223.4	-12.06
223.635	-12.06
223.869	-23.06
224.104	-10.06
224.338	-11.06
224.573	-15.06
224.808	-9.06
225.042	-22.06
225.277	-14.06
225.511	-2.06
225.746	-7.06
225.98	13.94
226.215	12.94
226.449	19.94
226.683	12.94
226.918	28.94
227.152	36.94
227.387	29.94
227.621	30.94
227.856	45.94
228.09	45.94
228.324	41.94
228.559	64.94
228.793	65.94
229.027	81.94
229.262	105.94
229.496	131.94
229.73	134.94
229.964	167.94
230.199	142.94
230.433	121.94
230.667	126.94
230.901	99.94
231.136	110.94
231.37	112.94
231.604	119.94
231.838	116.94
232.072	112.94
232.306	116.94
232.541	104.94
232.775	114.94
233.009	103.94
233.243	117.94
233.477	120.94
233.711	121.94
233.945	125.94
234.179	106.94
234.413	132.94
234.647	113.94
234.881	132.94
235.115	118.94
235.349	124.94
235.583	132.94
235.817	130.94
236.051	122.94
236.285	125.94
236.519	126.94
236.753	135.94
236.987	154.94
237.221	184.94
237.455	241.94
237.689	198.94
237.922	131.94
238.156	140.94
238.39	116.94
238.624	135.94
238.858	131.94
239.091	124.94
239.325	124.94
239.559	135.94
239.793	131.94
240.027	142.94
240.26	142.94
240.494	164.94
240.728	152.94
240.961	140.94
241.195	141.94
241.429	148.94
241.662	142.94
241.896	135.94
242.13	144.94
242.363	123.94
242.597	136.94
242.83	138.94
243.064	136.94
243.298	145.94
243.531	145.94
243.765	130.94
243.998	153.94
244.232	139.94
244.465	163.94
244.699	146.94
244.932	148.94
245.166	168.94
245.399	151.94
245.633	154.94
245.866	158.94
246.099	151.94
246.333	148.94
246.566	146.94
246.8	143.94
247.033	131.94
247.266	165.94
247.5	156.94
247.733	164.94
247.966	162.94
248.2	161.94
248.433	170.94
248.666	188.94
248.899	198.94
249.133	194.94
249.366	215.94
249.599	219.94
249.832	190.94
250.066	196.94
250.299	190.94
250.532	205.94
250.765	226.94
250.998	233.94
251.231	234.94
251.465	222.94
251.698	216.94
251.931	210.94
252.164	204.94
252.397	208.94
252.63	208.94
252.863	210.94
253.096	224.94
253.329	245.94
253.562	246.94
253.795	232.94
254.028	224.94
254.261	231.94
254.494	245.94
254.727	272.94
254.96	293.94
255.193	288.94
255.426	263.94
255.659	238.94
255.892	246.94
256.124	252.94
256.357	237.94
256.59	234.94
256.823	232.94
257.056	210.94
257.289	202.94
257.521	219.94
257.754	206.94
257.987	207.94
258.22	186.94
258.452	197.94
258.685	216.94
258.918	212.94
259.151	210.94
259.383	215.94
259.616	221.94
259.849	241.94
260.081	263.94
260.314	272.94
260.547	276.94
260.779	248.94
261.012	249.94
261.244	220.94
261.477	237.94
261.71	216.94
261.942	236.94
262.175	263.94
262.407	247.94
262.64	232.94
262.872	215.94
263.105	218.94
263.337	237.94
263.57	223.94
263.802	219.94
264.035	228.94
264.267	214.94
264.499	214.94
264.732	202.94
264.964	217.94
265.197	218.94
265.429	218.94
265.661	209.94
265.894	210.94
266.126	204.94
266.358	225.94
266.591	218.94
266.823	229.94
267.055	224.94
267.287	251.94
267.52	226.94
267.752	232.94
267.984	229.94
268.216	241.94
268.448	242.94
268.681	240.94
268.913	254.94
269.145	280.94
269.377	286.94
269.609	278.94
269.841	275.94
270.073	271.94
270.306	310.94
270.538	332.94
270.77	322.94
271.002	306.94
271.234	303.94
271.466	316.94
271.698	320.94
271.93	329.94
272.162	314.94
272.394	309.94
272.626	322.94
272.858	289.94
273.09	280.94
273.322	291.94
273.553	304.94
273.785	291.94
274.017	289.94
274.249	281.94
274.481	274.94
274.713	281.94
274.945	289.94
275.176	287.94
275.408	273.94
275.64	280.94
275.872	286.94
276.104	279.94
276.335	270.94
276.567	292.94
276.799	288.94
277.031	316.94
277.262	328.94
277.494	324.94
277.726	305.94
277.957	312.94
278.189	292.94
278.421	272.94
278.652	284.94
278.884	280.94
279.115	277.94
279.347	276.94
279.579	273.94
279.81	271.94
280.042	275.94
280.273	271.94
280.505	275.94
280.736	282.94
280.968	288.94
281.199	260.94
281.431	260.94
281.662	271.94
281.894	266.94
282.125	283.94
282.356	288.94
282.588	308.94
282.819	313.94
283.051	303.94
283.282	289.94
283.513	298.94
283.745	279.94
283.976	261.94
284.207	282.94
284.439	284.94
284.67	282.94
284.901	293.94
285.132	277.94
285.364	282.94
285.595	273.94
285.826	284.94
286.057	282.94
286.288	281.94
286.52	276.94
286.751	281.94
286.982	275.94
287.213	273.94
287.444	280.94
287.675	278.94
287.906	294.94
288.138	296.94
288.369	287.94
288.6	300.94
288.831	289.94
289.062	276.94
289.293	310.94
289.524	287.94
289.755	271.94
289.986	275.94
290.217	288.94
290.448	289.94
290.679	291.94
290.91	302.94
291.141	288.94
291.371	285.94
291.602	295.94
291.833	269.94
292.064	271.94
292.295	284.94
292.526	288.94
292.757	281.94
292.987	294.94
293.218	287.94
293.449	291.94
293.68	282.94
293.91	289.94
294.141	296.94
294.372	280.94
294.603	292.94
294.833	264.94
295.064	292.94
295.295	299.94
295.525	288.94
295.756	294.94
295.987	308.94
296.217	317.94
296.448	340.94
296.679	312.94
296.909	283.94
297.14	312.94
297.37	295.94
297.601	282.94
297.831	303.94
298.062	282.94
298.292	294.94
298.523	314.94
298.753	292.94
298.984	282.94
299.214	294.94
299.445	290.94
299.675	293.94
299.905	301.94
300.136	306.94
300.366	297.94
300.597	301.94
300.827	316.94
301.057	308.94
301.288	328.94
301.518	317.94
301.748	329.94
301.979	323.94
302.209	315.94
302.439	299.94
302.669	321.94
302.9	316.94
303.13	324.94
303.36	317.94
303.59	316.94
303.82	329.94
304.051	346.94
304.281	324.94
304.511	321.94
304.741	298.94
304.971	305.94
305.201	318.94
305.431	305.94
305.661	314.94
305.891	320.94
306.121	326.94
306.352	330.94
306.582	335.94
306.812	334.94
307.042	314.94
307.272	316.94
307.502	318.94
307.731	321.94
307.961	321.94
308.191	331.94
308.421	325.94
308.651	340.94
308.881	347.94
309.111	338.94
309.341	359.94
309.571	368.94
309.8	381.94
310.03	376.94
310.26	384.94
310.49	406.94
310.72	382.94
310.949	400.94
311.179	409.94
311.409	382.94
311.639	392.94
311.868	377.94
312.098	363.94
312.328	384.94
312.557	396.94
312.787	441.94
313.017	412.94
313.246	410.94
313.476	356.94
313.706	376.94
313.935	382.94
314.165	402.94
314.394	385.94
314.624	384.94
314.853	392.94
315.083	384.94
315.312	386.94
315.542	360.94
315.771	370.94
316.001	369.94
316.23	355.94
316.46	372.94
316.689	370.94
316.919	381.94
317.148	394.94
317.377	390.94
317.607	384.94
317.836	374.94
318.065	377.94
318.295	377.94
318.524	377.94
318.753	385.94
318.983	375.94
319.212	380.94
319.441	394.94
319.67	401.94
319.9	365.94
320.129	366.94
320.358	378.94
320.587	373.94
320.816	414.94
321.046	398.94
321.275	404.94
321.504	397.94
321.733	400.94
321.962	392.94
322.191	432.94
322.42	434.94
322.649	483.94
322.878	465.94
323.108	495.94
323.337	515.94
323.566	542.94
323.795	586.94
324.024	630.94
324.253	813.94
324.482	1161.94
324.71	1848.94
324.939	2661.94
325.168	2375.94
325.397	1159.94
325.626	766.94
325.855	646.94
326.084	552.94
326.313	566.94
326.542	562.94
326.77	598.94
326.999	752.94
327.228	1031.94
327.457	1600.94
327.686	2042.94
327.914	1327.94
328.143	837.94
328.372	701.94
328.6	678.94
328.829	651.94
329.058	649.94
329.287	638.94
329.515	600.94
329.744	552.94
329.972	558.94
330.201	564.94
330.43	638.94
330.658	656.94
330.887	659.94
331.115	676.94
331.344	547.94
331.572	523.94
331.801	506.94
332.03	522.94
332.258	473.94
332.486	476.94
332.715	442.94
332.943	460.94
333.172	449.94
333.4	450.94
333.629	454.94
333.857	474.94
334.085	498.94
334.314	505.94
334.542	532.94
334.771	582.94
334.999	518.94
335.227	497.94
335.455	462.94
335.684	442.94
335.912	442.94
336.14	438.94
336.369	436.94
336.597	443.94
336.825	420.94
337.053	428.94
337.281	423.94
337.51	422.94
337.738	444.94
337.966	440.94
338.194	416.94
338.422	426.94
338.65	421.94
338.878	420.94
339.106	428.94
339.334	409.94
339.562	427.94
339.79	420.94
340.018	439.94
340.246	420.94
340.474	411.94
340.702	406.94
340.93	416.94
341.158	410.94
341.386	418.94
341.614	413.94
341.842	424.94
342.07	433.94
342.298	418.94
342.526	416.94
342.754	392.94
342.981	392.94
343.209	401.94
343.437	396.94
343.665	404.94
343.893	401.94
344.12	423.94
344.348	433.94
344.576	416.94
344.804	414.94
345.031	427.94
345.259	460.94
345.487	432.94
345.714	441.94
345.942	438.94
346.17	437.94
346.397	409.94
346.625	413.94
346.853	414.94
347.08	412.94
347.308	400.94
347.535	418.94
347.763	435.94
347.99	416.94
348.218	417.94
348.445	433.94
348.673	422.94
348.9	424.94
349.128	417.94
349.355	398.94
349.583	403.94
349.81	390.94
350.037	404.94
350.265	394.94
350.492	387.94
350.72	385.94
350.947	412.94
351.174	440.94
351.402	431.94
351.629	441.94
351.856	408.94
352.083	427.94
352.311	441.94
352.538	429.94
352.765	447.94
352.992	417.94
353.22	399.94
353.447	390.94
353.674	390.94
353.901	377.94
354.128	355.94
354.355	367.94
354.583	384.94
354.81	383.94
355.037	368.94
355.264	373.94
355.491	364.94
355.718	359.94
355.945	372.94
356.172	361.94
356.399	368.94
356.626	366.94
356.853	374.94
357.08	378.94
357.307	373.94
357.534	380.94
357.761	369.94
357.988	370.94
358.215	386.94
358.441	380.94
358.668	384.94
358.895	400.94
359.122	368.94
359.349	389.94
359.576	408.94
359.802	449.94
360.029	479.94
360.256	484.94
360.483	446.94
360.709	432.94
360.936	420.94
361.163	408.94
361.39	400.94
361.616	430.94
361.843	411.94
362.07	411.94
362.296	413.94
362.523	406.94
362.749	392.94
362.976	396.94
363.203	407.94
363.429	389.94
363.656	372.94
363.882	380.94
364.109	359.94
364.335	380.94
364.562	388.94
364.788	386.94
365.015	397.94
365.241	365.94
365.468	385.94
365.694	384.94
365.92	402.94
366.147	388.94
366.373	380.94
366.599	375.94
366.826	360.94
367.052	380.94
367.278	374.94
367.505	375.94
367.731	393.94
367.957	369.94
368.184	380.94
368.41	376.94
368.636	405.94
368.862	398.94
369.089	399.94
369.315	370.94
369.541	364.94
369.767	365.94
369.993	377.94
370.219	369.94
370.445	382.94
370.672	362.94
370.898	375.94
371.124	349.94
371.35	367.94
371.576	359.94
371.802	384.94
372.028	363.94
372.254	382.94
372.48	368.94
372.706	357.94
372.932	365.94
373.158	359.94
373.384	361.94
373.61	367.94
373.835	379.94
374.061	353.94
374.287	349.94
374.513	382.94
374.739	386.94
374.965	357.94
375.191	367.94
375.416	360.94
375.642	380.94
375.868	378.94
376.094	361.94
376.319	344.94
376.545	362.94
376.771	360.94
376.997	354.94
377.222	344.94
377.448	352.94
377.674	362.94
377.899	353.94
378.125	359.94
378.35	350.94
378.576	376.94
378.802	378.94
379.027	349.94
379.253	369.94
379.478	359.94
379.704	358.94
379.929	367.94
380.155	351.94
380.38	361.94
380.606	364.94
380.831	363.94
381.057	370.94
381.282	383.94
381.507	372.94
381.733	366.94
381.958	380.94
382.184	366.94
382.409	380.94
382.634	376.94
382.86	376.94
383.085	364.94
383.31	358.94
383.535	384.94
383.761	384.94
383.986	381.94
384.211	386.94
384.436	377.94
384.662	379.94
384.887	380.94
385.112	384.94
385.337	380.94
385.562	383.94
385.787	376.94
386.013	395.94
386.238	393.94
386.463	400.94
386.688	388.94
386.913	405.94
387.138	391.94
387.363	385.94
387.588	382.94
387.813	379.94
388.038	391.94
388.263	382.94
388.488	399.94
388.713	396.94
388.938	384.94
389.163	385.94
389.387	398.94
389.612	391.94
389.837	389.94
390.062	400.94
390.287	385.94
390.512	390.94
390.736	405.94
390.961	395.94
391.186	392.94
391.411	385.94
391.636	390.94
391.86	389.94
392.085	394.94
392.31	381.94
392.534	392.94
392.759	396.94
392.984	367.94
393.208	388.94
393.433	392.94
393.658	396.94
393.882	385.94
394.107	387.94
394.331	383.94
394.556	392.94
394.78	384.94
395.005	382.94
395.229	392.94
395.454	396.94
395.678	393.94
395.903	409.94
396.127	414.94
396.352	447.94
396.576	412.94
396.801	414.94
397.025	428.94
397.249	403.94
397.474	402.94
397.698	418.94
397.922	416.94
398.147	431.94
398.371	443.94
398.595	432.94
398.82	426.94
399.044	433.94
399.268	440.94
399.492	458.94
399.717	469.94
399.941	514.94
400.165	550.94
400.389	536.94
400.613	505.94
400.837	469.94
401.062	465.94
401.286	453.94
401.51	442.94
401.734	415.94
401.958	450.94
402.182	440.94
402.406	463.94
402.63	456.94
402.854	465.94
403.078	450.94
403.302	473.94
403.526	437.94
403.75	467.94
403.974	463.94
404.198	429.94
404.422	456.94
404.645	472.94
404.869	478.94
405.093	513.94
405.317	538.94
405.541	591.94
405.765	545.94
405.988	482.94
406.212	514.94
406.436	531.94
406.66	534.94
406.883	505.94
407.107	526.94
407.331	562.94
407.555	654.94
407.778	628.94
408.002	565.94
408.226	529.94
408.449	486.94
408.673	508.94
408.896	542.94
409.12	595.94
409.344	539.94
409.567	485.94
409.791	476.94
410.014	452.94
410.238	465.94
410.461	467.94
410.685	471.94
410.908	485.94
411.132	516.94
411.355	572.94
411.578	521.94
411.802	474.94
412.025	442.94
412.249	454.94
412.472	515.94
412.695	542.94
412.919	525.94
413.142	494.94
413.365	454.94
413.589	477.94
413.812	428.94
414.035	448.94
414.258	438.94
414.482	442.94
414.705	452.94
414.928	424.94
415.151	430.94
415.374	430.94
415.597	417.94
415.821	440.94
416.044	439.94
416.267	441.94
416.49	436.94
416.713	427.94
416.936	450.94
417.159	427.94
417.382	428.94
417.605	436.94
417.828	465.94
418.051	476.94
418.274	447.94
418.497	426.94
418.72	420.94
418.943	438.94
419.166	463.94
419.389	467.94
419.611	489.94
419.834	456.94
420.057	460.94
420.28	444.94
420.503	464.94
420.726	451.94
420.948	459.94
421.171	515.94
421.394	546.94
421.617	487.94
421.839	451.94
422.062	442.94
422.285	472.94
422.507	525.94
422.73	607.94
422.953	592.94
423.175	509.94
423.398	484.94
423.621	480.94
423.843	531.94
424.066	511.94
424.288	495.94
424.511	530.94
424.733	585.94
424.956	650.94
425.178	636.94
425.401	638.94
425.623	666.94
425.846	558.94
426.068	544.94
426.291	517.94
426.513	524.94
426.735	534.94
426.958	546.94
427.18	666.94
427.402	792.94
427.625	890.94
427.847	787.94
428.069	670.94
428.292	617.94
428.514	536.94
428.736	496.94
428.958	496.94
429.181	466.94
429.403	479.94
429.625	494.94
429.847	529.94
430.069	585.94
430.292	593.94
430.514	504.94
430.736	496.94
430.958	462.94
431.18	441.94
431.402	453.94
431.624	418.94
431.846	426.94
432.068	446.94
432.29	441.94
432.512	450.94
432.734	451.94
432.956	450.94
433.178	465.94
433.4	482.94
433.622	451.94
433.844	442.94
434.066	444.94
434.287	435.94
434.509	446.94
434.731	442.94
434.953	471.94
435.175	478.94
435.397	486.94
435.618	526.94
435.84	580.94
436.062	673.94
436.284	732.94
436.505	588.94
436.727	526.94
436.949	495.94
437.17	483.94
437.392	471.94
437.614	498.94
437.835	554.94
438.057	644.94
438.278	751.94
438.5	753.94
438.721	801.94
438.943	776.94
439.165	602.94
439.386	542.94
439.608	532.94
439.829	544.94
440.05	552.94
440.272	628.94
440.493	602.94
440.715	524.94
440.936	502.94
441.158	490.94
441.379	466.94
441.6	521.94
441.822	534.94
442.043	558.94
442.264	643.94
442.486	700.94
442.707	591.94
442.928	534.94
443.149	533.94
443.371	576.94
443.592	613.94
443.813	697.94
444.034	778.94
444.255	615.94
444.476	531.94
444.698	523.94
444.919	501.94
445.14	611.94
445.361	584.94
445.582	574.94
445.803	626.94
446.024	757.94
446.245	753.94
446.466	684.94
446.687	605.94
446.908	548.94
447.129	524.94
447.35	494.94
447.571	474.94
447.792	465.94
448.013	469.94
448.234	518.94
448.455	566.94
448.675	692.94
448.896	776.94
449.117	657.94
449.338	631.94
449.559	740.94
449.779	878.94
450	693.94
450.221	552.94
450.442	508.94
450.662	481.94
450.883	507.94
451.104	530.94
451.324	481.94
451.545	473.94
451.766	434.94
451.986	436.94
452.207	444.94
452.428	440.94
452.648	428.94
452.869	422.94
453.089	433.94
453.31	464.94
453.53	428.94
453.751	414.94
453.971	426.94
454.192	449.94
454.412	442.94
454.633	424.94
454.853	448.94
455.073	427.94
455.294	454.94
455.514	506.94
455.734	501.94
455.955	433.94
456.175	422.94
456.395	400.94
456.616	395.94
456.836	397.94
457.056	382.94
457.276	365.94
457.497	388.94
457.717	402.94
457.937	398.94
458.157	421.94
458.377	428.94
458.598	424.94
458.818	492.94
459.038	641.94
459.258	614.94
459.478	498.94
459.698	441.94
459.918	441.94
460.138	431.94
460.358	431.94
460.578	420.94
460.798	437.94
461.018	458.94
461.238	434.94
461.458	434.94
461.678	421.94
461.898	422.94
462.118	428.94
462.338	426.94
462.558	444.94
462.777	443.94
462.997	480.94
463.217	476.94
463.437	483.94
463.657	472.94
463.876	458.94
464.096	467.94
464.316	462.94
464.536	443.94
464.755	466.94
464.975	494.94
465.195	530.94
465.414	632.94
465.634	556.94
465.854	485.94
466.073	478.94
466.293	440.94
466.512	445.94
466.732	441.94
466.951	424.94
467.171	420.94
467.391	445.94
467.61	449.94
467.829	451.94
468.049	458.94
468.268	451.94
468.488	440.94
468.707	408.94
468.927	413.94
469.146	408.94
469.365	442.94
469.585	430.94
469.804	430.94
470.023	430.94
470.243	443.94
470.462	430.94
470.681	476.94
470.901	474.94
471.12	442.94
471.339	423.94
471.558	440.94
471.777	473.94
471.997	441.94
472.216	460.94
472.435	518.94
472.654	480.94
472.873	440.94
473.092	453.94
473.311	439.94
473.53	457.94
473.749	451.94
473.968	519.94
474.187	601.94
474.406	630.94
474.625	516.94
474.844	476.94
475.063	449.94
475.282	465.94
475.501	461.94
475.72	460.94
475.939	463.94
476.158	441.94
476.377	450.94
476.596	447.94
476.814	443.94
477.033	479.94
477.252	465.94
477.471	467.94
477.69	455.94
477.908	486.94
478.127	456.94
478.346	465.94
478.564	469.94
478.783	491.94
479.002	490.94
479.22	466.94
479.439	505.94
479.658	545.94
479.876	566.94
480.095	538.94
480.313	571.94
480.532	552.94
480.751	526.94
480.969	549.94
481.188	634.94
481.406	681.94
481.624	573.94
481.843	560.94
482.061	532.94
482.28	537.94
482.498	500.94
482.717	506.94
482.935	502.94
483.153	513.94
483.372	519.94
483.59	516.94
483.808	508.94
484.027	492.94
484.245	520.94
484.463	502.94
484.681	525.94
484.9	522.94
485.118	526.94
485.336	518.94
485.554	530.94
485.772	532.94
485.99	526.94
486.209	560.94
486.427	528.94
486.645	557.94
486.863	573.94
487.081	572.94
487.299	552.94
487.517	570.94
487.735	541.94
487.953	566.94
488.171	556.94
488.389	549.94
488.607	551.94
488.825	560.94
489.043	556.94
489.261	566.94
489.479	560.94
489.696	570.94
489.914	549.94
490.132	586.94
490.35	586.94
490.568	609.94
490.786	589.94
491.003	613.94
491.221	604.94
491.439	620.94
491.657	642.94
491.874	630.94
492.092	633.94
492.31	656.94
492.527	642.94
492.745	632.94
492.963	651.94
493.18	622.94
493.398	637.94
493.615	658.94
493.833	648.94
494.05	658.94
494.268	650.94
494.485	649.94
494.703	640.94
494.92	662.94
495.138	636.94
495.355	640.94
495.573	666.94
495.79	642.94
496.008	648.94
496.225	646.94
496.442	634.94
496.66	675.94
496.877	645.94
497.094	657.94
497.312	666.94
497.529	668.94
497.746	701.94
497.963	652.94
498.181	694.94
498.398	697.94
498.615	689.94
498.832	721.94
499.049	718.94
499.267	718.94
499.484	747.94
499.701	761.94
499.918	767.94
500.135	793.94
500.352	802.94
500.569	810.94
500.786	822.94
501.003	830.94
501.22	808.94
501.437	796.94
501.654	797.94
501.871	828.94
