Data from 1972.PennyLincolnUp.Lamp.En5.5.200Scan.071719.P1._HRD10591_15-28-56-844.txt Node
Date: Thu Jul 18 15:28:56 EDT 2019
User: cochatt
Spectrometer: HR+D1059
Trigger mode: 1
Integration Time (sec): 1.000000E-1
Scans to average: 1
Electric dark correction enabled: true
Nonlinearity correction enabled: false
Boxcar width: 0
XAxis mode: Wavelengths
Number of Pixels in Spectrum: 2048
>>>>>Begin Spectral Data<<<<<
223.165	-7.69
223.4	-7.69
223.635	-7.69
223.869	-23.69
224.104	3.31
224.338	-10.69
224.573	-21.69
224.808	-16.69
225.042	-10.69
225.277	-22.69
225.511	1.31
225.746	7.31
225.98	5.31
226.215	-0.69
226.449	14.31
226.683	30.31
226.918	31.31
227.152	21.31
227.387	30.31
227.621	30.31
227.856	38.31
228.09	28.31
228.324	51.31
228.559	49.31
228.793	59.31
229.027	101.31
229.262	110.31
229.496	119.31
229.73	147.31
229.964	164.31
230.199	139.31
230.433	121.31
230.667	121.31
230.901	115.31
231.136	116.31
231.37	96.31
231.604	123.31
231.838	123.31
232.072	113.31
232.306	119.31
232.541	118.31
232.775	89.31
233.009	115.31
233.243	131.31
233.477	122.31
233.711	104.31
233.945	113.31
234.179	119.31
234.413	113.31
234.647	114.31
234.881	122.31
235.115	111.31
235.349	113.31
235.583	123.31
235.817	125.31
236.051	129.31
236.285	127.31
236.519	137.31
236.753	126.31
236.987	150.31
237.221	192.31
237.455	259.31
237.689	201.31
237.922	159.31
238.156	139.31
238.39	137.31
238.624	128.31
238.858	125.31
239.091	141.31
239.325	138.31
239.559	125.31
239.793	145.31
240.027	143.31
240.26	149.31
240.494	158.31
240.728	168.31
240.961	158.31
241.195	160.31
241.429	149.31
241.662	125.31
241.896	130.31
242.13	129.31
242.363	133.31
242.597	139.31
242.83	137.31
243.064	137.31
243.298	142.31
243.531	135.31
243.765	147.31
243.998	143.31
244.232	127.31
244.465	130.31
244.699	137.31
244.932	148.31
245.166	143.31
245.399	146.31
245.633	137.31
245.866	145.31
246.099	137.31
246.333	150.31
246.566	151.31
246.8	143.31
247.033	156.31
247.266	159.31
247.5	154.31
247.733	155.31
247.966	178.31
248.2	190.31
248.433	190.31
248.666	181.31
248.899	186.31
249.133	202.31
249.366	210.31
249.599	197.31
249.832	186.31
250.066	168.31
250.299	187.31
250.532	206.31
250.765	206.31
250.998	225.31
251.231	243.31
251.465	229.31
251.698	201.31
251.931	206.31
252.164	196.31
252.397	197.31
252.63	202.31
252.863	201.31
253.096	232.31
253.329	221.31
253.562	223.31
253.795	225.31
254.028	217.31
254.261	225.31
254.494	233.31
254.727	278.31
254.96	305.31
255.193	291.31
255.426	266.31
255.659	255.31
255.892	259.31
256.124	261.31
256.357	260.31
256.59	226.31
256.823	241.31
257.056	223.31
257.289	225.31
257.521	216.31
257.754	215.31
257.987	217.31
258.22	220.31
258.452	207.31
258.685	228.31
258.918	221.31
259.151	213.31
259.383	204.31
259.616	221.31
259.849	229.31
260.081	243.31
260.314	245.31
260.547	274.31
260.779	253.31
261.012	226.31
261.244	224.31
261.477	230.31
261.71	238.31
261.942	247.31
262.175	253.31
262.407	230.31
262.64	231.31
262.872	212.31
263.105	224.31
263.337	225.31
263.57	218.31
263.802	207.31
264.035	224.31
264.267	225.31
264.499	214.31
264.732	203.31
264.964	207.31
265.197	208.31
265.429	222.31
265.661	219.31
265.894	211.31
266.126	221.31
266.358	204.31
266.591	221.31
266.823	239.31
267.055	230.31
267.287	238.31
267.52	234.31
267.752	230.31
267.984	231.31
268.216	234.31
268.448	229.31
268.681	231.31
268.913	262.31
269.145	277.31
269.377	292.31
269.609	266.31
269.841	282.31
270.073	283.31
270.306	292.31
270.538	320.31
270.77	316.31
271.002	314.31
271.234	301.31
271.466	294.31
271.698	318.31
271.93	333.31
272.162	329.31
272.394	332.31
272.626	319.31
272.858	300.31
273.09	294.31
273.322	289.31
273.553	284.31
273.785	273.31
274.017	281.31
274.249	261.31
274.481	271.31
274.713	266.31
274.945	265.31
275.176	262.31
275.408	275.31
275.64	282.31
275.872	270.31
276.104	275.31
276.335	286.31
276.567	270.31
276.799	308.31
277.031	320.31
277.262	341.31
277.494	322.31
277.726	328.31
277.957	303.31
278.189	293.31
278.421	267.31
278.652	257.31
278.884	265.31
279.115	273.31
279.347	234.31
279.579	280.31
279.81	259.31
280.042	257.31
280.273	261.31
280.505	264.31
280.736	273.31
280.968	265.31
281.199	280.31
281.431	278.31
281.662	251.31
281.894	286.31
282.125	266.31
282.356	295.31
282.588	315.31
282.819	314.31
283.051	291.31
283.282	265.31
283.513	268.31
283.745	292.31
283.976	287.31
284.207	291.31
284.439	287.31
284.67	291.31
284.901	265.31
285.132	283.31
285.364	256.31
285.595	275.31
285.826	255.31
286.057	282.31
286.288	260.31
286.52	266.31
286.751	257.31
286.982	286.31
287.213	286.31
287.444	275.31
287.675	271.31
287.906	293.31
288.138	307.31
288.369	298.31
288.6	285.31
288.831	288.31
289.062	283.31
289.293	277.31
289.524	301.31
289.755	272.31
289.986	277.31
290.217	273.31
290.448	271.31
290.679	281.31
290.91	279.31
291.141	277.31
291.371	281.31
291.602	294.31
291.833	271.31
292.064	279.31
292.295	271.31
292.526	279.31
292.757	262.31
292.987	279.31
293.218	285.31
293.449	299.31
293.68	289.31
293.91	284.31
294.141	276.31
294.372	264.31
294.603	278.31
294.833	278.31
295.064	275.31
295.295	259.31
295.525	268.31
295.756	291.31
295.987	307.31
296.217	331.31
296.448	335.31
296.679	285.31
296.909	276.31
297.14	307.31
297.37	286.31
297.601	292.31
297.831	294.31
298.062	302.31
298.292	298.31
298.523	303.31
298.753	297.31
298.984	314.31
299.214	294.31
299.445	285.31
299.675	284.31
299.905	297.31
300.136	295.31
300.366	293.31
300.597	296.31
300.827	289.31
301.057	317.31
301.288	317.31
301.518	302.31
301.748	325.31
301.979	280.31
302.209	309.31
302.439	305.31
302.669	332.31
302.9	313.31
303.13	313.31
303.36	293.31
303.59	342.31
303.82	333.31
304.051	328.31
304.281	319.31
304.511	311.31
304.741	301.31
304.971	293.31
305.201	329.31
305.431	311.31
305.661	319.31
305.891	324.31
306.121	306.31
306.352	324.31
306.582	330.31
306.812	317.31
307.042	309.31
307.272	315.31
307.502	334.31
307.731	334.31
307.961	313.31
308.191	321.31
308.421	327.31
308.651	322.31
308.881	341.31
309.111	342.31
309.341	319.31
309.571	342.31
309.8	367.31
310.03	374.31
310.26	375.31
310.49	380.31
310.72	386.31
310.949	394.31
311.179	409.31
311.409	371.31
311.639	379.31
311.868	400.31
312.098	386.31
312.328	400.31
312.557	406.31
312.787	434.31
313.017	399.31
313.246	395.31
313.476	382.31
313.706	381.31
313.935	385.31
314.165	389.31
314.394	407.31
314.624	423.31
314.853	387.31
315.083	387.31
315.312	387.31
315.542	390.31
315.771	369.31
316.001	365.31
316.23	380.31
316.46	372.31
316.689	356.31
316.919	389.31
317.148	402.31
317.377	398.31
317.607	388.31
317.836	391.31
318.065	389.31
318.295	376.31
318.524	385.31
318.753	371.31
318.983	381.31
319.212	363.31
319.441	389.31
319.67	405.31
319.9	387.31
320.129	390.31
320.358	382.31
320.587	394.31
320.816	397.31
321.046	395.31
321.275	398.31
321.504	407.31
321.733	394.31
321.962	398.31
322.191	411.31
322.42	429.31
322.649	455.31
322.878	460.31
323.108	499.31
323.337	526.31
323.566	548.31
323.795	582.31
324.024	655.31
324.253	807.31
324.482	1197.31
324.71	1881.31
324.939	2775.31
325.168	2466.31
325.397	1207.31
325.626	779.31
325.855	621.31
326.084	559.31
326.313	548.31
326.542	535.31
326.77	638.31
326.999	744.31
327.228	1045.31
327.457	1669.31
327.686	2078.31
327.914	1378.31
328.143	885.31
328.372	736.31
328.6	675.31
328.829	628.31
329.058	641.31
329.287	656.31
329.515	616.31
329.744	576.31
329.972	542.31
330.201	590.31
330.43	664.31
330.658	691.31
330.887	696.31
331.115	661.31
331.344	545.31
331.572	500.31
331.801	537.31
332.03	502.31
332.258	471.31
332.486	475.31
332.715	450.31
332.943	447.31
333.172	434.31
333.4	450.31
333.629	437.31
333.857	473.31
334.085	497.31
334.314	522.31
334.542	568.31
334.771	563.31
334.999	527.31
335.227	475.31
335.455	430.31
335.684	423.31
335.912	441.31
336.14	438.31
336.369	419.31
336.597	448.31
336.825	438.31
337.053	439.31
337.281	416.31
337.51	427.31
337.738	429.31
337.966	422.31
338.194	438.31
338.422	445.31
338.65	425.31
338.878	409.31
339.106	406.31
339.334	426.31
339.562	394.31
339.79	400.31
340.018	417.31
340.246	410.31
340.474	434.31
340.702	423.31
340.93	429.31
341.158	407.31
341.386	415.31
341.614	413.31
341.842	415.31
342.07	425.31
342.298	410.31
342.526	406.31
342.754	388.31
342.981	392.31
343.209	399.31
343.437	391.31
343.665	388.31
343.893	405.31
344.12	413.31
344.348	399.31
344.576	414.31
344.804	415.31
345.031	420.31
345.259	451.31
345.487	420.31
345.714	428.31
345.942	409.31
346.17	427.31
346.397	422.31
346.625	387.31
346.853	401.31
347.08	391.31
347.308	394.31
347.535	404.31
347.763	415.31
347.99	423.31
348.218	408.31
348.445	443.31
348.673	437.31
348.9	413.31
349.128	387.31
349.355	387.31
349.583	382.31
349.81	405.31
350.037	397.31
350.265	373.31
350.492	397.31
350.72	377.31
350.947	369.31
351.174	390.31
351.402	409.31
351.629	418.31
351.856	418.31
352.083	427.31
352.311	425.31
352.538	431.31
352.765	423.31
352.992	431.31
353.22	407.31
353.447	408.31
353.674	377.31
353.901	392.31
354.128	393.31
354.355	376.31
354.583	386.31
354.81	366.31
355.037	373.31
355.264	381.31
355.491	365.31
355.718	367.31
355.945	369.31
356.172	366.31
356.399	354.31
356.626	347.31
356.853	359.31
357.08	349.31
357.307	366.31
357.534	359.31
357.761	354.31
357.988	376.31
358.215	376.31
358.441	375.31
358.668	383.31
358.895	376.31
359.122	374.31
359.349	407.31
359.576	400.31
359.802	416.31
360.029	475.31
360.256	490.31
360.483	456.31
360.709	414.31
360.936	410.31
361.163	405.31
361.39	411.31
361.616	412.31
361.843	389.31
362.07	421.31
362.296	397.31
362.523	418.31
362.749	382.31
362.976	401.31
363.203	385.31
363.429	390.31
363.656	399.31
363.882	377.31
364.109	373.31
364.335	387.31
364.562	369.31
364.788	384.31
365.015	372.31
365.241	356.31
365.468	381.31
365.694	395.31
365.92	388.31
366.147	369.31
366.373	371.31
366.599	365.31
366.826	396.31
367.052	390.31
367.278	355.31
367.505	355.31
367.731	385.31
367.957	381.31
368.184	390.31
368.41	379.31
368.636	396.31
368.862	379.31
369.089	380.31
369.315	378.31
369.541	368.31
369.767	359.31
369.993	373.31
370.219	347.31
370.445	379.31
370.672	353.31
370.898	357.31
371.124	371.31
371.35	369.31
371.576	345.31
371.802	356.31
372.028	369.31
372.254	360.31
372.48	345.31
372.706	374.31
372.932	374.31
373.158	367.31
373.384	369.31
373.61	370.31
373.835	376.31
374.061	377.31
374.287	372.31
374.513	374.31
374.739	365.31
374.965	371.31
375.191	367.31
375.416	373.31
375.642	354.31
375.868	352.31
376.094	353.31
376.319	385.31
376.545	347.31
376.771	358.31
376.997	373.31
377.222	376.31
377.448	363.31
377.674	361.31
377.899	366.31
378.125	353.31
378.35	358.31
378.576	359.31
378.802	359.31
379.027	334.31
379.253	343.31
379.478	352.31
379.704	360.31
379.929	354.31
380.155	369.31
380.38	361.31
380.606	344.31
380.831	358.31
381.057	346.31
381.282	347.31
381.507	351.31
381.733	337.31
381.958	371.31
382.184	358.31
382.409	360.31
382.634	360.31
382.86	351.31
383.085	370.31
383.31	385.31
383.535	370.31
383.761	356.31
383.986	366.31
384.211	377.31
384.436	366.31
384.662	385.31
384.887	373.31
385.112	377.31
385.337	389.31
385.562	360.31
385.787	389.31
386.013	395.31
386.238	390.31
386.463	383.31
386.688	381.31
386.913	375.31
387.138	383.31
387.363	392.31
387.588	379.31
387.813	399.31
388.038	371.31
388.263	390.31
388.488	377.31
388.713	389.31
388.938	379.31
389.163	394.31
389.387	369.31
389.612	360.31
389.837	365.31
390.062	376.31
390.287	413.31
390.512	383.31
390.736	385.31
390.961	369.31
391.186	373.31
391.411	376.31
391.636	379.31
391.86	398.31
392.085	396.31
392.31	379.31
392.534	380.31
392.759	396.31
392.984	390.31
393.208	389.31
393.433	390.31
393.658	381.31
393.882	375.31
394.107	380.31
394.331	377.31
394.556	384.31
394.78	377.31
395.005	373.31
395.229	371.31
395.454	395.31
395.678	381.31
395.903	407.31
396.127	438.31
396.352	433.31
396.576	414.31
396.801	396.31
397.025	391.31
397.249	407.31
397.474	399.31
397.698	426.31
397.922	406.31
398.147	431.31
398.371	438.31
398.595	433.31
398.82	403.31
399.044	413.31
399.268	433.31
399.492	437.31
399.717	453.31
399.941	502.31
400.165	527.31
400.389	542.31
400.613	512.31
400.837	455.31
401.062	457.31
401.286	461.31
401.51	437.31
401.734	437.31
401.958	450.31
402.182	452.31
402.406	432.31
402.63	451.31
402.854	461.31
403.078	445.31
403.302	441.31
403.526	459.31
403.75	424.31
403.974	452.31
404.198	431.31
404.422	468.31
404.645	433.31
404.869	441.31
405.093	501.31
405.317	531.31
405.541	563.31
405.765	507.31
405.988	479.31
406.212	479.31
406.436	512.31
406.66	555.31
406.883	513.31
407.107	535.31
407.331	566.31
407.555	618.31
407.778	606.31
408.002	552.31
408.226	525.31
408.449	504.31
408.673	492.31
408.896	540.31
409.12	573.31
409.344	549.31
409.567	473.31
409.791	456.31
410.014	468.31
410.238	448.31
410.461	468.31
410.685	461.31
410.908	470.31
411.132	516.31
411.355	505.31
411.578	536.31
411.802	453.31
412.025	455.31
412.249	459.31
412.472	500.31
412.695	504.31
412.919	548.31
413.142	477.31
413.365	452.31
413.589	429.31
413.812	436.31
414.035	433.31
414.258	432.31
414.482	424.31
414.705	421.31
414.928	407.31
415.151	431.31
415.374	428.31
415.597	412.31
415.821	435.31
416.044	418.31
416.267	442.31
416.49	416.31
416.713	419.31
416.936	420.31
417.159	433.31
417.382	444.31
417.605	423.31
417.828	451.31
418.051	446.31
418.274	450.31
418.497	427.31
418.72	419.31
418.943	426.31
419.166	436.31
419.389	475.31
419.611	468.31
419.834	467.31
420.057	465.31
420.28	452.31
420.503	476.31
420.726	460.31
420.948	473.31
421.171	521.31
421.394	557.31
421.617	477.31
421.839	451.31
422.062	450.31
422.285	451.31
422.507	535.31
422.73	607.31
422.953	571.31
423.175	521.31
423.398	495.31
423.621	479.31
423.843	493.31
424.066	486.31
424.288	489.31
424.511	515.31
424.733	602.31
424.956	655.31
425.178	607.31
425.401	618.31
425.623	659.31
425.846	566.31
426.068	509.31
426.291	506.31
426.513	495.31
426.735	521.31
426.958	567.31
427.18	650.31
427.402	781.31
427.625	855.31
427.847	785.31
428.069	647.31
428.292	593.31
428.514	527.31
428.736	497.31
428.958	507.31
429.181	460.31
429.403	465.31
429.625	485.31
429.847	518.31
430.069	597.31
430.292	576.31
430.514	499.31
430.736	484.31
430.958	467.31
431.18	433.31
431.402	447.31
431.624	436.31
431.846	431.31
432.068	429.31
432.29	430.31
432.512	440.31
432.734	451.31
432.956	424.31
433.178	446.31
433.4	460.31
433.622	449.31
433.844	444.31
434.066	430.31
434.287	442.31
434.509	424.31
434.731	447.31
434.953	437.31
435.175	470.31
435.397	478.31
435.618	499.31
435.84	557.31
436.062	691.31
436.284	724.31
436.505	604.31
436.727	511.31
436.949	501.31
437.17	457.31
437.392	478.31
437.614	477.31
437.835	527.31
438.057	638.31
438.278	742.31
438.5	715.31
438.721	786.31
438.943	775.31
439.165	631.31
439.386	560.31
439.608	540.31
439.829	525.31
440.05	577.31
440.272	634.31
440.493	570.31
440.715	519.31
440.936	489.31
441.158	471.31
441.379	476.31
441.6	476.31
441.822	515.31
442.043	557.31
442.264	656.31
442.486	690.31
442.707	591.31
442.928	551.31
443.149	558.31
443.371	567.31
443.592	599.31
443.813	696.31
444.034	761.31
444.255	619.31
444.476	542.31
444.698	517.31
444.919	509.31
445.14	579.31
445.361	577.31
445.582	558.31
445.803	641.31
446.024	757.31
446.245	771.31
446.466	714.31
446.687	582.31
446.908	537.31
447.129	509.31
447.35	482.31
447.571	486.31
447.792	472.31
448.013	508.31
448.234	477.31
448.455	563.31
448.675	682.31
448.896	825.31
449.117	663.31
449.338	635.31
449.559	748.31
449.779	854.31
450	663.31
450.221	551.31
450.442	511.31
450.662	472.31
450.883	486.31
451.104	494.31
451.324	497.31
451.545	469.31
451.766	453.31
451.986	417.31
452.207	403.31
452.428	429.31
452.648	417.31
452.869	432.31
453.089	445.31
453.31	430.31
453.53	435.31
453.751	428.31
453.971	432.31
454.192	464.31
454.412	437.31
454.633	425.31
454.853	423.31
455.073	431.31
455.294	446.31
455.514	525.31
455.734	512.31
455.955	439.31
456.175	397.31
456.395	395.31
456.616	400.31
456.836	405.31
457.056	385.31
457.276	387.31
457.497	395.31
457.717	389.31
457.937	390.31
458.157	391.31
458.377	413.31
458.598	427.31
458.818	519.31
459.038	590.31
459.258	631.31
459.478	501.31
459.698	428.31
459.918	454.31
460.138	431.31
460.358	418.31
460.578	437.31
460.798	435.31
461.018	449.31
461.238	423.31
461.458	409.31
461.678	406.31
461.898	415.31
462.118	406.31
462.338	412.31
462.558	430.31
462.777	435.31
462.997	456.31
463.217	432.31
463.437	430.31
463.657	433.31
463.876	426.31
464.096	463.31
464.316	482.31
464.536	463.31
464.755	457.31
464.975	463.31
465.195	545.31
465.414	659.31
465.634	540.31
465.854	471.31
466.073	449.31
466.293	430.31
466.512	427.31
466.732	417.31
466.951	417.31
467.171	418.31
467.391	411.31
467.61	439.31
467.829	450.31
468.049	466.31
468.268	437.31
468.488	421.31
468.707	407.31
468.927	419.31
469.146	405.31
469.365	422.31
469.585	405.31
469.804	431.31
470.023	435.31
470.243	443.31
470.462	440.31
470.681	469.31
470.901	451.31
471.12	443.31
471.339	433.31
471.558	441.31
471.777	435.31
471.997	413.31
472.216	456.31
472.435	496.31
472.654	482.31
472.873	451.31
473.092	446.31
473.311	435.31
473.53	437.31
473.749	446.31
473.968	519.31
474.187	639.31
474.406	657.31
474.625	520.31
474.844	466.31
475.063	433.31
475.282	418.31
475.501	437.31
475.72	435.31
475.939	460.31
476.158	435.31
476.377	446.31
476.596	441.31
476.814	470.31
477.033	457.31
477.252	470.31
477.471	450.31
477.69	440.31
477.908	470.31
478.127	459.31
478.346	443.31
478.564	471.31
478.783	445.31
479.002	473.31
479.22	484.31
479.439	482.31
479.658	522.31
479.876	487.31
480.095	518.31
480.313	569.31
480.532	545.31
480.751	522.31
480.969	545.31
481.188	602.31
481.406	685.31
481.624	584.31
481.843	532.31
482.061	561.31
482.28	529.31
482.498	535.31
482.717	515.31
482.935	504.31
483.153	501.31
483.372	508.31
483.59	500.31
483.808	484.31
484.027	495.31
484.245	497.31
484.463	487.31
484.681	518.31
484.9	511.31
485.118	530.31
485.336	535.31
485.554	511.31
485.772	528.31
485.99	515.31
486.209	519.31
486.427	542.31
486.645	518.31
486.863	558.31
487.081	563.31
487.299	551.31
487.517	541.31
487.735	517.31
487.953	552.31
488.171	541.31
488.389	542.31
488.607	539.31
488.825	558.31
489.043	555.31
489.261	559.31
489.479	562.31
489.696	553.31
489.914	557.31
490.132	554.31
490.35	579.31
490.568	566.31
490.786	590.31
491.003	592.31
491.221	596.31
491.439	607.31
491.657	616.31
491.874	615.31
492.092	629.31
492.31	617.31
492.527	641.31
492.745	635.31
492.963	646.31
493.18	650.31
493.398	642.31
493.615	664.31
493.833	652.31
494.05	640.31
494.268	671.31
494.485	637.31
494.703	651.31
494.92	654.31
495.138	633.31
495.355	639.31
495.573	664.31
495.79	634.31
496.008	646.31
496.225	653.31
496.442	631.31
496.66	640.31
496.877	649.31
497.094	662.31
497.312	676.31
497.529	653.31
497.746	668.31
497.963	668.31
498.181	682.31
498.398	687.31
498.615	693.31
498.832	732.31
499.049	711.31
499.267	700.31
499.484	726.31
499.701	734.31
499.918	761.31
500.135	777.31
500.352	801.31
500.569	799.31
500.786	813.31
501.003	798.31
501.22	786.31
501.437	792.31
501.654	798.31
501.871	769.31
