Data from 1972.PennyLincolnUp.Lamp.En5.5.200Scan.071719.P1._HRD10591_15-27-36-844.txt Node
Date: Thu Jul 18 15:27:36 EDT 2019
User: cochatt
Spectrometer: HR+D1059
Trigger mode: 1
Integration Time (sec): 1.000000E-1
Scans to average: 1
Electric dark correction enabled: true
Nonlinearity correction enabled: false
Boxcar width: 0
XAxis mode: Wavelengths
Number of Pixels in Spectrum: 2048
>>>>>Begin Spectral Data<<<<<
223.165	-15.06
223.4	-15.06
223.635	-15.06
223.869	-12.06
224.104	-9.06
224.338	-13.06
224.573	-17.06
224.808	-1.06
225.042	-3.06
225.277	-10.06
225.511	-13.06
225.746	-6.06
225.98	6.94
226.215	9.94
226.449	6.94
226.683	20.94
226.918	21.94
227.152	32.94
227.387	25.94
227.621	30.94
227.856	40.94
228.09	47.94
228.324	50.94
228.559	51.94
228.793	60.94
229.027	86.94
229.262	104.94
229.496	102.94
229.73	122.94
229.964	176.94
230.199	134.94
230.433	133.94
230.667	127.94
230.901	112.94
231.136	99.94
231.37	100.94
231.604	112.94
231.838	113.94
232.072	98.94
232.306	115.94
232.541	102.94
232.775	101.94
233.009	107.94
233.243	106.94
233.477	123.94
233.711	116.94
233.945	112.94
234.179	114.94
234.413	119.94
234.647	110.94
234.881	113.94
235.115	110.94
235.349	114.94
235.583	119.94
235.817	102.94
236.051	115.94
236.285	123.94
236.519	122.94
236.753	127.94
236.987	143.94
237.221	157.94
237.455	219.94
237.689	184.94
237.922	140.94
238.156	127.94
238.39	129.94
238.624	131.94
238.858	118.94
239.091	103.94
239.325	114.94
239.559	124.94
239.793	119.94
240.027	131.94
240.26	129.94
240.494	143.94
240.728	156.94
240.961	148.94
241.195	134.94
241.429	139.94
241.662	136.94
241.896	130.94
242.13	130.94
242.363	132.94
242.597	131.94
242.83	126.94
243.064	105.94
243.298	133.94
243.531	139.94
243.765	140.94
243.998	138.94
244.232	136.94
244.465	130.94
244.699	143.94
244.932	137.94
245.166	141.94
245.399	126.94
245.633	131.94
245.866	143.94
246.099	139.94
246.333	141.94
246.566	147.94
246.8	135.94
247.033	141.94
247.266	155.94
247.5	146.94
247.733	165.94
247.966	176.94
248.2	178.94
248.433	169.94
248.666	166.94
248.899	190.94
249.133	189.94
249.366	198.94
249.599	190.94
249.832	178.94
250.066	191.94
250.299	180.94
250.532	189.94
250.765	186.94
250.998	212.94
251.231	226.94
251.465	211.94
251.698	197.94
251.931	188.94
252.164	195.94
252.397	181.94
252.63	188.94
252.863	203.94
253.096	201.94
253.329	215.94
253.562	222.94
253.795	216.94
254.028	219.94
254.261	219.94
254.494	211.94
254.727	232.94
254.96	263.94
255.193	262.94
255.426	234.94
255.659	225.94
255.892	226.94
256.124	218.94
256.357	218.94
256.59	228.94
256.823	209.94
257.056	193.94
257.289	186.94
257.521	202.94
257.754	189.94
257.987	182.94
258.22	199.94
258.452	185.94
258.685	199.94
258.918	192.94
259.151	201.94
259.383	209.94
259.616	207.94
259.849	214.94
260.081	225.94
260.314	242.94
260.547	223.94
260.779	227.94
261.012	235.94
261.244	225.94
261.477	215.94
261.71	220.94
261.942	216.94
262.175	231.94
262.407	239.94
262.64	190.94
262.872	199.94
263.105	208.94
263.337	198.94
263.57	208.94
263.802	200.94
264.035	190.94
264.267	201.94
264.499	211.94
264.732	194.94
264.964	198.94
265.197	207.94
265.429	212.94
265.661	201.94
265.894	196.94
266.126	196.94
266.358	203.94
266.591	222.94
266.823	212.94
267.055	212.94
267.287	199.94
267.52	215.94
267.752	228.94
267.984	205.94
268.216	216.94
268.448	203.94
268.681	201.94
268.913	231.94
269.145	235.94
269.377	261.94
269.609	265.94
269.841	268.94
270.073	257.94
270.306	277.94
270.538	299.94
270.77	296.94
271.002	287.94
271.234	277.94
271.466	274.94
271.698	289.94
271.93	297.94
272.162	313.94
272.394	319.94
272.626	282.94
272.858	296.94
273.09	271.94
273.322	250.94
273.553	264.94
273.785	257.94
274.017	264.94
274.249	264.94
274.481	260.94
274.713	255.94
274.945	256.94
275.176	253.94
275.408	251.94
275.64	272.94
275.872	229.94
276.104	235.94
276.335	255.94
276.567	262.94
276.799	269.94
277.031	279.94
277.262	291.94
277.494	294.94
277.726	283.94
277.957	273.94
278.189	256.94
278.421	267.94
278.652	262.94
278.884	279.94
279.115	260.94
279.347	249.94
279.579	260.94
279.81	238.94
280.042	238.94
280.273	242.94
280.505	254.94
280.736	240.94
280.968	239.94
281.199	243.94
281.431	243.94
281.662	260.94
281.894	255.94
282.125	268.94
282.356	269.94
282.588	294.94
282.819	289.94
283.051	268.94
283.282	268.94
283.513	254.94
283.745	252.94
283.976	240.94
284.207	266.94
284.439	273.94
284.67	246.94
284.901	251.94
285.132	246.94
285.364	235.94
285.595	244.94
285.826	262.94
286.057	253.94
286.288	276.94
286.52	240.94
286.751	247.94
286.982	267.94
287.213	266.94
287.444	277.94
287.675	277.94
287.906	275.94
288.138	279.94
288.369	284.94
288.6	276.94
288.831	289.94
289.062	283.94
289.293	287.94
289.524	251.94
289.755	270.94
289.986	266.94
290.217	262.94
290.448	269.94
290.679	265.94
290.91	261.94
291.141	249.94
291.371	265.94
291.602	259.94
291.833	254.94
292.064	252.94
292.295	272.94
292.526	257.94
292.757	279.94
292.987	258.94
293.218	240.94
293.449	267.94
293.68	271.94
293.91	267.94
294.141	257.94
294.372	255.94
294.603	258.94
294.833	280.94
295.064	259.94
295.295	259.94
295.525	256.94
295.756	279.94
295.987	278.94
296.217	308.94
296.448	310.94
296.679	291.94
296.909	267.94
297.14	260.94
297.37	267.94
297.601	258.94
297.831	260.94
298.062	281.94
298.292	277.94
298.523	274.94
298.753	290.94
298.984	268.94
299.214	282.94
299.445	275.94
299.675	294.94
299.905	292.94
300.136	273.94
300.366	262.94
300.597	268.94
300.827	295.94
301.057	279.94
301.288	292.94
301.518	283.94
301.748	281.94
301.979	294.94
302.209	307.94
302.439	302.94
302.669	312.94
302.9	285.94
303.13	286.94
303.36	274.94
303.59	279.94
303.82	307.94
304.051	306.94
304.281	296.94
304.511	297.94
304.741	284.94
304.971	283.94
305.201	297.94
305.431	299.94
305.661	305.94
305.891	287.94
306.121	294.94
306.352	294.94
306.582	299.94
306.812	275.94
307.042	307.94
307.272	282.94
307.502	308.94
307.731	303.94
307.961	299.94
308.191	296.94
308.421	300.94
308.651	318.94
308.881	301.94
309.111	315.94
309.341	319.94
309.571	336.94
309.8	345.94
310.03	328.94
310.26	353.94
310.49	330.94
310.72	346.94
310.949	386.94
311.179	380.94
311.409	355.94
311.639	339.94
311.868	345.94
312.098	347.94
312.328	356.94
312.557	370.94
312.787	377.94
313.017	367.94
313.246	366.94
313.476	354.94
313.706	340.94
313.935	366.94
314.165	361.94
314.394	362.94
314.624	367.94
314.853	366.94
315.083	355.94
315.312	349.94
315.542	335.94
315.771	340.94
316.001	341.94
316.23	345.94
316.46	336.94
316.689	334.94
316.919	355.94
317.148	342.94
317.377	376.94
317.607	367.94
317.836	351.94
318.065	342.94
318.295	336.94
318.524	334.94
318.753	323.94
318.983	360.94
319.212	369.94
319.441	370.94
319.67	364.94
319.9	357.94
320.129	347.94
320.358	353.94
320.587	339.94
320.816	336.94
321.046	366.94
321.275	370.94
321.504	382.94
321.733	371.94
321.962	393.94
322.191	391.94
322.42	411.94
322.649	419.94
322.878	447.94
323.108	455.94
323.337	466.94
323.566	497.94
323.795	540.94
324.024	598.94
324.253	723.94
324.482	1040.94
324.71	1586.94
324.939	2389.94
325.168	2099.94
325.397	1037.94
325.626	660.94
325.855	547.94
326.084	512.94
326.313	485.94
326.542	482.94
326.77	553.94
326.999	674.94
327.228	909.94
327.457	1385.94
327.686	1755.94
327.914	1160.94
328.143	736.94
328.372	654.94
328.6	589.94
328.829	554.94
329.058	574.94
329.287	583.94
329.515	544.94
329.744	514.94
329.972	489.94
330.201	524.94
330.43	544.94
330.658	606.94
330.887	628.94
331.115	619.94
331.344	486.94
331.572	468.94
331.801	462.94
332.03	468.94
332.258	460.94
332.486	425.94
332.715	422.94
332.943	420.94
333.172	418.94
333.4	414.94
333.629	411.94
333.857	440.94
334.085	432.94
334.314	455.94
334.542	483.94
334.771	500.94
334.999	449.94
335.227	436.94
335.455	408.94
335.684	426.94
335.912	407.94
336.14	393.94
336.369	397.94
336.597	388.94
336.825	418.94
337.053	418.94
337.281	408.94
337.51	393.94
337.738	404.94
337.966	406.94
338.194	417.94
338.422	392.94
338.65	402.94
338.878	381.94
339.106	399.94
339.334	380.94
339.562	352.94
339.79	374.94
340.018	382.94
340.246	395.94
340.474	405.94
340.702	378.94
340.93	388.94
341.158	390.94
341.386	392.94
341.614	393.94
341.842	394.94
342.07	380.94
342.298	392.94
342.526	385.94
342.754	377.94
342.981	375.94
343.209	370.94
343.437	372.94
343.665	375.94
343.893	364.94
344.12	382.94
344.348	357.94
344.576	368.94
344.804	378.94
345.031	378.94
345.259	409.94
345.487	404.94
345.714	406.94
345.942	387.94
346.17	374.94
346.397	391.94
346.625	373.94
346.853	379.94
347.08	376.94
347.308	383.94
347.535	374.94
347.763	404.94
347.99	386.94
348.218	390.94
348.445	377.94
348.673	392.94
348.9	384.94
349.128	371.94
349.355	360.94
349.583	363.94
349.81	361.94
350.037	363.94
350.265	349.94
350.492	353.94
350.72	389.94
350.947	374.94
351.174	361.94
351.402	384.94
351.629	382.94
351.856	380.94
352.083	384.94
352.311	387.94
352.538	409.94
352.765	393.94
352.992	401.94
353.22	379.94
353.447	368.94
353.674	369.94
353.901	372.94
354.128	346.94
354.355	344.94
354.583	352.94
354.81	342.94
355.037	333.94
355.264	314.94
355.491	353.94
355.718	331.94
355.945	328.94
356.172	316.94
356.399	335.94
356.626	355.94
356.853	356.94
357.08	340.94
357.307	332.94
357.534	331.94
357.761	346.94
357.988	364.94
358.215	346.94
358.441	338.94
358.668	340.94
358.895	356.94
359.122	356.94
359.349	343.94
359.576	364.94
359.802	371.94
360.029	406.94
360.256	433.94
360.483	420.94
360.709	377.94
360.936	388.94
361.163	390.94
361.39	375.94
361.616	384.94
361.843	367.94
362.07	381.94
362.296	384.94
362.523	359.94
362.749	366.94
362.976	375.94
363.203	362.94
363.429	354.94
363.656	382.94
363.882	357.94
364.109	358.94
364.335	353.94
364.562	343.94
364.788	359.94
365.015	363.94
365.241	363.94
365.468	361.94
365.694	341.94
365.92	369.94
366.147	371.94
366.373	349.94
366.599	338.94
366.826	336.94
367.052	326.94
367.278	346.94
367.505	345.94
367.731	350.94
367.957	340.94
368.184	340.94
368.41	339.94
368.636	373.94
368.862	386.94
369.089	367.94
369.315	335.94
369.541	347.94
369.767	350.94
369.993	345.94
370.219	344.94
370.445	349.94
370.672	333.94
370.898	327.94
371.124	329.94
371.35	346.94
371.576	341.94
371.802	334.94
372.028	336.94
372.254	325.94
372.48	326.94
372.706	345.94
372.932	352.94
373.158	330.94
373.384	342.94
373.61	347.94
373.835	345.94
374.061	345.94
374.287	322.94
374.513	348.94
374.739	335.94
374.965	348.94
375.191	347.94
375.416	355.94
375.642	346.94
375.868	344.94
376.094	346.94
376.319	344.94
376.545	331.94
376.771	326.94
376.997	338.94
377.222	327.94
377.448	331.94
377.674	335.94
377.899	321.94
378.125	332.94
378.35	334.94
378.576	326.94
378.802	327.94
379.027	338.94
379.253	328.94
379.478	311.94
379.704	317.94
379.929	336.94
380.155	327.94
380.38	350.94
380.606	333.94
380.831	334.94
381.057	328.94
381.282	321.94
381.507	343.94
381.733	348.94
381.958	350.94
382.184	330.94
382.409	333.94
382.634	351.94
382.86	357.94
383.085	344.94
383.31	335.94
383.535	332.94
383.761	343.94
383.986	352.94
384.211	361.94
384.436	350.94
384.662	357.94
384.887	364.94
385.112	362.94
385.337	356.94
385.562	368.94
385.787	352.94
386.013	339.94
386.238	361.94
386.463	360.94
386.688	363.94
386.913	368.94
387.138	362.94
387.363	344.94
387.588	376.94
387.813	377.94
388.038	358.94
388.263	365.94
388.488	366.94
388.713	353.94
388.938	346.94
389.163	369.94
389.387	392.94
389.612	371.94
389.837	359.94
390.062	373.94
390.287	352.94
390.512	361.94
390.736	351.94
390.961	348.94
391.186	371.94
391.411	369.94
391.636	363.94
391.86	363.94
392.085	352.94
392.31	360.94
392.534	369.94
392.759	354.94
392.984	382.94
393.208	379.94
393.433	376.94
393.658	396.94
393.882	372.94
394.107	354.94
394.331	345.94
394.556	357.94
394.78	351.94
395.005	362.94
395.229	359.94
395.454	341.94
395.678	376.94
395.903	382.94
396.127	391.94
396.352	406.94
396.576	382.94
396.801	368.94
397.025	384.94
397.249	378.94
397.474	403.94
397.698	396.94
397.922	410.94
398.147	406.94
398.371	412.94
398.595	413.94
398.82	395.94
399.044	418.94
399.268	411.94
399.492	423.94
399.717	432.94
399.941	449.94
400.165	473.94
400.389	505.94
400.613	477.94
400.837	421.94
401.062	434.94
401.286	409.94
401.51	407.94
401.734	414.94
401.958	408.94
402.182	405.94
402.406	423.94
402.63	418.94
402.854	404.94
403.078	406.94
403.302	427.94
403.526	421.94
403.75	424.94
403.974	431.94
404.198	417.94
404.422	430.94
404.645	413.94
404.869	432.94
405.093	443.94
405.317	497.94
405.541	538.94
405.765	499.94
405.988	459.94
406.212	450.94
406.436	492.94
406.66	503.94
406.883	466.94
407.107	485.94
407.331	519.94
407.555	580.94
407.778	591.94
408.002	516.94
408.226	490.94
408.449	467.94
408.673	459.94
408.896	480.94
409.12	564.94
409.344	508.94
409.567	459.94
409.791	448.94
410.014	431.94
410.238	454.94
410.461	411.94
410.685	427.94
410.908	436.94
411.132	482.94
411.355	505.94
411.578	485.94
411.802	440.94
412.025	430.94
412.249	415.94
412.472	446.94
412.695	528.94
412.919	492.94
413.142	456.94
413.365	435.94
413.589	438.94
413.812	407.94
414.035	400.94
414.258	400.94
414.482	403.94
414.705	402.94
414.928	392.94
415.151	408.94
415.374	399.94
415.597	391.94
415.821	400.94
416.044	413.94
416.267	406.94
416.49	404.94
416.713	386.94
416.936	387.94
417.159	397.94
417.382	408.94
417.605	409.94
417.828	442.94
418.051	418.94
418.274	410.94
418.497	396.94
418.72	395.94
418.943	408.94
419.166	408.94
419.389	417.94
419.611	416.94
419.834	420.94
420.057	424.94
420.28	440.94
420.503	456.94
420.726	427.94
420.948	443.94
421.171	468.94
421.394	510.94
421.617	477.94
421.839	438.94
422.062	421.94
422.285	447.94
422.507	500.94
422.73	563.94
422.953	539.94
423.175	464.94
423.398	455.94
423.621	463.94
423.843	488.94
424.066	467.94
424.288	459.94
424.511	481.94
424.733	536.94
424.956	638.94
425.178	574.94
425.401	578.94
425.623	598.94
425.846	518.94
426.068	465.94
426.291	483.94
426.513	470.94
426.735	495.94
426.958	534.94
427.18	584.94
427.402	726.94
427.625	826.94
427.847	724.94
428.069	632.94
428.292	542.94
428.514	487.94
428.736	472.94
428.958	470.94
429.181	444.94
429.403	453.94
429.625	441.94
429.847	498.94
430.069	536.94
430.292	569.94
430.514	466.94
430.736	439.94
430.958	438.94
431.18	415.94
431.402	408.94
431.624	379.94
431.846	402.94
432.068	407.94
432.29	398.94
432.512	391.94
432.734	420.94
432.956	419.94
433.178	412.94
433.4	424.94
433.622	392.94
433.844	405.94
434.066	427.94
434.287	410.94
434.509	404.94
434.731	403.94
434.953	410.94
435.175	436.94
435.397	469.94
435.618	476.94
435.84	527.94
436.062	610.94
436.284	658.94
436.505	568.94
436.727	496.94
436.949	459.94
437.17	466.94
437.392	440.94
437.614	451.94
437.835	477.94
438.057	580.94
438.278	690.94
438.5	666.94
438.721	737.94
438.943	742.94
439.165	563.94
439.386	516.94
439.608	495.94
439.829	473.94
440.05	512.94
440.272	542.94
440.493	524.94
440.715	479.94
440.936	458.94
441.158	433.94
441.379	427.94
441.6	454.94
441.822	467.94
442.043	521.94
442.264	608.94
442.486	638.94
442.707	532.94
442.928	482.94
443.149	501.94
443.371	528.94
443.592	576.94
443.813	675.94
444.034	678.94
444.255	586.94
444.476	512.94
444.698	481.94
444.919	466.94
445.14	604.94
445.361	528.94
445.582	529.94
445.803	588.94
446.024	688.94
446.245	715.94
446.466	650.94
446.687	549.94
446.908	502.94
447.129	451.94
447.35	450.94
447.571	439.94
447.792	420.94
448.013	434.94
448.234	468.94
448.455	532.94
448.675	651.94
448.896	728.94
449.117	615.94
449.338	586.94
449.559	702.94
449.779	767.94
450	628.94
450.221	498.94
450.442	462.94
450.662	470.94
450.883	453.94
451.104	467.94
451.324	451.94
451.545	401.94
451.766	400.94
451.986	413.94
452.207	415.94
452.428	369.94
452.648	396.94
452.869	380.94
453.089	408.94
453.31	432.94
453.53	409.94
453.751	397.94
453.971	411.94
454.192	426.94
454.412	404.94
454.633	402.94
454.853	398.94
455.073	400.94
455.294	436.94
455.514	488.94
455.734	480.94
455.955	410.94
456.175	374.94
456.395	368.94
456.616	372.94
456.836	361.94
457.056	378.94
457.276	355.94
457.497	363.94
457.717	366.94
457.937	372.94
458.157	373.94
458.377	383.94
458.598	382.94
458.818	464.94
459.038	558.94
459.258	578.94
459.478	476.94
459.698	427.94
459.918	405.94
460.138	375.94
460.358	384.94
460.578	391.94
460.798	402.94
461.018	408.94
461.238	408.94
461.458	405.94
461.678	393.94
461.898	400.94
462.118	417.94
462.338	392.94
462.558	417.94
462.777	408.94
462.997	410.94
463.217	430.94
463.437	409.94
463.657	407.94
463.876	430.94
464.096	419.94
464.316	430.94
464.536	424.94
464.755	424.94
464.975	442.94
465.195	484.94
465.414	564.94
465.634	468.94
465.854	469.94
466.073	417.94
466.293	401.94
466.512	404.94
466.732	418.94
466.951	388.94
467.171	397.94
467.391	392.94
467.61	409.94
467.829	426.94
468.049	384.94
468.268	404.94
468.488	396.94
468.707	376.94
468.927	374.94
469.146	404.94
469.365	392.94
469.585	387.94
469.804	373.94
470.023	414.94
470.243	419.94
470.462	392.94
470.681	416.94
470.901	437.94
471.12	393.94
471.339	415.94
471.558	418.94
471.777	416.94
471.997	378.94
472.216	412.94
472.435	457.94
472.654	450.94
472.873	405.94
473.092	406.94
473.311	374.94
473.53	386.94
473.749	403.94
473.968	470.94
474.187	561.94
474.406	611.94
474.625	483.94
474.844	429.94
475.063	401.94
475.282	393.94
475.501	449.94
475.72	432.94
475.939	397.94
476.158	420.94
476.377	414.94
476.596	417.94
476.814	423.94
477.033	429.94
477.252	430.94
477.471	431.94
477.69	443.94
477.908	432.94
478.127	464.94
478.346	424.94
478.564	439.94
478.783	444.94
479.002	467.94
479.22	463.94
479.439	463.94
479.658	497.94
479.876	527.94
480.095	474.94
480.313	510.94
480.532	520.94
480.751	508.94
480.969	512.94
481.188	584.94
481.406	639.94
481.624	549.94
481.843	498.94
482.061	494.94
482.28	464.94
482.498	483.94
482.717	479.94
482.935	463.94
483.153	470.94
483.372	468.94
483.59	494.94
483.808	459.94
484.027	473.94
484.245	476.94
484.463	482.94
484.681	505.94
484.9	508.94
485.118	462.94
485.336	487.94
485.554	484.94
485.772	491.94
485.99	506.94
486.209	505.94
486.427	507.94
486.645	513.94
486.863	539.94
487.081	506.94
487.299	515.94
487.517	508.94
487.735	522.94
487.953	503.94
488.171	514.94
488.389	488.94
488.607	492.94
488.825	512.94
489.043	502.94
489.261	529.94
489.479	532.94
489.696	512.94
489.914	529.94
490.132	519.94
490.35	529.94
490.568	520.94
490.786	570.94
491.003	555.94
491.221	570.94
491.439	566.94
491.657	583.94
491.874	574.94
492.092	577.94
492.31	600.94
492.527	608.94
492.745	585.94
492.963	611.94
493.18	598.94
493.398	600.94
493.615	624.94
493.833	606.94
494.05	612.94
494.268	597.94
494.485	607.94
494.703	606.94
494.92	590.94
495.138	580.94
495.355	597.94
495.573	615.94
495.79	602.94
496.008	610.94
496.225	629.94
496.442	591.94
496.66	622.94
496.877	629.94
497.094	616.94
497.312	600.94
497.529	611.94
497.746	636.94
497.963	608.94
498.181	634.94
498.398	653.94
498.615	653.94
498.832	671.94
499.049	658.94
499.267	671.94
499.484	660.94
499.701	729.94
499.918	714.94
500.135	713.94
500.352	750.94
500.569	740.94
500.786	761.94
501.003	752.94
501.22	747.94
501.437	739.94
501.654	739.94
501.871	767.94
