Data from 1972.PennyLincolnUp.Lamp.En5.5.200Scan.071719.P1._HRD10591_15-28-33-844.txt Node
Date: Thu Jul 18 15:28:33 EDT 2019
User: cochatt
Spectrometer: HR+D1059
Trigger mode: 1
Integration Time (sec): 1.000000E-1
Scans to average: 1
Electric dark correction enabled: true
Nonlinearity correction enabled: false
Boxcar width: 0
XAxis mode: Wavelengths
Number of Pixels in Spectrum: 2048
>>>>>Begin Spectral Data<<<<<
223.165	-7.94
223.4	-7.94
223.635	-7.94
223.869	-25.94
224.104	-19.94
224.338	-16.94
224.573	-16.94
224.808	-3.94
225.042	-1.94
225.277	-9.94
225.511	-14.94
225.746	-10.94
225.98	3.06
226.215	12.06
226.449	21.06
226.683	42.06
226.918	23.06
227.152	28.06
227.387	34.06
227.621	53.06
227.856	41.06
228.09	40.06
228.324	43.06
228.559	33.06
228.793	61.06
229.027	85.06
229.262	117.06
229.496	113.06
229.73	132.06
229.964	155.06
230.199	119.06
230.433	103.06
230.667	113.06
230.901	112.06
231.136	118.06
231.37	108.06
231.604	103.06
231.838	116.06
232.072	123.06
232.306	103.06
232.541	113.06
232.775	114.06
233.009	114.06
233.243	120.06
233.477	119.06
233.711	125.06
233.945	109.06
234.179	107.06
234.413	119.06
234.647	120.06
234.881	120.06
235.115	125.06
235.349	113.06
235.583	124.06
235.817	131.06
236.051	125.06
236.285	122.06
236.519	115.06
236.753	141.06
236.987	156.06
237.221	194.06
237.455	253.06
237.689	211.06
237.922	135.06
238.156	125.06
238.39	123.06
238.624	119.06
238.858	115.06
239.091	125.06
239.325	112.06
239.559	127.06
239.793	129.06
240.027	141.06
240.26	137.06
240.494	168.06
240.728	179.06
240.961	160.06
241.195	137.06
241.429	143.06
241.662	127.06
241.896	117.06
242.13	119.06
242.363	127.06
242.597	124.06
242.83	142.06
243.064	132.06
243.298	125.06
243.531	135.06
243.765	137.06
243.998	139.06
244.232	148.06
244.465	139.06
244.699	139.06
244.932	157.06
245.166	152.06
245.399	140.06
245.633	141.06
245.866	131.06
246.099	141.06
246.333	156.06
246.566	142.06
246.8	148.06
247.033	160.06
247.266	150.06
247.5	154.06
247.733	164.06
247.966	173.06
248.2	172.06
248.433	167.06
248.666	152.06
248.899	179.06
249.133	211.06
249.366	204.06
249.599	204.06
249.832	193.06
250.066	189.06
250.299	169.06
250.532	190.06
250.765	198.06
250.998	213.06
251.231	237.06
251.465	200.06
251.698	215.06
251.931	216.06
252.164	210.06
252.397	200.06
252.63	207.06
252.863	203.06
253.096	208.06
253.329	239.06
253.562	227.06
253.795	221.06
254.028	223.06
254.261	237.06
254.494	241.06
254.727	265.06
254.96	298.06
255.193	279.06
255.426	279.06
255.659	246.06
255.892	246.06
256.124	239.06
256.357	245.06
256.59	229.06
256.823	216.06
257.056	229.06
257.289	212.06
257.521	222.06
257.754	213.06
257.987	205.06
258.22	201.06
258.452	205.06
258.685	215.06
258.918	210.06
259.151	206.06
259.383	204.06
259.616	227.06
259.849	226.06
260.081	229.06
260.314	261.06
260.547	247.06
260.779	252.06
261.012	235.06
261.244	230.06
261.477	235.06
261.71	222.06
261.942	226.06
262.175	232.06
262.407	244.06
262.64	230.06
262.872	215.06
263.105	202.06
263.337	216.06
263.57	216.06
263.802	230.06
264.035	208.06
264.267	220.06
264.499	212.06
264.732	218.06
264.964	213.06
265.197	215.06
265.429	214.06
265.661	216.06
265.894	212.06
266.126	204.06
266.358	203.06
266.591	216.06
266.823	213.06
267.055	216.06
267.287	203.06
267.52	226.06
267.752	234.06
267.984	220.06
268.216	226.06
268.448	212.06
268.681	227.06
268.913	243.06
269.145	258.06
269.377	276.06
269.609	284.06
269.841	268.06
270.073	282.06
270.306	290.06
270.538	330.06
270.77	333.06
271.002	311.06
271.234	293.06
271.466	290.06
271.698	326.06
271.93	323.06
272.162	331.06
272.394	314.06
272.626	315.06
272.858	301.06
273.09	284.06
273.322	277.06
273.553	276.06
273.785	263.06
274.017	264.06
274.249	270.06
274.481	257.06
274.713	264.06
274.945	269.06
275.176	253.06
275.408	275.06
275.64	263.06
275.872	243.06
276.104	268.06
276.335	263.06
276.567	264.06
276.799	295.06
277.031	296.06
277.262	320.06
277.494	345.06
277.726	306.06
277.957	273.06
278.189	277.06
278.421	277.06
278.652	283.06
278.884	265.06
279.115	267.06
279.347	267.06
279.579	273.06
279.81	253.06
280.042	259.06
280.273	259.06
280.505	256.06
280.736	261.06
280.968	261.06
281.199	250.06
281.431	263.06
281.662	249.06
281.894	260.06
282.125	248.06
282.356	284.06
282.588	301.06
282.819	307.06
283.051	266.06
283.282	273.06
283.513	280.06
283.745	268.06
283.976	287.06
284.207	268.06
284.439	265.06
284.67	273.06
284.901	250.06
285.132	267.06
285.364	263.06
285.595	265.06
285.826	273.06
286.057	281.06
286.288	260.06
286.52	266.06
286.751	251.06
286.982	261.06
287.213	267.06
287.444	281.06
287.675	275.06
287.906	295.06
288.138	314.06
288.369	288.06
288.6	276.06
288.831	296.06
289.062	290.06
289.293	275.06
289.524	292.06
289.755	279.06
289.986	267.06
290.217	265.06
290.448	278.06
290.679	269.06
290.91	276.06
291.141	245.06
291.371	274.06
291.602	261.06
291.833	269.06
292.064	287.06
292.295	280.06
292.526	270.06
292.757	280.06
292.987	253.06
293.218	275.06
293.449	284.06
293.68	275.06
293.91	261.06
294.141	291.06
294.372	255.06
294.603	275.06
294.833	276.06
295.064	292.06
295.295	282.06
295.525	269.06
295.756	288.06
295.987	284.06
296.217	321.06
296.448	313.06
296.679	303.06
296.909	286.06
297.14	259.06
297.37	287.06
297.601	287.06
297.831	274.06
298.062	268.06
298.292	259.06
298.523	285.06
298.753	300.06
298.984	293.06
299.214	285.06
299.445	280.06
299.675	289.06
299.905	291.06
300.136	297.06
300.366	306.06
300.597	294.06
300.827	289.06
301.057	292.06
301.288	315.06
301.518	298.06
301.748	308.06
301.979	315.06
302.209	290.06
302.439	299.06
302.669	289.06
302.9	319.06
303.13	280.06
303.36	297.06
303.59	308.06
303.82	309.06
304.051	317.06
304.281	289.06
304.511	299.06
304.741	297.06
304.971	298.06
305.201	313.06
305.431	320.06
305.661	293.06
305.891	300.06
306.121	318.06
306.352	317.06
306.582	307.06
306.812	306.06
307.042	298.06
307.272	308.06
307.502	307.06
307.731	305.06
307.961	325.06
308.191	310.06
308.421	315.06
308.651	322.06
308.881	338.06
309.111	312.06
309.341	337.06
309.571	339.06
309.8	359.06
310.03	379.06
310.26	374.06
310.49	363.06
310.72	359.06
310.949	395.06
311.179	403.06
311.409	383.06
311.639	378.06
311.868	385.06
312.098	387.06
312.328	367.06
312.557	402.06
312.787	412.06
313.017	411.06
313.246	395.06
313.476	357.06
313.706	375.06
313.935	381.06
314.165	403.06
314.394	397.06
314.624	396.06
314.853	400.06
315.083	369.06
315.312	340.06
315.542	369.06
315.771	357.06
316.001	363.06
316.23	326.06
316.46	363.06
316.689	347.06
316.919	355.06
317.148	409.06
317.377	381.06
317.607	401.06
317.836	377.06
318.065	369.06
318.295	367.06
318.524	369.06
318.753	343.06
318.983	359.06
319.212	376.06
319.441	363.06
319.67	395.06
319.9	352.06
320.129	377.06
320.358	375.06
320.587	380.06
320.816	389.06
321.046	393.06
321.275	376.06
321.504	379.06
321.733	396.06
321.962	392.06
322.191	409.06
322.42	452.06
322.649	469.06
322.878	476.06
323.108	475.06
323.337	499.06
323.566	531.06
323.795	582.06
324.024	623.06
324.253	804.06
324.482	1165.06
324.71	1857.06
324.939	2711.06
325.168	2402.06
325.397	1205.06
325.626	764.06
325.855	602.06
326.084	532.06
326.313	551.06
326.542	557.06
326.77	594.06
326.999	742.06
327.228	1012.06
327.457	1623.06
327.686	1967.06
327.914	1343.06
328.143	824.06
328.372	732.06
328.6	667.06
328.829	626.06
329.058	637.06
329.287	647.06
329.515	597.06
329.744	560.06
329.972	540.06
330.201	584.06
330.43	626.06
330.658	649.06
330.887	696.06
331.115	677.06
331.344	533.06
331.572	537.06
331.801	512.06
332.03	487.06
332.258	473.06
332.486	464.06
332.715	460.06
332.943	442.06
333.172	441.06
333.4	428.06
333.629	450.06
333.857	455.06
334.085	472.06
334.314	509.06
334.542	539.06
334.771	574.06
334.999	506.06
335.227	471.06
335.455	443.06
335.684	413.06
335.912	418.06
336.14	411.06
336.369	409.06
336.597	451.06
336.825	437.06
337.053	430.06
337.281	423.06
337.51	402.06
337.738	413.06
337.966	419.06
338.194	406.06
338.422	418.06
338.65	390.06
338.878	408.06
339.106	408.06
339.334	400.06
339.562	397.06
339.79	404.06
340.018	404.06
340.246	429.06
340.474	408.06
340.702	415.06
340.93	396.06
341.158	399.06
341.386	401.06
341.614	405.06
341.842	398.06
342.07	399.06
342.298	396.06
342.526	390.06
342.754	386.06
342.981	385.06
343.209	378.06
343.437	375.06
343.665	383.06
343.893	390.06
344.12	416.06
344.348	394.06
344.576	387.06
344.804	404.06
345.031	429.06
345.259	412.06
345.487	408.06
345.714	404.06
345.942	396.06
346.17	394.06
346.397	394.06
346.625	396.06
346.853	379.06
347.08	386.06
347.308	402.06
347.535	401.06
347.763	415.06
347.99	410.06
348.218	423.06
348.445	413.06
348.673	405.06
348.9	400.06
349.128	389.06
349.355	388.06
349.583	402.06
349.81	372.06
350.037	381.06
350.265	379.06
350.492	360.06
350.72	371.06
350.947	389.06
351.174	396.06
351.402	423.06
351.629	380.06
351.856	391.06
352.083	408.06
352.311	435.06
352.538	411.06
352.765	410.06
352.992	414.06
353.22	389.06
353.447	387.06
353.674	396.06
353.901	395.06
354.128	362.06
354.355	358.06
354.583	356.06
354.81	372.06
355.037	345.06
355.264	367.06
355.491	342.06
355.718	345.06
355.945	347.06
356.172	357.06
356.399	348.06
356.626	361.06
356.853	327.06
357.08	352.06
357.307	353.06
357.534	346.06
357.761	352.06
357.988	359.06
358.215	349.06
358.441	357.06
358.668	349.06
358.895	359.06
359.122	349.06
359.349	355.06
359.576	376.06
359.802	405.06
360.029	435.06
360.256	478.06
360.483	444.06
360.709	406.06
360.936	395.06
361.163	395.06
361.39	415.06
361.616	411.06
361.843	388.06
362.07	404.06
362.296	394.06
362.523	392.06
362.749	377.06
362.976	384.06
363.203	364.06
363.429	367.06
363.656	367.06
363.882	372.06
364.109	367.06
364.335	368.06
364.562	361.06
364.788	343.06
365.015	372.06
365.241	378.06
365.468	380.06
365.694	382.06
365.92	373.06
366.147	356.06
366.373	372.06
366.599	348.06
366.826	350.06
367.052	358.06
367.278	335.06
367.505	347.06
367.731	368.06
367.957	361.06
368.184	367.06
368.41	373.06
368.636	367.06
368.862	382.06
369.089	359.06
369.315	364.06
369.541	360.06
369.767	349.06
369.993	356.06
370.219	373.06
370.445	354.06
370.672	354.06
370.898	339.06
371.124	352.06
371.35	346.06
371.576	346.06
371.802	362.06
372.028	349.06
372.254	356.06
372.48	352.06
372.706	340.06
372.932	349.06
373.158	356.06
373.384	363.06
373.61	360.06
373.835	354.06
374.061	358.06
374.287	353.06
374.513	349.06
374.739	368.06
374.965	362.06
375.191	342.06
375.416	353.06
375.642	352.06
375.868	348.06
376.094	343.06
376.319	351.06
376.545	351.06
376.771	357.06
376.997	339.06
377.222	354.06
377.448	338.06
377.674	341.06
377.899	343.06
378.125	352.06
378.35	344.06
378.576	340.06
378.802	340.06
379.027	342.06
379.253	343.06
379.478	349.06
379.704	367.06
379.929	329.06
380.155	334.06
380.38	339.06
380.606	341.06
380.831	329.06
381.057	360.06
381.282	347.06
381.507	350.06
381.733	348.06
381.958	369.06
382.184	340.06
382.409	332.06
382.634	333.06
382.86	332.06
383.085	331.06
383.31	352.06
383.535	363.06
383.761	367.06
383.986	344.06
384.211	351.06
384.436	341.06
384.662	375.06
384.887	343.06
385.112	358.06
385.337	343.06
385.562	335.06
385.787	351.06
386.013	379.06
386.238	387.06
386.463	371.06
386.688	360.06
386.913	351.06
387.138	367.06
387.363	358.06
387.588	353.06
387.813	352.06
388.038	367.06
388.263	371.06
388.488	364.06
388.713	373.06
388.938	357.06
389.163	358.06
389.387	367.06
389.612	346.06
389.837	373.06
390.062	366.06
390.287	360.06
390.512	362.06
390.736	365.06
390.961	355.06
391.186	346.06
391.411	354.06
391.636	356.06
391.86	363.06
392.085	370.06
392.31	371.06
392.534	378.06
392.759	378.06
392.984	367.06
393.208	375.06
393.433	380.06
393.658	373.06
393.882	390.06
394.107	373.06
394.331	351.06
394.556	344.06
394.78	355.06
395.005	356.06
395.229	370.06
395.454	364.06
395.678	361.06
395.903	394.06
396.127	417.06
396.352	405.06
396.576	395.06
396.801	400.06
397.025	380.06
397.249	371.06
397.474	383.06
397.698	399.06
397.922	400.06
398.147	420.06
398.371	401.06
398.595	410.06
398.82	420.06
399.044	411.06
399.268	420.06
399.492	437.06
399.717	435.06
399.941	475.06
400.165	504.06
400.389	533.06
400.613	454.06
400.837	441.06
401.062	440.06
401.286	412.06
401.51	427.06
401.734	420.06
401.958	418.06
402.182	433.06
402.406	443.06
402.63	452.06
402.854	424.06
403.078	441.06
403.302	429.06
403.526	434.06
403.75	418.06
403.974	426.06
404.198	417.06
404.422	441.06
404.645	432.06
404.869	447.06
405.093	452.06
405.317	505.06
405.541	542.06
405.765	509.06
405.988	476.06
406.212	495.06
406.436	499.06
406.66	507.06
406.883	481.06
407.107	499.06
407.331	523.06
407.555	600.06
407.778	597.06
408.002	543.06
408.226	510.06
408.449	502.06
408.673	484.06
408.896	524.06
409.12	561.06
409.344	516.06
409.567	465.06
409.791	459.06
410.014	447.06
410.238	442.06
410.461	439.06
410.685	441.06
410.908	470.06
411.132	499.06
411.355	525.06
411.578	484.06
411.802	469.06
412.025	455.06
412.249	427.06
412.472	471.06
412.695	487.06
412.919	499.06
413.142	442.06
413.365	431.06
413.589	419.06
413.812	427.06
414.035	423.06
414.258	421.06
414.482	404.06
414.705	410.06
414.928	393.06
415.151	402.06
415.374	390.06
415.597	383.06
415.821	403.06
416.044	407.06
416.267	403.06
416.49	398.06
416.713	417.06
416.936	415.06
417.159	416.06
417.382	424.06
417.605	427.06
417.828	411.06
418.051	419.06
418.274	441.06
418.497	417.06
418.72	411.06
418.943	404.06
419.166	404.06
419.389	433.06
419.611	451.06
419.834	435.06
420.057	431.06
420.28	445.06
420.503	436.06
420.726	438.06
420.948	441.06
421.171	493.06
421.394	537.06
421.617	484.06
421.839	435.06
422.062	446.06
422.285	454.06
422.507	482.06
422.73	595.06
422.953	571.06
423.175	478.06
423.398	464.06
423.621	469.06
423.843	466.06
424.066	477.06
424.288	467.06
424.511	480.06
424.733	550.06
424.956	641.06
425.178	618.06
425.401	635.06
425.623	610.06
425.846	533.06
426.068	510.06
426.291	481.06
426.513	502.06
426.735	515.06
426.958	529.06
427.18	639.06
427.402	761.06
427.625	868.06
427.847	740.06
428.069	665.06
428.292	588.06
428.514	491.06
428.736	477.06
428.958	473.06
429.181	455.06
429.403	454.06
429.625	456.06
429.847	510.06
430.069	572.06
430.292	558.06
430.514	485.06
430.736	458.06
430.958	442.06
431.18	443.06
431.402	434.06
431.624	409.06
431.846	407.06
432.068	427.06
432.29	435.06
432.512	424.06
432.734	448.06
432.956	419.06
433.178	448.06
433.4	445.06
433.622	442.06
433.844	437.06
434.066	406.06
434.287	407.06
434.509	416.06
434.731	404.06
434.953	437.06
435.175	445.06
435.397	504.06
435.618	493.06
435.84	534.06
436.062	636.06
436.284	707.06
436.505	553.06
436.727	499.06
436.949	475.06
437.17	467.06
437.392	471.06
437.614	461.06
437.835	512.06
438.057	623.06
438.278	725.06
438.5	721.06
438.721	795.06
438.943	759.06
439.165	592.06
439.386	532.06
439.608	545.06
439.829	532.06
440.05	544.06
440.272	636.06
440.493	584.06
440.715	505.06
440.936	471.06
441.158	451.06
441.379	458.06
441.6	468.06
441.822	490.06
442.043	544.06
442.264	623.06
442.486	682.06
442.707	563.06
442.928	523.06
443.149	518.06
443.371	562.06
443.592	582.06
443.813	667.06
444.034	721.06
444.255	582.06
444.476	504.06
444.698	468.06
444.919	469.06
445.14	570.06
445.361	539.06
445.582	515.06
445.803	615.06
446.024	745.06
446.245	743.06
446.466	683.06
446.687	565.06
446.908	511.06
447.129	477.06
447.35	465.06
447.571	475.06
447.792	473.06
448.013	473.06
448.234	481.06
448.455	541.06
448.675	641.06
448.896	763.06
449.117	636.06
449.338	593.06
449.559	717.06
449.779	781.06
450	639.06
450.221	538.06
450.442	485.06
450.662	448.06
450.883	485.06
451.104	493.06
451.324	473.06
451.545	458.06
451.766	439.06
451.986	445.06
452.207	409.06
452.428	414.06
452.648	419.06
452.869	410.06
453.089	407.06
453.31	436.06
453.53	412.06
453.751	423.06
453.971	420.06
454.192	440.06
454.412	423.06
454.633	428.06
454.853	411.06
455.073	412.06
455.294	417.06
455.514	512.06
455.734	484.06
455.955	426.06
456.175	395.06
456.395	387.06
456.616	393.06
456.836	366.06
457.056	364.06
457.276	389.06
457.497	377.06
457.717	393.06
457.937	382.06
458.157	395.06
458.377	403.06
458.598	438.06
458.818	473.06
459.038	604.06
459.258	605.06
459.478	486.06
459.698	452.06
459.918	400.06
460.138	402.06
460.358	410.06
460.578	396.06
460.798	420.06
461.018	438.06
461.238	410.06
461.458	407.06
461.678	396.06
461.898	401.06
462.118	397.06
462.338	401.06
462.558	418.06
462.777	412.06
462.997	425.06
463.217	434.06
463.437	406.06
463.657	412.06
463.876	434.06
464.096	425.06
464.316	449.06
464.536	434.06
464.755	443.06
464.975	457.06
465.195	496.06
465.414	629.06
465.634	529.06
465.854	489.06
466.073	443.06
466.293	425.06
466.512	425.06
466.732	418.06
466.951	407.06
467.171	401.06
467.391	396.06
467.61	427.06
467.829	443.06
468.049	420.06
468.268	418.06
468.488	420.06
468.707	396.06
468.927	385.06
469.146	400.06
469.365	401.06
469.585	402.06
469.804	399.06
470.023	416.06
470.243	414.06
470.462	413.06
470.681	439.06
470.901	428.06
471.12	426.06
471.339	413.06
471.558	417.06
471.777	433.06
471.997	403.06
472.216	441.06
472.435	465.06
472.654	459.06
472.873	435.06
473.092	428.06
473.311	406.06
473.53	444.06
473.749	422.06
473.968	491.06
474.187	611.06
474.406	607.06
474.625	501.06
474.844	430.06
475.063	415.06
475.282	417.06
475.501	426.06
475.72	428.06
475.939	416.06
476.158	444.06
476.377	422.06
476.596	406.06
476.814	440.06
477.033	436.06
477.252	433.06
477.471	429.06
477.69	445.06
477.908	435.06
478.127	447.06
478.346	437.06
478.564	437.06
478.783	453.06
479.002	473.06
479.22	479.06
479.439	486.06
479.658	507.06
479.876	519.06
480.095	514.06
480.313	520.06
480.532	507.06
480.751	504.06
480.969	533.06
481.188	624.06
481.406	669.06
481.624	577.06
481.843	516.06
482.061	526.06
482.28	512.06
482.498	480.06
482.717	486.06
482.935	477.06
483.153	490.06
483.372	492.06
483.59	516.06
483.808	465.06
484.027	481.06
484.245	484.06
484.463	488.06
484.681	496.06
484.9	481.06
485.118	507.06
485.336	488.06
485.554	505.06
485.772	487.06
485.99	515.06
486.209	518.06
486.427	532.06
486.645	531.06
486.863	567.06
487.081	547.06
487.299	529.06
487.517	520.06
487.735	526.06
487.953	539.06
488.171	512.06
488.389	547.06
488.607	533.06
488.825	562.06
489.043	533.06
489.261	526.06
489.479	521.06
489.696	546.06
489.914	534.06
490.132	518.06
490.35	554.06
490.568	575.06
490.786	525.06
491.003	560.06
491.221	581.06
491.439	592.06
491.657	603.06
491.874	609.06
492.092	614.06
492.31	621.06
492.527	631.06
492.745	625.06
492.963	608.06
493.18	627.06
493.398	645.06
493.615	617.06
493.833	641.06
494.05	639.06
494.268	641.06
494.485	625.06
494.703	614.06
494.92	601.06
495.138	625.06
495.355	626.06
495.573	638.06
495.79	637.06
496.008	634.06
496.225	622.06
496.442	625.06
496.66	641.06
496.877	627.06
497.094	627.06
497.312	628.06
497.529	645.06
497.746	661.06
497.963	659.06
498.181	659.06
498.398	694.06
498.615	666.06
498.832	694.06
499.049	691.06
499.267	714.06
499.484	706.06
499.701	709.06
499.918	727.06
500.135	738.06
500.352	769.06
500.569	743.06
500.786	771.06
501.003	779.06
501.22	751.06
501.437	743.06
501.654	743.06
501.871	742.06
