Data from 1972.PennyLincolnUp.Lamp.En5.5.200Scan.071719.P1._HRD10591_15-28-46-844.txt Node
Date: Thu Jul 18 15:28:46 EDT 2019
User: cochatt
Spectrometer: HR+D1059
Trigger mode: 1
Integration Time (sec): 1.000000E-1
Scans to average: 1
Electric dark correction enabled: true
Nonlinearity correction enabled: false
Boxcar width: 0
XAxis mode: Wavelengths
Number of Pixels in Spectrum: 2048
>>>>>Begin Spectral Data<<<<<
223.165	-8.88
223.4	-8.88
223.635	-8.88
223.869	-15.88
224.104	-12.88
224.338	-11.88
224.573	-15.88
224.808	-19.88
225.042	-15.88
225.277	-3.88
225.511	-2.88
225.746	14.12
225.98	-10.88
226.215	8.12
226.449	29.12
226.683	5.12
226.918	33.12
227.152	29.12
227.387	43.12
227.621	40.12
227.856	56.12
228.09	43.12
228.324	57.12
228.559	52.12
228.793	66.12
229.027	99.12
229.262	115.12
229.496	125.12
229.73	151.12
229.964	184.12
230.199	162.12
230.433	126.12
230.667	128.12
230.901	116.12
231.136	122.12
231.37	116.12
231.604	130.12
231.838	111.12
232.072	115.12
232.306	129.12
232.541	129.12
232.775	112.12
233.009	118.12
233.243	128.12
233.477	127.12
233.711	130.12
233.945	120.12
234.179	129.12
234.413	127.12
234.647	122.12
234.881	128.12
235.115	132.12
235.349	102.12
235.583	122.12
235.817	131.12
236.051	143.12
236.285	142.12
236.519	138.12
236.753	139.12
236.987	156.12
237.221	209.12
237.455	273.12
237.689	204.12
237.922	167.12
238.156	146.12
238.39	136.12
238.624	138.12
238.858	134.12
239.091	131.12
239.325	120.12
239.559	125.12
239.793	140.12
240.027	140.12
240.26	175.12
240.494	176.12
240.728	172.12
240.961	164.12
241.195	161.12
241.429	162.12
241.662	143.12
241.896	138.12
242.13	144.12
242.363	139.12
242.597	131.12
242.83	145.12
243.064	146.12
243.298	146.12
243.531	153.12
243.765	162.12
243.998	128.12
244.232	140.12
244.465	140.12
244.699	148.12
244.932	154.12
245.166	129.12
245.399	168.12
245.633	165.12
245.866	139.12
246.099	151.12
246.333	149.12
246.566	167.12
246.8	151.12
247.033	166.12
247.266	162.12
247.5	174.12
247.733	185.12
247.966	188.12
248.2	181.12
248.433	184.12
248.666	184.12
248.899	208.12
249.133	214.12
249.366	227.12
249.599	211.12
249.832	198.12
250.066	204.12
250.299	210.12
250.532	205.12
250.765	224.12
250.998	237.12
251.231	255.12
251.465	208.12
251.698	228.12
251.931	212.12
252.164	199.12
252.397	209.12
252.63	215.12
252.863	223.12
253.096	228.12
253.329	240.12
253.562	248.12
253.795	225.12
254.028	221.12
254.261	232.12
254.494	254.12
254.727	294.12
254.96	333.12
255.193	292.12
255.426	285.12
255.659	253.12
255.892	246.12
256.124	250.12
256.357	263.12
256.59	247.12
256.823	231.12
257.056	227.12
257.289	243.12
257.521	233.12
257.754	233.12
257.987	227.12
258.22	216.12
258.452	218.12
258.685	207.12
258.918	230.12
259.151	212.12
259.383	208.12
259.616	252.12
259.849	253.12
260.081	253.12
260.314	288.12
260.547	271.12
260.779	274.12
261.012	244.12
261.244	246.12
261.477	229.12
261.71	259.12
261.942	259.12
262.175	267.12
262.407	249.12
262.64	244.12
262.872	237.12
263.105	236.12
263.337	231.12
263.57	234.12
263.802	244.12
264.035	213.12
264.267	224.12
264.499	223.12
264.732	231.12
264.964	236.12
265.197	216.12
265.429	244.12
265.661	202.12
265.894	219.12
266.126	231.12
266.358	232.12
266.591	219.12
266.823	244.12
267.055	247.12
267.287	241.12
267.52	236.12
267.752	232.12
267.984	234.12
268.216	242.12
268.448	237.12
268.681	247.12
268.913	262.12
269.145	301.12
269.377	297.12
269.609	293.12
269.841	299.12
270.073	276.12
270.306	312.12
270.538	337.12
270.77	352.12
271.002	332.12
271.234	298.12
271.466	311.12
271.698	337.12
271.93	360.12
272.162	354.12
272.394	356.12
272.626	334.12
272.858	303.12
273.09	308.12
273.322	297.12
273.553	280.12
273.785	303.12
274.017	283.12
274.249	293.12
274.481	279.12
274.713	285.12
274.945	309.12
275.176	283.12
275.408	293.12
275.64	298.12
275.872	281.12
276.104	283.12
276.335	296.12
276.567	280.12
276.799	299.12
277.031	335.12
277.262	351.12
277.494	348.12
277.726	341.12
277.957	313.12
278.189	301.12
278.421	294.12
278.652	305.12
278.884	309.12
279.115	277.12
279.347	273.12
279.579	281.12
279.81	273.12
280.042	279.12
280.273	273.12
280.505	292.12
280.736	266.12
280.968	279.12
281.199	279.12
281.431	295.12
281.662	286.12
281.894	288.12
282.125	272.12
282.356	319.12
282.588	335.12
282.819	350.12
283.051	302.12
283.282	283.12
283.513	281.12
283.745	286.12
283.976	303.12
284.207	290.12
284.439	271.12
284.67	295.12
284.901	294.12
285.132	286.12
285.364	296.12
285.595	314.12
285.826	279.12
286.057	272.12
286.288	305.12
286.52	297.12
286.751	276.12
286.982	296.12
287.213	291.12
287.444	296.12
287.675	284.12
287.906	308.12
288.138	313.12
288.369	310.12
288.6	315.12
288.831	320.12
289.062	305.12
289.293	311.12
289.524	297.12
289.755	320.12
289.986	279.12
290.217	305.12
290.448	292.12
290.679	299.12
290.91	305.12
291.141	296.12
291.371	291.12
291.602	287.12
291.833	302.12
292.064	292.12
292.295	288.12
292.526	290.12
292.757	285.12
292.987	295.12
293.218	295.12
293.449	292.12
293.68	291.12
293.91	290.12
294.141	297.12
294.372	293.12
294.603	309.12
294.833	311.12
295.064	304.12
295.295	293.12
295.525	299.12
295.756	291.12
295.987	334.12
296.217	355.12
296.448	360.12
296.679	316.12
296.909	308.12
297.14	310.12
297.37	322.12
297.601	305.12
297.831	314.12
298.062	308.12
298.292	312.12
298.523	307.12
298.753	312.12
298.984	303.12
299.214	295.12
299.445	331.12
299.675	317.12
299.905	332.12
300.136	311.12
300.366	314.12
300.597	310.12
300.827	315.12
301.057	340.12
301.288	349.12
301.518	339.12
301.748	322.12
301.979	297.12
302.209	310.12
302.439	333.12
302.669	322.12
302.9	336.12
303.13	339.12
303.36	341.12
303.59	352.12
303.82	353.12
304.051	347.12
304.281	347.12
304.511	323.12
304.741	328.12
304.971	335.12
305.201	332.12
305.431	335.12
305.661	333.12
305.891	341.12
306.121	332.12
306.352	344.12
306.582	343.12
306.812	349.12
307.042	335.12
307.272	336.12
307.502	326.12
307.731	342.12
307.961	338.12
308.191	349.12
308.421	339.12
308.651	334.12
308.881	347.12
309.111	362.12
309.341	353.12
309.571	373.12
309.8	387.12
310.03	416.12
310.26	405.12
310.49	403.12
310.72	399.12
310.949	431.12
311.179	430.12
311.409	394.12
311.639	404.12
311.868	402.12
312.098	405.12
312.328	389.12
312.557	446.12
312.787	445.12
313.017	435.12
313.246	431.12
313.476	398.12
313.706	394.12
313.935	402.12
314.165	427.12
314.394	444.12
314.624	435.12
314.853	412.12
315.083	411.12
315.312	404.12
315.542	397.12
315.771	377.12
316.001	392.12
316.23	390.12
316.46	367.12
316.689	407.12
316.919	407.12
317.148	406.12
317.377	411.12
317.607	414.12
317.836	388.12
318.065	419.12
318.295	403.12
318.524	408.12
318.753	393.12
318.983	393.12
319.212	389.12
319.441	412.12
319.67	399.12
319.9	392.12
320.129	410.12
320.358	391.12
320.587	392.12
320.816	419.12
321.046	432.12
321.275	440.12
321.504	427.12
321.733	436.12
321.962	455.12
322.191	463.12
322.42	500.12
322.649	496.12
322.878	509.12
323.108	520.12
323.337	564.12
323.566	568.12
323.795	616.12
324.024	701.12
324.253	861.12
324.482	1252.12
324.71	2018.12
324.939	2869.12
325.168	2490.12
325.397	1283.12
325.626	841.12
325.855	654.12
326.084	599.12
326.313	563.12
326.542	598.12
326.77	678.12
326.999	806.12
327.228	1127.12
327.457	1750.12
327.686	2203.12
327.914	1444.12
328.143	929.12
328.372	798.12
328.6	725.12
328.829	688.12
329.058	669.12
329.287	701.12
329.515	649.12
329.744	616.12
329.972	603.12
330.201	640.12
330.43	675.12
330.658	711.12
330.887	721.12
331.115	684.12
331.344	597.12
331.572	535.12
331.801	537.12
332.03	557.12
332.258	539.12
332.486	485.12
332.715	488.12
332.943	480.12
333.172	471.12
333.4	470.12
333.629	488.12
333.857	518.12
334.085	527.12
334.314	530.12
334.542	573.12
334.771	616.12
334.999	561.12
335.227	484.12
335.455	469.12
335.684	469.12
335.912	452.12
336.14	450.12
336.369	451.12
336.597	465.12
336.825	472.12
337.053	449.12
337.281	460.12
337.51	462.12
337.738	457.12
337.966	448.12
338.194	444.12
338.422	476.12
338.65	453.12
338.878	427.12
339.106	445.12
339.334	427.12
339.562	431.12
339.79	435.12
340.018	449.12
340.246	450.12
340.474	439.12
340.702	440.12
340.93	442.12
341.158	430.12
341.386	456.12
341.614	445.12
341.842	431.12
342.07	418.12
342.298	431.12
342.526	405.12
342.754	410.12
342.981	401.12
343.209	395.12
343.437	426.12
343.665	411.12
343.893	429.12
344.12	425.12
344.348	441.12
344.576	445.12
344.804	460.12
345.031	446.12
345.259	464.12
345.487	448.12
345.714	444.12
345.942	464.12
346.17	444.12
346.397	433.12
346.625	423.12
346.853	448.12
347.08	427.12
347.308	435.12
347.535	443.12
347.763	454.12
347.99	457.12
348.218	425.12
348.445	453.12
348.673	444.12
348.9	441.12
349.128	412.12
349.355	423.12
349.583	421.12
349.81	387.12
350.037	412.12
350.265	408.12
350.492	416.12
350.72	412.12
350.947	419.12
351.174	434.12
351.402	453.12
351.629	422.12
351.856	432.12
352.083	441.12
352.311	465.12
352.538	471.12
352.765	459.12
352.992	456.12
353.22	452.12
353.447	427.12
353.674	418.12
353.901	411.12
354.128	405.12
354.355	395.12
354.583	407.12
354.81	399.12
355.037	390.12
355.264	405.12
355.491	385.12
355.718	379.12
355.945	383.12
356.172	391.12
356.399	389.12
356.626	373.12
356.853	376.12
357.08	376.12
357.307	381.12
357.534	385.12
357.761	379.12
357.988	401.12
358.215	397.12
358.441	388.12
358.668	397.12
358.895	397.12
359.122	423.12
359.349	423.12
359.576	423.12
359.802	464.12
360.029	494.12
360.256	515.12
360.483	491.12
360.709	444.12
360.936	444.12
361.163	428.12
361.39	437.12
361.616	443.12
361.843	412.12
362.07	422.12
362.296	423.12
362.523	421.12
362.749	414.12
362.976	412.12
363.203	412.12
363.429	382.12
363.656	394.12
363.882	408.12
364.109	391.12
364.335	397.12
364.562	418.12
364.788	385.12
365.015	413.12
365.241	401.12
365.468	418.12
365.694	433.12
365.92	413.12
366.147	382.12
366.373	405.12
366.599	392.12
366.826	387.12
367.052	403.12
367.278	383.12
367.505	403.12
367.731	392.12
367.957	397.12
368.184	387.12
368.41	424.12
368.636	410.12
368.862	410.12
369.089	409.12
369.315	399.12
369.541	389.12
369.767	385.12
369.993	393.12
370.219	373.12
370.445	376.12
370.672	362.12
370.898	377.12
371.124	375.12
371.35	389.12
371.576	403.12
371.802	394.12
372.028	391.12
372.254	383.12
372.48	347.12
372.706	383.12
372.932	376.12
373.158	376.12
373.384	383.12
373.61	407.12
373.835	420.12
374.061	387.12
374.287	398.12
374.513	387.12
374.739	401.12
374.965	375.12
375.191	382.12
375.416	384.12
375.642	367.12
375.868	395.12
376.094	385.12
376.319	383.12
376.545	376.12
376.771	371.12
376.997	376.12
377.222	404.12
377.448	378.12
377.674	383.12
377.899	384.12
378.125	391.12
378.35	395.12
378.576	379.12
378.802	372.12
379.027	373.12
379.253	362.12
379.478	377.12
379.704	385.12
379.929	386.12
380.155	373.12
380.38	376.12
380.606	377.12
380.831	382.12
381.057	380.12
381.282	392.12
381.507	377.12
381.733	381.12
381.958	395.12
382.184	384.12
382.409	400.12
382.634	380.12
382.86	364.12
383.085	377.12
383.31	381.12
383.535	381.12
383.761	390.12
383.986	393.12
384.211	367.12
384.436	401.12
384.662	400.12
384.887	399.12
385.112	384.12
385.337	392.12
385.562	378.12
385.787	371.12
386.013	430.12
386.238	416.12
386.463	429.12
386.688	426.12
386.913	404.12
387.138	413.12
387.363	387.12
387.588	384.12
387.813	399.12
388.038	403.12
388.263	409.12
388.488	421.12
388.713	408.12
388.938	407.12
389.163	412.12
389.387	412.12
389.612	400.12
389.837	404.12
390.062	400.12
390.287	409.12
390.512	393.12
390.736	387.12
390.961	409.12
391.186	429.12
391.411	399.12
391.636	404.12
391.86	420.12
392.085	394.12
392.31	391.12
392.534	405.12
392.759	413.12
392.984	404.12
393.208	406.12
393.433	418.12
393.658	425.12
393.882	411.12
394.107	405.12
394.331	416.12
394.556	390.12
394.78	405.12
395.005	391.12
395.229	401.12
395.454	414.12
395.678	406.12
395.903	444.12
396.127	453.12
396.352	445.12
396.576	420.12
396.801	435.12
397.025	434.12
397.249	444.12
397.474	435.12
397.698	428.12
397.922	441.12
398.147	444.12
398.371	473.12
398.595	443.12
398.82	451.12
399.044	455.12
399.268	452.12
399.492	475.12
399.717	502.12
399.941	537.12
400.165	551.12
400.389	544.12
400.613	532.12
400.837	469.12
401.062	467.12
401.286	457.12
401.51	465.12
401.734	484.12
401.958	432.12
402.182	463.12
402.406	466.12
402.63	483.12
402.854	475.12
403.078	464.12
403.302	452.12
403.526	461.12
403.75	481.12
403.974	490.12
404.198	469.12
404.422	480.12
404.645	477.12
404.869	515.12
405.093	525.12
405.317	577.12
405.541	589.12
405.765	571.12
405.988	547.12
406.212	534.12
406.436	563.12
406.66	574.12
406.883	546.12
407.107	558.12
407.331	601.12
407.555	661.12
407.778	662.12
408.002	603.12
408.226	543.12
408.449	524.12
408.673	540.12
408.896	563.12
409.12	598.12
409.344	567.12
409.567	507.12
409.791	494.12
410.014	481.12
410.238	459.12
410.461	487.12
410.685	477.12
410.908	468.12
411.132	559.12
411.355	591.12
411.578	557.12
411.802	502.12
412.025	487.12
412.249	495.12
412.472	512.12
412.695	556.12
412.919	566.12
413.142	486.12
413.365	500.12
413.589	479.12
413.812	473.12
414.035	470.12
414.258	444.12
414.482	453.12
414.705	427.12
414.928	463.12
415.151	445.12
415.374	466.12
415.597	459.12
415.821	436.12
416.044	455.12
416.267	455.12
416.49	436.12
416.713	440.12
416.936	464.12
417.159	458.12
417.382	472.12
417.605	447.12
417.828	471.12
418.051	494.12
418.274	474.12
418.497	441.12
418.72	463.12
418.943	449.12
419.166	473.12
419.389	479.12
419.611	480.12
419.834	478.12
420.057	485.12
420.28	491.12
420.503	476.12
420.726	496.12
420.948	508.12
421.171	564.12
421.394	600.12
421.617	518.12
421.839	475.12
422.062	494.12
422.285	523.12
422.507	563.12
422.73	647.12
422.953	640.12
423.175	563.12
423.398	492.12
423.621	500.12
423.843	505.12
424.066	526.12
424.288	521.12
424.511	538.12
424.733	613.12
424.956	687.12
425.178	675.12
425.401	687.12
425.623	702.12
425.846	609.12
426.068	564.12
426.291	548.12
426.513	523.12
426.735	547.12
426.958	598.12
427.18	669.12
427.402	828.12
427.625	929.12
427.847	842.12
428.069	727.12
428.292	618.12
428.514	569.12
428.736	519.12
428.958	518.12
429.181	507.12
429.403	504.12
429.625	535.12
429.847	551.12
430.069	617.12
430.292	607.12
430.514	542.12
430.736	484.12
430.958	505.12
431.18	472.12
431.402	461.12
431.624	463.12
431.846	445.12
432.068	449.12
432.29	473.12
432.512	444.12
432.734	480.12
432.956	472.12
433.178	469.12
433.4	494.12
433.622	459.12
433.844	445.12
434.066	485.12
434.287	472.12
434.509	456.12
434.731	463.12
434.953	455.12
435.175	501.12
435.397	531.12
435.618	537.12
435.84	585.12
436.062	689.12
436.284	770.12
436.505	645.12
436.727	586.12
436.949	509.12
437.17	482.12
437.392	501.12
437.614	522.12
437.835	545.12
438.057	673.12
438.278	777.12
438.5	826.12
438.721	869.12
438.943	807.12
439.165	640.12
439.386	587.12
439.608	567.12
439.829	576.12
440.05	589.12
440.272	694.12
440.493	628.12
440.715	551.12
440.936	519.12
441.158	495.12
441.379	488.12
441.6	508.12
441.822	543.12
442.043	588.12
442.264	683.12
442.486	741.12
442.707	596.12
442.928	571.12
443.149	583.12
443.371	581.12
443.592	628.12
443.813	738.12
444.034	814.12
444.255	654.12
444.476	565.12
444.698	548.12
444.919	529.12
445.14	625.12
445.361	608.12
445.582	608.12
445.803	702.12
446.024	784.12
446.245	804.12
446.466	727.12
446.687	595.12
446.908	593.12
447.129	525.12
447.35	519.12
447.571	501.12
447.792	485.12
448.013	526.12
448.234	533.12
448.455	565.12
448.675	723.12
448.896	840.12
449.117	715.12
449.338	675.12
449.559	780.12
449.779	880.12
450	700.12
450.221	593.12
450.442	544.12
450.662	500.12
450.883	511.12
451.104	552.12
451.324	512.12
451.545	477.12
451.766	460.12
451.986	455.12
452.207	468.12
452.428	438.12
452.648	438.12
452.869	446.12
453.089	472.12
453.31	473.12
453.53	470.12
453.751	449.12
453.971	467.12
454.192	480.12
454.412	471.12
454.633	448.12
454.853	445.12
455.073	449.12
455.294	507.12
455.514	562.12
455.734	551.12
455.955	483.12
456.175	423.12
456.395	424.12
456.616	414.12
456.836	416.12
457.056	411.12
457.276	409.12
457.497	399.12
457.717	428.12
457.937	428.12
458.157	427.12
458.377	447.12
458.598	463.12
458.818	528.12
459.038	640.12
459.258	670.12
459.478	534.12
459.698	495.12
459.918	479.12
460.138	465.12
460.358	462.12
460.578	455.12
460.798	443.12
461.018	464.12
461.238	454.12
461.458	460.12
461.678	448.12
461.898	456.12
462.118	422.12
462.338	464.12
462.558	447.12
462.777	452.12
462.997	471.12
463.217	453.12
463.437	466.12
463.657	469.12
463.876	443.12
464.096	464.12
464.316	465.12
464.536	454.12
464.755	479.12
464.975	511.12
465.195	557.12
465.414	684.12
465.634	559.12
465.854	525.12
466.073	500.12
466.293	457.12
466.512	463.12
466.732	444.12
466.951	438.12
467.171	439.12
467.391	474.12
467.61	484.12
467.829	475.12
468.049	491.12
468.268	464.12
468.488	452.12
468.707	441.12
468.927	418.12
469.146	403.12
469.365	452.12
469.585	443.12
469.804	435.12
470.023	437.12
470.243	464.12
470.462	469.12
470.681	497.12
470.901	473.12
471.12	461.12
471.339	455.12
471.558	461.12
471.777	473.12
471.997	453.12
472.216	475.12
472.435	526.12
472.654	491.12
472.873	453.12
473.092	465.12
473.311	466.12
473.53	461.12
473.749	469.12
473.968	527.12
474.187	649.12
474.406	679.12
474.625	517.12
474.844	483.12
475.063	463.12
475.282	466.12
475.501	447.12
475.72	461.12
475.939	445.12
476.158	456.12
476.377	467.12
476.596	457.12
476.814	465.12
477.033	474.12
477.252	479.12
477.471	485.12
477.69	475.12
477.908	504.12
478.127	485.12
478.346	491.12
478.564	499.12
478.783	509.12
479.002	500.12
479.22	511.12
479.439	530.12
479.658	572.12
479.876	576.12
480.095	541.12
480.313	586.12
480.532	569.12
480.751	539.12
480.969	571.12
481.188	669.12
481.406	755.12
481.624	621.12
481.843	576.12
482.061	569.12
482.28	549.12
482.498	539.12
482.717	544.12
482.935	530.12
483.153	537.12
483.372	549.12
483.59	533.12
483.808	549.12
484.027	544.12
484.245	533.12
484.463	536.12
484.681	527.12
484.9	549.12
485.118	552.12
485.336	545.12
485.554	559.12
485.772	583.12
485.99	560.12
486.209	550.12
486.427	567.12
486.645	579.12
486.863	598.12
487.081	604.12
487.299	576.12
487.517	578.12
487.735	593.12
487.953	567.12
488.171	582.12
488.389	567.12
488.607	596.12
488.825	593.12
489.043	589.12
489.261	585.12
489.479	595.12
489.696	568.12
489.914	583.12
490.132	600.12
490.35	620.12
490.568	604.12
490.786	635.12
491.003	622.12
491.221	643.12
491.439	647.12
491.657	676.12
491.874	662.12
492.092	666.12
492.31	688.12
492.527	665.12
492.745	670.12
492.963	701.12
493.18	689.12
493.398	694.12
493.615	697.12
493.833	705.12
494.05	670.12
494.268	697.12
494.485	693.12
494.703	687.12
494.92	681.12
495.138	715.12
495.355	682.12
495.573	678.12
495.79	706.12
496.008	677.12
496.225	691.12
496.442	697.12
496.66	701.12
496.877	699.12
497.094	688.12
497.312	697.12
497.529	709.12
497.746	718.12
497.963	734.12
498.181	747.12
498.398	733.12
498.615	739.12
498.832	758.12
499.049	740.12
499.267	773.12
499.484	775.12
499.701	797.12
499.918	821.12
500.135	836.12
500.352	833.12
500.569	844.12
500.786	839.12
501.003	855.12
501.22	860.12
501.437	817.12
501.654	805.12
501.871	848.12
