Data from 1972.PennyLincolnUp.Lamp.En5.5.200Scan.071719.P1._HRD10591_15-27-28-843.txt Node
Date: Thu Jul 18 15:27:28 EDT 2019
User: cochatt
Spectrometer: HR+D1059
Trigger mode: 1
Integration Time (sec): 1.000000E-1
Scans to average: 1
Electric dark correction enabled: true
Nonlinearity correction enabled: false
Boxcar width: 0
XAxis mode: Wavelengths
Number of Pixels in Spectrum: 2048
>>>>>Begin Spectral Data<<<<<
223.165	-23.81
223.4	-23.81
223.635	-23.81
223.869	-13.81
224.104	-7.81
224.338	-8.81
224.573	-9.81
224.808	-0.81
225.042	-6.81
225.277	-6.81
225.511	-9.81
225.746	2.19
225.98	0.19
226.215	10.19
226.449	17.19
226.683	21.19
226.918	7.19
227.152	30.19
227.387	37.19
227.621	39.19
227.856	46.19
228.09	42.19
228.324	54.19
228.559	43.19
228.793	74.19
229.027	90.19
229.262	122.19
229.496	122.19
229.73	128.19
229.964	145.19
230.199	144.19
230.433	124.19
230.667	126.19
230.901	111.19
231.136	121.19
231.37	123.19
231.604	115.19
231.838	112.19
232.072	102.19
232.306	128.19
232.541	114.19
232.775	130.19
233.009	122.19
233.243	118.19
233.477	135.19
233.711	121.19
233.945	98.19
234.179	116.19
234.413	107.19
234.647	134.19
234.881	122.19
235.115	118.19
235.349	111.19
235.583	121.19
235.817	121.19
236.051	120.19
236.285	142.19
236.519	122.19
236.753	118.19
236.987	130.19
237.221	188.19
237.455	235.19
237.689	203.19
237.922	139.19
238.156	134.19
238.39	120.19
238.624	131.19
238.858	108.19
239.091	112.19
239.325	129.19
239.559	125.19
239.793	139.19
240.027	148.19
240.26	128.19
240.494	157.19
240.728	134.19
240.961	129.19
241.195	153.19
241.429	132.19
241.662	139.19
241.896	128.19
242.13	122.19
242.363	138.19
242.597	140.19
242.83	138.19
243.064	130.19
243.298	125.19
243.531	142.19
243.765	135.19
243.998	131.19
244.232	131.19
244.465	145.19
244.699	130.19
244.932	144.19
245.166	154.19
245.399	147.19
245.633	165.19
245.866	141.19
246.099	127.19
246.333	154.19
246.566	151.19
246.8	147.19
247.033	154.19
247.266	144.19
247.5	146.19
247.733	159.19
247.966	175.19
248.2	175.19
248.433	168.19
248.666	186.19
248.899	173.19
249.133	198.19
249.366	209.19
249.599	211.19
249.832	192.19
250.066	169.19
250.299	192.19
250.532	185.19
250.765	207.19
250.998	205.19
251.231	235.19
251.465	215.19
251.698	199.19
251.931	206.19
252.164	190.19
252.397	199.19
252.63	208.19
252.863	200.19
253.096	224.19
253.329	210.19
253.562	222.19
253.795	218.19
254.028	219.19
254.261	218.19
254.494	234.19
254.727	238.19
254.96	285.19
255.193	280.19
255.426	254.19
255.659	251.19
255.892	239.19
256.124	235.19
256.357	240.19
256.59	249.19
256.823	220.19
257.056	220.19
257.289	216.19
257.521	227.19
257.754	218.19
257.987	193.19
258.22	225.19
258.452	209.19
258.685	201.19
258.918	195.19
259.151	210.19
259.383	198.19
259.616	215.19
259.849	205.19
260.081	235.19
260.314	250.19
260.547	259.19
260.779	248.19
261.012	246.19
261.244	230.19
261.477	238.19
261.71	225.19
261.942	220.19
262.175	238.19
262.407	249.19
262.64	215.19
262.872	211.19
263.105	210.19
263.337	212.19
263.57	209.19
263.802	210.19
264.035	216.19
264.267	215.19
264.499	203.19
264.732	202.19
264.964	216.19
265.197	193.19
265.429	203.19
265.661	223.19
265.894	205.19
266.126	210.19
266.358	205.19
266.591	207.19
266.823	220.19
267.055	204.19
267.287	213.19
267.52	211.19
267.752	221.19
267.984	215.19
268.216	224.19
268.448	224.19
268.681	225.19
268.913	228.19
269.145	243.19
269.377	261.19
269.609	263.19
269.841	266.19
270.073	270.19
270.306	283.19
270.538	297.19
270.77	307.19
271.002	304.19
271.234	283.19
271.466	296.19
271.698	282.19
271.93	295.19
272.162	305.19
272.394	303.19
272.626	299.19
272.858	275.19
273.09	278.19
273.322	256.19
273.553	257.19
273.785	260.19
274.017	242.19
274.249	263.19
274.481	278.19
274.713	253.19
274.945	267.19
275.176	278.19
275.408	251.19
275.64	246.19
275.872	261.19
276.104	261.19
276.335	260.19
276.567	265.19
276.799	282.19
277.031	305.19
277.262	309.19
277.494	293.19
277.726	281.19
277.957	282.19
278.189	261.19
278.421	263.19
278.652	268.19
278.884	271.19
279.115	264.19
279.347	250.19
279.579	265.19
279.81	269.19
280.042	265.19
280.273	245.19
280.505	263.19
280.736	257.19
280.968	260.19
281.199	256.19
281.431	257.19
281.662	247.19
281.894	253.19
282.125	267.19
282.356	259.19
282.588	303.19
282.819	302.19
283.051	274.19
283.282	258.19
283.513	270.19
283.745	259.19
283.976	281.19
284.207	259.19
284.439	256.19
284.67	263.19
284.901	280.19
285.132	263.19
285.364	289.19
285.595	261.19
285.826	263.19
286.057	263.19
286.288	263.19
286.52	252.19
286.751	266.19
286.982	280.19
287.213	265.19
287.444	282.19
287.675	277.19
287.906	283.19
288.138	283.19
288.369	286.19
288.6	290.19
288.831	271.19
289.062	285.19
289.293	269.19
289.524	273.19
289.755	272.19
289.986	281.19
290.217	277.19
290.448	281.19
290.679	285.19
290.91	272.19
291.141	281.19
291.371	279.19
291.602	259.19
291.833	259.19
292.064	277.19
292.295	267.19
292.526	240.19
292.757	260.19
292.987	267.19
293.218	254.19
293.449	261.19
293.68	281.19
293.91	272.19
294.141	273.19
294.372	273.19
294.603	267.19
294.833	271.19
295.064	278.19
295.295	283.19
295.525	290.19
295.756	267.19
295.987	267.19
296.217	313.19
296.448	324.19
296.679	298.19
296.909	274.19
297.14	286.19
297.37	257.19
297.601	286.19
297.831	279.19
298.062	290.19
298.292	289.19
298.523	281.19
298.753	266.19
298.984	291.19
299.214	292.19
299.445	263.19
299.675	298.19
299.905	299.19
300.136	275.19
300.366	288.19
300.597	304.19
300.827	276.19
301.057	302.19
301.288	312.19
301.518	290.19
301.748	293.19
301.979	290.19
302.209	301.19
302.439	295.19
302.669	316.19
302.9	291.19
303.13	295.19
303.36	287.19
303.59	311.19
303.82	307.19
304.051	316.19
304.281	282.19
304.511	288.19
304.741	294.19
304.971	314.19
305.201	304.19
305.431	292.19
305.661	285.19
305.891	290.19
306.121	292.19
306.352	334.19
306.582	300.19
306.812	315.19
307.042	325.19
307.272	321.19
307.502	293.19
307.731	305.19
307.961	312.19
308.191	302.19
308.421	314.19
308.651	310.19
308.881	297.19
309.111	333.19
309.341	323.19
309.571	330.19
309.8	342.19
310.03	357.19
310.26	354.19
310.49	359.19
310.72	372.19
310.949	343.19
311.179	397.19
311.409	379.19
311.639	373.19
311.868	351.19
312.098	338.19
312.328	357.19
312.557	383.19
312.787	390.19
313.017	390.19
313.246	376.19
313.476	358.19
313.706	351.19
313.935	360.19
314.165	375.19
314.394	393.19
314.624	386.19
314.853	365.19
315.083	358.19
315.312	343.19
315.542	364.19
315.771	337.19
316.001	354.19
316.23	356.19
316.46	346.19
316.689	354.19
316.919	366.19
317.148	370.19
317.377	360.19
317.607	368.19
317.836	360.19
318.065	367.19
318.295	367.19
318.524	357.19
318.753	347.19
318.983	351.19
319.212	360.19
319.441	374.19
319.67	387.19
319.9	362.19
320.129	373.19
320.358	343.19
320.587	371.19
320.816	375.19
321.046	392.19
321.275	399.19
321.504	387.19
321.733	377.19
321.962	409.19
322.191	410.19
322.42	418.19
322.649	439.19
322.878	443.19
323.108	456.19
323.337	455.19
323.566	491.19
323.795	543.19
324.024	595.19
324.253	736.19
324.482	1049.19
324.71	1599.19
324.939	2323.19
325.168	2042.19
325.397	1053.19
325.626	680.19
325.855	550.19
326.084	548.19
326.313	518.19
326.542	502.19
326.77	546.19
326.999	654.19
327.228	913.19
327.457	1413.19
327.686	1756.19
327.914	1179.19
328.143	740.19
328.372	655.19
328.6	609.19
328.829	567.19
329.058	567.19
329.287	579.19
329.515	546.19
329.744	525.19
329.972	521.19
330.201	530.19
330.43	579.19
330.658	606.19
330.887	622.19
331.115	603.19
331.344	528.19
331.572	489.19
331.801	470.19
332.03	466.19
332.258	449.19
332.486	421.19
332.715	407.19
332.943	410.19
333.172	434.19
333.4	411.19
333.629	448.19
333.857	442.19
334.085	467.19
334.314	472.19
334.542	509.19
334.771	519.19
334.999	500.19
335.227	447.19
335.455	424.19
335.684	426.19
335.912	398.19
336.14	415.19
336.369	400.19
336.597	423.19
336.825	402.19
337.053	411.19
337.281	387.19
337.51	385.19
337.738	390.19
337.966	413.19
338.194	405.19
338.422	440.19
338.65	397.19
338.878	383.19
339.106	410.19
339.334	397.19
339.562	399.19
339.79	394.19
340.018	385.19
340.246	391.19
340.474	414.19
340.702	407.19
340.93	384.19
341.158	393.19
341.386	385.19
341.614	400.19
341.842	413.19
342.07	414.19
342.298	391.19
342.526	387.19
342.754	383.19
342.981	352.19
343.209	382.19
343.437	375.19
343.665	396.19
343.893	396.19
344.12	391.19
344.348	405.19
344.576	410.19
344.804	390.19
345.031	411.19
345.259	394.19
345.487	426.19
345.714	400.19
345.942	393.19
346.17	390.19
346.397	386.19
346.625	378.19
346.853	413.19
347.08	397.19
347.308	377.19
347.535	380.19
347.763	397.19
347.99	392.19
348.218	390.19
348.445	411.19
348.673	405.19
348.9	403.19
349.128	380.19
349.355	343.19
349.583	380.19
349.81	387.19
350.037	388.19
350.265	376.19
350.492	378.19
350.72	378.19
350.947	392.19
351.174	393.19
351.402	390.19
351.629	385.19
351.856	373.19
352.083	392.19
352.311	385.19
352.538	407.19
352.765	410.19
352.992	391.19
353.22	381.19
353.447	381.19
353.674	346.19
353.901	359.19
354.128	370.19
354.355	351.19
354.583	352.19
354.81	354.19
355.037	367.19
355.264	339.19
355.491	362.19
355.718	350.19
355.945	357.19
356.172	350.19
356.399	350.19
356.626	358.19
356.853	349.19
357.08	359.19
357.307	345.19
357.534	350.19
357.761	344.19
357.988	363.19
358.215	359.19
358.441	336.19
358.668	352.19
358.895	378.19
359.122	365.19
359.349	350.19
359.576	397.19
359.802	403.19
360.029	414.19
360.256	455.19
360.483	408.19
360.709	400.19
360.936	386.19
361.163	397.19
361.39	385.19
361.616	409.19
361.843	385.19
362.07	388.19
362.296	385.19
362.523	370.19
362.749	383.19
362.976	373.19
363.203	376.19
363.429	360.19
363.656	362.19
363.882	345.19
364.109	371.19
364.335	377.19
364.562	359.19
364.788	353.19
365.015	347.19
365.241	370.19
365.468	381.19
365.694	361.19
365.92	377.19
366.147	359.19
366.373	339.19
366.599	371.19
366.826	358.19
367.052	368.19
367.278	374.19
367.505	359.19
367.731	367.19
367.957	355.19
368.184	361.19
368.41	375.19
368.636	375.19
368.862	357.19
369.089	367.19
369.315	358.19
369.541	345.19
369.767	363.19
369.993	347.19
370.219	371.19
370.445	360.19
370.672	348.19
370.898	351.19
371.124	351.19
371.35	348.19
371.576	346.19
371.802	359.19
372.028	363.19
372.254	360.19
372.48	333.19
372.706	342.19
372.932	350.19
373.158	343.19
373.384	339.19
373.61	349.19
373.835	349.19
374.061	339.19
374.287	353.19
374.513	332.19
374.739	359.19
374.965	376.19
375.191	337.19
375.416	355.19
375.642	357.19
375.868	348.19
376.094	359.19
376.319	356.19
376.545	357.19
376.771	365.19
376.997	342.19
377.222	351.19
377.448	349.19
377.674	351.19
377.899	343.19
378.125	354.19
378.35	351.19
378.576	341.19
378.802	347.19
379.027	335.19
379.253	366.19
379.478	357.19
379.704	336.19
379.929	375.19
380.155	348.19
380.38	349.19
380.606	360.19
380.831	354.19
381.057	351.19
381.282	340.19
381.507	331.19
381.733	334.19
381.958	337.19
382.184	347.19
382.409	365.19
382.634	353.19
382.86	363.19
383.085	373.19
383.31	368.19
383.535	373.19
383.761	350.19
383.986	354.19
384.211	363.19
384.436	365.19
384.662	370.19
384.887	392.19
385.112	359.19
385.337	368.19
385.562	373.19
385.787	357.19
386.013	375.19
386.238	387.19
386.463	396.19
386.688	373.19
386.913	373.19
387.138	354.19
387.363	383.19
387.588	354.19
387.813	375.19
388.038	376.19
388.263	360.19
388.488	372.19
388.713	364.19
388.938	364.19
389.163	380.19
389.387	370.19
389.612	366.19
389.837	362.19
390.062	358.19
390.287	372.19
390.512	374.19
390.736	375.19
390.961	384.19
391.186	370.19
391.411	389.19
391.636	387.19
391.86	363.19
392.085	383.19
392.31	373.19
392.534	362.19
392.759	376.19
392.984	385.19
393.208	381.19
393.433	386.19
393.658	395.19
393.882	391.19
394.107	357.19
394.331	387.19
394.556	359.19
394.78	381.19
395.005	385.19
395.229	368.19
395.454	385.19
395.678	385.19
395.903	379.19
396.127	432.19
396.352	413.19
396.576	386.19
396.801	408.19
397.025	396.19
397.249	399.19
397.474	402.19
397.698	408.19
397.922	394.19
398.147	438.19
398.371	421.19
398.595	410.19
398.82	415.19
399.044	401.19
399.268	416.19
399.492	447.19
399.717	463.19
399.941	477.19
400.165	494.19
400.389	518.19
400.613	450.19
400.837	444.19
401.062	420.19
401.286	424.19
401.51	427.19
401.734	418.19
401.958	397.19
402.182	427.19
402.406	408.19
402.63	444.19
402.854	416.19
403.078	416.19
403.302	441.19
403.526	444.19
403.75	447.19
403.974	411.19
404.198	415.19
404.422	447.19
404.645	450.19
404.869	431.19
405.093	472.19
405.317	495.19
405.541	564.19
405.765	496.19
405.988	447.19
406.212	462.19
406.436	520.19
406.66	529.19
406.883	496.19
407.107	491.19
407.331	515.19
407.555	586.19
407.778	589.19
408.002	527.19
408.226	483.19
408.449	491.19
408.673	482.19
408.896	499.19
409.12	561.19
409.344	503.19
409.567	463.19
409.791	449.19
410.014	443.19
410.238	433.19
410.461	457.19
410.685	444.19
410.908	479.19
411.132	489.19
411.355	532.19
411.578	512.19
411.802	468.19
412.025	460.19
412.249	447.19
412.472	477.19
412.695	507.19
412.919	489.19
413.142	443.19
413.365	457.19
413.589	432.19
413.812	418.19
414.035	423.19
414.258	422.19
414.482	422.19
414.705	405.19
414.928	394.19
415.151	407.19
415.374	429.19
415.597	406.19
415.821	410.19
416.044	427.19
416.267	417.19
416.49	402.19
416.713	403.19
416.936	413.19
417.159	408.19
417.382	414.19
417.605	411.19
417.828	425.19
418.051	454.19
418.274	435.19
418.497	405.19
418.72	408.19
418.943	384.19
419.166	425.19
419.389	434.19
419.611	446.19
419.834	440.19
420.057	459.19
420.28	435.19
420.503	443.19
420.726	446.19
420.948	445.19
421.171	492.19
421.394	523.19
421.617	465.19
421.839	440.19
422.062	447.19
422.285	454.19
422.507	517.19
422.73	578.19
422.953	545.19
423.175	482.19
423.398	453.19
423.621	471.19
423.843	467.19
424.066	491.19
424.288	454.19
424.511	497.19
424.733	543.19
424.956	624.19
425.178	600.19
425.401	623.19
425.623	602.19
425.846	551.19
426.068	487.19
426.291	475.19
426.513	468.19
426.735	483.19
426.958	515.19
427.18	630.19
427.402	718.19
427.625	818.19
427.847	705.19
428.069	613.19
428.292	535.19
428.514	498.19
428.736	470.19
428.958	457.19
429.181	441.19
429.403	441.19
429.625	445.19
429.847	497.19
430.069	565.19
430.292	537.19
430.514	462.19
430.736	471.19
430.958	435.19
431.18	438.19
431.402	434.19
431.624	405.19
431.846	417.19
432.068	401.19
432.29	395.19
432.512	432.19
432.734	410.19
432.956	432.19
433.178	435.19
433.4	444.19
433.622	439.19
433.844	415.19
434.066	428.19
434.287	407.19
434.509	434.19
434.731	413.19
434.953	430.19
435.175	445.19
435.397	453.19
435.618	478.19
435.84	535.19
436.062	611.19
436.284	703.19
436.505	583.19
436.727	519.19
436.949	473.19
437.17	453.19
437.392	444.19
437.614	480.19
437.835	523.19
438.057	616.19
438.278	697.19
438.5	679.19
438.721	753.19
438.943	719.19
439.165	581.19
439.386	520.19
439.608	531.19
439.829	503.19
440.05	526.19
440.272	588.19
440.493	541.19
440.715	507.19
440.936	488.19
441.158	446.19
441.379	447.19
441.6	441.19
441.822	497.19
442.043	534.19
442.264	607.19
442.486	649.19
442.707	548.19
442.928	489.19
443.149	511.19
443.371	517.19
443.592	542.19
443.813	682.19
444.034	701.19
444.255	569.19
444.476	488.19
444.698	493.19
444.919	479.19
445.14	582.19
445.361	538.19
445.582	541.19
445.803	597.19
446.024	707.19
446.245	723.19
446.466	656.19
446.687	524.19
446.908	516.19
447.129	464.19
447.35	467.19
447.571	465.19
447.792	447.19
448.013	454.19
448.234	473.19
448.455	519.19
448.675	655.19
448.896	758.19
449.117	666.19
449.338	587.19
449.559	691.19
449.779	800.19
450	604.19
450.221	510.19
450.442	474.19
450.662	466.19
450.883	465.19
451.104	493.19
451.324	473.19
451.545	434.19
451.766	422.19
451.986	429.19
452.207	397.19
452.428	410.19
452.648	420.19
452.869	397.19
453.089	408.19
453.31	433.19
453.53	420.19
453.751	393.19
453.971	395.19
454.192	439.19
454.412	431.19
454.633	414.19
454.853	409.19
455.073	411.19
455.294	432.19
455.514	515.19
455.734	474.19
455.955	396.19
456.175	391.19
456.395	385.19
456.616	381.19
456.836	383.19
457.056	390.19
457.276	365.19
457.497	357.19
457.717	379.19
457.937	399.19
458.157	398.19
458.377	391.19
458.598	413.19
458.818	474.19
459.038	552.19
459.258	584.19
459.478	494.19
459.698	434.19
459.918	411.19
460.138	435.19
460.358	409.19
460.578	423.19
460.798	429.19
461.018	441.19
461.238	417.19
461.458	402.19
461.678	408.19
461.898	411.19
462.118	401.19
462.338	423.19
462.558	423.19
462.777	415.19
462.997	407.19
463.217	449.19
463.437	421.19
463.657	442.19
463.876	419.19
464.096	418.19
464.316	427.19
464.536	446.19
464.755	441.19
464.975	470.19
465.195	492.19
465.414	591.19
465.634	517.19
465.854	463.19
466.073	441.19
466.293	428.19
466.512	420.19
466.732	384.19
466.951	417.19
467.171	405.19
467.391	384.19
467.61	421.19
467.829	429.19
468.049	422.19
468.268	426.19
468.488	421.19
468.707	390.19
468.927	391.19
469.146	402.19
469.365	392.19
469.585	393.19
469.804	400.19
470.023	406.19
470.243	428.19
470.462	425.19
470.681	448.19
470.901	428.19
471.12	391.19
471.339	413.19
471.558	423.19
471.777	424.19
471.997	408.19
472.216	429.19
472.435	463.19
472.654	453.19
472.873	426.19
473.092	413.19
473.311	413.19
473.53	419.19
473.749	406.19
473.968	475.19
474.187	546.19
474.406	573.19
474.625	512.19
474.844	466.19
475.063	447.19
475.282	423.19
475.501	423.19
475.72	422.19
475.939	423.19
476.158	418.19
476.377	411.19
476.596	444.19
476.814	445.19
477.033	434.19
477.252	453.19
477.471	445.19
477.69	440.19
477.908	419.19
478.127	448.19
478.346	453.19
478.564	470.19
478.783	455.19
479.002	462.19
479.22	464.19
479.439	462.19
479.658	506.19
479.876	484.19
480.095	517.19
480.313	551.19
480.532	522.19
480.751	502.19
480.969	501.19
481.188	589.19
481.406	634.19
481.624	538.19
481.843	513.19
482.061	488.19
482.28	472.19
482.498	473.19
482.717	502.19
482.935	499.19
483.153	469.19
483.372	493.19
483.59	495.19
483.808	496.19
484.027	502.19
484.245	504.19
484.463	490.19
484.681	509.19
484.9	494.19
485.118	499.19
485.336	486.19
485.554	492.19
485.772	483.19
485.99	489.19
486.209	487.19
486.427	490.19
486.645	523.19
486.863	549.19
487.081	543.19
487.299	524.19
487.517	520.19
487.735	526.19
487.953	539.19
488.171	525.19
488.389	517.19
488.607	518.19
488.825	529.19
489.043	498.19
489.261	511.19
489.479	523.19
489.696	519.19
489.914	549.19
490.132	535.19
490.35	545.19
490.568	575.19
490.786	536.19
491.003	563.19
491.221	567.19
491.439	586.19
491.657	595.19
491.874	599.19
492.092	610.19
492.31	591.19
492.527	605.19
492.745	571.19
492.963	607.19
493.18	606.19
493.398	624.19
493.615	601.19
493.833	595.19
494.05	611.19
494.268	622.19
494.485	612.19
494.703	629.19
494.92	615.19
495.138	615.19
495.355	618.19
495.573	630.19
495.79	621.19
496.008	631.19
496.225	615.19
496.442	627.19
496.66	622.19
496.877	634.19
497.094	618.19
497.312	615.19
497.529	614.19
497.746	625.19
497.963	659.19
498.181	665.19
498.398	661.19
498.615	645.19
498.832	679.19
499.049	680.19
499.267	656.19
499.484	697.19
499.701	729.19
499.918	726.19
500.135	769.19
500.352	767.19
500.569	782.19
500.786	782.19
501.003	774.19
501.22	768.19
501.437	737.19
501.654	750.19
501.871	759.19
