Data from 1972.PennyLincolnUp.Lamp.En5.5.200Scan.071719.P1._HRD10591_15-28-45-844.txt Node
Date: Thu Jul 18 15:28:45 EDT 2019
User: cochatt
Spectrometer: HR+D1059
Trigger mode: 1
Integration Time (sec): 1.000000E-1
Scans to average: 1
Electric dark correction enabled: true
Nonlinearity correction enabled: false
Boxcar width: 0
XAxis mode: Wavelengths
Number of Pixels in Spectrum: 2048
>>>>>Begin Spectral Data<<<<<
223.165	-13.19
223.4	-13.19
223.635	-13.19
223.869	-16.19
224.104	-17.19
224.338	-16.19
224.573	-22.19
224.808	-20.19
225.042	-12.19
225.277	-15.19
225.511	5.81
225.746	-1.19
225.98	1.81
226.215	19.81
226.449	14.81
226.683	22.81
226.918	24.81
227.152	43.81
227.387	27.81
227.621	27.81
227.856	46.81
228.09	21.81
228.324	50.81
228.559	43.81
228.793	57.81
229.027	96.81
229.262	101.81
229.496	138.81
229.73	148.81
229.964	180.81
230.199	133.81
230.433	131.81
230.667	123.81
230.901	113.81
231.136	112.81
231.37	117.81
231.604	118.81
231.838	120.81
232.072	104.81
232.306	117.81
232.541	102.81
232.775	95.81
233.009	117.81
233.243	106.81
233.477	106.81
233.711	112.81
233.945	117.81
234.179	115.81
234.413	122.81
234.647	112.81
234.881	110.81
235.115	112.81
235.349	115.81
235.583	106.81
235.817	121.81
236.051	114.81
236.285	132.81
236.519	131.81
236.753	132.81
236.987	145.81
237.221	192.81
237.455	257.81
237.689	202.81
237.922	137.81
238.156	127.81
238.39	130.81
238.624	111.81
238.858	115.81
239.091	113.81
239.325	143.81
239.559	119.81
239.793	139.81
240.027	140.81
240.26	127.81
240.494	148.81
240.728	154.81
240.961	150.81
241.195	136.81
241.429	133.81
241.662	135.81
241.896	150.81
242.13	127.81
242.363	134.81
242.597	135.81
242.83	144.81
243.064	135.81
243.298	133.81
243.531	150.81
243.765	146.81
243.998	138.81
244.232	138.81
244.465	135.81
244.699	143.81
244.932	139.81
245.166	138.81
245.399	142.81
245.633	148.81
245.866	145.81
246.099	153.81
246.333	145.81
246.566	151.81
246.8	146.81
247.033	164.81
247.266	162.81
247.5	164.81
247.733	167.81
247.966	181.81
248.2	162.81
248.433	179.81
248.666	170.81
248.899	197.81
249.133	211.81
249.366	213.81
249.599	208.81
249.832	188.81
250.066	178.81
250.299	211.81
250.532	194.81
250.765	211.81
250.998	199.81
251.231	239.81
251.465	217.81
251.698	225.81
251.931	197.81
252.164	204.81
252.397	198.81
252.63	206.81
252.863	218.81
253.096	220.81
253.329	213.81
253.562	223.81
253.795	224.81
254.028	213.81
254.261	228.81
254.494	247.81
254.727	271.81
254.96	306.81
255.193	283.81
255.426	245.81
255.659	227.81
255.892	241.81
256.124	240.81
256.357	266.81
256.59	264.81
256.823	248.81
257.056	236.81
257.289	237.81
257.521	211.81
257.754	212.81
257.987	207.81
258.22	199.81
258.452	209.81
258.685	223.81
258.918	221.81
259.151	216.81
259.383	230.81
259.616	230.81
259.849	239.81
260.081	241.81
260.314	257.81
260.547	253.81
260.779	259.81
261.012	258.81
261.244	230.81
261.477	235.81
261.71	232.81
261.942	240.81
262.175	239.81
262.407	227.81
262.64	237.81
262.872	234.81
263.105	234.81
263.337	218.81
263.57	210.81
263.802	213.81
264.035	213.81
264.267	217.81
264.499	216.81
264.732	223.81
264.964	213.81
265.197	209.81
265.429	217.81
265.661	213.81
265.894	205.81
266.126	216.81
266.358	243.81
266.591	214.81
266.823	239.81
267.055	207.81
267.287	243.81
267.52	220.81
267.752	231.81
267.984	222.81
268.216	234.81
268.448	236.81
268.681	225.81
268.913	263.81
269.145	265.81
269.377	272.81
269.609	278.81
269.841	295.81
270.073	267.81
270.306	278.81
270.538	333.81
270.77	328.81
271.002	310.81
271.234	305.81
271.466	301.81
271.698	318.81
271.93	325.81
272.162	345.81
272.394	312.81
272.626	302.81
272.858	292.81
273.09	292.81
273.322	278.81
273.553	269.81
273.785	272.81
274.017	273.81
274.249	267.81
274.481	289.81
274.713	288.81
274.945	277.81
275.176	268.81
275.408	251.81
275.64	263.81
275.872	269.81
276.104	249.81
276.335	265.81
276.567	278.81
276.799	291.81
277.031	338.81
277.262	330.81
277.494	340.81
277.726	310.81
277.957	293.81
278.189	301.81
278.421	275.81
278.652	283.81
278.884	285.81
279.115	274.81
279.347	260.81
279.579	283.81
279.81	266.81
280.042	283.81
280.273	280.81
280.505	260.81
280.736	257.81
280.968	243.81
281.199	253.81
281.431	252.81
281.662	268.81
281.894	275.81
282.125	261.81
282.356	305.81
282.588	313.81
282.819	331.81
283.051	278.81
283.282	272.81
283.513	264.81
283.745	280.81
283.976	280.81
284.207	261.81
284.439	248.81
284.67	278.81
284.901	297.81
285.132	274.81
285.364	267.81
285.595	269.81
285.826	253.81
286.057	264.81
286.288	263.81
286.52	265.81
286.751	281.81
286.982	258.81
287.213	281.81
287.444	265.81
287.675	281.81
287.906	260.81
288.138	287.81
288.369	296.81
288.6	307.81
288.831	309.81
289.062	284.81
289.293	289.81
289.524	280.81
289.755	285.81
289.986	281.81
290.217	281.81
290.448	270.81
290.679	271.81
290.91	271.81
291.141	282.81
291.371	270.81
291.602	284.81
291.833	283.81
292.064	275.81
292.295	282.81
292.526	286.81
292.757	291.81
292.987	271.81
293.218	281.81
293.449	281.81
293.68	273.81
293.91	313.81
294.141	276.81
294.372	261.81
294.603	279.81
294.833	273.81
295.064	266.81
295.295	286.81
295.525	277.81
295.756	296.81
295.987	304.81
296.217	335.81
296.448	322.81
296.679	289.81
296.909	285.81
297.14	295.81
297.37	288.81
297.601	288.81
297.831	283.81
298.062	289.81
298.292	295.81
298.523	307.81
298.753	285.81
298.984	292.81
299.214	289.81
299.445	289.81
299.675	308.81
299.905	304.81
300.136	303.81
300.366	306.81
300.597	307.81
300.827	293.81
301.057	322.81
301.288	309.81
301.518	313.81
301.748	299.81
301.979	303.81
302.209	312.81
302.439	317.81
302.669	301.81
302.9	334.81
303.13	322.81
303.36	331.81
303.59	329.81
303.82	330.81
304.051	331.81
304.281	313.81
304.511	320.81
304.741	310.81
304.971	299.81
305.201	325.81
305.431	317.81
305.661	336.81
305.891	332.81
306.121	310.81
306.352	319.81
306.582	313.81
306.812	326.81
307.042	327.81
307.272	314.81
307.502	330.81
307.731	337.81
307.961	325.81
308.191	324.81
308.421	320.81
308.651	325.81
308.881	318.81
309.111	321.81
309.341	352.81
309.571	342.81
309.8	368.81
310.03	367.81
310.26	377.81
310.49	381.81
310.72	380.81
310.949	383.81
311.179	399.81
311.409	375.81
311.639	394.81
311.868	374.81
312.098	375.81
312.328	413.81
312.557	397.81
312.787	395.81
313.017	421.81
313.246	406.81
313.476	385.81
313.706	383.81
313.935	400.81
314.165	388.81
314.394	409.81
314.624	413.81
314.853	395.81
315.083	361.81
315.312	376.81
315.542	382.81
315.771	379.81
316.001	354.81
316.23	365.81
316.46	373.81
316.689	379.81
316.919	369.81
317.148	382.81
317.377	421.81
317.607	397.81
317.836	393.81
318.065	392.81
318.295	362.81
318.524	343.81
318.753	377.81
318.983	369.81
319.212	367.81
319.441	369.81
319.67	380.81
319.9	365.81
320.129	381.81
320.358	366.81
320.587	404.81
320.816	395.81
321.046	413.81
321.275	394.81
321.504	411.81
321.733	419.81
321.962	440.81
322.191	425.81
322.42	452.81
322.649	443.81
322.878	470.81
323.108	493.81
323.337	500.81
323.566	539.81
323.795	601.81
324.024	637.81
324.253	798.81
324.482	1172.81
324.71	1845.81
324.939	2682.81
325.168	2373.81
325.397	1192.81
325.626	776.81
325.855	637.81
326.084	543.81
326.313	569.81
326.542	541.81
326.77	593.81
326.999	715.81
327.228	1034.81
327.457	1624.81
327.686	2007.81
327.914	1350.81
328.143	858.81
328.372	715.81
328.6	684.81
328.829	611.81
329.058	622.81
329.287	653.81
329.515	623.81
329.744	563.81
329.972	539.81
330.201	582.81
330.43	615.81
330.658	654.81
330.887	675.81
331.115	671.81
331.344	554.81
331.572	513.81
331.801	531.81
332.03	504.81
332.258	458.81
332.486	455.81
332.715	446.81
332.943	450.81
333.172	459.81
333.4	435.81
333.629	467.81
333.857	508.81
334.085	514.81
334.314	512.81
334.542	578.81
334.771	614.81
334.999	522.81
335.227	471.81
335.455	454.81
335.684	448.81
335.912	394.81
336.14	435.81
336.369	430.81
336.597	439.81
336.825	455.81
337.053	438.81
337.281	425.81
337.51	415.81
337.738	416.81
337.966	416.81
338.194	414.81
338.422	453.81
338.65	423.81
338.878	422.81
339.106	403.81
339.334	422.81
339.562	417.81
339.79	420.81
340.018	421.81
340.246	401.81
340.474	407.81
340.702	433.81
340.93	418.81
341.158	410.81
341.386	417.81
341.614	411.81
341.842	403.81
342.07	409.81
342.298	416.81
342.526	419.81
342.754	379.81
342.981	407.81
343.209	400.81
343.437	401.81
343.665	417.81
343.893	417.81
344.12	410.81
344.348	439.81
344.576	418.81
344.804	418.81
345.031	427.81
345.259	441.81
345.487	420.81
345.714	411.81
345.942	418.81
346.17	409.81
346.397	407.81
346.625	391.81
346.853	386.81
347.08	404.81
347.308	433.81
347.535	413.81
347.763	440.81
347.99	418.81
348.218	439.81
348.445	413.81
348.673	436.81
348.9	415.81
349.128	410.81
349.355	419.81
349.583	389.81
349.81	385.81
350.037	393.81
350.265	384.81
350.492	375.81
350.72	403.81
350.947	394.81
351.174	421.81
351.402	426.81
351.629	424.81
351.856	413.81
352.083	429.81
352.311	413.81
352.538	424.81
352.765	419.81
352.992	431.81
353.22	406.81
353.447	402.81
353.674	394.81
353.901	391.81
354.128	369.81
354.355	379.81
354.583	373.81
354.81	360.81
355.037	367.81
355.264	361.81
355.491	369.81
355.718	368.81
355.945	357.81
356.172	369.81
356.399	360.81
356.626	346.81
356.853	368.81
357.08	362.81
357.307	355.81
357.534	347.81
357.761	363.81
357.988	348.81
358.215	367.81
358.441	371.81
358.668	367.81
358.895	368.81
359.122	384.81
359.349	384.81
359.576	405.81
359.802	423.81
360.029	472.81
360.256	477.81
360.483	444.81
360.709	415.81
360.936	393.81
361.163	385.81
361.39	396.81
361.616	414.81
361.843	399.81
362.07	408.81
362.296	414.81
362.523	405.81
362.749	394.81
362.976	394.81
363.203	394.81
363.429	388.81
363.656	386.81
363.882	398.81
364.109	386.81
364.335	372.81
364.562	385.81
364.788	379.81
365.015	378.81
365.241	360.81
365.468	369.81
365.694	385.81
365.92	383.81
366.147	387.81
366.373	375.81
366.599	373.81
366.826	377.81
367.052	384.81
367.278	385.81
367.505	382.81
367.731	384.81
367.957	402.81
368.184	377.81
368.41	394.81
368.636	375.81
368.862	392.81
369.089	394.81
369.315	377.81
369.541	375.81
369.767	382.81
369.993	352.81
370.219	376.81
370.445	361.81
370.672	375.81
370.898	381.81
371.124	362.81
371.35	358.81
371.576	356.81
371.802	367.81
372.028	371.81
372.254	361.81
372.48	359.81
372.706	356.81
372.932	377.81
373.158	359.81
373.384	366.81
373.61	357.81
373.835	369.81
374.061	372.81
374.287	369.81
374.513	386.81
374.739	373.81
374.965	373.81
375.191	367.81
375.416	381.81
375.642	343.81
375.868	367.81
376.094	371.81
376.319	344.81
376.545	371.81
376.771	358.81
376.997	365.81
377.222	355.81
377.448	361.81
377.674	368.81
377.899	351.81
378.125	337.81
378.35	365.81
378.576	337.81
378.802	357.81
379.027	363.81
379.253	363.81
379.478	355.81
379.704	354.81
379.929	329.81
380.155	379.81
380.38	383.81
380.606	373.81
380.831	359.81
381.057	355.81
381.282	354.81
381.507	355.81
381.733	367.81
381.958	373.81
382.184	363.81
382.409	371.81
382.634	385.81
382.86	367.81
383.085	384.81
383.31	384.81
383.535	369.81
383.761	368.81
383.986	377.81
384.211	383.81
384.436	378.81
384.662	371.81
384.887	362.81
385.112	366.81
385.337	381.81
385.562	386.81
385.787	382.81
386.013	374.81
386.238	387.81
386.463	407.81
386.688	399.81
386.913	367.81
387.138	379.81
387.363	404.81
387.588	378.81
387.813	372.81
388.038	382.81
388.263	382.81
388.488	383.81
388.713	369.81
388.938	387.81
389.163	396.81
389.387	393.81
389.612	375.81
389.837	407.81
390.062	393.81
390.287	377.81
390.512	392.81
390.736	411.81
390.961	383.81
391.186	411.81
391.411	396.81
391.636	393.81
391.86	395.81
392.085	381.81
392.31	375.81
392.534	381.81
392.759	405.81
392.984	383.81
393.208	396.81
393.433	397.81
393.658	395.81
393.882	380.81
394.107	396.81
394.331	371.81
394.556	373.81
394.78	376.81
395.005	391.81
395.229	384.81
395.454	378.81
395.678	395.81
395.903	418.81
396.127	437.81
396.352	441.81
396.576	401.81
396.801	413.81
397.025	403.81
397.249	409.81
397.474	400.81
397.698	410.81
397.922	412.81
398.147	445.81
398.371	457.81
398.595	415.81
398.82	422.81
399.044	447.81
399.268	447.81
399.492	463.81
399.717	487.81
399.941	508.81
400.165	536.81
400.389	534.81
400.613	496.81
400.837	464.81
401.062	458.81
401.286	445.81
401.51	435.81
401.734	418.81
401.958	450.81
402.182	439.81
402.406	445.81
402.63	449.81
402.854	462.81
403.078	440.81
403.302	458.81
403.526	472.81
403.75	457.81
403.974	452.81
404.198	443.81
404.422	456.81
404.645	467.81
404.869	491.81
405.093	488.81
405.317	540.81
405.541	599.81
405.765	528.81
405.988	502.81
406.212	494.81
406.436	530.81
406.66	545.81
406.883	528.81
407.107	531.81
407.331	554.81
407.555	637.81
407.778	635.81
408.002	577.81
408.226	531.81
408.449	521.81
408.673	505.81
408.896	540.81
409.12	590.81
409.344	539.81
409.567	479.81
409.791	467.81
410.014	454.81
410.238	432.81
410.461	443.81
410.685	461.81
410.908	459.81
411.132	507.81
411.355	535.81
411.578	541.81
411.802	471.81
412.025	458.81
412.249	475.81
412.472	505.81
412.695	555.81
412.919	555.81
413.142	486.81
413.365	480.81
413.589	451.81
413.812	435.81
414.035	458.81
414.258	441.81
414.482	424.81
414.705	443.81
414.928	446.81
415.151	437.81
415.374	412.81
415.597	419.81
415.821	428.81
416.044	415.81
416.267	432.81
416.49	429.81
416.713	417.81
416.936	422.81
417.159	431.81
417.382	453.81
417.605	434.81
417.828	453.81
418.051	473.81
418.274	462.81
418.497	435.81
418.72	454.81
418.943	436.81
419.166	445.81
419.389	460.81
419.611	467.81
419.834	475.81
420.057	458.81
420.28	470.81
420.503	468.81
420.726	458.81
420.948	466.81
421.171	519.81
421.394	551.81
421.617	490.81
421.839	467.81
422.062	467.81
422.285	470.81
422.507	545.81
422.73	613.81
422.953	612.81
423.175	543.81
423.398	508.81
423.621	486.81
423.843	488.81
424.066	516.81
424.288	514.81
424.511	525.81
424.733	602.81
424.956	683.81
425.178	637.81
425.401	632.81
425.623	661.81
425.846	579.81
426.068	520.81
426.291	504.81
426.513	518.81
426.735	515.81
426.958	567.81
427.18	673.81
427.402	805.81
427.625	874.81
427.847	779.81
428.069	699.81
428.292	610.81
428.514	529.81
428.736	525.81
428.958	481.81
429.181	459.81
429.403	463.81
429.625	470.81
429.847	521.81
430.069	594.81
430.292	589.81
430.514	503.81
430.736	490.81
430.958	467.81
431.18	458.81
431.402	443.81
431.624	426.81
431.846	422.81
432.068	431.81
432.29	439.81
432.512	425.81
432.734	450.81
432.956	455.81
433.178	472.81
433.4	457.81
433.622	455.81
433.844	430.81
434.066	447.81
434.287	451.81
434.509	450.81
434.731	436.81
434.953	443.81
435.175	456.81
435.397	474.81
435.618	521.81
435.84	575.81
436.062	678.81
436.284	753.81
436.505	625.81
436.727	544.81
436.949	489.81
437.17	493.81
437.392	481.81
437.614	507.81
437.835	549.81
438.057	649.81
438.278	733.81
438.5	751.81
438.721	809.81
438.943	785.81
439.165	634.81
439.386	554.81
439.608	545.81
439.829	559.81
440.05	608.81
440.272	629.81
440.493	598.81
440.715	521.81
440.936	484.81
441.158	489.81
441.379	474.81
441.6	507.81
441.822	514.81
442.043	561.81
442.264	662.81
442.486	712.81
442.707	587.81
442.928	566.81
443.149	544.81
443.371	566.81
443.592	615.81
443.813	708.81
444.034	772.81
444.255	636.81
444.476	549.81
444.698	537.81
444.919	504.81
445.14	605.81
445.361	547.81
445.582	571.81
445.803	644.81
446.024	753.81
446.245	760.81
446.466	688.81
446.687	563.81
446.908	544.81
447.129	501.81
447.35	498.81
447.571	486.81
447.792	490.81
448.013	480.81
448.234	520.81
448.455	587.81
448.675	684.81
448.896	798.81
449.117	694.81
449.338	645.81
449.559	759.81
449.779	842.81
450	676.81
450.221	557.81
450.442	537.81
450.662	498.81
450.883	511.81
451.104	506.81
451.324	482.81
451.545	474.81
451.766	436.81
451.986	435.81
452.207	450.81
452.428	439.81
452.648	433.81
452.869	410.81
453.089	441.81
453.31	446.81
453.53	456.81
453.751	420.81
453.971	439.81
454.192	462.81
454.412	425.81
454.633	443.81
454.853	421.81
455.073	423.81
455.294	468.81
455.514	542.81
455.734	527.81
455.955	449.81
456.175	407.81
456.395	390.81
456.616	407.81
456.836	415.81
457.056	390.81
457.276	385.81
457.497	390.81
457.717	394.81
457.937	391.81
458.157	398.81
458.377	417.81
458.598	448.81
458.818	517.81
459.038	597.81
459.258	645.81
459.478	518.81
459.698	455.81
459.918	451.81
460.138	447.81
460.358	415.81
460.578	417.81
460.798	437.81
461.018	437.81
461.238	434.81
461.458	424.81
461.678	421.81
461.898	423.81
462.118	431.81
462.338	424.81
462.558	441.81
462.777	443.81
462.997	446.81
463.217	437.81
463.437	448.81
463.657	439.81
463.876	445.81
464.096	438.81
464.316	445.81
464.536	459.81
464.755	472.81
464.975	465.81
465.195	524.81
465.414	625.81
465.634	521.81
465.854	475.81
466.073	457.81
466.293	442.81
466.512	436.81
466.732	441.81
466.951	444.81
467.171	433.81
467.391	414.81
467.61	444.81
467.829	456.81
468.049	422.81
468.268	463.81
468.488	444.81
468.707	422.81
468.927	429.81
469.146	415.81
469.365	410.81
469.585	413.81
469.804	440.81
470.023	439.81
470.243	435.81
470.462	459.81
470.681	446.81
470.901	465.81
471.12	431.81
471.339	431.81
471.558	458.81
471.777	439.81
471.997	419.81
472.216	453.81
472.435	502.81
472.654	478.81
472.873	441.81
473.092	426.81
473.311	444.81
473.53	440.81
473.749	453.81
473.968	505.81
474.187	610.81
474.406	635.81
474.625	529.81
474.844	469.81
475.063	438.81
475.282	434.81
475.501	443.81
475.72	464.81
475.939	453.81
476.158	445.81
476.377	446.81
476.596	451.81
476.814	442.81
477.033	477.81
477.252	464.81
477.471	452.81
477.69	461.81
477.908	467.81
478.127	490.81
478.346	472.81
478.564	484.81
478.783	458.81
479.002	478.81
479.22	486.81
479.439	509.81
479.658	513.81
479.876	526.81
480.095	547.81
480.313	561.81
480.532	535.81
480.751	535.81
480.969	551.81
481.188	637.81
481.406	715.81
481.624	631.81
481.843	535.81
482.061	528.81
482.28	518.81
482.498	518.81
482.717	497.81
482.935	517.81
483.153	520.81
483.372	498.81
483.59	496.81
483.808	485.81
484.027	490.81
484.245	494.81
484.463	511.81
484.681	539.81
484.9	535.81
485.118	499.81
485.336	534.81
485.554	547.81
485.772	530.81
485.99	522.81
486.209	521.81
486.427	530.81
486.645	546.81
486.863	566.81
487.081	585.81
487.299	545.81
487.517	560.81
487.735	551.81
487.953	540.81
488.171	569.81
488.389	565.81
488.607	571.81
488.825	563.81
489.043	568.81
489.261	559.81
489.479	554.81
489.696	585.81
489.914	573.81
490.132	585.81
490.35	590.81
490.568	578.81
490.786	579.81
491.003	607.81
491.221	586.81
491.439	637.81
491.657	633.81
491.874	637.81
492.092	616.81
492.31	631.81
492.527	634.81
492.745	639.81
492.963	644.81
493.18	662.81
493.398	664.81
493.615	657.81
493.833	672.81
494.05	685.81
494.268	645.81
494.485	652.81
494.703	673.81
494.92	645.81
495.138	662.81
495.355	650.81
495.573	639.81
495.79	651.81
496.008	651.81
496.225	669.81
496.442	670.81
496.66	670.81
496.877	662.81
497.094	680.81
497.312	672.81
497.529	680.81
497.746	693.81
497.963	691.81
498.181	703.81
498.398	739.81
498.615	749.81
498.832	707.81
499.049	714.81
499.267	736.81
499.484	722.81
499.701	742.81
499.918	772.81
500.135	780.81
500.352	817.81
500.569	831.81
500.786	817.81
501.003	795.81
501.22	810.81
501.437	806.81
501.654	804.81
501.871	813.81
