Data from 1972.PennyLincolnUp.Lamp.En5.5.200Scan.071719.P1._HRD10591_15-28-36-844.txt Node
Date: Thu Jul 18 15:28:36 EDT 2019
User: cochatt
Spectrometer: HR+D1059
Trigger mode: 1
Integration Time (sec): 1.000000E-1
Scans to average: 1
Electric dark correction enabled: true
Nonlinearity correction enabled: false
Boxcar width: 0
XAxis mode: Wavelengths
Number of Pixels in Spectrum: 2048
>>>>>Begin Spectral Data<<<<<
223.165	-16.56
223.4	-16.56
223.635	-16.56
223.869	-23.56
224.104	-27.56
224.338	-11.56
224.573	-12.56
224.808	-0.56
225.042	9.44
225.277	-21.56
225.511	1.44
225.746	-5.56
225.98	11.44
226.215	16.44
226.449	28.44
226.683	15.44
226.918	18.44
227.152	18.44
227.387	33.44
227.621	44.44
227.856	56.44
228.09	41.44
228.324	62.44
228.559	51.44
228.793	55.44
229.027	96.44
229.262	103.44
229.496	126.44
229.73	136.44
229.964	160.44
230.199	142.44
230.433	108.44
230.667	108.44
230.901	124.44
231.136	107.44
231.37	126.44
231.604	106.44
231.838	106.44
232.072	111.44
232.306	122.44
232.541	119.44
232.775	88.44
233.009	104.44
233.243	101.44
233.477	124.44
233.711	120.44
233.945	117.44
234.179	126.44
234.413	113.44
234.647	124.44
234.881	118.44
235.115	111.44
235.349	112.44
235.583	122.44
235.817	124.44
236.051	136.44
236.285	144.44
236.519	128.44
236.753	132.44
236.987	159.44
237.221	189.44
237.455	267.44
237.689	199.44
237.922	152.44
238.156	154.44
238.39	139.44
238.624	116.44
238.858	124.44
239.091	116.44
239.325	127.44
239.559	123.44
239.793	115.44
240.027	126.44
240.26	134.44
240.494	164.44
240.728	140.44
240.961	139.44
241.195	133.44
241.429	134.44
241.662	133.44
241.896	119.44
242.13	126.44
242.363	126.44
242.597	137.44
242.83	148.44
243.064	138.44
243.298	135.44
243.531	139.44
243.765	140.44
243.998	146.44
244.232	150.44
244.465	154.44
244.699	140.44
244.932	142.44
245.166	140.44
245.399	135.44
245.633	145.44
245.866	128.44
246.099	154.44
246.333	151.44
246.566	152.44
246.8	145.44
247.033	162.44
247.266	156.44
247.5	172.44
247.733	164.44
247.966	157.44
248.2	160.44
248.433	179.44
248.666	160.44
248.899	196.44
249.133	202.44
249.366	228.44
249.599	205.44
249.832	196.44
250.066	201.44
250.299	182.44
250.532	196.44
250.765	208.44
250.998	251.44
251.231	231.44
251.465	223.44
251.698	233.44
251.931	214.44
252.164	196.44
252.397	197.44
252.63	204.44
252.863	211.44
253.096	239.44
253.329	237.44
253.562	245.44
253.795	244.44
254.028	231.44
254.261	202.44
254.494	226.44
254.727	262.44
254.96	294.44
255.193	286.44
255.426	261.44
255.659	241.44
255.892	243.44
256.124	237.44
256.357	250.44
256.59	237.44
256.823	237.44
257.056	226.44
257.289	214.44
257.521	212.44
257.754	231.44
257.987	223.44
258.22	210.44
258.452	208.44
258.685	204.44
258.918	213.44
259.151	214.44
259.383	225.44
259.616	237.44
259.849	230.44
260.081	247.44
260.314	271.44
260.547	265.44
260.779	264.44
261.012	246.44
261.244	228.44
261.477	238.44
261.71	232.44
261.942	245.44
262.175	252.44
262.407	243.44
262.64	210.44
262.872	218.44
263.105	231.44
263.337	207.44
263.57	208.44
263.802	217.44
264.035	214.44
264.267	208.44
264.499	208.44
264.732	218.44
264.964	199.44
265.197	225.44
265.429	228.44
265.661	210.44
265.894	207.44
266.126	214.44
266.358	209.44
266.591	219.44
266.823	245.44
267.055	220.44
267.287	224.44
267.52	242.44
267.752	225.44
267.984	223.44
268.216	237.44
268.448	230.44
268.681	237.44
268.913	239.44
269.145	248.44
269.377	269.44
269.609	287.44
269.841	278.44
270.073	262.44
270.306	292.44
270.538	322.44
270.77	335.44
271.002	326.44
271.234	295.44
271.466	322.44
271.698	323.44
271.93	323.44
272.162	325.44
272.394	304.44
272.626	310.44
272.858	298.44
273.09	297.44
273.322	281.44
273.553	262.44
273.785	266.44
274.017	279.44
274.249	282.44
274.481	264.44
274.713	285.44
274.945	270.44
275.176	271.44
275.408	261.44
275.64	261.44
275.872	262.44
276.104	263.44
276.335	258.44
276.567	270.44
276.799	301.44
277.031	313.44
277.262	342.44
277.494	321.44
277.726	290.44
277.957	288.44
278.189	286.44
278.421	274.44
278.652	275.44
278.884	275.44
279.115	278.44
279.347	276.44
279.579	264.44
279.81	263.44
280.042	248.44
280.273	265.44
280.505	280.44
280.736	269.44
280.968	268.44
281.199	268.44
281.431	263.44
281.662	250.44
281.894	263.44
282.125	278.44
282.356	283.44
282.588	305.44
282.819	328.44
283.051	278.44
283.282	280.44
283.513	261.44
283.745	286.44
283.976	271.44
284.207	295.44
284.439	278.44
284.67	263.44
284.901	279.44
285.132	267.44
285.364	270.44
285.595	262.44
285.826	272.44
286.057	293.44
286.288	282.44
286.52	283.44
286.751	274.44
286.982	275.44
287.213	263.44
287.444	272.44
287.675	285.44
287.906	278.44
288.138	303.44
288.369	279.44
288.6	304.44
288.831	284.44
289.062	277.44
289.293	287.44
289.524	276.44
289.755	295.44
289.986	272.44
290.217	278.44
290.448	268.44
290.679	282.44
290.91	276.44
291.141	267.44
291.371	279.44
291.602	263.44
291.833	269.44
292.064	292.44
292.295	290.44
292.526	271.44
292.757	296.44
292.987	277.44
293.218	284.44
293.449	294.44
293.68	290.44
293.91	273.44
294.141	291.44
294.372	274.44
294.603	281.44
294.833	271.44
295.064	293.44
295.295	296.44
295.525	301.44
295.756	291.44
295.987	311.44
296.217	326.44
296.448	335.44
296.679	309.44
296.909	276.44
297.14	293.44
297.37	293.44
297.601	302.44
297.831	279.44
298.062	265.44
298.292	278.44
298.523	306.44
298.753	297.44
298.984	316.44
299.214	292.44
299.445	271.44
299.675	291.44
299.905	315.44
300.136	320.44
300.366	293.44
300.597	306.44
300.827	306.44
301.057	323.44
301.288	314.44
301.518	336.44
301.748	288.44
301.979	317.44
302.209	317.44
302.439	314.44
302.669	322.44
302.9	320.44
303.13	311.44
303.36	317.44
303.59	324.44
303.82	327.44
304.051	332.44
304.281	316.44
304.511	319.44
304.741	304.44
304.971	307.44
305.201	323.44
305.431	311.44
305.661	310.44
305.891	308.44
306.121	297.44
306.352	322.44
306.582	308.44
306.812	304.44
307.042	322.44
307.272	311.44
307.502	306.44
307.731	333.44
307.961	334.44
308.191	308.44
308.421	328.44
308.651	325.44
308.881	336.44
309.111	334.44
309.341	336.44
309.571	354.44
309.8	367.44
310.03	374.44
310.26	382.44
310.49	376.44
310.72	393.44
310.949	412.44
311.179	411.44
311.409	391.44
311.639	383.44
311.868	396.44
312.098	374.44
312.328	370.44
312.557	387.44
312.787	423.44
313.017	412.44
313.246	394.44
313.476	383.44
313.706	376.44
313.935	391.44
314.165	398.44
314.394	396.44
314.624	412.44
314.853	390.44
315.083	382.44
315.312	372.44
315.542	358.44
315.771	342.44
316.001	355.44
316.23	368.44
316.46	352.44
316.689	368.44
316.919	371.44
317.148	406.44
317.377	396.44
317.607	378.44
317.836	398.44
318.065	364.44
318.295	381.44
318.524	377.44
318.753	362.44
318.983	394.44
319.212	382.44
319.441	384.44
319.67	393.44
319.9	403.44
320.129	374.44
320.358	377.44
320.587	375.44
320.816	395.44
321.046	412.44
321.275	403.44
321.504	402.44
321.733	399.44
321.962	431.44
322.191	434.44
322.42	446.44
322.649	472.44
322.878	471.44
323.108	485.44
323.337	545.44
323.566	539.44
323.795	592.44
324.024	661.44
324.253	807.44
324.482	1193.44
324.71	1858.44
324.939	2756.44
325.168	2428.44
325.397	1200.44
325.626	793.44
325.855	609.44
326.084	562.44
326.313	546.44
326.542	569.44
326.77	605.44
326.999	728.44
327.228	1054.44
327.457	1647.44
327.686	2075.44
327.914	1370.44
328.143	858.44
328.372	730.44
328.6	686.44
328.829	628.44
329.058	673.44
329.287	678.44
329.515	626.44
329.744	560.44
329.972	549.44
330.201	598.44
330.43	635.44
330.658	656.44
330.887	708.44
331.115	669.44
331.344	578.44
331.572	524.44
331.801	543.44
332.03	540.44
332.258	486.44
332.486	464.44
332.715	443.44
332.943	444.44
333.172	439.44
333.4	464.44
333.629	465.44
333.857	475.44
334.085	476.44
334.314	524.44
334.542	566.44
334.771	580.44
334.999	491.44
335.227	468.44
335.455	464.44
335.684	456.44
335.912	444.44
336.14	435.44
336.369	406.44
336.597	457.44
336.825	422.44
337.053	414.44
337.281	423.44
337.51	417.44
337.738	427.44
337.966	414.44
338.194	426.44
338.422	439.44
338.65	434.44
338.878	422.44
339.106	406.44
339.334	411.44
339.562	413.44
339.79	439.44
340.018	416.44
340.246	428.44
340.474	416.44
340.702	426.44
340.93	403.44
341.158	410.44
341.386	408.44
341.614	432.44
341.842	427.44
342.07	424.44
342.298	415.44
342.526	392.44
342.754	406.44
342.981	399.44
343.209	399.44
343.437	406.44
343.665	394.44
343.893	414.44
344.12	399.44
344.348	407.44
344.576	415.44
344.804	415.44
345.031	417.44
345.259	452.44
345.487	428.44
345.714	437.44
345.942	410.44
346.17	420.44
346.397	412.44
346.625	388.44
346.853	422.44
347.08	383.44
347.308	412.44
347.535	402.44
347.763	433.44
347.99	428.44
348.218	420.44
348.445	418.44
348.673	435.44
348.9	399.44
349.128	410.44
349.355	390.44
349.583	373.44
349.81	390.44
350.037	381.44
350.265	390.44
350.492	397.44
350.72	412.44
350.947	385.44
351.174	404.44
351.402	412.44
351.629	423.44
351.856	443.44
352.083	434.44
352.311	440.44
352.538	442.44
352.765	436.44
352.992	413.44
353.22	406.44
353.447	407.44
353.674	383.44
353.901	372.44
354.128	379.44
354.355	381.44
354.583	371.44
354.81	391.44
355.037	376.44
355.264	377.44
355.491	366.44
355.718	380.44
355.945	379.44
356.172	356.44
356.399	362.44
356.626	350.44
356.853	361.44
357.08	359.44
357.307	376.44
357.534	348.44
357.761	355.44
357.988	358.44
358.215	355.44
358.441	384.44
358.668	378.44
358.895	376.44
359.122	365.44
359.349	408.44
359.576	400.44
359.802	431.44
360.029	483.44
360.256	484.44
360.483	463.44
360.709	416.44
360.936	415.44
361.163	415.44
361.39	425.44
361.616	406.44
361.843	412.44
362.07	407.44
362.296	398.44
362.523	397.44
362.749	403.44
362.976	392.44
363.203	401.44
363.429	377.44
363.656	409.44
363.882	379.44
364.109	366.44
364.335	380.44
364.562	380.44
364.788	383.44
365.015	363.44
365.241	365.44
365.468	384.44
365.694	388.44
365.92	392.44
366.147	380.44
366.373	376.44
366.599	368.44
366.826	368.44
367.052	367.44
367.278	363.44
367.505	358.44
367.731	375.44
367.957	378.44
368.184	378.44
368.41	369.44
368.636	386.44
368.862	398.44
369.089	392.44
369.315	374.44
369.541	364.44
369.767	379.44
369.993	374.44
370.219	384.44
370.445	352.44
370.672	359.44
370.898	364.44
371.124	378.44
371.35	363.44
371.576	380.44
371.802	350.44
372.028	342.44
372.254	352.44
372.48	355.44
372.706	358.44
372.932	360.44
373.158	351.44
373.384	367.44
373.61	368.44
373.835	344.44
374.061	367.44
374.287	352.44
374.513	353.44
374.739	348.44
374.965	372.44
375.191	345.44
375.416	358.44
375.642	363.44
375.868	362.44
376.094	374.44
376.319	361.44
376.545	350.44
376.771	382.44
376.997	355.44
377.222	358.44
377.448	378.44
377.674	347.44
377.899	355.44
378.125	353.44
378.35	354.44
378.576	335.44
378.802	337.44
379.027	343.44
379.253	358.44
379.478	354.44
379.704	351.44
379.929	347.44
380.155	339.44
380.38	365.44
380.606	363.44
380.831	360.44
381.057	363.44
381.282	373.44
381.507	374.44
381.733	351.44
381.958	354.44
382.184	347.44
382.409	366.44
382.634	357.44
382.86	356.44
383.085	380.44
383.31	362.44
383.535	358.44
383.761	350.44
383.986	361.44
384.211	367.44
384.436	375.44
384.662	358.44
384.887	354.44
385.112	367.44
385.337	377.44
385.562	361.44
385.787	365.44
386.013	384.44
386.238	408.44
386.463	387.44
386.688	377.44
386.913	390.44
387.138	386.44
387.363	355.44
387.588	364.44
387.813	375.44
388.038	380.44
388.263	376.44
388.488	373.44
388.713	371.44
388.938	387.44
389.163	382.44
389.387	380.44
389.612	375.44
389.837	354.44
390.062	367.44
390.287	385.44
390.512	374.44
390.736	387.44
390.961	391.44
391.186	378.44
391.411	399.44
391.636	382.44
391.86	360.44
392.085	379.44
392.31	392.44
392.534	374.44
392.759	387.44
392.984	386.44
393.208	404.44
393.433	382.44
393.658	382.44
393.882	387.44
394.107	373.44
394.331	384.44
394.556	390.44
394.78	381.44
395.005	379.44
395.229	368.44
395.454	394.44
395.678	378.44
395.903	409.44
396.127	444.44
396.352	437.44
396.576	412.44
396.801	395.44
397.025	393.44
397.249	412.44
397.474	411.44
397.698	394.44
397.922	409.44
398.147	423.44
398.371	429.44
398.595	423.44
398.82	424.44
399.044	437.44
399.268	426.44
399.492	445.44
399.717	478.44
399.941	499.44
400.165	510.44
400.389	519.44
400.613	495.44
400.837	456.44
401.062	450.44
401.286	446.44
401.51	451.44
401.734	420.44
401.958	450.44
402.182	434.44
402.406	477.44
402.63	465.44
402.854	430.44
403.078	431.44
403.302	439.44
403.526	462.44
403.75	446.44
403.974	442.44
404.198	432.44
404.422	440.44
404.645	475.44
404.869	461.44
405.093	505.44
405.317	526.44
405.541	601.44
405.765	504.44
405.988	491.44
406.212	498.44
406.436	520.44
406.66	529.44
406.883	506.44
407.107	534.44
407.331	562.44
407.555	624.44
407.778	604.44
408.002	565.44
408.226	498.44
408.449	506.44
408.673	525.44
408.896	519.44
409.12	612.44
409.344	546.44
409.567	486.44
409.791	436.44
410.014	456.44
410.238	469.44
410.461	454.44
410.685	454.44
410.908	484.44
411.132	516.44
411.355	528.44
411.578	535.44
411.802	454.44
412.025	472.44
412.249	464.44
412.472	472.44
412.695	526.44
412.919	530.44
413.142	483.44
413.365	463.44
413.589	449.44
413.812	436.44
414.035	431.44
414.258	464.44
414.482	413.44
414.705	427.44
414.928	423.44
415.151	416.44
415.374	432.44
415.597	415.44
415.821	421.44
416.044	425.44
416.267	438.44
416.49	454.44
416.713	423.44
416.936	430.44
417.159	418.44
417.382	423.44
417.605	428.44
417.828	444.44
418.051	448.44
418.274	462.44
418.497	443.44
418.72	423.44
418.943	436.44
419.166	427.44
419.389	447.44
419.611	439.44
419.834	451.44
420.057	468.44
420.28	471.44
420.503	443.44
420.726	454.44
420.948	476.44
421.171	526.44
421.394	548.44
421.617	488.44
421.839	460.44
422.062	450.44
422.285	495.44
422.507	534.44
422.73	618.44
422.953	575.44
423.175	516.44
423.398	471.44
423.621	472.44
423.843	509.44
424.066	506.44
424.288	472.44
424.511	516.44
424.733	568.44
424.956	635.44
425.178	623.44
425.401	618.44
425.623	661.44
425.846	547.44
426.068	536.44
426.291	505.44
426.513	498.44
426.735	527.44
426.958	559.44
427.18	652.44
427.402	818.44
427.625	892.44
427.847	793.44
428.069	682.44
428.292	588.44
428.514	523.44
428.736	507.44
428.958	499.44
429.181	447.44
429.403	496.44
429.625	457.44
429.847	520.44
430.069	592.44
430.292	606.44
430.514	479.44
430.736	464.44
430.958	472.44
431.18	461.44
431.402	438.44
431.624	439.44
431.846	447.44
432.068	423.44
432.29	410.44
432.512	424.44
432.734	452.44
432.956	438.44
433.178	431.44
433.4	450.44
433.622	460.44
433.844	428.44
434.066	430.44
434.287	439.44
434.509	450.44
434.731	423.44
434.953	452.44
435.175	442.44
435.397	502.44
435.618	524.44
435.84	549.44
436.062	638.44
436.284	715.44
436.505	598.44
436.727	534.44
436.949	487.44
437.17	452.44
437.392	478.44
437.614	494.44
437.835	537.44
438.057	615.44
438.278	757.44
438.5	745.44
438.721	778.44
438.943	763.44
439.165	606.44
439.386	551.44
439.608	560.44
439.829	526.44
440.05	586.44
440.272	622.44
440.493	584.44
440.715	540.44
440.936	493.44
441.158	489.44
441.379	468.44
441.6	487.44
441.822	502.44
442.043	551.44
442.264	654.44
442.486	700.44
442.707	587.44
442.928	541.44
443.149	547.44
443.371	562.44
443.592	596.44
443.813	707.44
444.034	761.44
444.255	619.44
444.476	538.44
444.698	503.44
444.919	501.44
445.14	587.44
445.361	555.44
445.582	571.44
445.803	626.44
446.024	759.44
446.245	756.44
446.466	677.44
446.687	596.44
446.908	510.44
447.129	487.44
447.35	480.44
447.571	484.44
447.792	458.44
448.013	456.44
448.234	502.44
448.455	536.44
448.675	673.44
448.896	772.44
449.117	672.44
449.338	614.44
449.559	754.44
449.779	853.44
450	654.44
450.221	560.44
450.442	518.44
450.662	471.44
450.883	486.44
451.104	521.44
451.324	475.44
451.545	456.44
451.766	450.44
451.986	409.44
452.207	426.44
452.428	415.44
452.648	402.44
452.869	426.44
453.089	431.44
453.31	448.44
453.53	442.44
453.751	444.44
453.971	447.44
454.192	434.44
454.412	448.44
454.633	429.44
454.853	419.44
455.073	413.44
455.294	441.44
455.514	530.44
455.734	522.44
455.955	424.44
456.175	406.44
456.395	410.44
456.616	377.44
456.836	375.44
457.056	394.44
457.276	388.44
457.497	379.44
457.717	382.44
457.937	400.44
458.157	411.44
458.377	430.44
458.598	428.44
458.818	503.44
459.038	586.44
459.258	608.44
459.478	496.44
459.698	456.44
459.918	431.44
460.138	434.44
460.358	427.44
460.578	422.44
460.798	423.44
461.018	439.44
461.238	422.44
461.458	436.44
461.678	435.44
461.898	435.44
462.118	418.44
462.338	424.44
462.558	415.44
462.777	428.44
462.997	446.44
463.217	434.44
463.437	455.44
463.657	473.44
463.876	453.44
464.096	447.44
464.316	454.44
464.536	480.44
464.755	460.44
464.975	477.44
465.195	510.44
465.414	640.44
465.634	531.44
465.854	480.44
466.073	460.44
466.293	446.44
466.512	418.44
466.732	446.44
466.951	419.44
467.171	424.44
467.391	423.44
467.61	423.44
467.829	451.44
468.049	450.44
468.268	436.44
468.488	432.44
468.707	416.44
468.927	412.44
469.146	391.44
469.365	410.44
469.585	411.44
469.804	415.44
470.023	426.44
470.243	443.44
470.462	438.44
470.681	460.44
470.901	454.44
471.12	438.44
471.339	420.44
471.558	443.44
471.777	436.44
471.997	418.44
472.216	449.44
472.435	496.44
472.654	457.44
472.873	428.44
473.092	425.44
473.311	431.44
473.53	429.44
473.749	452.44
473.968	484.44
474.187	628.44
474.406	639.44
474.625	519.44
474.844	463.44
475.063	432.44
475.282	428.44
475.501	428.44
475.72	449.44
475.939	438.44
476.158	450.44
476.377	440.44
476.596	444.44
476.814	450.44
477.033	457.44
477.252	458.44
477.471	448.44
477.69	466.44
477.908	456.44
478.127	466.44
478.346	483.44
478.564	453.44
478.783	489.44
479.002	466.44
479.22	493.44
479.439	511.44
479.658	535.44
479.876	517.44
480.095	521.44
480.313	544.44
480.532	551.44
480.751	537.44
480.969	539.44
481.188	622.44
481.406	662.44
481.624	564.44
481.843	546.44
482.061	526.44
482.28	495.44
482.498	517.44
482.717	496.44
482.935	502.44
483.153	502.44
483.372	514.44
483.59	491.44
483.808	507.44
484.027	503.44
484.245	514.44
484.463	499.44
484.681	522.44
484.9	522.44
485.118	516.44
485.336	508.44
485.554	526.44
485.772	523.44
485.99	531.44
486.209	516.44
486.427	543.44
486.645	536.44
486.863	567.44
487.081	570.44
487.299	549.44
487.517	544.44
487.735	555.44
487.953	561.44
488.171	542.44
488.389	521.44
488.607	528.44
488.825	529.44
489.043	526.44
489.261	555.44
489.479	548.44
489.696	557.44
489.914	567.44
490.132	562.44
490.35	575.44
490.568	580.44
490.786	567.44
491.003	589.44
491.221	603.44
491.439	607.44
491.657	632.44
491.874	626.44
492.092	621.44
492.31	642.44
492.527	622.44
492.745	626.44
492.963	618.44
493.18	622.44
493.398	655.44
493.615	672.44
493.833	648.44
494.05	667.44
494.268	640.44
494.485	637.44
494.703	648.44
494.92	638.44
495.138	657.44
495.355	646.44
495.573	630.44
495.79	651.44
496.008	660.44
496.225	665.44
496.442	635.44
496.66	660.44
496.877	657.44
497.094	638.44
497.312	680.44
497.529	654.44
497.746	648.44
497.963	697.44
498.181	702.44
498.398	679.44
498.615	702.44
498.832	696.44
499.049	730.44
499.267	699.44
499.484	731.44
499.701	747.44
499.918	746.44
500.135	775.44
500.352	785.44
500.569	799.44
500.786	793.44
501.003	770.44
501.22	802.44
501.437	736.44
501.654	788.44
501.871	797.44
