Data from 1972.PennyLincolnUp.Lamp.En5.5.200Scan.071719.P1._HRD10591_15-29-58-845.txt Node
Date: Thu Jul 18 15:29:58 EDT 2019
User: cochatt
Spectrometer: HR+D1059
Trigger mode: 1
Integration Time (sec): 1.000000E-1
Scans to average: 1
Electric dark correction enabled: true
Nonlinearity correction enabled: false
Boxcar width: 0
XAxis mode: Wavelengths
Number of Pixels in Spectrum: 2048
>>>>>Begin Spectral Data<<<<<
223.165	-11.88
223.4	-11.88
223.635	-11.88
223.869	-24.88
224.104	-17.88
224.338	8.12
224.573	-8.88
224.808	-15.88
225.042	-6.88
225.277	-1.88
225.511	-8.88
225.746	5.12
225.98	7.12
226.215	5.12
226.449	10.12
226.683	7.12
226.918	19.12
227.152	35.12
227.387	31.12
227.621	33.12
227.856	33.12
228.09	34.12
228.324	44.12
228.559	60.12
228.793	67.12
229.027	85.12
229.262	125.12
229.496	124.12
229.73	144.12
229.964	179.12
230.199	144.12
230.433	142.12
230.667	140.12
230.901	114.12
231.136	118.12
231.37	114.12
231.604	116.12
231.838	116.12
232.072	118.12
232.306	123.12
232.541	121.12
232.775	114.12
233.009	116.12
233.243	126.12
233.477	122.12
233.711	110.12
233.945	122.12
234.179	121.12
234.413	122.12
234.647	115.12
234.881	118.12
235.115	121.12
235.349	127.12
235.583	135.12
235.817	126.12
236.051	143.12
236.285	132.12
236.519	144.12
236.753	154.12
236.987	137.12
237.221	205.12
237.455	284.12
237.689	205.12
237.922	151.12
238.156	155.12
238.39	124.12
238.624	134.12
238.858	133.12
239.091	136.12
239.325	148.12
239.559	134.12
239.793	144.12
240.027	128.12
240.26	140.12
240.494	183.12
240.728	181.12
240.961	159.12
241.195	154.12
241.429	162.12
241.662	129.12
241.896	127.12
242.13	130.12
242.363	135.12
242.597	144.12
242.83	140.12
243.064	133.12
243.298	141.12
243.531	152.12
243.765	158.12
243.998	142.12
244.232	136.12
244.465	151.12
244.699	160.12
244.932	157.12
245.166	139.12
245.399	158.12
245.633	141.12
245.866	146.12
246.099	151.12
246.333	153.12
246.566	155.12
246.8	166.12
247.033	151.12
247.266	164.12
247.5	180.12
247.733	165.12
247.966	161.12
248.2	179.12
248.433	178.12
248.666	197.12
248.899	192.12
249.133	219.12
249.366	238.12
249.599	234.12
249.832	210.12
250.066	207.12
250.299	195.12
250.532	214.12
250.765	223.12
250.998	256.12
251.231	250.12
251.465	236.12
251.698	234.12
251.931	216.12
252.164	210.12
252.397	192.12
252.63	215.12
252.863	211.12
253.096	217.12
253.329	252.12
253.562	242.12
253.795	239.12
254.028	242.12
254.261	217.12
254.494	245.12
254.727	293.12
254.96	325.12
255.193	322.12
255.426	280.12
255.659	260.12
255.892	264.12
256.124	272.12
256.357	260.12
256.59	267.12
256.823	245.12
257.056	217.12
257.289	216.12
257.521	229.12
257.754	231.12
257.987	229.12
258.22	220.12
258.452	217.12
258.685	233.12
258.918	221.12
259.151	212.12
259.383	238.12
259.616	234.12
259.849	236.12
260.081	250.12
260.314	279.12
260.547	299.12
260.779	246.12
261.012	262.12
261.244	233.12
261.477	233.12
261.71	244.12
261.942	259.12
262.175	272.12
262.407	247.12
262.64	245.12
262.872	226.12
263.105	220.12
263.337	246.12
263.57	249.12
263.802	227.12
264.035	226.12
264.267	215.12
264.499	227.12
264.732	222.12
264.964	224.12
265.197	232.12
265.429	228.12
265.661	234.12
265.894	224.12
266.126	223.12
266.358	229.12
266.591	234.12
266.823	220.12
267.055	228.12
267.287	236.12
267.52	234.12
267.752	242.12
267.984	246.12
268.216	226.12
268.448	234.12
268.681	229.12
268.913	248.12
269.145	287.12
269.377	310.12
269.609	296.12
269.841	281.12
270.073	282.12
270.306	321.12
270.538	352.12
270.77	363.12
271.002	336.12
271.234	328.12
271.466	333.12
271.698	331.12
271.93	366.12
272.162	342.12
272.394	323.12
272.626	341.12
272.858	328.12
273.09	297.12
273.322	271.12
273.553	296.12
273.785	288.12
274.017	299.12
274.249	273.12
274.481	282.12
274.713	291.12
274.945	290.12
275.176	280.12
275.408	305.12
275.64	272.12
275.872	295.12
276.104	300.12
276.335	286.12
276.567	311.12
276.799	324.12
277.031	342.12
277.262	358.12
277.494	350.12
277.726	326.12
277.957	314.12
278.189	323.12
278.421	304.12
278.652	297.12
278.884	291.12
279.115	307.12
279.347	286.12
279.579	269.12
279.81	275.12
280.042	292.12
280.273	290.12
280.505	270.12
280.736	259.12
280.968	285.12
281.199	278.12
281.431	306.12
281.662	286.12
281.894	279.12
282.125	276.12
282.356	324.12
282.588	328.12
282.819	322.12
283.051	299.12
283.282	283.12
283.513	277.12
283.745	283.12
283.976	300.12
284.207	293.12
284.439	272.12
284.67	283.12
284.901	299.12
285.132	296.12
285.364	284.12
285.595	295.12
285.826	292.12
286.057	293.12
286.288	307.12
286.52	285.12
286.751	293.12
286.982	292.12
287.213	281.12
287.444	299.12
287.675	287.12
287.906	317.12
288.138	314.12
288.369	308.12
288.6	317.12
288.831	312.12
289.062	304.12
289.293	299.12
289.524	286.12
289.755	290.12
289.986	310.12
290.217	295.12
290.448	287.12
290.679	296.12
290.91	298.12
291.141	282.12
291.371	292.12
291.602	293.12
291.833	314.12
292.064	313.12
292.295	295.12
292.526	287.12
292.757	289.12
292.987	294.12
293.218	293.12
293.449	312.12
293.68	303.12
293.91	295.12
294.141	281.12
294.372	307.12
294.603	290.12
294.833	294.12
295.064	294.12
295.295	311.12
295.525	298.12
295.756	298.12
295.987	327.12
296.217	338.12
296.448	372.12
296.679	313.12
296.909	302.12
297.14	326.12
297.37	308.12
297.601	307.12
297.831	319.12
298.062	306.12
298.292	299.12
298.523	309.12
298.753	299.12
298.984	290.12
299.214	297.12
299.445	303.12
299.675	324.12
299.905	314.12
300.136	319.12
300.366	311.12
300.597	320.12
300.827	317.12
301.057	323.12
301.288	337.12
301.518	330.12
301.748	330.12
301.979	331.12
302.209	330.12
302.439	329.12
302.669	341.12
302.9	321.12
303.13	327.12
303.36	323.12
303.59	349.12
303.82	344.12
304.051	353.12
304.281	326.12
304.511	342.12
304.741	310.12
304.971	342.12
305.201	327.12
305.431	315.12
305.661	342.12
305.891	331.12
306.121	342.12
306.352	345.12
306.582	342.12
306.812	328.12
307.042	348.12
307.272	330.12
307.502	331.12
307.731	334.12
307.961	335.12
308.191	334.12
308.421	344.12
308.651	374.12
308.881	346.12
309.111	340.12
309.341	352.12
309.571	376.12
309.8	372.12
310.03	394.12
310.26	390.12
310.49	395.12
310.72	401.12
310.949	443.12
311.179	426.12
311.409	395.12
311.639	403.12
311.868	410.12
312.098	400.12
312.328	412.12
312.557	444.12
312.787	449.12
313.017	440.12
313.246	430.12
313.476	402.12
313.706	413.12
313.935	408.12
314.165	420.12
314.394	450.12
314.624	448.12
314.853	422.12
315.083	407.12
315.312	394.12
315.542	395.12
315.771	393.12
316.001	399.12
316.23	394.12
316.46	390.12
316.689	391.12
316.919	390.12
317.148	420.12
317.377	413.12
317.607	414.12
317.836	412.12
318.065	410.12
318.295	388.12
318.524	386.12
318.753	419.12
318.983	392.12
319.212	382.12
319.441	412.12
319.67	423.12
319.9	404.12
320.129	413.12
320.358	398.12
320.587	399.12
320.816	410.12
321.046	423.12
321.275	404.12
321.504	426.12
321.733	410.12
321.962	445.12
322.191	447.12
322.42	477.12
322.649	499.12
322.878	512.12
323.108	532.12
323.337	567.12
323.566	557.12
323.795	616.12
324.024	678.12
324.253	874.12
324.482	1282.12
324.71	2074.12
324.939	3005.12
325.168	2620.12
325.397	1280.12
325.626	825.12
325.855	656.12
326.084	616.12
326.313	610.12
326.542	589.12
326.77	659.12
326.999	782.12
327.228	1152.12
327.457	1802.12
327.686	2274.12
327.914	1451.12
328.143	924.12
328.372	796.12
328.6	717.12
328.829	705.12
329.058	688.12
329.287	724.12
329.515	667.12
329.744	603.12
329.972	596.12
330.201	603.12
330.43	666.12
330.658	719.12
330.887	742.12
331.115	710.12
331.344	599.12
331.572	550.12
331.801	538.12
332.03	557.12
332.258	518.12
332.486	503.12
332.715	490.12
332.943	491.12
333.172	494.12
333.4	501.12
333.629	487.12
333.857	514.12
334.085	506.12
334.314	558.12
334.542	600.12
334.771	648.12
334.999	547.12
335.227	502.12
335.455	501.12
335.684	492.12
335.912	446.12
336.14	453.12
336.369	460.12
336.597	457.12
336.825	473.12
337.053	434.12
337.281	437.12
337.51	437.12
337.738	447.12
337.966	447.12
338.194	460.12
338.422	433.12
338.65	462.12
338.878	456.12
339.106	444.12
339.334	432.12
339.562	428.12
339.79	420.12
340.018	419.12
340.246	427.12
340.474	439.12
340.702	431.12
340.93	427.12
341.158	447.12
341.386	455.12
341.614	415.12
341.842	456.12
342.07	432.12
342.298	423.12
342.526	417.12
342.754	415.12
342.981	412.12
343.209	432.12
343.437	411.12
343.665	411.12
343.893	429.12
344.12	426.12
344.348	426.12
344.576	428.12
344.804	451.12
345.031	459.12
345.259	461.12
345.487	479.12
345.714	444.12
345.942	429.12
346.17	412.12
346.397	418.12
346.625	426.12
346.853	411.12
347.08	438.12
347.308	421.12
347.535	433.12
347.763	450.12
347.99	434.12
348.218	455.12
348.445	468.12
348.673	467.12
348.9	442.12
349.128	435.12
349.355	403.12
349.583	416.12
349.81	420.12
350.037	426.12
350.265	413.12
350.492	416.12
350.72	413.12
350.947	406.12
351.174	436.12
351.402	456.12
351.629	413.12
351.856	438.12
352.083	443.12
352.311	473.12
352.538	467.12
352.765	459.12
352.992	438.12
353.22	427.12
353.447	426.12
353.674	416.12
353.901	411.12
354.128	389.12
354.355	397.12
354.583	387.12
354.81	390.12
355.037	378.12
355.264	391.12
355.491	386.12
355.718	382.12
355.945	387.12
356.172	386.12
356.399	397.12
356.626	394.12
356.853	371.12
357.08	377.12
357.307	368.12
357.534	387.12
357.761	374.12
357.988	382.12
358.215	407.12
358.441	379.12
358.668	398.12
358.895	400.12
359.122	405.12
359.349	424.12
359.576	410.12
359.802	474.12
360.029	475.12
360.256	514.12
360.483	478.12
360.709	436.12
360.936	416.12
361.163	421.12
361.39	443.12
361.616	428.12
361.843	412.12
362.07	422.12
362.296	424.12
362.523	414.12
362.749	409.12
362.976	408.12
363.203	407.12
363.429	399.12
363.656	427.12
363.882	411.12
364.109	383.12
364.335	397.12
364.562	391.12
364.788	398.12
365.015	382.12
365.241	404.12
365.468	410.12
365.694	414.12
365.92	401.12
366.147	384.12
366.373	395.12
366.599	391.12
366.826	406.12
367.052	393.12
367.278	400.12
367.505	392.12
367.731	399.12
367.957	390.12
368.184	373.12
368.41	396.12
368.636	396.12
368.862	402.12
369.089	404.12
369.315	373.12
369.541	375.12
369.767	380.12
369.993	398.12
370.219	411.12
370.445	393.12
370.672	374.12
370.898	379.12
371.124	385.12
371.35	390.12
371.576	371.12
371.802	380.12
372.028	375.12
372.254	374.12
372.48	380.12
372.706	375.12
372.932	377.12
373.158	392.12
373.384	395.12
373.61	366.12
373.835	400.12
374.061	378.12
374.287	382.12
374.513	391.12
374.739	366.12
374.965	374.12
375.191	376.12
375.416	384.12
375.642	383.12
375.868	381.12
376.094	375.12
376.319	382.12
376.545	369.12
376.771	386.12
376.997	391.12
377.222	385.12
377.448	388.12
377.674	379.12
377.899	381.12
378.125	371.12
378.35	364.12
378.576	367.12
378.802	384.12
379.027	366.12
379.253	370.12
379.478	367.12
379.704	371.12
379.929	380.12
380.155	380.12
380.38	383.12
380.606	377.12
380.831	379.12
381.057	386.12
381.282	372.12
381.507	380.12
381.733	363.12
381.958	361.12
382.184	366.12
382.409	394.12
382.634	380.12
382.86	394.12
383.085	379.12
383.31	381.12
383.535	382.12
383.761	383.12
383.986	375.12
384.211	393.12
384.436	385.12
384.662	409.12
384.887	395.12
385.112	395.12
385.337	374.12
385.562	416.12
385.787	386.12
386.013	413.12
386.238	422.12
386.463	400.12
386.688	409.12
386.913	396.12
387.138	388.12
387.363	367.12
387.588	406.12
387.813	400.12
388.038	386.12
388.263	393.12
388.488	397.12
388.713	411.12
388.938	398.12
389.163	410.12
389.387	410.12
389.612	414.12
389.837	413.12
390.062	408.12
390.287	389.12
390.512	382.12
390.736	393.12
390.961	414.12
391.186	380.12
391.411	413.12
391.636	388.12
391.86	396.12
392.085	401.12
392.31	414.12
392.534	403.12
392.759	401.12
392.984	408.12
393.208	394.12
393.433	414.12
393.658	398.12
393.882	408.12
394.107	396.12
394.331	392.12
394.556	406.12
394.78	398.12
395.005	400.12
395.229	414.12
395.454	399.12
395.678	422.12
395.903	416.12
396.127	463.12
396.352	441.12
396.576	417.12
396.801	416.12
397.025	427.12
397.249	423.12
397.474	405.12
397.698	429.12
397.922	450.12
398.147	470.12
398.371	471.12
398.595	437.12
398.82	423.12
399.044	453.12
399.268	450.12
399.492	467.12
399.717	484.12
399.941	528.12
400.165	536.12
400.389	568.12
400.613	540.12
400.837	485.12
401.062	462.12
401.286	443.12
401.51	458.12
401.734	453.12
401.958	427.12
402.182	460.12
402.406	468.12
402.63	450.12
402.854	482.12
403.078	450.12
403.302	479.12
403.526	476.12
403.75	476.12
403.974	470.12
404.198	473.12
404.422	479.12
404.645	486.12
404.869	474.12
405.093	524.12
405.317	592.12
405.541	609.12
405.765	566.12
405.988	510.12
406.212	526.12
406.436	543.12
406.66	538.12
406.883	525.12
407.107	538.12
407.331	606.12
407.555	658.12
407.778	666.12
408.002	598.12
408.226	529.12
408.449	529.12
408.673	533.12
408.896	557.12
409.12	617.12
409.344	582.12
409.567	491.12
409.791	477.12
410.014	470.12
410.238	487.12
410.461	460.12
410.685	480.12
410.908	505.12
411.132	553.12
411.355	570.12
411.578	526.12
411.802	493.12
412.025	478.12
412.249	483.12
412.472	507.12
412.695	583.12
412.919	578.12
413.142	519.12
413.365	454.12
413.589	465.12
413.812	446.12
414.035	450.12
414.258	437.12
414.482	442.12
414.705	439.12
414.928	443.12
415.151	441.12
415.374	439.12
415.597	427.12
415.821	452.12
416.044	446.12
416.267	469.12
416.49	438.12
416.713	423.12
416.936	451.12
417.159	436.12
417.382	466.12
417.605	467.12
417.828	460.12
418.051	460.12
418.274	482.12
418.497	462.12
418.72	457.12
418.943	458.12
419.166	459.12
419.389	474.12
419.611	491.12
419.834	495.12
420.057	482.12
420.28	489.12
420.503	478.12
420.726	479.12
420.948	488.12
421.171	547.12
421.394	582.12
421.617	492.12
421.839	485.12
422.062	473.12
422.285	486.12
422.507	564.12
422.73	670.12
422.953	612.12
423.175	544.12
423.398	505.12
423.621	494.12
423.843	534.12
424.066	529.12
424.288	518.12
424.511	549.12
424.733	611.12
424.956	711.12
425.178	686.12
425.401	687.12
425.623	672.12
425.846	592.12
426.068	546.12
426.291	564.12
426.513	530.12
426.735	544.12
426.958	593.12
427.18	692.12
427.402	826.12
427.625	958.12
427.847	841.12
428.069	705.12
428.292	629.12
428.514	540.12
428.736	524.12
428.958	530.12
429.181	474.12
429.403	493.12
429.625	492.12
429.847	542.12
430.069	610.12
430.292	610.12
430.514	533.12
430.736	504.12
430.958	479.12
431.18	461.12
431.402	435.12
431.624	451.12
431.846	453.12
432.068	467.12
432.29	444.12
432.512	460.12
432.734	488.12
432.956	472.12
433.178	467.12
433.4	466.12
433.622	454.12
433.844	450.12
434.066	461.12
434.287	454.12
434.509	470.12
434.731	454.12
434.953	461.12
435.175	489.12
435.397	507.12
435.618	529.12
435.84	596.12
436.062	714.12
436.284	759.12
436.505	640.12
436.727	575.12
436.949	507.12
437.17	498.12
437.392	504.12
437.614	513.12
437.835	555.12
438.057	681.12
438.278	813.12
438.5	779.12
438.721	867.12
438.943	814.12
439.165	634.12
439.386	564.12
439.608	576.12
439.829	570.12
440.05	612.12
440.272	667.12
440.493	624.12
440.715	568.12
440.936	522.12
441.158	492.12
441.379	488.12
441.6	494.12
441.822	542.12
442.043	594.12
442.264	680.12
442.486	733.12
442.707	621.12
442.928	560.12
443.149	571.12
443.371	589.12
443.592	634.12
443.813	730.12
444.034	808.12
444.255	653.12
444.476	593.12
444.698	525.12
444.919	574.12
445.14	638.12
445.361	588.12
445.582	602.12
445.803	690.12
446.024	786.12
446.245	826.12
446.466	742.12
446.687	601.12
446.908	576.12
447.129	529.12
447.35	518.12
447.571	510.12
447.792	501.12
448.013	508.12
448.234	547.12
448.455	579.12
448.675	734.12
448.896	828.12
449.117	713.12
449.338	665.12
449.559	774.12
449.779	889.12
450	721.12
450.221	575.12
450.442	532.12
450.662	507.12
450.883	524.12
451.104	534.12
451.324	516.12
451.545	492.12
451.766	459.12
451.986	459.12
452.207	451.12
452.428	442.12
452.648	452.12
452.869	422.12
453.089	454.12
453.31	473.12
453.53	479.12
453.751	452.12
453.971	458.12
454.192	480.12
454.412	450.12
454.633	450.12
454.853	456.12
455.073	441.12
455.294	490.12
455.514	563.12
455.734	527.12
455.955	442.12
456.175	439.12
456.395	399.12
456.616	405.12
456.836	408.12
457.056	396.12
457.276	396.12
457.497	415.12
457.717	427.12
457.937	430.12
458.157	433.12
458.377	446.12
458.598	446.12
458.818	537.12
459.038	623.12
459.258	664.12
459.478	524.12
459.698	491.12
459.918	452.12
460.138	455.12
460.358	436.12
460.578	446.12
460.798	466.12
461.018	468.12
461.238	458.12
461.458	460.12
461.678	451.12
461.898	455.12
462.118	420.12
462.338	442.12
462.558	466.12
462.777	458.12
462.997	470.12
463.217	439.12
463.437	456.12
463.657	463.12
463.876	501.12
464.096	482.12
464.316	467.12
464.536	470.12
464.755	491.12
464.975	480.12
465.195	556.12
465.414	657.12
465.634	584.12
465.854	503.12
466.073	468.12
466.293	469.12
466.512	452.12
466.732	437.12
466.951	446.12
467.171	441.12
467.391	442.12
467.61	459.12
467.829	484.12
468.049	438.12
468.268	446.12
468.488	456.12
468.707	415.12
468.927	431.12
469.146	411.12
469.365	427.12
469.585	436.12
469.804	444.12
470.023	458.12
470.243	448.12
470.462	461.12
470.681	481.12
470.901	475.12
471.12	434.12
471.339	460.12
471.558	452.12
471.777	446.12
471.997	439.12
472.216	468.12
472.435	527.12
472.654	496.12
472.873	463.12
473.092	439.12
473.311	452.12
473.53	454.12
473.749	458.12
473.968	518.12
474.187	631.12
474.406	660.12
474.625	543.12
474.844	487.12
475.063	474.12
475.282	464.12
475.501	454.12
475.72	469.12
475.939	484.12
476.158	495.12
476.377	467.12
476.596	475.12
476.814	473.12
477.033	484.12
477.252	503.12
477.471	495.12
477.69	475.12
477.908	474.12
478.127	487.12
478.346	486.12
478.564	486.12
478.783	495.12
479.002	527.12
479.22	499.12
479.439	536.12
479.658	554.12
479.876	571.12
480.095	548.12
480.313	583.12
480.532	559.12
480.751	555.12
480.969	580.12
481.188	644.12
481.406	728.12
481.624	604.12
481.843	557.12
482.061	546.12
482.28	546.12
482.498	537.12
482.717	540.12
482.935	539.12
483.153	540.12
483.372	507.12
483.59	524.12
483.808	531.12
484.027	538.12
484.245	539.12
484.463	528.12
484.681	549.12
484.9	540.12
485.118	548.12
485.336	530.12
485.554	548.12
485.772	577.12
485.99	544.12
486.209	559.12
486.427	568.12
486.645	554.12
486.863	592.12
487.081	592.12
487.299	598.12
487.517	570.12
487.735	583.12
487.953	577.12
488.171	568.12
488.389	579.12
488.607	582.12
488.825	602.12
489.043	575.12
489.261	600.12
489.479	580.12
489.696	586.12
489.914	570.12
490.132	610.12
490.35	618.12
490.568	608.12
490.786	628.12
491.003	609.12
491.221	635.12
491.439	647.12
491.657	635.12
491.874	637.12
492.092	664.12
492.31	670.12
492.527	646.12
492.745	675.12
492.963	642.12
493.18	667.12
493.398	662.12
493.615	695.12
493.833	683.12
494.05	695.12
494.268	674.12
494.485	677.12
494.703	683.12
494.92	698.12
495.138	681.12
495.355	714.12
495.573	678.12
495.79	677.12
496.008	691.12
496.225	665.12
496.442	664.12
496.66	679.12
496.877	679.12
497.094	676.12
497.312	707.12
497.529	713.12
497.746	693.12
497.963	715.12
498.181	730.12
498.398	724.12
498.615	719.12
498.832	781.12
499.049	742.12
499.267	771.12
499.484	774.12
499.701	802.12
499.918	810.12
500.135	826.12
500.352	824.12
500.569	820.12
500.786	839.12
501.003	850.12
501.22	832.12
501.437	846.12
501.654	836.12
501.871	854.12
