Data from 1972.PennyLincolnUp.Lamp.En5.5.200Scan.071719.P1._HRD10591_15-26-42-844.txt Node
Date: Thu Jul 18 15:26:42 EDT 2019
User: cochatt
Spectrometer: HR+D1059
Trigger mode: 1
Integration Time (sec): 1.000000E-1
Scans to average: 1
Electric dark correction enabled: true
Nonlinearity correction enabled: false
Boxcar width: 0
XAxis mode: Wavelengths
Number of Pixels in Spectrum: 2048
>>>>>Begin Spectral Data<<<<<
223.165	-11.38
223.4	-11.38
223.635	-11.38
223.869	-21.38
224.104	-21.38
224.338	-7.38
224.573	-11.38
224.808	-17.38
225.042	-17.38
225.277	-8.38
225.511	4.62
225.746	8.62
225.98	-2.38
226.215	12.62
226.449	19.62
226.683	12.62
226.918	31.62
227.152	28.62
227.387	38.62
227.621	40.62
227.856	47.62
228.09	43.62
228.324	32.62
228.559	62.62
228.793	66.62
229.027	105.62
229.262	118.62
229.496	151.62
229.73	152.62
229.964	197.62
230.199	145.62
230.433	128.62
230.667	128.62
230.901	118.62
231.136	127.62
231.37	125.62
231.604	114.62
231.838	122.62
232.072	106.62
232.306	125.62
232.541	116.62
232.775	122.62
233.009	107.62
233.243	110.62
233.477	127.62
233.711	116.62
233.945	122.62
234.179	117.62
234.413	133.62
234.647	124.62
234.881	116.62
235.115	122.62
235.349	119.62
235.583	134.62
235.817	124.62
236.051	126.62
236.285	139.62
236.519	144.62
236.753	151.62
236.987	162.62
237.221	196.62
237.455	283.62
237.689	226.62
237.922	164.62
238.156	147.62
238.39	133.62
238.624	157.62
238.858	132.62
239.091	127.62
239.325	126.62
239.559	127.62
239.793	128.62
240.027	137.62
240.26	162.62
240.494	182.62
240.728	179.62
240.961	171.62
241.195	150.62
241.429	147.62
241.662	160.62
241.896	148.62
242.13	137.62
242.363	142.62
242.597	135.62
242.83	159.62
243.064	147.62
243.298	136.62
243.531	140.62
243.765	144.62
243.998	140.62
244.232	162.62
244.465	154.62
244.699	138.62
244.932	149.62
245.166	144.62
245.399	148.62
245.633	149.62
245.866	155.62
246.099	139.62
246.333	162.62
246.566	150.62
246.8	141.62
247.033	158.62
247.266	170.62
247.5	164.62
247.733	189.62
247.966	183.62
248.2	197.62
248.433	206.62
248.666	187.62
248.899	205.62
249.133	217.62
249.366	234.62
249.599	223.62
249.832	212.62
250.066	191.62
250.299	189.62
250.532	200.62
250.765	223.62
250.998	233.62
251.231	258.62
251.465	246.62
251.698	205.62
251.931	215.62
252.164	207.62
252.397	207.62
252.63	227.62
252.863	223.62
253.096	259.62
253.329	245.62
253.562	261.62
253.795	223.62
254.028	231.62
254.261	226.62
254.494	243.62
254.727	289.62
254.96	329.62
255.193	306.62
255.426	291.62
255.659	253.62
255.892	251.62
256.124	242.62
256.357	258.62
256.59	231.62
256.823	215.62
257.056	212.62
257.289	227.62
257.521	226.62
257.754	221.62
257.987	233.62
258.22	218.62
258.452	212.62
258.685	212.62
258.918	228.62
259.151	228.62
259.383	236.62
259.616	234.62
259.849	246.62
260.081	260.62
260.314	292.62
260.547	289.62
260.779	276.62
261.012	276.62
261.244	263.62
261.477	243.62
261.71	262.62
261.942	268.62
262.175	301.62
262.407	289.62
262.64	251.62
262.872	248.62
263.105	243.62
263.337	241.62
263.57	236.62
263.802	238.62
264.035	241.62
264.267	229.62
264.499	223.62
264.732	232.62
264.964	245.62
265.197	246.62
265.429	237.62
265.661	220.62
265.894	235.62
266.126	239.62
266.358	244.62
266.591	245.62
266.823	246.62
267.055	250.62
267.287	232.62
267.52	237.62
267.752	236.62
267.984	247.62
268.216	254.62
268.448	250.62
268.681	258.62
268.913	268.62
269.145	271.62
269.377	310.62
269.609	301.62
269.841	295.62
270.073	303.62
270.306	310.62
270.538	348.62
270.77	339.62
271.002	339.62
271.234	328.62
271.466	327.62
271.698	348.62
271.93	371.62
272.162	355.62
272.394	370.62
272.626	335.62
272.858	338.62
273.09	307.62
273.322	303.62
273.553	285.62
273.785	290.62
274.017	309.62
274.249	314.62
274.481	299.62
274.713	303.62
274.945	313.62
275.176	329.62
275.408	314.62
275.64	310.62
275.872	301.62
276.104	303.62
276.335	310.62
276.567	318.62
276.799	344.62
277.031	351.62
277.262	382.62
277.494	365.62
277.726	359.62
277.957	347.62
278.189	329.62
278.421	302.62
278.652	309.62
278.884	292.62
279.115	316.62
279.347	332.62
279.579	379.62
279.81	397.62
280.042	352.62
280.273	363.62
280.505	368.62
280.736	355.62
280.968	304.62
281.199	289.62
281.431	292.62
281.662	300.62
281.894	293.62
282.125	311.62
282.356	330.62
282.588	372.62
282.819	354.62
283.051	318.62
283.282	288.62
283.513	283.62
283.745	317.62
283.976	278.62
284.207	313.62
284.439	292.62
284.67	298.62
284.901	304.62
285.132	315.62
285.364	302.62
285.595	310.62
285.826	303.62
286.057	312.62
286.288	293.62
286.52	296.62
286.751	302.62
286.982	311.62
287.213	300.62
287.444	301.62
287.675	318.62
287.906	306.62
288.138	330.62
288.369	349.62
288.6	336.62
288.831	327.62
289.062	321.62
289.293	313.62
289.524	297.62
289.755	296.62
289.986	306.62
290.217	302.62
290.448	308.62
290.679	294.62
290.91	298.62
291.141	300.62
291.371	277.62
291.602	285.62
291.833	291.62
292.064	294.62
292.295	308.62
292.526	302.62
292.757	304.62
292.987	314.62
293.218	290.62
293.449	327.62
293.68	328.62
293.91	318.62
294.141	292.62
294.372	318.62
294.603	298.62
294.833	286.62
295.064	313.62
295.295	306.62
295.525	322.62
295.756	319.62
295.987	326.62
296.217	374.62
296.448	408.62
296.679	342.62
296.909	318.62
297.14	290.62
297.37	296.62
297.601	308.62
297.831	323.62
298.062	308.62
298.292	322.62
298.523	336.62
298.753	319.62
298.984	324.62
299.214	329.62
299.445	315.62
299.675	326.62
299.905	336.62
300.136	323.62
300.366	321.62
300.597	336.62
300.827	339.62
301.057	344.62
301.288	367.62
301.518	341.62
301.748	323.62
301.979	364.62
302.209	335.62
302.439	350.62
302.669	332.62
302.9	330.62
303.13	349.62
303.36	351.62
303.59	366.62
303.82	370.62
304.051	354.62
304.281	356.62
304.511	341.62
304.741	345.62
304.971	334.62
305.201	347.62
305.431	342.62
305.661	363.62
305.891	353.62
306.121	346.62
306.352	365.62
306.582	360.62
306.812	372.62
307.042	367.62
307.272	361.62
307.502	374.62
307.731	359.62
307.961	354.62
308.191	373.62
308.421	362.62
308.651	372.62
308.881	363.62
309.111	380.62
309.341	384.62
309.571	420.62
309.8	414.62
310.03	428.62
310.26	441.62
310.49	442.62
310.72	472.62
310.949	479.62
311.179	507.62
311.409	475.62
311.639	449.62
311.868	438.62
312.098	457.62
312.328	455.62
312.557	476.62
312.787	538.62
313.017	504.62
313.246	468.62
313.476	430.62
313.706	424.62
313.935	447.62
314.165	498.62
314.394	483.62
314.624	492.62
314.853	480.62
315.083	447.62
315.312	434.62
315.542	420.62
315.771	430.62
316.001	451.62
316.23	439.62
316.46	461.62
316.689	427.62
316.919	441.62
317.148	450.62
317.377	478.62
317.607	472.62
317.836	470.62
318.065	487.62
318.295	520.62
318.524	492.62
318.753	453.62
318.983	467.62
319.212	438.62
319.441	452.62
319.67	473.62
319.9	454.62
320.129	444.62
320.358	421.62
320.587	432.62
320.816	447.62
321.046	473.62
321.275	476.62
321.504	465.62
321.733	465.62
321.962	495.62
322.191	510.62
322.42	529.62
322.649	593.62
322.878	589.62
323.108	613.62
323.337	646.62
323.566	717.62
323.795	773.62
324.024	891.62
324.253	1118.62
324.482	1742.62
324.71	2776.62
324.939	4063.62
325.168	3528.62
325.397	1733.62
325.626	1054.62
325.855	815.62
326.084	731.62
326.313	682.62
326.542	680.62
326.77	782.62
326.999	1026.62
327.228	1520.62
327.457	2415.62
327.686	3010.62
327.914	1966.62
328.143	1190.62
328.372	999.62
328.6	916.62
328.829	787.62
329.058	838.62
329.287	848.62
329.515	783.62
329.744	682.62
329.972	657.62
330.201	671.62
330.43	765.62
330.658	839.62
330.887	936.62
331.115	895.62
331.344	704.62
331.572	634.62
331.801	638.62
332.03	592.62
332.258	574.62
332.486	530.62
332.715	527.62
332.943	508.62
333.172	481.62
333.4	503.62
333.629	518.62
333.857	541.62
334.085	557.62
334.314	569.62
334.542	610.62
334.771	666.62
334.999	596.62
335.227	520.62
335.455	491.62
335.684	484.62
335.912	480.62
336.14	491.62
336.369	481.62
336.597	481.62
336.825	493.62
337.053	507.62
337.281	498.62
337.51	474.62
337.738	455.62
337.966	494.62
338.194	503.62
338.422	539.62
338.65	507.62
338.878	477.62
339.106	458.62
339.334	465.62
339.562	467.62
339.79	454.62
340.018	441.62
340.246	450.62
340.474	464.62
340.702	473.62
340.93	444.62
341.158	457.62
341.386	462.62
341.614	463.62
341.842	483.62
342.07	447.62
342.298	440.62
342.526	438.62
342.754	443.62
342.981	434.62
343.209	430.62
343.437	452.62
343.665	438.62
343.893	435.62
344.12	445.62
344.348	436.62
344.576	454.62
344.804	479.62
345.031	500.62
345.259	510.62
345.487	497.62
345.714	445.62
345.942	459.62
346.17	451.62
346.397	462.62
346.625	458.62
346.853	456.62
347.08	456.62
347.308	455.62
347.535	489.62
347.763	501.62
347.99	492.62
348.218	459.62
348.445	475.62
348.673	471.62
348.9	456.62
349.128	466.62
349.355	432.62
349.583	430.62
349.81	421.62
350.037	422.62
350.265	435.62
350.492	436.62
350.72	441.62
350.947	448.62
351.174	470.62
351.402	512.62
351.629	500.62
351.856	499.62
352.083	480.62
352.311	489.62
352.538	515.62
352.765	505.62
352.992	504.62
353.22	493.62
353.447	458.62
353.674	447.62
353.901	434.62
354.128	405.62
354.355	398.62
354.583	407.62
354.81	411.62
355.037	393.62
355.264	407.62
355.491	384.62
355.718	384.62
355.945	400.62
356.172	391.62
356.399	375.62
356.626	387.62
356.853	372.62
357.08	407.62
357.307	393.62
357.534	384.62
357.761	403.62
357.988	402.62
358.215	412.62
358.441	415.62
358.668	401.62
358.895	427.62
359.122	404.62
359.349	431.62
359.576	458.62
359.802	522.62
360.029	571.62
360.256	578.62
360.483	542.62
360.709	499.62
360.936	464.62
361.163	469.62
361.39	457.62
361.616	479.62
361.843	462.62
362.07	470.62
362.296	475.62
362.523	462.62
362.749	457.62
362.976	463.62
363.203	432.62
363.429	422.62
363.656	420.62
363.882	411.62
364.109	413.62
364.335	430.62
364.562	415.62
364.788	407.62
365.015	412.62
365.241	435.62
365.468	415.62
365.694	434.62
365.92	430.62
366.147	438.62
366.373	410.62
366.599	400.62
366.826	382.62
367.052	388.62
367.278	388.62
367.505	407.62
367.731	411.62
367.957	431.62
368.184	408.62
368.41	406.62
368.636	432.62
368.862	431.62
369.089	436.62
369.315	396.62
369.541	381.62
369.767	398.62
369.993	411.62
370.219	411.62
370.445	417.62
370.672	386.62
370.898	403.62
371.124	394.62
371.35	392.62
371.576	375.62
371.802	376.62
372.028	397.62
372.254	375.62
372.48	381.62
372.706	386.62
372.932	366.62
373.158	400.62
373.384	394.62
373.61	412.62
373.835	428.62
374.061	425.62
374.287	412.62
374.513	379.62
374.739	381.62
374.965	400.62
375.191	395.62
375.416	376.62
375.642	388.62
375.868	395.62
376.094	381.62
376.319	394.62
376.545	388.62
376.771	389.62
376.997	384.62
377.222	375.62
377.448	398.62
377.674	392.62
377.899	383.62
378.125	379.62
378.35	373.62
378.576	364.62
378.802	378.62
379.027	384.62
379.253	390.62
379.478	394.62
379.704	380.62
379.929	387.62
380.155	379.62
380.38	394.62
380.606	384.62
380.831	406.62
381.057	379.62
381.282	389.62
381.507	392.62
381.733	392.62
381.958	392.62
382.184	404.62
382.409	401.62
382.634	395.62
382.86	380.62
383.085	396.62
383.31	407.62
383.535	411.62
383.761	405.62
383.986	412.62
384.211	418.62
384.436	417.62
384.662	415.62
384.887	410.62
385.112	425.62
385.337	415.62
385.562	442.62
385.787	427.62
386.013	431.62
386.238	457.62
386.463	450.62
386.688	438.62
386.913	428.62
387.138	430.62
387.363	418.62
387.588	419.62
387.813	416.62
388.038	428.62
388.263	419.62
388.488	420.62
388.713	414.62
388.938	399.62
389.163	425.62
389.387	387.62
389.612	390.62
389.837	400.62
390.062	373.62
390.287	412.62
390.512	410.62
390.736	402.62
390.961	414.62
391.186	436.62
391.411	411.62
391.636	412.62
391.86	420.62
392.085	431.62
392.31	466.62
392.534	455.62
392.759	487.62
392.984	573.62
393.208	769.62
393.433	1196.62
393.658	1335.62
393.882	702.62
394.107	495.62
394.331	468.62
394.556	430.62
394.78	438.62
395.005	432.62
395.229	438.62
395.454	424.62
395.678	432.62
395.903	463.62
396.127	500.62
396.352	537.62
396.576	596.62
396.801	754.62
397.025	989.62
397.249	793.62
397.474	524.62
397.698	470.62
397.922	471.62
398.147	477.62
398.371	483.62
398.595	444.62
398.82	451.62
399.044	449.62
399.268	455.62
399.492	485.62
399.717	500.62
399.941	524.62
400.165	565.62
400.389	570.62
400.613	528.62
400.837	488.62
401.062	486.62
401.286	456.62
401.51	465.62
401.734	462.62
401.958	464.62
402.182	457.62
402.406	489.62
402.63	495.62
402.854	491.62
403.078	478.62
403.302	477.62
403.526	498.62
403.75	478.62
403.974	461.62
404.198	476.62
404.422	467.62
404.645	476.62
404.869	497.62
405.093	522.62
405.317	572.62
405.541	613.62
405.765	574.62
405.988	518.62
406.212	540.62
406.436	581.62
406.66	570.62
406.883	541.62
407.107	579.62
407.331	604.62
407.555	670.62
407.778	676.62
408.002	605.62
408.226	534.62
408.449	523.62
408.673	532.62
408.896	555.62
409.12	635.62
409.344	564.62
409.567	498.62
409.791	498.62
410.014	465.62
410.238	483.62
410.461	457.62
410.685	487.62
410.908	499.62
411.132	562.62
411.355	591.62
411.578	548.62
411.802	508.62
412.025	496.62
412.249	486.62
412.472	506.62
412.695	557.62
412.919	535.62
413.142	484.62
413.365	477.62
413.589	430.62
413.812	461.62
414.035	458.62
414.258	448.62
414.482	443.62
414.705	443.62
414.928	446.62
415.151	424.62
415.374	437.62
415.597	455.62
415.821	425.62
416.044	447.62
416.267	449.62
416.49	429.62
416.713	426.62
416.936	436.62
417.159	442.62
417.382	460.62
417.605	453.62
417.828	482.62
418.051	487.62
418.274	475.62
418.497	440.62
418.72	438.62
418.943	461.62
419.166	455.62
419.389	470.62
419.611	469.62
419.834	464.62
420.057	471.62
420.28	492.62
420.503	483.62
420.726	484.62
420.948	505.62
421.171	534.62
421.394	587.62
421.617	520.62
421.839	470.62
422.062	478.62
422.285	509.62
422.507	578.62
422.73	745.62
422.953	761.62
423.175	592.62
423.398	511.62
423.621	516.62
423.843	538.62
424.066	534.62
424.288	499.62
424.511	555.62
424.733	615.62
424.956	718.62
425.178	693.62
425.401	671.62
425.623	716.62
425.846	603.62
426.068	592.62
426.291	579.62
426.513	545.62
426.735	545.62
426.958	601.62
427.18	712.62
427.402	852.62
427.625	974.62
427.847	906.62
428.069	769.62
428.292	642.62
428.514	563.62
428.736	524.62
428.958	538.62
429.181	513.62
429.403	515.62
429.625	508.62
429.847	538.62
430.069	642.62
430.292	629.62
430.514	549.62
430.736	490.62
430.958	483.62
431.18	460.62
431.402	462.62
431.624	444.62
431.846	462.62
432.068	482.62
432.29	442.62
432.512	463.62
432.734	473.62
432.956	462.62
433.178	488.62
433.4	520.62
433.622	471.62
433.844	463.62
434.066	444.62
434.287	467.62
434.509	469.62
434.731	472.62
434.953	485.62
435.175	496.62
435.397	551.62
435.618	530.62
435.84	598.62
436.062	686.62
436.284	791.62
436.505	604.62
436.727	572.62
436.949	511.62
437.17	499.62
437.392	486.62
437.614	501.62
437.835	564.62
438.057	723.62
438.278	811.62
438.5	804.62
438.721	856.62
438.943	795.62
439.165	668.62
439.386	581.62
439.608	599.62
439.829	605.62
440.05	656.62
440.272	731.62
440.493	674.62
440.715	590.62
440.936	548.62
441.158	522.62
441.379	515.62
441.6	537.62
441.822	564.62
442.043	619.62
442.264	708.62
442.486	726.62
442.707	630.62
442.928	584.62
443.149	608.62
443.371	625.62
443.592	668.62
443.813	757.62
444.034	794.62
444.255	669.62
444.476	577.62
444.698	542.62
444.919	567.62
445.14	637.62
445.361	616.62
445.582	634.62
445.803	710.62
446.024	847.62
446.245	873.62
446.466	769.62
446.687	646.62
446.908	577.62
447.129	528.62
447.35	520.62
447.571	504.62
447.792	506.62
448.013	532.62
448.234	564.62
448.455	608.62
448.675	723.62
448.896	828.62
449.117	696.62
449.338	658.62
449.559	766.62
449.779	898.62
450	714.62
450.221	615.62
450.442	538.62
450.662	562.62
450.883	568.62
451.104	587.62
451.324	581.62
451.545	520.62
451.766	483.62
451.986	459.62
452.207	471.62
452.428	459.62
452.648	455.62
452.869	462.62
453.089	487.62
453.31	523.62
453.53	502.62
453.751	504.62
453.971	488.62
454.192	538.62
454.412	517.62
454.633	481.62
454.853	463.62
455.073	458.62
455.294	513.62
455.514	602.62
455.734	549.62
455.955	460.62
456.175	439.62
456.395	442.62
456.616	432.62
456.836	426.62
457.056	431.62
457.276	421.62
457.497	432.62
457.717	426.62
457.937	412.62
458.157	450.62
458.377	444.62
458.598	500.62
458.818	604.62
459.038	739.62
459.258	729.62
459.478	574.62
459.698	516.62
459.918	479.62
460.138	476.62
460.358	467.62
460.578	485.62
460.798	449.62
461.018	464.62
461.238	460.62
461.458	453.62
461.678	448.62
461.898	457.62
462.118	432.62
462.338	462.62
462.558	448.62
462.777	449.62
462.997	466.62
463.217	477.62
463.437	473.62
463.657	488.62
463.876	455.62
464.096	452.62
464.316	495.62
464.536	498.62
464.755	523.62
464.975	544.62
465.195	633.62
465.414	813.62
465.634	647.62
465.854	567.62
466.073	534.62
466.293	490.62
466.512	465.62
466.732	464.62
466.951	466.62
467.171	438.62
467.391	466.62
467.61	494.62
467.829	511.62
468.049	498.62
468.268	506.62
468.488	481.62
468.707	464.62
468.927	441.62
469.146	444.62
469.365	451.62
469.585	450.62
469.804	461.62
470.023	475.62
470.243	479.62
470.462	496.62
470.681	529.62
470.901	522.62
471.12	514.62
471.339	478.62
471.558	471.62
471.777	485.62
471.997	456.62
472.216	462.62
472.435	507.62
472.654	530.62
472.873	481.62
473.092	472.62
473.311	468.62
473.53	453.62
473.749	474.62
473.968	522.62
474.187	643.62
474.406	682.62
474.625	541.62
474.844	491.62
475.063	490.62
475.282	475.62
475.501	475.62
475.72	470.62
475.939	450.62
476.158	480.62
476.377	480.62
476.596	496.62
476.814	492.62
477.033	509.62
477.252	508.62
477.471	476.62
477.69	507.62
477.908	493.62
478.127	514.62
478.346	487.62
478.564	490.62
478.783	518.62
479.002	529.62
479.22	554.62
479.439	568.62
479.658	594.62
479.876	588.62
480.095	584.62
480.313	595.62
480.532	589.62
480.751	570.62
480.969	597.62
481.188	692.62
481.406	767.62
481.624	634.62
481.843	586.62
482.061	569.62
482.28	575.62
482.498	550.62
482.717	539.62
482.935	548.62
483.153	544.62
483.372	569.62
483.59	559.62
483.808	536.62
484.027	550.62
484.245	546.62
484.463	548.62
484.681	575.62
484.9	572.62
485.118	589.62
485.336	578.62
485.554	555.62
485.772	564.62
485.99	578.62
486.209	578.62
486.427	596.62
486.645	581.62
486.863	644.62
487.081	638.62
487.299	616.62
487.517	630.62
487.735	590.62
487.953	580.62
488.171	579.62
488.389	592.62
488.607	625.62
488.825	578.62
489.043	572.62
489.261	576.62
489.479	588.62
489.696	613.62
489.914	602.62
490.132	601.62
490.35	579.62
490.568	612.62
490.786	614.62
491.003	644.62
491.221	666.62
491.439	643.62
491.657	662.62
491.874	655.62
492.092	668.62
492.31	662.62
492.527	676.62
492.745	680.62
492.963	691.62
493.18	695.62
493.398	681.62
493.615	714.62
493.833	704.62
494.05	698.62
494.268	678.62
494.485	690.62
494.703	664.62
494.92	678.62
495.138	679.62
495.355	669.62
495.573	693.62
495.79	718.62
496.008	734.62
496.225	695.62
496.442	681.62
496.66	702.62
496.877	703.62
497.094	677.62
497.312	692.62
497.529	699.62
497.746	735.62
497.963	732.62
498.181	743.62
498.398	761.62
498.615	759.62
498.832	778.62
499.049	731.62
499.267	735.62
499.484	759.62
499.701	776.62
499.918	811.62
500.135	804.62
500.352	832.62
500.569	852.62
500.786	852.62
501.003	851.62
501.22	805.62
501.437	815.62
501.654	840.62
501.871	866.62
