Data from 1972.PennyLincolnUp.Lamp.En5.5.200Scan.071719.P1._HRD10591_15-29-48-844.txt Node
Date: Thu Jul 18 15:29:48 EDT 2019
User: cochatt
Spectrometer: HR+D1059
Trigger mode: 1
Integration Time (sec): 1.000000E-1
Scans to average: 1
Electric dark correction enabled: true
Nonlinearity correction enabled: false
Boxcar width: 0
XAxis mode: Wavelengths
Number of Pixels in Spectrum: 2048
>>>>>Begin Spectral Data<<<<<
223.165	2.06
223.4	2.06
223.635	2.06
223.869	-9.94
224.104	-26.94
224.338	-16.94
224.573	-25.94
224.808	-17.94
225.042	-5.94
225.277	-10.94
225.511	1.06
225.746	9.06
225.98	14.06
226.215	14.06
226.449	22.06
226.683	14.06
226.918	21.06
227.152	17.06
227.387	28.06
227.621	40.06
227.856	50.06
228.09	53.06
228.324	53.06
228.559	61.06
228.793	66.06
229.027	110.06
229.262	117.06
229.496	116.06
229.73	138.06
229.964	176.06
230.199	138.06
230.433	122.06
230.667	127.06
230.901	116.06
231.136	115.06
231.37	109.06
231.604	111.06
231.838	119.06
232.072	118.06
232.306	122.06
232.541	106.06
232.775	124.06
233.009	124.06
233.243	115.06
233.477	103.06
233.711	111.06
233.945	126.06
234.179	128.06
234.413	130.06
234.647	122.06
234.881	119.06
235.115	125.06
235.349	119.06
235.583	129.06
235.817	121.06
236.051	124.06
236.285	130.06
236.519	122.06
236.753	141.06
236.987	154.06
237.221	207.06
237.455	268.06
237.689	208.06
237.922	136.06
238.156	136.06
238.39	139.06
238.624	124.06
238.858	127.06
239.091	114.06
239.325	142.06
239.559	127.06
239.793	136.06
240.027	139.06
240.26	146.06
240.494	159.06
240.728	159.06
240.961	168.06
241.195	159.06
241.429	138.06
241.662	132.06
241.896	126.06
242.13	149.06
242.363	140.06
242.597	145.06
242.83	138.06
243.064	156.06
243.298	148.06
243.531	144.06
243.765	155.06
243.998	134.06
244.232	120.06
244.465	154.06
244.699	141.06
244.932	157.06
245.166	156.06
245.399	138.06
245.633	145.06
245.866	168.06
246.099	159.06
246.333	164.06
246.566	149.06
246.8	163.06
247.033	156.06
247.266	167.06
247.5	156.06
247.733	161.06
247.966	190.06
248.2	173.06
248.433	169.06
248.666	190.06
248.899	195.06
249.133	213.06
249.366	221.06
249.599	206.06
249.832	194.06
250.066	194.06
250.299	190.06
250.532	214.06
250.765	208.06
250.998	248.06
251.231	262.06
251.465	237.06
251.698	228.06
251.931	208.06
252.164	195.06
252.397	187.06
252.63	206.06
252.863	237.06
253.096	236.06
253.329	262.06
253.562	242.06
253.795	230.06
254.028	231.06
254.261	227.06
254.494	223.06
254.727	272.06
254.96	300.06
255.193	315.06
255.426	282.06
255.659	254.06
255.892	253.06
256.124	253.06
256.357	280.06
256.59	251.06
256.823	230.06
257.056	240.06
257.289	223.06
257.521	235.06
257.754	228.06
257.987	233.06
258.22	224.06
258.452	214.06
258.685	236.06
258.918	226.06
259.151	219.06
259.383	243.06
259.616	237.06
259.849	231.06
260.081	254.06
260.314	270.06
260.547	295.06
260.779	268.06
261.012	257.06
261.244	266.06
261.477	247.06
261.71	236.06
261.942	266.06
262.175	271.06
262.407	255.06
262.64	233.06
262.872	221.06
263.105	200.06
263.337	226.06
263.57	217.06
263.802	220.06
264.035	230.06
264.267	216.06
264.499	220.06
264.732	227.06
264.964	229.06
265.197	224.06
265.429	214.06
265.661	228.06
265.894	231.06
266.126	226.06
266.358	218.06
266.591	223.06
266.823	222.06
267.055	235.06
267.287	239.06
267.52	229.06
267.752	228.06
267.984	251.06
268.216	244.06
268.448	248.06
268.681	236.06
268.913	278.06
269.145	293.06
269.377	298.06
269.609	284.06
269.841	293.06
270.073	298.06
270.306	296.06
270.538	346.06
270.77	345.06
271.002	338.06
271.234	310.06
271.466	326.06
271.698	333.06
271.93	334.06
272.162	360.06
272.394	333.06
272.626	324.06
272.858	318.06
273.09	294.06
273.322	299.06
273.553	273.06
273.785	284.06
274.017	285.06
274.249	300.06
274.481	282.06
274.713	292.06
274.945	290.06
275.176	293.06
275.408	294.06
275.64	278.06
275.872	283.06
276.104	285.06
276.335	270.06
276.567	298.06
276.799	303.06
277.031	327.06
277.262	351.06
277.494	336.06
277.726	320.06
277.957	321.06
278.189	281.06
278.421	285.06
278.652	278.06
278.884	285.06
279.115	279.06
279.347	268.06
279.579	282.06
279.81	282.06
280.042	273.06
280.273	261.06
280.505	269.06
280.736	266.06
280.968	266.06
281.199	288.06
281.431	286.06
281.662	293.06
281.894	290.06
282.125	257.06
282.356	294.06
282.588	308.06
282.819	327.06
283.051	294.06
283.282	258.06
283.513	286.06
283.745	294.06
283.976	290.06
284.207	278.06
284.439	295.06
284.67	303.06
284.901	276.06
285.132	288.06
285.364	295.06
285.595	264.06
285.826	291.06
286.057	274.06
286.288	283.06
286.52	308.06
286.751	280.06
286.982	278.06
287.213	297.06
287.444	287.06
287.675	281.06
287.906	294.06
288.138	308.06
288.369	304.06
288.6	309.06
288.831	284.06
289.062	310.06
289.293	290.06
289.524	286.06
289.755	286.06
289.986	280.06
290.217	280.06
290.448	293.06
290.679	275.06
290.91	273.06
291.141	288.06
291.371	296.06
291.602	297.06
291.833	279.06
292.064	262.06
292.295	297.06
292.526	292.06
292.757	299.06
292.987	295.06
293.218	278.06
293.449	290.06
293.68	294.06
293.91	296.06
294.141	289.06
294.372	296.06
294.603	288.06
294.833	281.06
295.064	296.06
295.295	297.06
295.525	301.06
295.756	292.06
295.987	319.06
296.217	331.06
296.448	342.06
296.679	311.06
296.909	306.06
297.14	281.06
297.37	295.06
297.601	290.06
297.831	297.06
298.062	302.06
298.292	304.06
298.523	300.06
298.753	301.06
298.984	291.06
299.214	310.06
299.445	296.06
299.675	338.06
299.905	312.06
300.136	298.06
300.366	297.06
300.597	300.06
300.827	314.06
301.057	318.06
301.288	348.06
301.518	340.06
301.748	322.06
301.979	337.06
302.209	327.06
302.439	328.06
302.669	331.06
302.9	319.06
303.13	311.06
303.36	336.06
303.59	352.06
303.82	322.06
304.051	342.06
304.281	335.06
304.511	343.06
304.741	337.06
304.971	319.06
305.201	330.06
305.431	327.06
305.661	336.06
305.891	329.06
306.121	318.06
306.352	340.06
306.582	335.06
306.812	330.06
307.042	326.06
307.272	323.06
307.502	344.06
307.731	353.06
307.961	343.06
308.191	328.06
308.421	315.06
308.651	344.06
308.881	349.06
309.111	339.06
309.341	352.06
309.571	349.06
309.8	370.06
310.03	376.06
310.26	386.06
310.49	412.06
310.72	404.06
310.949	422.06
311.179	426.06
311.409	394.06
311.639	390.06
311.868	396.06
312.098	413.06
312.328	416.06
312.557	429.06
312.787	427.06
313.017	444.06
313.246	399.06
313.476	395.06
313.706	381.06
313.935	404.06
314.165	426.06
314.394	434.06
314.624	398.06
314.853	392.06
315.083	397.06
315.312	398.06
315.542	371.06
315.771	375.06
316.001	358.06
316.23	380.06
316.46	400.06
316.689	393.06
316.919	396.06
317.148	409.06
317.377	394.06
317.607	402.06
317.836	401.06
318.065	391.06
318.295	380.06
318.524	376.06
318.753	383.06
318.983	388.06
319.212	400.06
319.441	394.06
319.67	410.06
319.9	396.06
320.129	387.06
320.358	388.06
320.587	398.06
320.816	408.06
321.046	425.06
321.275	426.06
321.504	426.06
321.733	422.06
321.962	438.06
322.191	456.06
322.42	465.06
322.649	483.06
322.878	486.06
323.108	504.06
323.337	542.06
323.566	595.06
323.795	602.06
324.024	690.06
324.253	836.06
324.482	1230.06
324.71	1986.06
324.939	2890.06
325.168	2554.06
325.397	1254.06
325.626	811.06
325.855	669.06
326.084	605.06
326.313	589.06
326.542	579.06
326.77	650.06
326.999	774.06
327.228	1098.06
327.457	1722.06
327.686	2184.06
327.914	1427.06
328.143	920.06
328.372	782.06
328.6	693.06
328.829	668.06
329.058	706.06
329.287	679.06
329.515	647.06
329.744	594.06
329.972	565.06
330.201	600.06
330.43	656.06
330.658	713.06
330.887	717.06
331.115	677.06
331.344	597.06
331.572	562.06
331.801	544.06
332.03	543.06
332.258	517.06
332.486	474.06
332.715	480.06
332.943	472.06
333.172	446.06
333.4	485.06
333.629	489.06
333.857	483.06
334.085	525.06
334.314	550.06
334.542	597.06
334.771	618.06
334.999	536.06
335.227	506.06
335.455	508.06
335.684	477.06
335.912	440.06
336.14	435.06
336.369	460.06
336.597	466.06
336.825	460.06
337.053	434.06
337.281	438.06
337.51	432.06
337.738	441.06
337.966	447.06
338.194	460.06
338.422	446.06
338.65	438.06
338.878	440.06
339.106	431.06
339.334	424.06
339.562	431.06
339.79	418.06
340.018	431.06
340.246	431.06
340.474	442.06
340.702	449.06
340.93	435.06
341.158	431.06
341.386	442.06
341.614	458.06
341.842	436.06
342.07	434.06
342.298	423.06
342.526	426.06
342.754	430.06
342.981	417.06
343.209	424.06
343.437	404.06
343.665	418.06
343.893	434.06
344.12	436.06
344.348	430.06
344.576	439.06
344.804	431.06
345.031	447.06
345.259	469.06
345.487	460.06
345.714	443.06
345.942	443.06
346.17	414.06
346.397	421.06
346.625	430.06
346.853	429.06
347.08	414.06
347.308	437.06
347.535	436.06
347.763	443.06
347.99	425.06
348.218	449.06
348.445	436.06
348.673	438.06
348.9	434.06
349.128	421.06
349.355	401.06
349.583	407.06
349.81	413.06
350.037	383.06
350.265	416.06
350.492	413.06
350.72	386.06
350.947	402.06
351.174	427.06
351.402	424.06
351.629	448.06
351.856	432.06
352.083	429.06
352.311	442.06
352.538	438.06
352.765	458.06
352.992	444.06
353.22	415.06
353.447	444.06
353.674	435.06
353.901	389.06
354.128	387.06
354.355	383.06
354.583	380.06
354.81	380.06
355.037	382.06
355.264	375.06
355.491	362.06
355.718	400.06
355.945	398.06
356.172	364.06
356.399	373.06
356.626	354.06
356.853	362.06
357.08	364.06
357.307	376.06
357.534	376.06
357.761	371.06
357.988	379.06
358.215	373.06
358.441	353.06
358.668	382.06
358.895	386.06
359.122	389.06
359.349	398.06
359.576	419.06
359.802	460.06
360.029	488.06
360.256	510.06
360.483	470.06
360.709	452.06
360.936	417.06
361.163	422.06
361.39	410.06
361.616	414.06
361.843	430.06
362.07	403.06
362.296	422.06
362.523	420.06
362.749	418.06
362.976	426.06
363.203	404.06
363.429	400.06
363.656	389.06
363.882	403.06
364.109	404.06
364.335	394.06
364.562	386.06
364.788	387.06
365.015	389.06
365.241	394.06
365.468	419.06
365.694	394.06
365.92	416.06
366.147	382.06
366.373	391.06
366.599	371.06
366.826	373.06
367.052	366.06
367.278	386.06
367.505	394.06
367.731	401.06
367.957	377.06
368.184	381.06
368.41	379.06
368.636	409.06
368.862	398.06
369.089	409.06
369.315	392.06
369.541	374.06
369.767	398.06
369.993	393.06
370.219	389.06
370.445	374.06
370.672	400.06
370.898	384.06
371.124	381.06
371.35	371.06
371.576	381.06
371.802	359.06
372.028	377.06
372.254	372.06
372.48	371.06
372.706	368.06
372.932	382.06
373.158	378.06
373.384	398.06
373.61	382.06
373.835	383.06
374.061	380.06
374.287	373.06
374.513	400.06
374.739	373.06
374.965	373.06
375.191	379.06
375.416	378.06
375.642	373.06
375.868	398.06
376.094	370.06
376.319	362.06
376.545	385.06
376.771	360.06
376.997	355.06
377.222	362.06
377.448	360.06
377.674	376.06
377.899	355.06
378.125	365.06
378.35	373.06
378.576	380.06
378.802	348.06
379.027	337.06
379.253	378.06
379.478	356.06
379.704	365.06
379.929	350.06
380.155	364.06
380.38	367.06
380.606	364.06
380.831	379.06
381.057	372.06
381.282	376.06
381.507	372.06
381.733	377.06
381.958	372.06
382.184	362.06
382.409	373.06
382.634	380.06
382.86	389.06
383.085	390.06
383.31	380.06
383.535	386.06
383.761	381.06
383.986	369.06
384.211	378.06
384.436	386.06
384.662	384.06
384.887	382.06
385.112	373.06
385.337	387.06
385.562	372.06
385.787	379.06
386.013	405.06
386.238	426.06
386.463	386.06
386.688	404.06
386.913	376.06
387.138	405.06
387.363	392.06
387.588	390.06
387.813	383.06
388.038	388.06
388.263	391.06
388.488	402.06
388.713	380.06
388.938	403.06
389.163	411.06
389.387	400.06
389.612	395.06
389.837	405.06
390.062	390.06
390.287	373.06
390.512	390.06
390.736	391.06
390.961	410.06
391.186	375.06
391.411	382.06
391.636	408.06
391.86	402.06
392.085	387.06
392.31	413.06
392.534	388.06
392.759	379.06
392.984	408.06
393.208	400.06
393.433	408.06
393.658	400.06
393.882	381.06
394.107	392.06
394.331	393.06
394.556	410.06
394.78	387.06
395.005	383.06
395.229	400.06
395.454	407.06
395.678	406.06
395.903	424.06
396.127	440.06
396.352	450.06
396.576	408.06
396.801	388.06
397.025	410.06
397.249	424.06
397.474	421.06
397.698	430.06
397.922	436.06
398.147	445.06
398.371	457.06
398.595	450.06
398.82	449.06
399.044	436.06
399.268	447.06
399.492	476.06
399.717	484.06
399.941	493.06
400.165	530.06
400.389	578.06
400.613	514.06
400.837	485.06
401.062	472.06
401.286	467.06
401.51	455.06
401.734	445.06
401.958	448.06
402.182	460.06
402.406	454.06
402.63	468.06
402.854	452.06
403.078	459.06
403.302	435.06
403.526	473.06
403.75	465.06
403.974	463.06
404.198	472.06
404.422	451.06
404.645	481.06
404.869	494.06
405.093	493.06
405.317	575.06
405.541	596.06
405.765	554.06
405.988	478.06
406.212	508.06
406.436	528.06
406.66	564.06
406.883	531.06
407.107	548.06
407.331	576.06
407.555	631.06
407.778	649.06
408.002	576.06
408.226	530.06
408.449	546.06
408.673	531.06
408.896	559.06
409.12	582.06
409.344	571.06
409.567	523.06
409.791	473.06
410.014	465.06
410.238	480.06
410.461	461.06
410.685	457.06
410.908	483.06
411.132	507.06
411.355	589.06
411.578	557.06
411.802	471.06
412.025	474.06
412.249	462.06
412.472	492.06
412.695	565.06
412.919	522.06
413.142	487.06
413.365	477.06
413.589	446.06
413.812	466.06
414.035	444.06
414.258	418.06
414.482	442.06
414.705	456.06
414.928	437.06
415.151	423.06
415.374	439.06
415.597	420.06
415.821	428.06
416.044	450.06
416.267	439.06
416.49	431.06
416.713	442.06
416.936	454.06
417.159	438.06
417.382	455.06
417.605	468.06
417.828	466.06
418.051	483.06
418.274	467.06
418.497	464.06
418.72	434.06
418.943	430.06
419.166	440.06
419.389	478.06
419.611	476.06
419.834	467.06
420.057	476.06
420.28	487.06
420.503	494.06
420.726	483.06
420.948	482.06
421.171	524.06
421.394	573.06
421.617	488.06
421.839	472.06
422.062	491.06
422.285	496.06
422.507	551.06
422.73	644.06
422.953	604.06
423.175	542.06
423.398	503.06
423.621	489.06
423.843	529.06
424.066	518.06
424.288	495.06
424.511	545.06
424.733	628.06
424.956	686.06
425.178	686.06
425.401	633.06
425.623	666.06
425.846	573.06
426.068	536.06
426.291	508.06
426.513	519.06
426.735	540.06
426.958	558.06
427.18	675.06
427.402	817.06
427.625	876.06
427.847	826.06
428.069	688.06
428.292	598.06
428.514	524.06
428.736	520.06
428.958	506.06
429.181	494.06
429.403	511.06
429.625	491.06
429.847	550.06
430.069	617.06
430.292	607.06
430.514	535.06
430.736	492.06
430.958	479.06
431.18	452.06
431.402	463.06
431.624	452.06
431.846	448.06
432.068	436.06
432.29	449.06
432.512	449.06
432.734	478.06
432.956	455.06
433.178	482.06
433.4	494.06
433.622	454.06
433.844	450.06
434.066	440.06
434.287	450.06
434.509	434.06
434.731	460.06
434.953	460.06
435.175	480.06
435.397	507.06
435.618	525.06
435.84	566.06
436.062	687.06
436.284	775.06
436.505	621.06
436.727	563.06
436.949	500.06
437.17	520.06
437.392	490.06
437.614	507.06
437.835	576.06
438.057	680.06
438.278	780.06
438.5	761.06
438.721	838.06
438.943	794.06
439.165	616.06
439.386	582.06
439.608	568.06
439.829	571.06
440.05	613.06
440.272	655.06
440.493	596.06
440.715	540.06
440.936	485.06
441.158	490.06
441.379	528.06
441.6	514.06
441.822	542.06
442.043	574.06
442.264	663.06
442.486	730.06
442.707	592.06
442.928	554.06
443.149	578.06
443.371	591.06
443.592	615.06
443.813	724.06
444.034	747.06
444.255	643.06
444.476	569.06
444.698	554.06
444.919	504.06
445.14	639.06
445.361	587.06
445.582	594.06
445.803	676.06
446.024	815.06
446.245	785.06
446.466	732.06
446.687	600.06
446.908	556.06
447.129	529.06
447.35	515.06
447.571	506.06
447.792	489.06
448.013	507.06
448.234	534.06
448.455	599.06
448.675	717.06
448.896	827.06
449.117	714.06
449.338	648.06
449.559	762.06
449.779	832.06
450	690.06
450.221	576.06
450.442	518.06
450.662	484.06
450.883	500.06
451.104	512.06
451.324	502.06
451.545	482.06
451.766	482.06
451.986	414.06
452.207	444.06
452.428	439.06
452.648	436.06
452.869	434.06
453.089	438.06
453.31	469.06
453.53	445.06
453.751	437.06
453.971	450.06
454.192	476.06
454.412	450.06
454.633	434.06
454.853	434.06
455.073	456.06
455.294	476.06
455.514	540.06
455.734	524.06
455.955	436.06
456.175	431.06
456.395	410.06
456.616	421.06
456.836	391.06
457.056	413.06
457.276	396.06
457.497	416.06
457.717	425.06
457.937	412.06
458.157	422.06
458.377	419.06
458.598	458.06
458.818	509.06
459.038	623.06
459.258	648.06
459.478	520.06
459.698	475.06
459.918	453.06
460.138	445.06
460.358	424.06
460.578	450.06
460.798	436.06
461.018	458.06
461.238	424.06
461.458	430.06
461.678	420.06
461.898	422.06
462.118	418.06
462.338	446.06
462.558	448.06
462.777	439.06
462.997	445.06
463.217	498.06
463.437	478.06
463.657	458.06
463.876	426.06
464.096	477.06
464.316	467.06
464.536	479.06
464.755	476.06
464.975	485.06
465.195	573.06
465.414	642.06
465.634	564.06
465.854	503.06
466.073	478.06
466.293	458.06
466.512	450.06
466.732	425.06
466.951	421.06
467.171	414.06
467.391	427.06
467.61	448.06
467.829	465.06
468.049	455.06
468.268	446.06
468.488	446.06
468.707	415.06
468.927	421.06
469.146	415.06
469.365	430.06
469.585	423.06
469.804	436.06
470.023	436.06
470.243	460.06
470.462	459.06
470.681	477.06
470.901	473.06
471.12	451.06
471.339	468.06
471.558	450.06
471.777	436.06
471.997	445.06
472.216	454.06
472.435	512.06
472.654	501.06
472.873	458.06
473.092	442.06
473.311	447.06
473.53	447.06
473.749	459.06
473.968	524.06
474.187	671.06
474.406	696.06
474.625	530.06
474.844	491.06
475.063	453.06
475.282	463.06
475.501	453.06
475.72	471.06
475.939	467.06
476.158	463.06
476.377	456.06
476.596	455.06
476.814	467.06
477.033	469.06
477.252	491.06
477.471	469.06
477.69	488.06
477.908	458.06
478.127	487.06
478.346	482.06
478.564	483.06
478.783	471.06
479.002	474.06
479.22	494.06
479.439	530.06
479.658	538.06
479.876	551.06
480.095	558.06
480.313	581.06
480.532	566.06
480.751	536.06
480.969	563.06
481.188	660.06
481.406	752.06
481.624	620.06
481.843	525.06
482.061	557.06
482.28	531.06
482.498	524.06
482.717	542.06
482.935	535.06
483.153	526.06
483.372	524.06
483.59	532.06
483.808	529.06
484.027	518.06
484.245	505.06
484.463	543.06
484.681	529.06
484.9	526.06
485.118	527.06
485.336	546.06
485.554	532.06
485.772	521.06
485.99	562.06
486.209	549.06
486.427	545.06
486.645	573.06
486.863	591.06
487.081	590.06
487.299	571.06
487.517	580.06
487.735	557.06
487.953	554.06
488.171	564.06
488.389	578.06
488.607	582.06
488.825	573.06
489.043	601.06
489.261	586.06
489.479	577.06
489.696	573.06
489.914	581.06
490.132	576.06
490.35	609.06
490.568	582.06
490.786	618.06
491.003	611.06
491.221	641.06
491.439	632.06
491.657	645.06
491.874	650.06
492.092	652.06
492.31	655.06
492.527	670.06
492.745	660.06
492.963	644.06
493.18	669.06
493.398	668.06
493.615	694.06
493.833	676.06
494.05	684.06
494.268	669.06
494.485	682.06
494.703	683.06
494.92	667.06
495.138	675.06
495.355	669.06
495.573	665.06
495.79	678.06
496.008	660.06
496.225	657.06
496.442	665.06
496.66	663.06
496.877	674.06
497.094	666.06
497.312	671.06
497.529	668.06
497.746	702.06
497.963	703.06
498.181	705.06
498.398	730.06
498.615	728.06
498.832	711.06
499.049	729.06
499.267	748.06
499.484	761.06
499.701	760.06
499.918	786.06
500.135	797.06
500.352	810.06
500.569	830.06
500.786	822.06
501.003	822.06
501.22	800.06
501.437	790.06
501.654	795.06
501.871	820.06
