Data from 1972.PennyLincolnUp.Lamp.En5.5.200Scan.071719.P1._HRD10591_15-27-48-843.txt Node
Date: Thu Jul 18 15:27:48 EDT 2019
User: cochatt
Spectrometer: HR+D1059
Trigger mode: 1
Integration Time (sec): 1.000000E-1
Scans to average: 1
Electric dark correction enabled: true
Nonlinearity correction enabled: false
Boxcar width: 0
XAxis mode: Wavelengths
Number of Pixels in Spectrum: 2048
>>>>>Begin Spectral Data<<<<<
223.165	-5.75
223.4	-5.75
223.635	-5.75
223.869	-14.75
224.104	-16.75
224.338	-7.75
224.573	-14.75
224.808	-17.75
225.042	-11.75
225.277	-5.75
225.511	-1.75
225.746	8.25
225.98	-5.75
226.215	14.25
226.449	14.25
226.683	13.25
226.918	16.25
227.152	36.25
227.387	28.25
227.621	29.25
227.856	39.25
228.09	41.25
228.324	45.25
228.559	56.25
228.793	64.25
229.027	90.25
229.262	110.25
229.496	116.25
229.73	128.25
229.964	160.25
230.199	130.25
230.433	124.25
230.667	119.25
230.901	117.25
231.136	121.25
231.37	117.25
231.604	114.25
231.838	124.25
232.072	108.25
232.306	107.25
232.541	120.25
232.775	118.25
233.009	106.25
233.243	116.25
233.477	123.25
233.711	114.25
233.945	118.25
234.179	122.25
234.413	113.25
234.647	106.25
234.881	114.25
235.115	116.25
235.349	126.25
235.583	124.25
235.817	121.25
236.051	132.25
236.285	117.25
236.519	114.25
236.753	140.25
236.987	145.25
237.221	201.25
237.455	253.25
237.689	180.25
237.922	175.25
238.156	141.25
238.39	132.25
238.624	136.25
238.858	132.25
239.091	145.25
239.325	128.25
239.559	132.25
239.793	130.25
240.027	131.25
240.26	153.25
240.494	165.25
240.728	153.25
240.961	153.25
241.195	145.25
241.429	141.25
241.662	125.25
241.896	141.25
242.13	123.25
242.363	126.25
242.597	133.25
242.83	154.25
243.064	145.25
243.298	140.25
243.531	146.25
243.765	161.25
243.998	144.25
244.232	136.25
244.465	157.25
244.699	136.25
244.932	144.25
245.166	146.25
245.399	146.25
245.633	129.25
245.866	137.25
246.099	142.25
246.333	151.25
246.566	149.25
246.8	159.25
247.033	160.25
247.266	158.25
247.5	158.25
247.733	180.25
247.966	176.25
248.2	160.25
248.433	166.25
248.666	180.25
248.899	185.25
249.133	206.25
249.366	201.25
249.599	212.25
249.832	176.25
250.066	189.25
250.299	183.25
250.532	200.25
250.765	222.25
250.998	238.25
251.231	245.25
251.465	206.25
251.698	200.25
251.931	214.25
252.164	206.25
252.397	209.25
252.63	199.25
252.863	224.25
253.096	222.25
253.329	234.25
253.562	225.25
253.795	217.25
254.028	223.25
254.261	228.25
254.494	226.25
254.727	266.25
254.96	289.25
255.193	290.25
255.426	260.25
255.659	254.25
255.892	232.25
256.124	253.25
256.357	237.25
256.59	250.25
256.823	239.25
257.056	231.25
257.289	210.25
257.521	220.25
257.754	213.25
257.987	216.25
258.22	218.25
258.452	214.25
258.685	212.25
258.918	224.25
259.151	211.25
259.383	222.25
259.616	233.25
259.849	233.25
260.081	234.25
260.314	251.25
260.547	262.25
260.779	248.25
261.012	232.25
261.244	251.25
261.477	239.25
261.71	233.25
261.942	246.25
262.175	242.25
262.407	245.25
262.64	205.25
262.872	210.25
263.105	224.25
263.337	214.25
263.57	234.25
263.802	224.25
264.035	228.25
264.267	216.25
264.499	206.25
264.732	198.25
264.964	218.25
265.197	204.25
265.429	234.25
265.661	212.25
265.894	206.25
266.126	237.25
266.358	200.25
266.591	209.25
266.823	244.25
267.055	221.25
267.287	232.25
267.52	217.25
267.752	202.25
267.984	227.25
268.216	224.25
268.448	241.25
268.681	229.25
268.913	245.25
269.145	261.25
269.377	267.25
269.609	284.25
269.841	262.25
270.073	283.25
270.306	295.25
270.538	316.25
270.77	326.25
271.002	312.25
271.234	289.25
271.466	297.25
271.698	306.25
271.93	309.25
272.162	330.25
272.394	330.25
272.626	329.25
272.858	301.25
273.09	296.25
273.322	268.25
273.553	279.25
273.785	278.25
274.017	260.25
274.249	268.25
274.481	277.25
274.713	284.25
274.945	267.25
275.176	266.25
275.408	268.25
275.64	266.25
275.872	256.25
276.104	291.25
276.335	265.25
276.567	284.25
276.799	292.25
277.031	312.25
277.262	321.25
277.494	306.25
277.726	294.25
277.957	297.25
278.189	282.25
278.421	270.25
278.652	264.25
278.884	278.25
279.115	280.25
279.347	274.25
279.579	260.25
279.81	285.25
280.042	280.25
280.273	241.25
280.505	258.25
280.736	275.25
280.968	268.25
281.199	266.25
281.431	266.25
281.662	267.25
281.894	258.25
282.125	272.25
282.356	295.25
282.588	327.25
282.819	312.25
283.051	264.25
283.282	267.25
283.513	293.25
283.745	295.25
283.976	271.25
284.207	281.25
284.439	270.25
284.67	264.25
284.901	272.25
285.132	269.25
285.364	280.25
285.595	273.25
285.826	262.25
286.057	275.25
286.288	278.25
286.52	295.25
286.751	272.25
286.982	293.25
287.213	284.25
287.444	285.25
287.675	276.25
287.906	274.25
288.138	286.25
288.369	296.25
288.6	293.25
288.831	294.25
289.062	291.25
289.293	273.25
289.524	294.25
289.755	276.25
289.986	296.25
290.217	276.25
290.448	289.25
290.679	272.25
290.91	282.25
291.141	272.25
291.371	287.25
291.602	285.25
291.833	275.25
292.064	287.25
292.295	276.25
292.526	292.25
292.757	281.25
292.987	279.25
293.218	281.25
293.449	278.25
293.68	286.25
293.91	283.25
294.141	271.25
294.372	283.25
294.603	278.25
294.833	282.25
295.064	286.25
295.295	302.25
295.525	285.25
295.756	282.25
295.987	312.25
296.217	320.25
296.448	336.25
296.679	311.25
296.909	301.25
297.14	292.25
297.37	294.25
297.601	296.25
297.831	280.25
298.062	303.25
298.292	286.25
298.523	292.25
298.753	293.25
298.984	298.25
299.214	296.25
299.445	295.25
299.675	298.25
299.905	326.25
300.136	296.25
300.366	309.25
300.597	296.25
300.827	312.25
301.057	305.25
301.288	319.25
301.518	299.25
301.748	320.25
301.979	301.25
302.209	300.25
302.439	312.25
302.669	310.25
302.9	322.25
303.13	304.25
303.36	327.25
303.59	316.25
303.82	331.25
304.051	333.25
304.281	317.25
304.511	302.25
304.741	308.25
304.971	318.25
305.201	308.25
305.431	311.25
305.661	313.25
305.891	329.25
306.121	345.25
306.352	321.25
306.582	331.25
306.812	324.25
307.042	318.25
307.272	311.25
307.502	332.25
307.731	308.25
307.961	316.25
308.191	330.25
308.421	346.25
308.651	342.25
308.881	340.25
309.111	335.25
309.341	332.25
309.571	348.25
309.8	352.25
310.03	379.25
310.26	376.25
310.49	385.25
310.72	386.25
310.949	400.25
311.179	396.25
311.409	392.25
311.639	375.25
311.868	389.25
312.098	378.25
312.328	401.25
312.557	404.25
312.787	428.25
313.017	406.25
313.246	403.25
313.476	359.25
313.706	376.25
313.935	398.25
314.165	398.25
314.394	386.25
314.624	401.25
314.853	396.25
315.083	364.25
315.312	380.25
315.542	373.25
315.771	359.25
316.001	366.25
316.23	374.25
316.46	372.25
316.689	364.25
316.919	376.25
317.148	390.25
317.377	384.25
317.607	376.25
317.836	381.25
318.065	386.25
318.295	357.25
318.524	382.25
318.753	372.25
318.983	376.25
319.212	391.25
319.441	378.25
319.67	384.25
319.9	384.25
320.129	366.25
320.358	385.25
320.587	392.25
320.816	400.25
321.046	391.25
321.275	400.25
321.504	402.25
321.733	409.25
321.962	416.25
322.191	436.25
322.42	437.25
322.649	472.25
322.878	473.25
323.108	466.25
323.337	513.25
323.566	534.25
323.795	558.25
324.024	619.25
324.253	784.25
324.482	1128.25
324.71	1777.25
324.939	2612.25
325.168	2295.25
325.397	1128.25
325.626	748.25
325.855	582.25
326.084	524.25
326.313	522.25
326.542	551.25
326.77	601.25
326.999	706.25
327.228	1011.25
327.457	1547.25
327.686	1970.25
327.914	1280.25
328.143	833.25
328.372	695.25
328.6	638.25
328.829	614.25
329.058	612.25
329.287	642.25
329.515	605.25
329.744	560.25
329.972	543.25
330.201	556.25
330.43	583.25
330.658	642.25
330.887	660.25
331.115	650.25
331.344	555.25
331.572	506.25
331.801	506.25
332.03	491.25
332.258	477.25
332.486	454.25
332.715	448.25
332.943	442.25
333.172	442.25
333.4	428.25
333.629	447.25
333.857	479.25
334.085	481.25
334.314	508.25
334.542	530.25
334.771	562.25
334.999	496.25
335.227	463.25
335.455	442.25
335.684	417.25
335.912	431.25
336.14	414.25
336.369	421.25
336.597	436.25
336.825	461.25
337.053	436.25
337.281	419.25
337.51	402.25
337.738	416.25
337.966	410.25
338.194	439.25
338.422	425.25
338.65	422.25
338.878	416.25
339.106	416.25
339.334	419.25
339.562	429.25
339.79	401.25
340.018	416.25
340.246	442.25
340.474	440.25
340.702	424.25
340.93	409.25
341.158	411.25
341.386	413.25
341.614	420.25
341.842	420.25
342.07	398.25
342.298	407.25
342.526	405.25
342.754	392.25
342.981	389.25
343.209	381.25
343.437	392.25
343.665	382.25
343.893	426.25
344.12	408.25
344.348	402.25
344.576	398.25
344.804	427.25
345.031	439.25
345.259	444.25
345.487	443.25
345.714	405.25
345.942	406.25
346.17	419.25
346.397	410.25
346.625	394.25
346.853	412.25
347.08	416.25
347.308	398.25
347.535	426.25
347.763	418.25
347.99	424.25
348.218	442.25
348.445	426.25
348.673	414.25
348.9	396.25
349.128	390.25
349.355	381.25
349.583	398.25
349.81	384.25
350.037	392.25
350.265	391.25
350.492	384.25
350.72	387.25
350.947	400.25
351.174	386.25
351.402	430.25
351.629	401.25
351.856	399.25
352.083	416.25
352.311	414.25
352.538	421.25
352.765	440.25
352.992	406.25
353.22	416.25
353.447	401.25
353.674	413.25
353.901	373.25
354.128	369.25
354.355	398.25
354.583	400.25
354.81	379.25
355.037	350.25
355.264	364.25
355.491	364.25
355.718	369.25
355.945	376.25
356.172	361.25
356.399	359.25
356.626	382.25
356.853	366.25
357.08	369.25
357.307	346.25
357.534	331.25
357.761	358.25
357.988	366.25
358.215	389.25
358.441	374.25
358.668	366.25
358.895	369.25
359.122	378.25
359.349	378.25
359.576	406.25
359.802	413.25
360.029	464.25
360.256	485.25
360.483	455.25
360.709	409.25
360.936	420.25
361.163	412.25
361.39	412.25
361.616	418.25
361.843	409.25
362.07	408.25
362.296	418.25
362.523	403.25
362.749	400.25
362.976	397.25
363.203	393.25
363.429	384.25
363.656	388.25
363.882	381.25
364.109	373.25
364.335	376.25
364.562	374.25
364.788	377.25
365.015	359.25
365.241	364.25
365.468	391.25
365.694	373.25
365.92	372.25
366.147	389.25
366.373	369.25
366.599	381.25
366.826	348.25
367.052	352.25
367.278	348.25
367.505	368.25
367.731	394.25
367.957	375.25
368.184	381.25
368.41	386.25
368.636	400.25
368.862	376.25
369.089	376.25
369.315	353.25
369.541	369.25
369.767	384.25
369.993	374.25
370.219	361.25
370.445	377.25
370.672	356.25
370.898	366.25
371.124	364.25
371.35	354.25
371.576	341.25
371.802	355.25
372.028	390.25
372.254	372.25
372.48	366.25
372.706	373.25
372.932	358.25
373.158	384.25
373.384	374.25
373.61	354.25
373.835	366.25
374.061	364.25
374.287	381.25
374.513	366.25
374.739	362.25
374.965	368.25
375.191	369.25
375.416	373.25
375.642	337.25
375.868	372.25
376.094	357.25
376.319	371.25
376.545	374.25
376.771	368.25
376.997	362.25
377.222	360.25
377.448	346.25
377.674	369.25
377.899	347.25
378.125	354.25
378.35	353.25
378.576	369.25
378.802	368.25
379.027	358.25
379.253	373.25
379.478	344.25
379.704	361.25
379.929	368.25
380.155	354.25
380.38	366.25
380.606	369.25
380.831	377.25
381.057	369.25
381.282	365.25
381.507	377.25
381.733	367.25
381.958	351.25
382.184	365.25
382.409	383.25
382.634	351.25
382.86	350.25
383.085	369.25
383.31	375.25
383.535	361.25
383.761	374.25
383.986	386.25
384.211	389.25
384.436	366.25
384.662	374.25
384.887	365.25
385.112	360.25
385.337	390.25
385.562	405.25
385.787	389.25
386.013	402.25
386.238	402.25
386.463	401.25
386.688	379.25
386.913	392.25
387.138	386.25
387.363	402.25
387.588	394.25
387.813	397.25
388.038	390.25
388.263	392.25
388.488	392.25
388.713	390.25
388.938	387.25
389.163	407.25
389.387	407.25
389.612	380.25
389.837	384.25
390.062	387.25
390.287	401.25
390.512	397.25
390.736	391.25
390.961	387.25
391.186	377.25
391.411	409.25
391.636	391.25
391.86	407.25
392.085	399.25
392.31	414.25
392.534	389.25
392.759	395.25
392.984	403.25
393.208	384.25
393.433	400.25
393.658	404.25
393.882	401.25
394.107	388.25
394.331	380.25
394.556	406.25
394.78	384.25
395.005	384.25
395.229	386.25
395.454	401.25
395.678	394.25
395.903	422.25
396.127	443.25
396.352	442.25
396.576	412.25
396.801	404.25
397.025	406.25
397.249	420.25
397.474	421.25
397.698	411.25
397.922	414.25
398.147	407.25
398.371	432.25
398.595	424.25
398.82	448.25
399.044	448.25
399.268	461.25
399.492	454.25
399.717	490.25
399.941	537.25
400.165	520.25
400.389	552.25
400.613	484.25
400.837	479.25
401.062	449.25
401.286	448.25
401.51	462.25
401.734	426.25
401.958	426.25
402.182	430.25
402.406	451.25
402.63	454.25
402.854	440.25
403.078	457.25
403.302	444.25
403.526	465.25
403.75	464.25
403.974	429.25
404.198	456.25
404.422	479.25
404.645	468.25
404.869	473.25
405.093	493.25
405.317	546.25
405.541	591.25
405.765	519.25
405.988	497.25
406.212	516.25
406.436	516.25
406.66	527.25
406.883	509.25
407.107	531.25
407.331	541.25
407.555	649.25
407.778	625.25
408.002	573.25
408.226	529.25
408.449	501.25
408.673	486.25
408.896	538.25
409.12	580.25
409.344	570.25
409.567	489.25
409.791	467.25
410.014	461.25
410.238	466.25
410.461	458.25
410.685	472.25
410.908	501.25
411.132	528.25
411.355	551.25
411.578	530.25
411.802	485.25
412.025	453.25
412.249	471.25
412.472	492.25
412.695	524.25
412.919	531.25
413.142	485.25
413.365	450.25
413.589	447.25
413.812	439.25
414.035	428.25
414.258	412.25
414.482	436.25
414.705	431.25
414.928	429.25
415.151	407.25
415.374	426.25
415.597	415.25
415.821	436.25
416.044	422.25
416.267	436.25
416.49	420.25
416.713	430.25
416.936	427.25
417.159	431.25
417.382	456.25
417.605	450.25
417.828	448.25
418.051	465.25
418.274	462.25
418.497	420.25
418.72	439.25
418.943	442.25
419.166	429.25
419.389	479.25
419.611	464.25
419.834	451.25
420.057	457.25
420.28	470.25
420.503	465.25
420.726	472.25
420.948	493.25
421.171	537.25
421.394	543.25
421.617	473.25
421.839	458.25
422.062	449.25
422.285	471.25
422.507	546.25
422.73	608.25
422.953	608.25
423.175	534.25
423.398	507.25
423.621	479.25
423.843	516.25
424.066	492.25
424.288	497.25
424.511	532.25
424.733	582.25
424.956	654.25
425.178	648.25
425.401	636.25
425.623	646.25
425.846	556.25
426.068	518.25
426.291	503.25
426.513	500.25
426.735	526.25
426.958	568.25
427.18	647.25
427.402	762.25
427.625	875.25
427.847	780.25
428.069	664.25
428.292	560.25
428.514	536.25
428.736	522.25
428.958	507.25
429.181	479.25
429.403	486.25
429.625	473.25
429.847	511.25
430.069	588.25
430.292	584.25
430.514	505.25
430.736	473.25
430.958	450.25
431.18	445.25
431.402	462.25
431.624	437.25
431.846	425.25
432.068	450.25
432.29	418.25
432.512	451.25
432.734	460.25
432.956	450.25
433.178	468.25
433.4	471.25
433.622	433.25
433.844	446.25
434.066	431.25
434.287	420.25
434.509	460.25
434.731	415.25
434.953	458.25
435.175	495.25
435.397	505.25
435.618	519.25
435.84	546.25
436.062	673.25
436.284	746.25
436.505	602.25
436.727	530.25
436.949	500.25
437.17	483.25
437.392	468.25
437.614	509.25
437.835	537.25
438.057	638.25
438.278	732.25
438.5	738.25
438.721	815.25
438.943	777.25
439.165	611.25
439.386	559.25
439.608	556.25
439.829	524.25
440.05	570.25
440.272	607.25
440.493	567.25
440.715	522.25
440.936	493.25
441.158	492.25
441.379	502.25
441.6	485.25
441.822	509.25
442.043	576.25
442.264	601.25
442.486	692.25
442.707	586.25
442.928	534.25
443.149	551.25
443.371	569.25
443.592	613.25
443.813	714.25
444.034	787.25
444.255	610.25
444.476	552.25
444.698	518.25
444.919	505.25
445.14	654.25
445.361	599.25
445.582	580.25
445.803	646.25
446.024	735.25
446.245	766.25
446.466	690.25
446.687	575.25
446.908	528.25
447.129	502.25
447.35	472.25
447.571	498.25
447.792	474.25
448.013	476.25
448.234	498.25
448.455	548.25
448.675	691.25
448.896	792.25
449.117	672.25
449.338	638.25
449.559	746.25
449.779	809.25
450	663.25
450.221	558.25
450.442	507.25
450.662	478.25
450.883	502.25
451.104	493.25
451.324	504.25
451.545	478.25
451.766	456.25
451.986	422.25
452.207	416.25
452.428	440.25
452.648	407.25
452.869	420.25
453.089	431.25
453.31	453.25
453.53	434.25
453.751	400.25
453.971	424.25
454.192	457.25
454.412	449.25
454.633	433.25
454.853	421.25
455.073	428.25
455.294	460.25
455.514	528.25
455.734	505.25
455.955	442.25
456.175	408.25
456.395	421.25
456.616	385.25
456.836	410.25
457.056	378.25
457.276	399.25
457.497	384.25
457.717	388.25
457.937	405.25
458.157	420.25
458.377	412.25
458.598	446.25
458.818	503.25
459.038	606.25
459.258	612.25
459.478	505.25
459.698	459.25
459.918	453.25
460.138	429.25
460.358	419.25
460.578	421.25
460.798	458.25
461.018	448.25
461.238	430.25
461.458	427.25
461.678	405.25
461.898	441.25
462.118	440.25
462.338	447.25
462.558	426.25
462.777	437.25
462.997	442.25
463.217	446.25
463.437	463.25
463.657	456.25
463.876	452.25
464.096	461.25
464.316	455.25
464.536	461.25
464.755	459.25
464.975	488.25
465.195	516.25
465.414	618.25
465.634	525.25
465.854	487.25
466.073	436.25
466.293	447.25
466.512	437.25
466.732	442.25
466.951	450.25
467.171	436.25
467.391	438.25
467.61	443.25
467.829	460.25
468.049	454.25
468.268	455.25
468.488	438.25
468.707	416.25
468.927	402.25
469.146	423.25
469.365	407.25
469.585	418.25
469.804	426.25
470.023	430.25
470.243	432.25
470.462	440.25
470.681	458.25
470.901	477.25
471.12	420.25
471.339	432.25
471.558	440.25
471.777	445.25
471.997	423.25
472.216	441.25
472.435	487.25
472.654	491.25
472.873	450.25
473.092	446.25
473.311	454.25
473.53	454.25
473.749	461.25
473.968	500.25
474.187	582.25
474.406	653.25
474.625	504.25
474.844	476.25
475.063	458.25
475.282	447.25
475.501	440.25
475.72	448.25
475.939	456.25
476.158	444.25
476.377	444.25
476.596	446.25
476.814	464.25
477.033	456.25
477.252	477.25
477.471	454.25
477.69	465.25
477.908	490.25
478.127	464.25
478.346	484.25
478.564	492.25
478.783	490.25
479.002	471.25
479.22	513.25
479.439	518.25
479.658	556.25
479.876	530.25
480.095	540.25
480.313	564.25
480.532	536.25
480.751	520.25
480.969	549.25
481.188	629.25
481.406	681.25
481.624	576.25
481.843	550.25
482.061	532.25
482.28	520.25
482.498	526.25
482.717	501.25
482.935	508.25
483.153	503.25
483.372	498.25
483.59	512.25
483.808	519.25
484.027	496.25
484.245	512.25
484.463	506.25
484.681	554.25
484.9	530.25
485.118	500.25
485.336	531.25
485.554	510.25
485.772	523.25
485.99	521.25
486.209	538.25
486.427	553.25
486.645	536.25
486.863	564.25
487.081	548.25
487.299	568.25
487.517	561.25
487.735	545.25
487.953	550.25
488.171	555.25
488.389	558.25
488.607	558.25
488.825	543.25
489.043	543.25
489.261	573.25
489.479	547.25
489.696	544.25
489.914	565.25
490.132	568.25
490.35	593.25
490.568	580.25
490.786	593.25
491.003	616.25
491.221	608.25
491.439	620.25
491.657	626.25
491.874	629.25
492.092	638.25
492.31	622.25
492.527	647.25
492.745	617.25
492.963	651.25
493.18	641.25
493.398	649.25
493.615	653.25
493.833	650.25
494.05	666.25
494.268	667.25
494.485	646.25
494.703	662.25
494.92	682.25
495.138	663.25
495.355	663.25
495.573	647.25
495.79	653.25
496.008	660.25
496.225	657.25
496.442	640.25
496.66	656.25
496.877	658.25
497.094	646.25
497.312	678.25
497.529	648.25
497.746	676.25
497.963	683.25
498.181	715.25
498.398	725.25
498.615	725.25
498.832	722.25
499.049	734.25
499.267	741.25
499.484	735.25
499.701	794.25
499.918	785.25
500.135	786.25
500.352	812.25
500.569	815.25
500.786	816.25
501.003	845.25
501.22	805.25
501.437	794.25
501.654	810.25
501.871	823.25
