Data from 1972.PennyLincolnUp.Lamp.En5.5.200Scan.071719.P1._HRD10591_15-28-07-844.txt Node
Date: Thu Jul 18 15:28:07 EDT 2019
User: cochatt
Spectrometer: HR+D1059
Trigger mode: 1
Integration Time (sec): 1.000000E-1
Scans to average: 1
Electric dark correction enabled: true
Nonlinearity correction enabled: false
Boxcar width: 0
XAxis mode: Wavelengths
Number of Pixels in Spectrum: 2048
>>>>>Begin Spectral Data<<<<<
223.165	-19.69
223.4	-19.69
223.635	-19.69
223.869	-12.69
224.104	-19.69
224.338	-21.69
224.573	-9.69
224.808	-25.69
225.042	-7.69
225.277	-1.69
225.511	-0.69
225.746	7.31
225.98	3.31
226.215	11.31
226.449	19.31
226.683	16.31
226.918	30.31
227.152	31.31
227.387	36.31
227.621	42.31
227.856	29.31
228.09	45.31
228.324	44.31
228.559	55.31
228.793	80.31
229.027	85.31
229.262	116.31
229.496	132.31
229.73	134.31
229.964	166.31
230.199	152.31
230.433	126.31
230.667	119.31
230.901	130.31
231.136	119.31
231.37	123.31
231.604	122.31
231.838	128.31
232.072	123.31
232.306	121.31
232.541	123.31
232.775	118.31
233.009	114.31
233.243	116.31
233.477	115.31
233.711	106.31
233.945	126.31
234.179	118.31
234.413	130.31
234.647	110.31
234.881	116.31
235.115	114.31
235.349	119.31
235.583	124.31
235.817	124.31
236.051	138.31
236.285	128.31
236.519	119.31
236.753	130.31
236.987	139.31
237.221	189.31
237.455	248.31
237.689	203.31
237.922	141.31
238.156	132.31
238.39	142.31
238.624	134.31
238.858	126.31
239.091	128.31
239.325	124.31
239.559	127.31
239.793	138.31
240.027	151.31
240.26	153.31
240.494	149.31
240.728	149.31
240.961	135.31
241.195	147.31
241.429	116.31
241.662	138.31
241.896	138.31
242.13	133.31
242.363	131.31
242.597	139.31
242.83	121.31
243.064	147.31
243.298	138.31
243.531	138.31
243.765	138.31
243.998	136.31
244.232	140.31
244.465	145.31
244.699	138.31
244.932	142.31
245.166	148.31
245.399	145.31
245.633	144.31
245.866	141.31
246.099	142.31
246.333	156.31
246.566	158.31
246.8	153.31
247.033	138.31
247.266	150.31
247.5	154.31
247.733	163.31
247.966	150.31
248.2	188.31
248.433	170.31
248.666	168.31
248.899	191.31
249.133	206.31
249.366	221.31
249.599	210.31
249.832	184.31
250.066	186.31
250.299	175.31
250.532	206.31
250.765	212.31
250.998	215.31
251.231	246.31
251.465	222.31
251.698	220.31
251.931	202.31
252.164	191.31
252.397	197.31
252.63	218.31
252.863	219.31
253.096	236.31
253.329	232.31
253.562	223.31
253.795	227.31
254.028	215.31
254.261	223.31
254.494	231.31
254.727	267.31
254.96	306.31
255.193	265.31
255.426	276.31
255.659	242.31
255.892	255.31
256.124	248.31
256.357	247.31
256.59	228.31
256.823	212.31
257.056	209.31
257.289	200.31
257.521	199.31
257.754	207.31
257.987	216.31
258.22	199.31
258.452	204.31
258.685	199.31
258.918	211.31
259.151	212.31
259.383	211.31
259.616	235.31
259.849	223.31
260.081	244.31
260.314	263.31
260.547	267.31
260.779	236.31
261.012	256.31
261.244	232.31
261.477	225.31
261.71	215.31
261.942	234.31
262.175	252.31
262.407	244.31
262.64	223.31
262.872	211.31
263.105	220.31
263.337	199.31
263.57	226.31
263.802	212.31
264.035	230.31
264.267	213.31
264.499	218.31
264.732	226.31
264.964	218.31
265.197	221.31
265.429	205.31
265.661	219.31
265.894	200.31
266.126	214.31
266.358	216.31
266.591	217.31
266.823	216.31
267.055	222.31
267.287	234.31
267.52	220.31
267.752	217.31
267.984	223.31
268.216	233.31
268.448	214.31
268.681	252.31
268.913	242.31
269.145	271.31
269.377	280.31
269.609	283.31
269.841	283.31
270.073	264.31
270.306	290.31
270.538	321.31
270.77	318.31
271.002	285.31
271.234	316.31
271.466	322.31
271.698	324.31
271.93	320.31
272.162	341.31
272.394	324.31
272.626	290.31
272.858	294.31
273.09	280.31
273.322	296.31
273.553	268.31
273.785	257.31
274.017	247.31
274.249	261.31
274.481	261.31
274.713	275.31
274.945	258.31
275.176	279.31
275.408	248.31
275.64	266.31
275.872	270.31
276.104	264.31
276.335	266.31
276.567	269.31
276.799	295.31
277.031	313.31
277.262	346.31
277.494	316.31
277.726	293.31
277.957	285.31
278.189	275.31
278.421	272.31
278.652	270.31
278.884	259.31
279.115	268.31
279.347	279.31
279.579	248.31
279.81	267.31
280.042	245.31
280.273	248.31
280.505	250.31
280.736	274.31
280.968	254.31
281.199	258.31
281.431	250.31
281.662	254.31
281.894	259.31
282.125	263.31
282.356	304.31
282.588	324.31
282.819	318.31
283.051	254.31
283.282	249.31
283.513	288.31
283.745	262.31
283.976	265.31
284.207	284.31
284.439	267.31
284.67	260.31
284.901	284.31
285.132	270.31
285.364	269.31
285.595	276.31
285.826	270.31
286.057	260.31
286.288	267.31
286.52	256.31
286.751	249.31
286.982	302.31
287.213	271.31
287.444	269.31
287.675	271.31
287.906	267.31
288.138	287.31
288.369	286.31
288.6	284.31
288.831	287.31
289.062	272.31
289.293	278.31
289.524	290.31
289.755	284.31
289.986	287.31
290.217	292.31
290.448	270.31
290.679	268.31
290.91	285.31
291.141	280.31
291.371	261.31
291.602	283.31
291.833	286.31
292.064	282.31
292.295	275.31
292.526	254.31
292.757	269.31
292.987	282.31
293.218	279.31
293.449	280.31
293.68	278.31
293.91	280.31
294.141	278.31
294.372	286.31
294.603	278.31
294.833	280.31
295.064	266.31
295.295	276.31
295.525	274.31
295.756	278.31
295.987	304.31
296.217	318.31
296.448	335.31
296.679	288.31
296.909	282.31
297.14	284.31
297.37	274.31
297.601	270.31
297.831	290.31
298.062	283.31
298.292	297.31
298.523	315.31
298.753	277.31
298.984	288.31
299.214	282.31
299.445	288.31
299.675	283.31
299.905	317.31
300.136	296.31
300.366	307.31
300.597	290.31
300.827	298.31
301.057	302.31
301.288	330.31
301.518	315.31
301.748	314.31
301.979	304.31
302.209	317.31
302.439	303.31
302.669	320.31
302.9	298.31
303.13	327.31
303.36	337.31
303.59	306.31
303.82	311.31
304.051	322.31
304.281	301.31
304.511	288.31
304.741	306.31
304.971	285.31
305.201	300.31
305.431	302.31
305.661	322.31
305.891	303.31
306.121	330.31
306.352	319.31
306.582	308.31
306.812	327.31
307.042	300.31
307.272	299.31
307.502	314.31
307.731	320.31
307.961	332.31
308.191	308.31
308.421	334.31
308.651	319.31
308.881	339.31
309.111	342.31
309.341	336.31
309.571	335.31
309.8	346.31
310.03	368.31
310.26	372.31
310.49	372.31
310.72	380.31
310.949	395.31
311.179	397.31
311.409	376.31
311.639	371.31
311.868	373.31
312.098	363.31
312.328	364.31
312.557	381.31
312.787	406.31
313.017	413.31
313.246	395.31
313.476	358.31
313.706	378.31
313.935	382.31
314.165	386.31
314.394	404.31
314.624	388.31
314.853	374.31
315.083	363.31
315.312	362.31
315.542	375.31
315.771	364.31
316.001	361.31
316.23	356.31
316.46	359.31
316.689	358.31
316.919	364.31
317.148	389.31
317.377	386.31
317.607	382.31
317.836	375.31
318.065	375.31
318.295	357.31
318.524	362.31
318.753	363.31
318.983	328.31
319.212	365.31
319.441	372.31
319.67	387.31
319.9	383.31
320.129	374.31
320.358	370.31
320.587	383.31
320.816	376.31
321.046	390.31
321.275	389.31
321.504	395.31
321.733	404.31
321.962	423.31
322.191	399.31
322.42	430.31
322.649	439.31
322.878	444.31
323.108	464.31
323.337	523.31
323.566	523.31
323.795	564.31
324.024	642.31
324.253	772.31
324.482	1105.31
324.71	1726.31
324.939	2591.31
325.168	2287.31
325.397	1126.31
325.626	740.31
325.855	620.31
326.084	552.31
326.313	537.31
326.542	553.31
326.77	580.31
326.999	701.31
327.228	1028.31
327.457	1595.31
327.686	1984.31
327.914	1294.31
328.143	844.31
328.372	730.31
328.6	655.31
328.829	596.31
329.058	634.31
329.287	630.31
329.515	591.31
329.744	562.31
329.972	550.31
330.201	580.31
330.43	630.31
330.658	652.31
330.887	672.31
331.115	643.31
331.344	558.31
331.572	500.31
331.801	514.31
332.03	487.31
332.258	472.31
332.486	444.31
332.715	446.31
332.943	443.31
333.172	449.31
333.4	438.31
333.629	458.31
333.857	470.31
334.085	458.31
334.314	505.31
334.542	552.31
334.771	570.31
334.999	507.31
335.227	466.31
335.455	434.31
335.684	427.31
335.912	424.31
336.14	394.31
336.369	398.31
336.597	435.31
336.825	445.31
337.053	415.31
337.281	398.31
337.51	406.31
337.738	415.31
337.966	410.31
338.194	412.31
338.422	439.31
338.65	401.31
338.878	393.31
339.106	392.31
339.334	393.31
339.562	399.31
339.79	407.31
340.018	413.31
340.246	411.31
340.474	429.31
340.702	391.31
340.93	409.31
341.158	395.31
341.386	409.31
341.614	402.31
341.842	415.31
342.07	406.31
342.298	386.31
342.526	392.31
342.754	376.31
342.981	405.31
343.209	394.31
343.437	379.31
343.665	388.31
343.893	398.31
344.12	395.31
344.348	411.31
344.576	411.31
344.804	439.31
345.031	412.31
345.259	418.31
345.487	438.31
345.714	425.31
345.942	395.31
346.17	401.31
346.397	405.31
346.625	395.31
346.853	403.31
347.08	396.31
347.308	391.31
347.535	426.31
347.763	412.31
347.99	411.31
348.218	412.31
348.445	428.31
348.673	413.31
348.9	383.31
349.128	382.31
349.355	382.31
349.583	362.31
349.81	386.31
350.037	393.31
350.265	384.31
350.492	370.31
350.72	380.31
350.947	389.31
351.174	413.31
351.402	428.31
351.629	401.31
351.856	394.31
352.083	409.31
352.311	432.31
352.538	416.31
352.765	418.31
352.992	416.31
353.22	382.31
353.447	383.31
353.674	395.31
353.901	383.31
354.128	378.31
354.355	358.31
354.583	366.31
354.81	381.31
355.037	370.31
355.264	348.31
355.491	350.31
355.718	358.31
355.945	341.31
356.172	350.31
356.399	342.31
356.626	372.31
356.853	346.31
357.08	347.31
357.307	339.31
357.534	357.31
357.761	366.31
357.988	361.31
358.215	377.31
358.441	359.31
358.668	367.31
358.895	375.31
359.122	368.31
359.349	372.31
359.576	374.31
359.802	406.31
360.029	464.31
360.256	473.31
360.483	440.31
360.709	398.31
360.936	403.31
361.163	394.31
361.39	401.31
361.616	394.31
361.843	410.31
362.07	388.31
362.296	396.31
362.523	393.31
362.749	383.31
362.976	373.31
363.203	379.31
363.429	374.31
363.656	378.31
363.882	367.31
364.109	381.31
364.335	348.31
364.562	380.31
364.788	374.31
365.015	376.31
365.241	386.31
365.468	385.31
365.694	377.31
365.92	370.31
366.147	378.31
366.373	373.31
366.599	356.31
366.826	349.31
367.052	382.31
367.278	362.31
367.505	356.31
367.731	370.31
367.957	363.31
368.184	378.31
368.41	384.31
368.636	388.31
368.862	399.31
369.089	392.31
369.315	364.31
369.541	354.31
369.767	354.31
369.993	378.31
370.219	349.31
370.445	336.31
370.672	356.31
370.898	347.31
371.124	339.31
371.35	330.31
371.576	349.31
371.802	342.31
372.028	343.31
372.254	333.31
372.48	356.31
372.706	346.31
372.932	365.31
373.158	348.31
373.384	355.31
373.61	370.31
373.835	364.31
374.061	343.31
374.287	362.31
374.513	357.31
374.739	363.31
374.965	353.31
375.191	348.31
375.416	365.31
375.642	360.31
375.868	366.31
376.094	334.31
376.319	336.31
376.545	329.31
376.771	349.31
376.997	345.31
377.222	343.31
377.448	362.31
377.674	369.31
377.899	351.31
378.125	340.31
378.35	345.31
378.576	336.31
378.802	347.31
379.027	350.31
379.253	349.31
379.478	355.31
379.704	349.31
379.929	335.31
380.155	343.31
380.38	347.31
380.606	335.31
380.831	355.31
381.057	345.31
381.282	346.31
381.507	344.31
381.733	357.31
381.958	349.31
382.184	329.31
382.409	353.31
382.634	361.31
382.86	363.31
383.085	352.31
383.31	350.31
383.535	366.31
383.761	351.31
383.986	362.31
384.211	358.31
384.436	366.31
384.662	366.31
384.887	383.31
385.112	368.31
385.337	380.31
385.562	358.31
385.787	352.31
386.013	366.31
386.238	373.31
386.463	386.31
386.688	365.31
386.913	366.31
387.138	389.31
387.363	356.31
387.588	364.31
387.813	381.31
388.038	360.31
388.263	364.31
388.488	375.31
388.713	376.31
388.938	377.31
389.163	377.31
389.387	372.31
389.612	375.31
389.837	373.31
390.062	347.31
390.287	386.31
390.512	356.31
390.736	369.31
390.961	371.31
391.186	374.31
391.411	379.31
391.636	370.31
391.86	352.31
392.085	390.31
392.31	362.31
392.534	370.31
392.759	389.31
392.984	374.31
393.208	380.31
393.433	371.31
393.658	399.31
393.882	361.31
394.107	388.31
394.331	358.31
394.556	374.31
394.78	391.31
395.005	378.31
395.229	368.31
395.454	398.31
395.678	382.31
395.903	403.31
396.127	418.31
396.352	413.31
396.576	401.31
396.801	398.31
397.025	389.31
397.249	389.31
397.474	386.31
397.698	410.31
397.922	420.31
398.147	418.31
398.371	422.31
398.595	395.31
398.82	407.31
399.044	425.31
399.268	434.31
399.492	432.31
399.717	433.31
399.941	496.31
400.165	520.31
400.389	540.31
400.613	502.31
400.837	443.31
401.062	418.31
401.286	442.31
401.51	424.31
401.734	424.31
401.958	411.31
402.182	434.31
402.406	440.31
402.63	436.31
402.854	424.31
403.078	419.31
403.302	452.31
403.526	439.31
403.75	438.31
403.974	430.31
404.198	427.31
404.422	463.31
404.645	441.31
404.869	446.31
405.093	478.31
405.317	510.31
405.541	561.31
405.765	515.31
405.988	490.31
406.212	476.31
406.436	504.31
406.66	483.31
406.883	505.31
407.107	518.31
407.331	559.31
407.555	619.31
407.778	615.31
408.002	563.31
408.226	498.31
408.449	474.31
408.673	495.31
408.896	515.31
409.12	571.31
409.344	533.31
409.567	446.31
409.791	459.31
410.014	457.31
410.238	440.31
410.461	453.31
410.685	448.31
410.908	468.31
411.132	508.31
411.355	530.31
411.578	519.31
411.802	452.31
412.025	449.31
412.249	452.31
412.472	493.31
412.695	502.31
412.919	487.31
413.142	478.31
413.365	446.31
413.589	454.31
413.812	440.31
414.035	416.31
414.258	424.31
414.482	404.31
414.705	406.31
414.928	413.31
415.151	427.31
415.374	412.31
415.597	397.31
415.821	399.31
416.044	405.31
416.267	434.31
416.49	416.31
416.713	419.31
416.936	420.31
417.159	430.31
417.382	438.31
417.605	428.31
417.828	424.31
418.051	443.31
418.274	438.31
418.497	409.31
418.72	427.31
418.943	411.31
419.166	443.31
419.389	439.31
419.611	452.31
419.834	434.31
420.057	423.31
420.28	429.31
420.503	447.31
420.726	440.31
420.948	448.31
421.171	505.31
421.394	511.31
421.617	453.31
421.839	450.31
422.062	430.31
422.285	472.31
422.507	540.31
422.73	590.31
422.953	578.31
423.175	512.31
423.398	465.31
423.621	461.31
423.843	469.31
424.066	494.31
424.288	466.31
424.511	500.31
424.733	532.31
424.956	642.31
425.178	617.31
425.401	596.31
425.623	640.31
425.846	563.31
426.068	520.31
426.291	489.31
426.513	498.31
426.735	485.31
426.958	560.31
427.18	649.31
427.402	771.31
427.625	852.31
427.847	752.31
428.069	640.31
428.292	584.31
428.514	513.31
428.736	480.31
428.958	460.31
429.181	440.31
429.403	475.31
429.625	488.31
429.847	514.31
430.069	595.31
430.292	554.31
430.514	470.31
430.736	456.31
430.958	450.31
431.18	447.31
431.402	441.31
431.624	402.31
431.846	425.31
432.068	416.31
432.29	415.31
432.512	441.31
432.734	445.31
432.956	426.31
433.178	440.31
433.4	444.31
433.622	424.31
433.844	432.31
434.066	421.31
434.287	407.31
434.509	427.31
434.731	431.31
434.953	446.31
435.175	451.31
435.397	483.31
435.618	494.31
435.84	527.31
436.062	634.31
436.284	713.31
436.505	598.31
436.727	534.31
436.949	480.31
437.17	464.31
437.392	450.31
437.614	486.31
437.835	522.31
438.057	612.31
438.278	742.31
438.5	714.31
438.721	820.31
438.943	735.31
439.165	570.31
439.386	530.31
439.608	500.31
439.829	512.31
440.05	551.31
440.272	625.31
440.493	546.31
440.715	509.31
440.936	491.31
441.158	466.31
441.379	451.31
441.6	482.31
441.822	513.31
442.043	542.31
442.264	614.31
442.486	684.31
442.707	567.31
442.928	535.31
443.149	525.31
443.371	549.31
443.592	595.31
443.813	666.31
444.034	741.31
444.255	599.31
444.476	500.31
444.698	486.31
444.919	492.31
445.14	595.31
445.361	538.31
445.582	537.31
445.803	638.31
446.024	776.31
446.245	741.31
446.466	671.31
446.687	568.31
446.908	523.31
447.129	494.31
447.35	486.31
447.571	470.31
447.792	469.31
448.013	464.31
448.234	504.31
448.455	551.31
448.675	677.31
448.896	778.31
449.117	664.31
449.338	602.31
449.559	714.31
449.779	802.31
450	638.31
450.221	528.31
450.442	528.31
450.662	468.31
450.883	491.31
451.104	500.31
451.324	476.31
451.545	448.31
451.766	425.31
451.986	418.31
452.207	429.31
452.428	418.31
452.648	431.31
452.869	404.31
453.089	428.31
453.31	447.31
453.53	440.31
453.751	427.31
453.971	410.31
454.192	443.31
454.412	444.31
454.633	409.31
454.853	420.31
455.073	424.31
455.294	462.31
455.514	532.31
455.734	507.31
455.955	438.31
456.175	418.31
456.395	386.31
456.616	396.31
456.836	400.31
457.056	363.31
457.276	366.31
457.497	397.31
457.717	386.31
457.937	412.31
458.157	391.31
458.377	398.31
458.598	449.31
458.818	500.31
459.038	582.31
459.258	591.31
459.478	502.31
459.698	427.31
459.918	450.31
460.138	426.31
460.358	442.31
460.578	420.31
460.798	431.31
461.018	422.31
461.238	419.31
461.458	423.31
461.678	412.31
461.898	435.31
462.118	404.31
462.338	430.31
462.558	416.31
462.777	428.31
462.997	438.31
463.217	446.31
463.437	445.31
463.657	461.31
463.876	438.31
464.096	442.31
464.316	408.31
464.536	420.31
464.755	440.31
464.975	454.31
465.195	519.31
465.414	598.31
465.634	532.31
465.854	479.31
466.073	442.31
466.293	423.31
466.512	431.31
466.732	411.31
466.951	440.31
467.171	418.31
467.391	427.31
467.61	438.31
467.829	469.31
468.049	428.31
468.268	460.31
468.488	421.31
468.707	382.31
468.927	411.31
469.146	424.31
469.365	399.31
469.585	396.31
469.804	413.31
470.023	422.31
470.243	427.31
470.462	447.31
470.681	442.31
470.901	427.31
471.12	429.31
471.339	414.31
471.558	445.31
471.777	419.31
471.997	428.31
472.216	428.31
472.435	455.31
472.654	467.31
472.873	438.31
473.092	412.31
473.311	435.31
473.53	438.31
473.749	423.31
473.968	494.31
474.187	594.31
474.406	634.31
474.625	491.31
474.844	452.31
475.063	438.31
475.282	422.31
475.501	430.31
475.72	459.31
475.939	437.31
476.158	429.31
476.377	430.31
476.596	419.31
476.814	429.31
477.033	443.31
477.252	450.31
477.471	419.31
477.69	435.31
477.908	470.31
478.127	445.31
478.346	412.31
478.564	453.31
478.783	463.31
479.002	474.31
479.22	492.31
479.439	487.31
479.658	502.31
479.876	520.31
480.095	523.31
480.313	550.31
480.532	488.31
480.751	533.31
480.969	526.31
481.188	592.31
481.406	657.31
481.624	555.31
481.843	508.31
482.061	523.31
482.28	520.31
482.498	515.31
482.717	493.31
482.935	512.31
483.153	499.31
483.372	503.31
483.59	492.31
483.808	494.31
484.027	495.31
484.245	514.31
484.463	502.31
484.681	505.31
484.9	509.31
485.118	517.31
485.336	502.31
485.554	507.31
485.772	502.31
485.99	516.31
486.209	521.31
486.427	518.31
486.645	545.31
486.863	570.31
487.081	550.31
487.299	532.31
487.517	549.31
487.735	532.31
487.953	526.31
488.171	537.31
488.389	532.31
488.607	553.31
488.825	539.31
489.043	553.31
489.261	541.31
489.479	545.31
489.696	526.31
489.914	523.31
490.132	566.31
490.35	551.31
490.568	563.31
490.786	560.31
491.003	566.31
491.221	606.31
491.439	616.31
491.657	597.31
491.874	605.31
492.092	615.31
492.31	614.31
492.527	618.31
492.745	600.31
492.963	629.31
493.18	638.31
493.398	641.31
493.615	641.31
493.833	619.31
494.05	638.31
494.268	644.31
494.485	638.31
494.703	629.31
494.92	646.31
495.138	644.31
495.355	635.31
495.573	642.31
495.79	626.31
496.008	630.31
496.225	627.31
496.442	640.31
496.66	664.31
496.877	618.31
497.094	606.31
497.312	635.31
497.529	678.31
497.746	656.31
497.963	686.31
498.181	706.31
498.398	676.31
498.615	655.31
498.832	694.31
499.049	686.31
499.267	715.31
499.484	714.31
499.701	723.31
499.918	744.31
500.135	767.31
500.352	779.31
500.569	789.31
500.786	794.31
501.003	779.31
501.22	780.31
501.437	782.31
501.654	755.31
501.871	792.31
