Data from 1972.PennyLincolnUp.Lamp.En5.5.200Scan.071719.P1._HRD10591_15-29-36-844.txt Node
Date: Thu Jul 18 15:29:36 EDT 2019
User: cochatt
Spectrometer: HR+D1059
Trigger mode: 1
Integration Time (sec): 1.000000E-1
Scans to average: 1
Electric dark correction enabled: true
Nonlinearity correction enabled: false
Boxcar width: 0
XAxis mode: Wavelengths
Number of Pixels in Spectrum: 2048
>>>>>Begin Spectral Data<<<<<
223.165	-24.5
223.4	-24.5
223.635	-24.5
223.869	-21.5
224.104	-21.5
224.338	-13.5
224.573	-16.5
224.808	-2.5
225.042	-8.5
225.277	-3.5
225.511	6.5
225.746	-9.5
225.98	10.5
226.215	6.5
226.449	7.5
226.683	29.5
226.918	33.5
227.152	27.5
227.387	49.5
227.621	47.5
227.856	42.5
228.09	51.5
228.324	49.5
228.559	61.5
228.793	61.5
229.027	102.5
229.262	108.5
229.496	132.5
229.73	158.5
229.964	179.5
230.199	149.5
230.433	112.5
230.667	123.5
230.901	114.5
231.136	95.5
231.37	115.5
231.604	123.5
231.838	119.5
232.072	107.5
232.306	113.5
232.541	118.5
232.775	118.5
233.009	120.5
233.243	106.5
233.477	129.5
233.711	125.5
233.945	115.5
234.179	111.5
234.413	113.5
234.647	118.5
234.881	112.5
235.115	115.5
235.349	114.5
235.583	142.5
235.817	116.5
236.051	131.5
236.285	152.5
236.519	127.5
236.753	139.5
236.987	155.5
237.221	220.5
237.455	261.5
237.689	209.5
237.922	162.5
238.156	140.5
238.39	128.5
238.624	128.5
238.858	123.5
239.091	131.5
239.325	104.5
239.559	111.5
239.793	121.5
240.027	141.5
240.26	157.5
240.494	164.5
240.728	152.5
240.961	155.5
241.195	154.5
241.429	141.5
241.662	127.5
241.896	145.5
242.13	131.5
242.363	126.5
242.597	126.5
242.83	135.5
243.064	128.5
243.298	150.5
243.531	135.5
243.765	136.5
243.998	159.5
244.232	135.5
244.465	139.5
244.699	158.5
244.932	144.5
245.166	152.5
245.399	158.5
245.633	151.5
245.866	151.5
246.099	143.5
246.333	142.5
246.566	137.5
246.8	149.5
247.033	160.5
247.266	154.5
247.5	162.5
247.733	171.5
247.966	171.5
248.2	180.5
248.433	168.5
248.666	163.5
248.899	185.5
249.133	213.5
249.366	213.5
249.599	217.5
249.832	200.5
250.066	202.5
250.299	196.5
250.532	192.5
250.765	211.5
250.998	243.5
251.231	249.5
251.465	230.5
251.698	209.5
251.931	209.5
252.164	217.5
252.397	195.5
252.63	219.5
252.863	214.5
253.096	212.5
253.329	241.5
253.562	247.5
253.795	214.5
254.028	230.5
254.261	231.5
254.494	227.5
254.727	278.5
254.96	316.5
255.193	305.5
255.426	245.5
255.659	252.5
255.892	247.5
256.124	259.5
256.357	258.5
256.59	247.5
256.823	229.5
257.056	237.5
257.289	222.5
257.521	236.5
257.754	213.5
257.987	207.5
258.22	214.5
258.452	211.5
258.685	229.5
258.918	199.5
259.151	211.5
259.383	233.5
259.616	236.5
259.849	219.5
260.081	239.5
260.314	275.5
260.547	268.5
260.779	265.5
261.012	260.5
261.244	229.5
261.477	232.5
261.71	251.5
261.942	240.5
262.175	244.5
262.407	251.5
262.64	231.5
262.872	248.5
263.105	218.5
263.337	212.5
263.57	224.5
263.802	223.5
264.035	216.5
264.267	210.5
264.499	216.5
264.732	215.5
264.964	219.5
265.197	217.5
265.429	207.5
265.661	208.5
265.894	221.5
266.126	228.5
266.358	227.5
266.591	228.5
266.823	210.5
267.055	237.5
267.287	239.5
267.52	230.5
267.752	233.5
267.984	228.5
268.216	243.5
268.448	230.5
268.681	237.5
268.913	249.5
269.145	267.5
269.377	274.5
269.609	279.5
269.841	276.5
270.073	284.5
270.306	307.5
270.538	332.5
270.77	327.5
271.002	342.5
271.234	317.5
271.466	318.5
271.698	333.5
271.93	333.5
272.162	357.5
272.394	344.5
272.626	323.5
272.858	318.5
273.09	307.5
273.322	290.5
273.553	287.5
273.785	257.5
274.017	269.5
274.249	288.5
274.481	290.5
274.713	269.5
274.945	296.5
275.176	287.5
275.408	264.5
275.64	264.5
275.872	280.5
276.104	282.5
276.335	265.5
276.567	277.5
276.799	308.5
277.031	321.5
277.262	340.5
277.494	338.5
277.726	317.5
277.957	311.5
278.189	297.5
278.421	297.5
278.652	296.5
278.884	282.5
279.115	278.5
279.347	279.5
279.579	274.5
279.81	272.5
280.042	270.5
280.273	259.5
280.505	300.5
280.736	271.5
280.968	263.5
281.199	250.5
281.431	275.5
281.662	257.5
281.894	276.5
282.125	278.5
282.356	293.5
282.588	319.5
282.819	332.5
283.051	290.5
283.282	286.5
283.513	279.5
283.745	275.5
283.976	297.5
284.207	271.5
284.439	273.5
284.67	293.5
284.901	280.5
285.132	279.5
285.364	283.5
285.595	267.5
285.826	275.5
286.057	266.5
286.288	290.5
286.52	274.5
286.751	287.5
286.982	294.5
287.213	295.5
287.444	283.5
287.675	288.5
287.906	294.5
288.138	294.5
288.369	291.5
288.6	326.5
288.831	289.5
289.062	293.5
289.293	289.5
289.524	285.5
289.755	278.5
289.986	285.5
290.217	275.5
290.448	295.5
290.679	285.5
290.91	283.5
291.141	277.5
291.371	284.5
291.602	276.5
291.833	280.5
292.064	287.5
292.295	284.5
292.526	284.5
292.757	296.5
292.987	285.5
293.218	293.5
293.449	284.5
293.68	284.5
293.91	300.5
294.141	256.5
294.372	287.5
294.603	266.5
294.833	299.5
295.064	281.5
295.295	298.5
295.525	285.5
295.756	301.5
295.987	318.5
296.217	329.5
296.448	353.5
296.679	316.5
296.909	290.5
297.14	310.5
297.37	296.5
297.601	280.5
297.831	289.5
298.062	287.5
298.292	291.5
298.523	304.5
298.753	303.5
298.984	292.5
299.214	302.5
299.445	306.5
299.675	298.5
299.905	315.5
300.136	315.5
300.366	290.5
300.597	305.5
300.827	329.5
301.057	309.5
301.288	325.5
301.518	322.5
301.748	313.5
301.979	314.5
302.209	331.5
302.439	338.5
302.669	319.5
302.9	318.5
303.13	307.5
303.36	330.5
303.59	332.5
303.82	349.5
304.051	347.5
304.281	333.5
304.511	342.5
304.741	322.5
304.971	320.5
305.201	313.5
305.431	336.5
305.661	307.5
305.891	332.5
306.121	311.5
306.352	331.5
306.582	340.5
306.812	327.5
307.042	331.5
307.272	308.5
307.502	332.5
307.731	321.5
307.961	340.5
308.191	329.5
308.421	324.5
308.651	319.5
308.881	346.5
309.111	351.5
309.341	360.5
309.571	348.5
309.8	378.5
310.03	385.5
310.26	388.5
310.49	396.5
310.72	396.5
310.949	418.5
311.179	424.5
311.409	410.5
311.639	405.5
311.868	399.5
312.098	392.5
312.328	393.5
312.557	420.5
312.787	437.5
313.017	439.5
313.246	412.5
313.476	374.5
313.706	383.5
313.935	409.5
314.165	400.5
314.394	425.5
314.624	429.5
314.853	396.5
315.083	400.5
315.312	381.5
315.542	382.5
315.771	374.5
316.001	383.5
316.23	383.5
316.46	387.5
316.689	393.5
316.919	388.5
317.148	398.5
317.377	417.5
317.607	392.5
317.836	392.5
318.065	380.5
318.295	371.5
318.524	394.5
318.753	379.5
318.983	379.5
319.212	389.5
319.441	393.5
319.67	409.5
319.9	383.5
320.129	391.5
320.358	400.5
320.587	389.5
320.816	387.5
321.046	420.5
321.275	449.5
321.504	407.5
321.733	428.5
321.962	435.5
322.191	422.5
322.42	458.5
322.649	475.5
322.878	507.5
323.108	518.5
323.337	529.5
323.566	574.5
323.795	645.5
324.024	688.5
324.253	856.5
324.482	1308.5
324.71	2031.5
324.939	2967.5
325.168	2593.5
325.397	1295.5
325.626	822.5
325.855	651.5
326.084	605.5
326.313	592.5
326.542	577.5
326.77	631.5
326.999	798.5
327.228	1145.5
327.457	1792.5
327.686	2236.5
327.914	1457.5
328.143	919.5
328.372	806.5
328.6	705.5
328.829	663.5
329.058	695.5
329.287	675.5
329.515	639.5
329.744	589.5
329.972	599.5
330.201	621.5
330.43	667.5
330.658	688.5
330.887	739.5
331.115	710.5
331.344	582.5
331.572	539.5
331.801	538.5
332.03	514.5
332.258	507.5
332.486	484.5
332.715	468.5
332.943	459.5
333.172	453.5
333.4	461.5
333.629	465.5
333.857	479.5
334.085	521.5
334.314	539.5
334.542	599.5
334.771	625.5
334.999	545.5
335.227	501.5
335.455	440.5
335.684	442.5
335.912	442.5
336.14	434.5
336.369	452.5
336.597	436.5
336.825	456.5
337.053	440.5
337.281	428.5
337.51	429.5
337.738	418.5
337.966	428.5
338.194	434.5
338.422	452.5
338.65	444.5
338.878	417.5
339.106	436.5
339.334	427.5
339.562	423.5
339.79	410.5
340.018	402.5
340.246	422.5
340.474	442.5
340.702	411.5
340.93	416.5
341.158	419.5
341.386	419.5
341.614	421.5
341.842	404.5
342.07	426.5
342.298	411.5
342.526	394.5
342.754	396.5
342.981	413.5
343.209	417.5
343.437	411.5
343.665	425.5
343.893	412.5
344.12	436.5
344.348	401.5
344.576	414.5
344.804	423.5
345.031	448.5
345.259	464.5
345.487	462.5
345.714	422.5
345.942	417.5
346.17	448.5
346.397	447.5
346.625	411.5
346.853	424.5
347.08	399.5
347.308	414.5
347.535	447.5
347.763	420.5
347.99	444.5
348.218	435.5
348.445	431.5
348.673	443.5
348.9	424.5
349.128	411.5
349.355	394.5
349.583	376.5
349.81	404.5
350.037	407.5
350.265	401.5
350.492	399.5
350.72	388.5
350.947	401.5
351.174	436.5
351.402	441.5
351.629	429.5
351.856	430.5
352.083	432.5
352.311	437.5
352.538	444.5
352.765	455.5
352.992	435.5
353.22	426.5
353.447	421.5
353.674	412.5
353.901	383.5
354.128	379.5
354.355	395.5
354.583	378.5
354.81	380.5
355.037	372.5
355.264	381.5
355.491	383.5
355.718	352.5
355.945	353.5
356.172	365.5
356.399	375.5
356.626	383.5
356.853	356.5
357.08	356.5
357.307	377.5
357.534	365.5
357.761	361.5
357.988	372.5
358.215	379.5
358.441	388.5
358.668	370.5
358.895	411.5
359.122	393.5
359.349	404.5
359.576	413.5
359.802	428.5
360.029	476.5
360.256	507.5
360.483	488.5
360.709	423.5
360.936	441.5
361.163	415.5
361.39	417.5
361.616	434.5
361.843	415.5
362.07	416.5
362.296	409.5
362.523	399.5
362.749	400.5
362.976	406.5
363.203	407.5
363.429	395.5
363.656	408.5
363.882	397.5
364.109	384.5
364.335	381.5
364.562	392.5
364.788	381.5
365.015	369.5
365.241	382.5
365.468	379.5
365.694	408.5
365.92	393.5
366.147	375.5
366.373	369.5
366.599	373.5
366.826	377.5
367.052	371.5
367.278	359.5
367.505	377.5
367.731	369.5
367.957	384.5
368.184	393.5
368.41	380.5
368.636	409.5
368.862	396.5
369.089	391.5
369.315	384.5
369.541	361.5
369.767	373.5
369.993	372.5
370.219	379.5
370.445	346.5
370.672	375.5
370.898	370.5
371.124	385.5
371.35	378.5
371.576	371.5
371.802	349.5
372.028	371.5
372.254	347.5
372.48	359.5
372.706	380.5
372.932	373.5
373.158	370.5
373.384	370.5
373.61	377.5
373.835	372.5
374.061	374.5
374.287	356.5
374.513	359.5
374.739	388.5
374.965	366.5
375.191	373.5
375.416	371.5
375.642	352.5
375.868	367.5
376.094	355.5
376.319	376.5
376.545	351.5
376.771	371.5
376.997	363.5
377.222	373.5
377.448	357.5
377.674	355.5
377.899	346.5
378.125	369.5
378.35	375.5
378.576	363.5
378.802	360.5
379.027	367.5
379.253	367.5
379.478	346.5
379.704	363.5
379.929	357.5
380.155	351.5
380.38	374.5
380.606	384.5
380.831	374.5
381.057	375.5
381.282	364.5
381.507	364.5
381.733	367.5
381.958	367.5
382.184	352.5
382.409	375.5
382.634	388.5
382.86	359.5
383.085	364.5
383.31	363.5
383.535	369.5
383.761	373.5
383.986	385.5
384.211	367.5
384.436	379.5
384.662	356.5
384.887	379.5
385.112	373.5
385.337	373.5
385.562	383.5
385.787	393.5
386.013	391.5
386.238	392.5
386.463	399.5
386.688	421.5
386.913	368.5
387.138	388.5
387.363	363.5
387.588	391.5
387.813	385.5
388.038	376.5
388.263	381.5
388.488	383.5
388.713	379.5
388.938	383.5
389.163	386.5
389.387	398.5
389.612	390.5
389.837	380.5
390.062	387.5
390.287	405.5
390.512	387.5
390.736	382.5
390.961	378.5
391.186	379.5
391.411	390.5
391.636	385.5
391.86	385.5
392.085	384.5
392.31	395.5
392.534	389.5
392.759	384.5
392.984	398.5
393.208	402.5
393.433	383.5
393.658	388.5
393.882	381.5
394.107	387.5
394.331	394.5
394.556	377.5
394.78	379.5
395.005	369.5
395.229	383.5
395.454	385.5
395.678	388.5
395.903	393.5
396.127	413.5
396.352	416.5
396.576	393.5
396.801	415.5
397.025	409.5
397.249	411.5
397.474	419.5
397.698	417.5
397.922	439.5
398.147	449.5
398.371	451.5
398.595	448.5
398.82	420.5
399.044	424.5
399.268	445.5
399.492	480.5
399.717	460.5
399.941	494.5
400.165	523.5
400.389	563.5
400.613	513.5
400.837	466.5
401.062	449.5
401.286	432.5
401.51	442.5
401.734	415.5
401.958	435.5
402.182	445.5
402.406	443.5
402.63	451.5
402.854	447.5
403.078	453.5
403.302	449.5
403.526	455.5
403.75	455.5
403.974	460.5
404.198	455.5
404.422	467.5
404.645	460.5
404.869	479.5
405.093	506.5
405.317	549.5
405.541	592.5
405.765	540.5
405.988	517.5
406.212	503.5
406.436	539.5
406.66	545.5
406.883	529.5
407.107	544.5
407.331	592.5
407.555	640.5
407.778	649.5
408.002	545.5
408.226	525.5
408.449	508.5
408.673	514.5
408.896	560.5
409.12	575.5
409.344	555.5
409.567	493.5
409.791	467.5
410.014	459.5
410.238	474.5
410.461	471.5
410.685	469.5
410.908	485.5
411.132	511.5
411.355	567.5
411.578	514.5
411.802	463.5
412.025	445.5
412.249	454.5
412.472	503.5
412.695	546.5
412.919	554.5
413.142	498.5
413.365	470.5
413.589	458.5
413.812	441.5
414.035	452.5
414.258	428.5
414.482	426.5
414.705	461.5
414.928	437.5
415.151	423.5
415.374	417.5
415.597	434.5
415.821	429.5
416.044	419.5
416.267	429.5
416.49	427.5
416.713	443.5
416.936	441.5
417.159	409.5
417.382	453.5
417.605	456.5
417.828	452.5
418.051	462.5
418.274	451.5
418.497	429.5
418.72	444.5
418.943	415.5
419.166	471.5
419.389	462.5
419.611	461.5
419.834	457.5
420.057	464.5
420.28	465.5
420.503	458.5
420.726	467.5
420.948	491.5
421.171	499.5
421.394	580.5
421.617	500.5
421.839	481.5
422.062	475.5
422.285	491.5
422.507	547.5
422.73	650.5
422.953	599.5
423.175	522.5
423.398	497.5
423.621	488.5
423.843	523.5
424.066	521.5
424.288	511.5
424.511	529.5
424.733	595.5
424.956	685.5
425.178	672.5
425.401	647.5
425.623	684.5
425.846	573.5
426.068	532.5
426.291	519.5
426.513	502.5
426.735	544.5
426.958	569.5
427.18	659.5
427.402	809.5
427.625	905.5
427.847	840.5
428.069	701.5
428.292	609.5
428.514	548.5
428.736	521.5
428.958	522.5
429.181	491.5
429.403	482.5
429.625	492.5
429.847	529.5
430.069	603.5
430.292	596.5
430.514	504.5
430.736	470.5
430.958	441.5
431.18	460.5
431.402	450.5
431.624	440.5
431.846	436.5
432.068	447.5
432.29	442.5
432.512	427.5
432.734	450.5
432.956	474.5
433.178	461.5
433.4	469.5
433.622	460.5
433.844	438.5
434.066	428.5
434.287	428.5
434.509	425.5
434.731	449.5
434.953	453.5
435.175	478.5
435.397	498.5
435.618	510.5
435.84	575.5
436.062	673.5
436.284	733.5
436.505	627.5
436.727	541.5
436.949	487.5
437.17	481.5
437.392	476.5
437.614	529.5
437.835	559.5
438.057	649.5
438.278	775.5
438.5	770.5
438.721	855.5
438.943	779.5
439.165	627.5
439.386	568.5
439.608	550.5
439.829	549.5
440.05	599.5
440.272	643.5
440.493	601.5
440.715	571.5
440.936	521.5
441.158	485.5
441.379	484.5
441.6	490.5
441.822	533.5
442.043	588.5
442.264	674.5
442.486	682.5
442.707	600.5
442.928	554.5
443.149	566.5
443.371	571.5
443.592	617.5
443.813	713.5
444.034	772.5
444.255	603.5
444.476	522.5
444.698	522.5
444.919	514.5
445.14	616.5
445.361	589.5
445.582	585.5
445.803	661.5
446.024	780.5
446.245	803.5
446.466	713.5
446.687	587.5
446.908	548.5
447.129	531.5
447.35	483.5
447.571	487.5
447.792	491.5
448.013	501.5
448.234	522.5
448.455	552.5
448.675	717.5
448.896	805.5
449.117	688.5
449.338	649.5
449.559	775.5
449.779	876.5
450	673.5
450.221	565.5
450.442	523.5
450.662	510.5
450.883	499.5
451.104	535.5
451.324	486.5
451.545	471.5
451.766	464.5
451.986	432.5
452.207	428.5
452.428	404.5
452.648	414.5
452.869	435.5
453.089	460.5
453.31	448.5
453.53	448.5
453.751	423.5
453.971	433.5
454.192	471.5
454.412	447.5
454.633	462.5
454.853	437.5
455.073	435.5
455.294	459.5
455.514	562.5
455.734	524.5
455.955	458.5
456.175	415.5
456.395	405.5
456.616	398.5
456.836	407.5
457.056	398.5
457.276	394.5
457.497	390.5
457.717	405.5
457.937	423.5
458.157	401.5
458.377	410.5
458.598	461.5
458.818	529.5
459.038	615.5
459.258	622.5
459.478	533.5
459.698	457.5
459.918	443.5
460.138	434.5
460.358	423.5
460.578	419.5
460.798	439.5
461.018	443.5
461.238	441.5
461.458	437.5
461.678	430.5
461.898	448.5
462.118	431.5
462.338	445.5
462.558	448.5
462.777	435.5
462.997	442.5
463.217	444.5
463.437	466.5
463.657	457.5
463.876	435.5
464.096	442.5
464.316	447.5
464.536	444.5
464.755	482.5
464.975	481.5
465.195	533.5
465.414	649.5
465.634	572.5
465.854	499.5
466.073	470.5
466.293	469.5
466.512	427.5
466.732	427.5
466.951	428.5
467.171	430.5
467.391	446.5
467.61	448.5
467.829	469.5
468.049	452.5
468.268	474.5
468.488	419.5
468.707	418.5
468.927	433.5
469.146	423.5
469.365	414.5
469.585	425.5
469.804	424.5
470.023	450.5
470.243	445.5
470.462	474.5
470.681	473.5
470.901	476.5
471.12	452.5
471.339	423.5
471.558	441.5
471.777	466.5
471.997	455.5
472.216	450.5
472.435	491.5
472.654	487.5
472.873	475.5
473.092	416.5
473.311	435.5
473.53	437.5
473.749	459.5
473.968	510.5
474.187	626.5
474.406	651.5
474.625	502.5
474.844	481.5
475.063	451.5
475.282	424.5
475.501	447.5
475.72	462.5
475.939	444.5
476.158	462.5
476.377	449.5
476.596	439.5
476.814	457.5
477.033	466.5
477.252	465.5
477.471	467.5
477.69	489.5
477.908	476.5
478.127	458.5
478.346	475.5
478.564	476.5
478.783	479.5
479.002	493.5
479.22	482.5
479.439	494.5
479.658	539.5
479.876	533.5
480.095	524.5
480.313	572.5
480.532	552.5
480.751	527.5
480.969	563.5
481.188	651.5
481.406	703.5
481.624	618.5
481.843	565.5
482.061	544.5
482.28	538.5
482.498	523.5
482.717	512.5
482.935	544.5
483.153	498.5
483.372	523.5
483.59	523.5
483.808	531.5
484.027	512.5
484.245	521.5
484.463	525.5
484.681	494.5
484.9	542.5
485.118	516.5
485.336	518.5
485.554	532.5
485.772	537.5
485.99	533.5
486.209	553.5
486.427	536.5
486.645	555.5
486.863	574.5
487.081	591.5
487.299	556.5
487.517	549.5
487.735	540.5
487.953	551.5
488.171	559.5
488.389	563.5
488.607	549.5
488.825	538.5
489.043	554.5
489.261	555.5
489.479	567.5
489.696	573.5
489.914	556.5
490.132	591.5
490.35	570.5
490.568	588.5
490.786	602.5
491.003	597.5
491.221	642.5
491.439	627.5
491.657	631.5
491.874	629.5
492.092	649.5
492.31	631.5
492.527	653.5
492.745	652.5
492.963	643.5
493.18	646.5
493.398	660.5
493.615	659.5
493.833	659.5
494.05	641.5
494.268	672.5
494.485	682.5
494.703	666.5
494.92	656.5
495.138	637.5
495.355	661.5
495.573	693.5
495.79	633.5
496.008	651.5
496.225	675.5
496.442	651.5
496.66	660.5
496.877	665.5
497.094	641.5
497.312	684.5
497.529	677.5
497.746	692.5
497.963	706.5
498.181	692.5
498.398	722.5
498.615	692.5
498.832	737.5
499.049	705.5
499.267	727.5
499.484	728.5
499.701	771.5
499.918	770.5
500.135	797.5
500.352	817.5
500.569	827.5
500.786	792.5
501.003	789.5
501.22	800.5
501.437	805.5
501.654	791.5
501.871	810.5
502.088	782.5
502.305	758.5
502.522	744.5
502.739	720.5
502.956	718.5
503.172	687.5
503.389	714.5
503.606	679.5
503.823	693.5
504.04	701.5
504.256	662.5
504.473	660.5
504.69	660.5
504.907	651.5
505.123	636.5
505.34	631.5
505.557	663.5
505.773	672.5
505.99	675.5
506.207	643.5
506.423	640.5
506.64	652.5
506.856	665.5
507.073	634.5
507.289	609.5
507.506	651.5
507.722	654.5
507.939	695.5
508.155	649.5
508.372	627.5
508.588	624.5
508.805	630.5
509.021	632.5
509.238	669.5
509.454	651.5
509.67	629.5
509.887	635.5
510.103	629.5
510.319	645.5
510.536	758.5
510.752	1416.5
510.968	1112.5
511.184	681.5
511.401	634.5
511.617	600.5
511.833	616.5
512.049	603.5
512.265	603.5
512.481	588.5
512.698	587.5
512.914	576.5
513.13	591.5
513.346	578.5
513.562	620.5
513.778	618.5
513.994	601.5
514.21	625.5
514.426	661.5
514.642	727.5
514.858	756.5
515.074	815.5
515.29	1021.5
515.506	1579.5
515.721	1255.5
515.937	804.5
516.153	686.5
516.369	661.5
516.585	647.5
516.801	611.5
517.016	616.5
517.232	603.5
517.448	595.5
517.664	597.5
517.879	598.5
518.095	573.5
518.311	576.5
518.527	595.5
518.742	603.5
518.958	591.5
519.173	607.5
519.389	614.5
519.605	592.5
519.82	599.5
