Data from 1972.PennyLincolnUp.Lamp.En5.5.200Scan.071719.P1._HRD10591_15-29-06-844.txt Node
Date: Thu Jul 18 15:29:06 EDT 2019
User: cochatt
Spectrometer: HR+D1059
Trigger mode: 1
Integration Time (sec): 1.000000E-1
Scans to average: 1
Electric dark correction enabled: true
Nonlinearity correction enabled: false
Boxcar width: 0
XAxis mode: Wavelengths
Number of Pixels in Spectrum: 2048
>>>>>Begin Spectral Data<<<<<
223.165	-20.75
223.4	-20.75
223.635	-20.75
223.869	-23.75
224.104	-27.75
224.338	-10.75
224.573	2.25
224.808	-17.75
225.042	-12.75
225.277	-11.75
225.511	-4.75
225.746	5.25
225.98	3.25
226.215	24.25
226.449	15.25
226.683	25.25
226.918	21.25
227.152	33.25
227.387	33.25
227.621	27.25
227.856	33.25
228.09	50.25
228.324	49.25
228.559	56.25
228.793	86.25
229.027	120.25
229.262	131.25
229.496	131.25
229.73	166.25
229.964	175.25
230.199	155.25
230.433	125.25
230.667	123.25
230.901	121.25
231.136	119.25
231.37	105.25
231.604	110.25
231.838	119.25
232.072	127.25
232.306	127.25
232.541	99.25
232.775	104.25
233.009	111.25
233.243	109.25
233.477	121.25
233.711	125.25
233.945	129.25
234.179	128.25
234.413	116.25
234.647	118.25
234.881	117.25
235.115	126.25
235.349	121.25
235.583	127.25
235.817	123.25
236.051	128.25
236.285	126.25
236.519	128.25
236.753	137.25
236.987	153.25
237.221	202.25
237.455	253.25
237.689	203.25
237.922	158.25
238.156	146.25
238.39	133.25
238.624	129.25
238.858	131.25
239.091	142.25
239.325	133.25
239.559	140.25
239.793	120.25
240.027	130.25
240.26	150.25
240.494	166.25
240.728	182.25
240.961	169.25
241.195	165.25
241.429	144.25
241.662	134.25
241.896	129.25
242.13	123.25
242.363	138.25
242.597	135.25
242.83	155.25
243.064	143.25
243.298	137.25
243.531	142.25
243.765	143.25
243.998	145.25
244.232	148.25
244.465	153.25
244.699	152.25
244.932	141.25
245.166	137.25
245.399	148.25
245.633	148.25
245.866	158.25
246.099	137.25
246.333	154.25
246.566	134.25
246.8	163.25
247.033	163.25
247.266	176.25
247.5	175.25
247.733	172.25
247.966	179.25
248.2	177.25
248.433	166.25
248.666	190.25
248.899	189.25
249.133	210.25
249.366	213.25
249.599	199.25
249.832	196.25
250.066	196.25
250.299	192.25
250.532	208.25
250.765	199.25
250.998	248.25
251.231	227.25
251.465	223.25
251.698	206.25
251.931	212.25
252.164	206.25
252.397	203.25
252.63	215.25
252.863	219.25
253.096	231.25
253.329	238.25
253.562	234.25
253.795	229.25
254.028	229.25
254.261	222.25
254.494	258.25
254.727	272.25
254.96	317.25
255.193	292.25
255.426	252.25
255.659	255.25
255.892	245.25
256.124	238.25
256.357	263.25
256.59	261.25
256.823	248.25
257.056	226.25
257.289	213.25
257.521	234.25
257.754	221.25
257.987	224.25
258.22	240.25
258.452	234.25
258.685	205.25
258.918	228.25
259.151	224.25
259.383	230.25
259.616	226.25
259.849	223.25
260.081	252.25
260.314	259.25
260.547	266.25
260.779	255.25
261.012	252.25
261.244	223.25
261.477	245.25
261.71	238.25
261.942	248.25
262.175	237.25
262.407	248.25
262.64	247.25
262.872	237.25
263.105	225.25
263.337	230.25
263.57	225.25
263.802	219.25
264.035	204.25
264.267	224.25
264.499	221.25
264.732	236.25
264.964	202.25
265.197	214.25
265.429	209.25
265.661	230.25
265.894	244.25
266.126	243.25
266.358	231.25
266.591	209.25
266.823	238.25
267.055	243.25
267.287	240.25
267.52	228.25
267.752	247.25
267.984	239.25
268.216	225.25
268.448	236.25
268.681	234.25
268.913	263.25
269.145	270.25
269.377	294.25
269.609	288.25
269.841	283.25
270.073	285.25
270.306	312.25
270.538	330.25
270.77	325.25
271.002	333.25
271.234	323.25
271.466	328.25
271.698	329.25
271.93	342.25
272.162	353.25
272.394	336.25
272.626	322.25
272.858	310.25
273.09	306.25
273.322	297.25
273.553	286.25
273.785	286.25
274.017	263.25
274.249	279.25
274.481	283.25
274.713	266.25
274.945	289.25
275.176	282.25
275.408	269.25
275.64	267.25
275.872	269.25
276.104	263.25
276.335	273.25
276.567	292.25
276.799	302.25
277.031	327.25
277.262	336.25
277.494	346.25
277.726	319.25
277.957	313.25
278.189	280.25
278.421	297.25
278.652	269.25
278.884	285.25
279.115	272.25
279.347	264.25
279.579	277.25
279.81	277.25
280.042	260.25
280.273	270.25
280.505	287.25
280.736	266.25
280.968	261.25
281.199	275.25
281.431	276.25
281.662	267.25
281.894	281.25
282.125	288.25
282.356	319.25
282.588	324.25
282.819	319.25
283.051	266.25
283.282	271.25
283.513	276.25
283.745	260.25
283.976	285.25
284.207	289.25
284.439	270.25
284.67	294.25
284.901	274.25
285.132	295.25
285.364	290.25
285.595	278.25
285.826	272.25
286.057	278.25
286.288	272.25
286.52	262.25
286.751	291.25
286.982	276.25
287.213	276.25
287.444	281.25
287.675	294.25
287.906	283.25
288.138	300.25
288.369	308.25
288.6	298.25
288.831	295.25
289.062	295.25
289.293	303.25
289.524	279.25
289.755	279.25
289.986	285.25
290.217	289.25
290.448	280.25
290.679	271.25
290.91	283.25
291.141	271.25
291.371	302.25
291.602	294.25
291.833	283.25
292.064	272.25
292.295	301.25
292.526	286.25
292.757	283.25
292.987	281.25
293.218	284.25
293.449	292.25
293.68	299.25
293.91	286.25
294.141	283.25
294.372	282.25
294.603	288.25
294.833	305.25
295.064	295.25
295.295	288.25
295.525	288.25
295.756	316.25
295.987	304.25
296.217	328.25
296.448	328.25
296.679	314.25
296.909	285.25
297.14	283.25
297.37	288.25
297.601	286.25
297.831	302.25
298.062	302.25
298.292	269.25
298.523	297.25
298.753	285.25
298.984	290.25
299.214	295.25
299.445	311.25
299.675	305.25
299.905	313.25
300.136	308.25
300.366	290.25
300.597	290.25
300.827	299.25
301.057	305.25
301.288	318.25
301.518	325.25
301.748	302.25
301.979	302.25
302.209	329.25
302.439	323.25
302.669	312.25
302.9	335.25
303.13	323.25
303.36	338.25
303.59	323.25
303.82	319.25
304.051	342.25
304.281	333.25
304.511	310.25
304.741	315.25
304.971	312.25
305.201	312.25
305.431	320.25
305.661	332.25
305.891	331.25
306.121	316.25
306.352	339.25
306.582	340.25
306.812	342.25
307.042	337.25
307.272	319.25
307.502	309.25
307.731	350.25
307.961	336.25
308.191	332.25
308.421	309.25
308.651	343.25
308.881	324.25
309.111	341.25
309.341	348.25
309.571	375.25
309.8	372.25
310.03	378.25
310.26	385.25
310.49	383.25
310.72	407.25
310.949	406.25
311.179	422.25
311.409	400.25
311.639	395.25
311.868	409.25
312.098	391.25
312.328	390.25
312.557	418.25
312.787	454.25
313.017	418.25
313.246	439.25
313.476	381.25
313.706	393.25
313.935	401.25
314.165	412.25
314.394	423.25
314.624	408.25
314.853	395.25
315.083	393.25
315.312	385.25
315.542	382.25
315.771	385.25
316.001	387.25
316.23	376.25
316.46	379.25
316.689	375.25
316.919	394.25
317.148	384.25
317.377	391.25
317.607	381.25
317.836	399.25
318.065	384.25
318.295	378.25
318.524	387.25
318.753	379.25
318.983	387.25
319.212	379.25
319.441	399.25
319.67	390.25
319.9	386.25
320.129	398.25
320.358	410.25
320.587	390.25
320.816	421.25
321.046	414.25
321.275	406.25
321.504	406.25
321.733	427.25
321.962	437.25
322.191	444.25
322.42	457.25
322.649	483.25
322.878	488.25
323.108	521.25
323.337	523.25
323.566	569.25
323.795	626.25
324.024	692.25
324.253	860.25
324.482	1273.25
324.71	1976.25
324.939	2921.25
325.168	2500.25
325.397	1285.25
325.626	822.25
325.855	634.25
326.084	591.25
326.313	565.25
326.542	571.25
326.77	624.25
326.999	759.25
327.228	1118.25
327.457	1752.25
327.686	2160.25
327.914	1398.25
328.143	897.25
328.372	778.25
328.6	725.25
328.829	646.25
329.058	669.25
329.287	696.25
329.515	623.25
329.744	572.25
329.972	579.25
330.201	609.25
330.43	675.25
330.658	687.25
330.887	719.25
331.115	693.25
331.344	590.25
331.572	533.25
331.801	550.25
332.03	534.25
332.258	505.25
332.486	461.25
332.715	473.25
332.943	454.25
333.172	434.25
333.4	458.25
333.629	487.25
333.857	486.25
334.085	517.25
334.314	529.25
334.542	578.25
334.771	629.25
334.999	555.25
335.227	479.25
335.455	464.25
335.684	448.25
335.912	449.25
336.14	442.25
336.369	437.25
336.597	449.25
336.825	437.25
337.053	448.25
337.281	457.25
337.51	430.25
337.738	436.25
337.966	418.25
338.194	429.25
338.422	453.25
338.65	432.25
338.878	436.25
339.106	424.25
339.334	427.25
339.562	423.25
339.79	432.25
340.018	403.25
340.246	419.25
340.474	431.25
340.702	412.25
340.93	415.25
341.158	426.25
341.386	417.25
341.614	444.25
341.842	436.25
342.07	416.25
342.298	410.25
342.526	415.25
342.754	416.25
342.981	405.25
343.209	395.25
343.437	417.25
343.665	425.25
343.893	413.25
344.12	419.25
344.348	422.25
344.576	424.25
344.804	417.25
345.031	433.25
345.259	452.25
345.487	430.25
345.714	418.25
345.942	430.25
346.17	429.25
346.397	414.25
346.625	414.25
346.853	439.25
347.08	380.25
347.308	418.25
347.535	423.25
347.763	442.25
347.99	419.25
348.218	405.25
348.445	440.25
348.673	436.25
348.9	433.25
349.128	417.25
349.355	393.25
349.583	391.25
349.81	390.25
350.037	383.25
350.265	411.25
350.492	392.25
350.72	396.25
350.947	392.25
351.174	421.25
351.402	440.25
351.629	444.25
351.856	437.25
352.083	443.25
352.311	431.25
352.538	429.25
352.765	453.25
352.992	441.25
353.22	420.25
353.447	416.25
353.674	416.25
353.901	384.25
354.128	366.25
354.355	371.25
354.583	380.25
354.81	377.25
355.037	373.25
355.264	395.25
355.491	365.25
355.718	375.25
355.945	373.25
356.172	353.25
356.399	360.25
356.626	352.25
356.853	380.25
357.08	371.25
357.307	367.25
357.534	355.25
357.761	374.25
357.988	387.25
358.215	367.25
358.441	374.25
358.668	379.25
358.895	370.25
359.122	406.25
359.349	393.25
359.576	421.25
359.802	436.25
360.029	492.25
360.256	508.25
360.483	470.25
360.709	443.25
360.936	407.25
361.163	421.25
361.39	425.25
361.616	415.25
361.843	405.25
362.07	407.25
362.296	410.25
362.523	395.25
362.749	407.25
362.976	394.25
363.203	389.25
363.429	402.25
363.656	391.25
363.882	405.25
364.109	393.25
364.335	379.25
364.562	378.25
364.788	385.25
365.015	364.25
365.241	367.25
365.468	389.25
365.694	393.25
365.92	390.25
366.147	382.25
366.373	358.25
366.599	376.25
366.826	379.25
367.052	366.25
367.278	382.25
367.505	394.25
367.731	392.25
367.957	383.25
368.184	373.25
368.41	373.25
368.636	387.25
368.862	399.25
369.089	388.25
369.315	365.25
369.541	374.25
369.767	375.25
369.993	377.25
370.219	395.25
370.445	380.25
370.672	372.25
370.898	387.25
371.124	381.25
371.35	379.25
371.576	373.25
371.802	358.25
372.028	375.25
372.254	351.25
372.48	361.25
372.706	370.25
372.932	350.25
373.158	357.25
373.384	374.25
373.61	365.25
373.835	373.25
374.061	375.25
374.287	371.25
374.513	381.25
374.739	384.25
374.965	362.25
375.191	362.25
375.416	366.25
375.642	379.25
375.868	361.25
376.094	363.25
376.319	373.25
376.545	364.25
376.771	361.25
376.997	369.25
377.222	357.25
377.448	380.25
377.674	355.25
377.899	373.25
378.125	371.25
378.35	360.25
378.576	345.25
378.802	348.25
379.027	355.25
379.253	353.25
379.478	368.25
379.704	379.25
379.929	379.25
380.155	374.25
380.38	384.25
380.606	370.25
380.831	383.25
381.057	382.25
381.282	345.25
381.507	375.25
381.733	360.25
381.958	365.25
382.184	357.25
382.409	362.25
382.634	353.25
382.86	350.25
383.085	352.25
383.31	392.25
383.535	385.25
383.761	375.25
383.986	366.25
384.211	374.25
384.436	375.25
384.662	380.25
384.887	374.25
385.112	390.25
385.337	388.25
385.562	379.25
385.787	372.25
386.013	391.25
386.238	398.25
386.463	390.25
386.688	393.25
386.913	398.25
387.138	388.25
387.363	367.25
387.588	382.25
387.813	401.25
388.038	382.25
388.263	380.25
388.488	398.25
388.713	376.25
388.938	385.25
389.163	393.25
389.387	402.25
389.612	360.25
389.837	390.25
390.062	386.25
390.287	380.25
390.512	400.25
390.736	383.25
390.961	385.25
391.186	382.25
391.411	374.25
391.636	388.25
391.86	384.25
392.085	393.25
392.31	390.25
392.534	382.25
392.759	395.25
392.984	395.25
393.208	392.25
393.433	402.25
393.658	386.25
393.882	379.25
394.107	383.25
394.331	382.25
394.556	381.25
394.78	391.25
395.005	378.25
395.229	381.25
395.454	391.25
395.678	394.25
395.903	416.25
396.127	426.25
396.352	437.25
396.576	409.25
396.801	405.25
397.025	400.25
397.249	417.25
397.474	416.25
397.698	412.25
397.922	423.25
398.147	432.25
398.371	450.25
398.595	445.25
398.82	431.25
399.044	432.25
399.268	430.25
399.492	450.25
399.717	456.25
399.941	519.25
400.165	529.25
400.389	538.25
400.613	503.25
400.837	474.25
401.062	460.25
401.286	458.25
401.51	439.25
401.734	447.25
401.958	436.25
402.182	465.25
402.406	461.25
402.63	444.25
402.854	456.25
403.078	447.25
403.302	470.25
403.526	452.25
403.75	457.25
403.974	456.25
404.198	462.25
404.422	459.25
404.645	477.25
404.869	466.25
405.093	496.25
405.317	536.25
405.541	592.25
405.765	521.25
405.988	488.25
406.212	486.25
406.436	514.25
406.66	516.25
406.883	513.25
407.107	511.25
407.331	570.25
407.555	651.25
407.778	655.25
408.002	581.25
408.226	523.25
408.449	506.25
408.673	513.25
408.896	553.25
409.12	584.25
409.344	550.25
409.567	474.25
409.791	476.25
410.014	449.25
410.238	469.25
410.461	458.25
410.685	464.25
410.908	461.25
411.132	526.25
411.355	558.25
411.578	514.25
411.802	457.25
412.025	467.25
412.249	475.25
412.472	491.25
412.695	530.25
412.919	555.25
413.142	479.25
413.365	452.25
413.589	442.25
413.812	452.25
414.035	437.25
414.258	431.25
414.482	413.25
414.705	410.25
414.928	430.25
415.151	428.25
415.374	417.25
415.597	426.25
415.821	426.25
416.044	445.25
416.267	419.25
416.49	443.25
416.713	440.25
416.936	437.25
417.159	431.25
417.382	439.25
417.605	457.25
417.828	472.25
418.051	481.25
418.274	449.25
418.497	452.25
418.72	463.25
418.943	433.25
419.166	446.25
419.389	451.25
419.611	463.25
419.834	458.25
420.057	462.25
420.28	479.25
420.503	465.25
420.726	473.25
420.948	483.25
421.171	540.25
421.394	553.25
421.617	495.25
421.839	467.25
422.062	464.25
422.285	493.25
422.507	537.25
422.73	618.25
422.953	593.25
423.175	523.25
423.398	487.25
423.621	478.25
423.843	525.25
424.066	509.25
424.288	500.25
424.511	537.25
424.733	571.25
424.956	693.25
425.178	622.25
425.401	664.25
425.623	663.25
425.846	569.25
426.068	527.25
426.291	518.25
426.513	522.25
426.735	549.25
426.958	586.25
427.18	654.25
427.402	801.25
427.625	912.25
427.847	807.25
428.069	677.25
428.292	595.25
428.514	535.25
428.736	505.25
428.958	497.25
429.181	491.25
429.403	492.25
429.625	478.25
429.847	525.25
430.069	611.25
430.292	608.25
430.514	510.25
430.736	504.25
430.958	466.25
431.18	441.25
431.402	438.25
431.624	444.25
431.846	429.25
432.068	434.25
432.29	435.25
432.512	443.25
432.734	478.25
432.956	468.25
433.178	454.25
433.4	453.25
433.622	448.25
433.844	436.25
434.066	439.25
434.287	423.25
434.509	440.25
434.731	463.25
434.953	454.25
435.175	477.25
435.397	503.25
435.618	519.25
435.84	547.25
436.062	657.25
436.284	755.25
436.505	649.25
436.727	546.25
436.949	505.25
437.17	477.25
437.392	478.25
437.614	486.25
437.835	536.25
438.057	663.25
438.278	739.25
438.5	760.25
438.721	837.25
438.943	808.25
439.165	646.25
439.386	557.25
439.608	568.25
439.829	570.25
440.05	589.25
440.272	633.25
440.493	603.25
440.715	540.25
440.936	512.25
441.158	488.25
441.379	493.25
441.6	488.25
441.822	509.25
442.043	558.25
442.264	647.25
442.486	715.25
442.707	582.25
442.928	553.25
443.149	538.25
443.371	613.25
443.592	605.25
443.813	704.25
444.034	776.25
444.255	650.25
444.476	541.25
444.698	529.25
444.919	509.25
445.14	591.25
445.361	551.25
445.582	584.25
445.803	647.25
446.024	776.25
446.245	785.25
446.466	725.25
446.687	597.25
446.908	521.25
447.129	539.25
447.35	495.25
447.571	452.25
447.792	491.25
448.013	494.25
448.234	513.25
448.455	574.25
448.675	682.25
448.896	802.25
449.117	684.25
449.338	640.25
449.559	738.25
449.779	867.25
450	692.25
450.221	565.25
450.442	506.25
450.662	494.25
450.883	510.25
451.104	528.25
451.324	509.25
451.545	479.25
451.766	459.25
451.986	461.25
452.207	442.25
452.428	423.25
452.648	430.25
452.869	440.25
453.089	454.25
453.31	444.25
453.53	447.25
453.751	422.25
453.971	432.25
454.192	477.25
454.412	461.25
454.633	443.25
454.853	437.25
455.073	433.25
455.294	464.25
455.514	550.25
455.734	529.25
455.955	428.25
456.175	415.25
456.395	384.25
456.616	410.25
456.836	399.25
457.056	405.25
457.276	399.25
457.497	396.25
457.717	410.25
457.937	413.25
458.157	421.25
458.377	417.25
458.598	425.25
458.818	541.25
459.038	607.25
459.258	612.25
459.478	506.25
459.698	460.25
459.918	441.25
460.138	427.25
460.358	452.25
460.578	435.25
460.798	436.25
461.018	448.25
461.238	441.25
461.458	430.25
461.678	412.25
461.898	441.25
462.118	445.25
462.338	429.25
462.558	438.25
462.777	431.25
462.997	426.25
463.217	456.25
463.437	454.25
463.657	436.25
463.876	443.25
464.096	458.25
464.316	460.25
464.536	461.25
464.755	475.25
464.975	485.25
465.195	551.25
465.414	647.25
465.634	562.25
465.854	523.25
466.073	483.25
466.293	455.25
466.512	441.25
466.732	423.25
466.951	437.25
467.171	420.25
467.391	441.25
467.61	445.25
467.829	451.25
468.049	460.25
468.268	465.25
468.488	427.25
468.707	431.25
468.927	416.25
469.146	420.25
469.365	422.25
469.585	430.25
469.804	437.25
470.023	431.25
470.243	435.25
470.462	454.25
470.681	477.25
470.901	472.25
471.12	441.25
471.339	435.25
471.558	447.25
471.777	437.25
471.997	425.25
472.216	437.25
472.435	521.25
472.654	469.25
472.873	464.25
473.092	462.25
473.311	435.25
473.53	454.25
473.749	450.25
473.968	501.25
474.187	631.25
474.406	648.25
474.625	512.25
474.844	477.25
475.063	444.25
475.282	446.25
475.501	453.25
475.72	455.25
475.939	446.25
476.158	461.25
476.377	464.25
476.596	417.25
476.814	453.25
477.033	445.25
477.252	477.25
477.471	462.25
477.69	435.25
477.908	462.25
478.127	488.25
478.346	464.25
478.564	474.25
478.783	477.25
479.002	471.25
479.22	501.25
479.439	507.25
479.658	553.25
479.876	527.25
480.095	539.25
480.313	587.25
480.532	556.25
480.751	556.25
480.969	570.25
481.188	661.25
481.406	741.25
481.624	603.25
481.843	561.25
482.061	533.25
482.28	539.25
482.498	518.25
482.717	521.25
482.935	521.25
483.153	546.25
483.372	529.25
483.59	509.25
483.808	521.25
484.027	505.25
484.245	518.25
484.463	526.25
484.681	524.25
484.9	503.25
485.118	525.25
485.336	503.25
485.554	531.25
485.772	537.25
485.99	535.25
486.209	543.25
486.427	546.25
486.645	550.25
486.863	567.25
487.081	563.25
487.299	568.25
487.517	532.25
487.735	530.25
487.953	560.25
488.171	555.25
488.389	579.25
488.607	575.25
488.825	558.25
489.043	558.25
489.261	553.25
489.479	581.25
489.696	579.25
489.914	596.25
490.132	587.25
490.35	576.25
490.568	592.25
490.786	609.25
491.003	607.25
491.221	597.25
491.439	615.25
491.657	625.25
491.874	639.25
492.092	633.25
492.31	633.25
492.527	660.25
492.745	661.25
492.963	640.25
493.18	660.25
493.398	660.25
493.615	667.25
493.833	657.25
494.05	657.25
494.268	660.25
494.485	641.25
494.703	638.25
494.92	652.25
495.138	669.25
495.355	668.25
495.573	669.25
495.79	625.25
496.008	645.25
496.225	667.25
496.442	650.25
496.66	640.25
496.877	657.25
497.094	671.25
497.312	679.25
497.529	676.25
497.746	698.25
497.963	703.25
498.181	695.25
498.398	720.25
498.615	711.25
498.832	712.25
499.049	720.25
499.267	716.25
499.484	723.25
499.701	759.25
499.918	763.25
500.135	789.25
500.352	821.25
500.569	811.25
500.786	811.25
501.003	814.25
501.22	805.25
501.437	798.25
501.654	798.25
501.871	813.25
