Data from 1972.PennyLincolnUp.Lamp.En5.5.200Scan.071719.P1._HRD10591_15-26-47-844.txt Node
Date: Thu Jul 18 15:26:47 EDT 2019
User: cochatt
Spectrometer: HR+D1059
Trigger mode: 1
Integration Time (sec): 1.000000E-1
Scans to average: 1
Electric dark correction enabled: true
Nonlinearity correction enabled: false
Boxcar width: 0
XAxis mode: Wavelengths
Number of Pixels in Spectrum: 2048
>>>>>Begin Spectral Data<<<<<
223.165	-7.81
223.4	-7.81
223.635	-7.81
223.869	-23.81
224.104	-11.81
224.338	-23.81
224.573	-18.81
224.808	0.19
225.042	-7.81
225.277	-6.81
225.511	-13.81
225.746	3.19
225.98	8.19
226.215	16.19
226.449	19.19
226.683	19.19
226.918	26.19
227.152	22.19
227.387	31.19
227.621	37.19
227.856	35.19
228.09	46.19
228.324	39.19
228.559	60.19
228.793	60.19
229.027	84.19
229.262	88.19
229.496	81.19
229.73	118.19
229.964	126.19
230.199	114.19
230.433	101.19
230.667	98.19
230.901	107.19
231.136	115.19
231.37	89.19
231.604	94.19
231.838	105.19
232.072	112.19
232.306	101.19
232.541	106.19
232.775	106.19
233.009	98.19
233.243	101.19
233.477	119.19
233.711	104.19
233.945	106.19
234.179	115.19
234.413	94.19
234.647	94.19
234.881	99.19
235.115	109.19
235.349	100.19
235.583	103.19
235.817	127.19
236.051	100.19
236.285	124.19
236.519	116.19
236.753	116.19
236.987	130.19
237.221	141.19
237.455	181.19
237.689	156.19
237.922	125.19
238.156	117.19
238.39	114.19
238.624	109.19
238.858	117.19
239.091	106.19
239.325	102.19
239.559	114.19
239.793	116.19
240.027	115.19
240.26	121.19
240.494	120.19
240.728	106.19
240.961	113.19
241.195	120.19
241.429	117.19
241.662	106.19
241.896	96.19
242.13	114.19
242.363	102.19
242.597	110.19
242.83	116.19
243.064	118.19
243.298	117.19
243.531	116.19
243.765	120.19
243.998	109.19
244.232	113.19
244.465	129.19
244.699	114.19
244.932	133.19
245.166	124.19
245.399	130.19
245.633	126.19
245.866	127.19
246.099	124.19
246.333	122.19
246.566	132.19
246.8	136.19
247.033	126.19
247.266	124.19
247.5	127.19
247.733	142.19
247.966	141.19
248.2	138.19
248.433	148.19
248.666	138.19
248.899	150.19
249.133	146.19
249.366	162.19
249.599	154.19
249.832	155.19
250.066	160.19
250.299	156.19
250.532	143.19
250.765	159.19
250.998	165.19
251.231	167.19
251.465	173.19
251.698	162.19
251.931	168.19
252.164	168.19
252.397	186.19
252.63	176.19
252.863	168.19
253.096	171.19
253.329	173.19
253.562	181.19
253.795	176.19
254.028	181.19
254.261	171.19
254.494	164.19
254.727	205.19
254.96	209.19
255.193	205.19
255.426	203.19
255.659	178.19
255.892	203.19
256.124	186.19
256.357	177.19
256.59	165.19
256.823	168.19
257.056	183.19
257.289	172.19
257.521	182.19
257.754	159.19
257.987	166.19
258.22	176.19
258.452	164.19
258.685	153.19
258.918	170.19
259.151	176.19
259.383	170.19
259.616	177.19
259.849	164.19
260.081	198.19
260.314	181.19
260.547	204.19
260.779	185.19
261.012	186.19
261.244	176.19
261.477	170.19
261.71	167.19
261.942	177.19
262.175	179.19
262.407	178.19
262.64	152.19
262.872	177.19
263.105	166.19
263.337	165.19
263.57	187.19
263.802	165.19
264.035	163.19
264.267	182.19
264.499	157.19
264.732	173.19
264.964	168.19
265.197	178.19
265.429	159.19
265.661	160.19
265.894	162.19
266.126	168.19
266.358	174.19
266.591	178.19
266.823	173.19
267.055	185.19
267.287	176.19
267.52	194.19
267.752	173.19
267.984	178.19
268.216	178.19
268.448	177.19
268.681	182.19
268.913	181.19
269.145	181.19
269.377	193.19
269.609	216.19
269.841	198.19
270.073	188.19
270.306	217.19
270.538	221.19
270.77	224.19
271.002	238.19
271.234	220.19
271.466	213.19
271.698	232.19
271.93	211.19
272.162	226.19
272.394	230.19
272.626	221.19
272.858	214.19
273.09	209.19
273.322	205.19
273.553	193.19
273.785	197.19
274.017	201.19
274.249	198.19
274.481	203.19
274.713	206.19
274.945	202.19
275.176	205.19
275.408	215.19
275.64	199.19
275.872	197.19
276.104	194.19
276.335	214.19
276.567	209.19
276.799	201.19
277.031	233.19
277.262	225.19
277.494	225.19
277.726	214.19
277.957	216.19
278.189	195.19
278.421	208.19
278.652	190.19
278.884	197.19
279.115	200.19
279.347	192.19
279.579	216.19
279.81	216.19
280.042	199.19
280.273	200.19
280.505	200.19
280.736	205.19
280.968	205.19
281.199	194.19
281.431	197.19
281.662	204.19
281.894	205.19
282.125	193.19
282.356	212.19
282.588	217.19
282.819	198.19
283.051	206.19
283.282	203.19
283.513	204.19
283.745	204.19
283.976	204.19
284.207	186.19
284.439	211.19
284.67	213.19
284.901	199.19
285.132	205.19
285.364	196.19
285.595	202.19
285.826	209.19
286.057	196.19
286.288	221.19
286.52	197.19
286.751	206.19
286.982	217.19
287.213	198.19
287.444	203.19
287.675	211.19
287.906	213.19
288.138	211.19
288.369	205.19
288.6	230.19
288.831	215.19
289.062	229.19
289.293	214.19
289.524	206.19
289.755	206.19
289.986	200.19
290.217	213.19
290.448	210.19
290.679	201.19
290.91	203.19
291.141	215.19
291.371	223.19
291.602	218.19
291.833	216.19
292.064	201.19
292.295	203.19
292.526	198.19
292.757	193.19
292.987	214.19
293.218	211.19
293.449	214.19
293.68	206.19
293.91	201.19
294.141	200.19
294.372	192.19
294.603	205.19
294.833	228.19
295.064	210.19
295.295	203.19
295.525	224.19
295.756	227.19
295.987	216.19
296.217	226.19
296.448	237.19
296.679	221.19
296.909	213.19
297.14	194.19
297.37	229.19
297.601	244.19
297.831	208.19
298.062	229.19
298.292	226.19
298.523	242.19
298.753	240.19
298.984	214.19
299.214	208.19
299.445	233.19
299.675	217.19
299.905	210.19
300.136	228.19
300.366	225.19
300.597	217.19
300.827	214.19
301.057	248.19
301.288	229.19
301.518	221.19
301.748	229.19
301.979	248.19
302.209	219.19
302.439	257.19
302.669	237.19
302.9	252.19
303.13	247.19
303.36	244.19
303.59	226.19
303.82	252.19
304.051	250.19
304.281	252.19
304.511	225.19
304.741	233.19
304.971	251.19
305.201	255.19
305.431	242.19
305.661	244.19
305.891	216.19
306.121	230.19
306.352	244.19
306.582	234.19
306.812	244.19
307.042	229.19
307.272	218.19
307.502	240.19
307.731	228.19
307.961	265.19
308.191	247.19
308.421	236.19
308.651	242.19
308.881	244.19
309.111	243.19
309.341	243.19
309.571	254.19
309.8	248.19
310.03	257.19
310.26	251.19
310.49	249.19
310.72	257.19
310.949	269.19
311.179	288.19
311.409	248.19
311.639	271.19
311.868	274.19
312.098	251.19
312.328	260.19
312.557	280.19
312.787	288.19
313.017	273.19
313.246	285.19
313.476	253.19
313.706	267.19
313.935	258.19
314.165	282.19
314.394	275.19
314.624	281.19
314.853	263.19
315.083	265.19
315.312	254.19
315.542	262.19
315.771	262.19
316.001	265.19
316.23	260.19
316.46	268.19
316.689	262.19
316.919	272.19
317.148	277.19
317.377	262.19
317.607	256.19
317.836	267.19
318.065	262.19
318.295	268.19
318.524	263.19
318.753	281.19
318.983	288.19
319.212	266.19
319.441	277.19
319.67	271.19
319.9	297.19
320.129	283.19
320.358	268.19
320.587	297.19
320.816	293.19
321.046	285.19
321.275	288.19
321.504	283.19
321.733	281.19
321.962	292.19
322.191	286.19
322.42	284.19
322.649	292.19
322.878	310.19
323.108	312.19
323.337	334.19
323.566	342.19
323.795	360.19
324.024	371.19
324.253	450.19
324.482	634.19
324.71	979.19
324.939	1427.19
325.168	1266.19
325.397	648.19
325.626	441.19
325.855	382.19
326.084	357.19
326.313	344.19
326.542	330.19
326.77	360.19
326.999	418.19
327.228	564.19
327.457	836.19
327.686	1073.19
327.914	714.19
328.143	471.19
328.372	414.19
328.6	390.19
328.829	393.19
329.058	376.19
329.287	390.19
329.515	357.19
329.744	334.19
329.972	335.19
330.201	352.19
330.43	373.19
330.658	386.19
330.887	393.19
331.115	384.19
331.344	338.19
331.572	337.19
331.801	317.19
332.03	338.19
332.258	330.19
332.486	321.19
332.715	305.19
332.943	308.19
333.172	299.19
333.4	304.19
333.629	312.19
333.857	300.19
334.085	348.19
334.314	317.19
334.542	352.19
334.771	338.19
334.999	329.19
335.227	308.19
335.455	319.19
335.684	313.19
335.912	317.19
336.14	294.19
336.369	295.19
336.597	314.19
336.825	321.19
337.053	285.19
337.281	301.19
337.51	311.19
337.738	298.19
337.966	296.19
338.194	297.19
338.422	316.19
338.65	297.19
338.878	296.19
339.106	288.19
339.334	323.19
339.562	294.19
339.79	292.19
340.018	292.19
340.246	296.19
340.474	305.19
340.702	310.19
340.93	295.19
341.158	288.19
341.386	282.19
341.614	294.19
341.842	307.19
342.07	282.19
342.298	292.19
342.526	263.19
342.754	286.19
342.981	282.19
343.209	295.19
343.437	301.19
343.665	309.19
343.893	322.19
344.12	300.19
344.348	320.19
344.576	306.19
344.804	300.19
345.031	291.19
345.259	316.19
345.487	306.19
345.714	298.19
345.942	301.19
346.17	301.19
346.397	293.19
346.625	297.19
346.853	304.19
347.08	283.19
347.308	309.19
347.535	306.19
347.763	302.19
347.99	282.19
348.218	302.19
348.445	299.19
348.673	313.19
348.9	274.19
349.128	281.19
349.355	276.19
349.583	277.19
349.81	277.19
350.037	294.19
350.265	292.19
350.492	277.19
350.72	281.19
350.947	288.19
351.174	295.19
351.402	294.19
351.629	298.19
351.856	289.19
352.083	296.19
352.311	307.19
352.538	300.19
352.765	324.19
352.992	293.19
353.22	297.19
353.447	263.19
353.674	289.19
353.901	299.19
354.128	304.19
354.355	293.19
354.583	297.19
354.81	280.19
355.037	276.19
355.264	277.19
355.491	270.19
355.718	260.19
355.945	267.19
356.172	286.19
356.399	278.19
356.626	269.19
356.853	288.19
357.08	271.19
357.307	276.19
357.534	284.19
357.761	285.19
357.988	279.19
358.215	282.19
358.441	276.19
358.668	280.19
358.895	289.19
359.122	276.19
359.349	283.19
359.576	291.19
359.802	290.19
360.029	332.19
360.256	327.19
360.483	292.19
360.709	289.19
360.936	295.19
361.163	297.19
361.39	295.19
361.616	292.19
361.843	298.19
362.07	299.19
362.296	297.19
362.523	280.19
362.749	284.19
362.976	293.19
363.203	302.19
363.429	274.19
363.656	273.19
363.882	288.19
364.109	284.19
364.335	284.19
364.562	272.19
364.788	282.19
365.015	275.19
365.241	279.19
365.468	290.19
365.694	285.19
365.92	291.19
366.147	264.19
366.373	291.19
366.599	281.19
366.826	269.19
367.052	288.19
367.278	283.19
367.505	291.19
367.731	284.19
367.957	269.19
368.184	276.19
368.41	313.19
368.636	304.19
368.862	291.19
369.089	288.19
369.315	285.19
369.541	285.19
369.767	285.19
369.993	280.19
370.219	286.19
370.445	266.19
370.672	273.19
370.898	291.19
371.124	280.19
371.35	274.19
371.576	279.19
371.802	266.19
372.028	283.19
372.254	289.19
372.48	281.19
372.706	286.19
372.932	286.19
373.158	293.19
373.384	294.19
373.61	280.19
373.835	290.19
374.061	287.19
374.287	272.19
374.513	285.19
374.739	277.19
374.965	292.19
375.191	273.19
375.416	283.19
375.642	274.19
375.868	299.19
376.094	306.19
376.319	299.19
376.545	281.19
376.771	301.19
376.997	278.19
377.222	268.19
377.448	287.19
377.674	276.19
377.899	303.19
378.125	301.19
378.35	296.19
378.576	277.19
378.802	270.19
379.027	311.19
379.253	305.19
379.478	291.19
379.704	295.19
379.929	278.19
380.155	286.19
380.38	267.19
380.606	297.19
380.831	290.19
381.057	281.19
381.282	271.19
381.507	308.19
381.733	280.19
381.958	289.19
382.184	279.19
382.409	282.19
382.634	288.19
382.86	276.19
383.085	292.19
383.31	305.19
383.535	292.19
383.761	304.19
383.986	286.19
384.211	289.19
384.436	294.19
384.662	300.19
384.887	291.19
385.112	289.19
385.337	307.19
385.562	304.19
385.787	306.19
386.013	306.19
386.238	309.19
386.463	308.19
386.688	317.19
386.913	301.19
387.138	299.19
387.363	295.19
387.588	296.19
387.813	298.19
388.038	309.19
388.263	295.19
388.488	323.19
388.713	317.19
388.938	314.19
389.163	313.19
389.387	295.19
389.612	299.19
389.837	304.19
390.062	288.19
390.287	296.19
390.512	308.19
390.736	295.19
390.961	300.19
391.186	305.19
391.411	319.19
391.636	295.19
391.86	307.19
392.085	326.19
392.31	307.19
392.534	306.19
392.759	315.19
392.984	310.19
393.208	332.19
393.433	375.19
393.658	380.19
393.882	339.19
394.107	327.19
394.331	315.19
394.556	298.19
394.78	312.19
395.005	312.19
395.229	307.19
395.454	315.19
395.678	316.19
395.903	331.19
396.127	341.19
396.352	349.19
396.576	338.19
396.801	336.19
397.025	350.19
397.249	308.19
397.474	336.19
397.698	320.19
397.922	338.19
398.147	356.19
398.371	337.19
398.595	320.19
398.82	346.19
399.044	340.19
399.268	341.19
399.492	355.19
399.717	378.19
399.941	402.19
400.165	407.19
400.389	421.19
400.613	378.19
400.837	373.19
401.062	345.19
401.286	344.19
401.51	360.19
401.734	348.19
401.958	344.19
402.182	338.19
402.406	337.19
402.63	343.19
402.854	348.19
403.078	353.19
403.302	344.19
403.526	358.19
403.75	369.19
403.974	356.19
404.198	364.19
404.422	341.19
404.645	376.19
404.869	368.19
405.093	365.19
405.317	403.19
405.541	444.19
405.765	393.19
405.988	362.19
406.212	388.19
406.436	398.19
406.66	403.19
406.883	386.19
407.107	378.19
407.331	399.19
407.555	459.19
407.778	453.19
408.002	430.19
408.226	396.19
408.449	403.19
408.673	389.19
408.896	412.19
409.12	436.19
409.344	418.19
409.567	380.19
409.791	370.19
410.014	372.19
410.238	352.19
410.461	354.19
410.685	349.19
410.908	371.19
411.132	392.19
411.355	416.19
411.578	395.19
411.802	357.19
412.025	371.19
412.249	384.19
412.472	373.19
412.695	398.19
412.919	398.19
413.142	364.19
413.365	358.19
413.589	361.19
413.812	338.19
414.035	338.19
414.258	348.19
414.482	343.19
414.705	343.19
414.928	332.19
415.151	346.19
415.374	355.19
415.597	336.19
415.821	330.19
416.044	332.19
416.267	309.19
416.49	312.19
416.713	322.19
416.936	314.19
417.159	329.19
417.382	354.19
417.605	338.19
417.828	352.19
418.051	365.19
418.274	337.19
418.497	332.19
418.72	331.19
418.943	330.19
419.166	342.19
419.389	363.19
419.611	372.19
419.834	368.19
420.057	351.19
420.28	331.19
420.503	333.19
420.726	344.19
420.948	369.19
421.171	375.19
421.394	417.19
421.617	362.19
421.839	352.19
422.062	352.19
422.285	361.19
422.507	387.19
422.73	443.19
422.953	440.19
423.175	386.19
423.398	374.19
423.621	368.19
423.843	361.19
424.066	384.19
424.288	370.19
424.511	366.19
424.733	415.19
424.956	473.19
425.178	470.19
425.401	463.19
425.623	485.19
425.846	405.19
426.068	394.19
426.291	386.19
426.513	369.19
426.735	384.19
426.958	414.19
427.18	468.19
427.402	568.19
427.625	630.19
427.847	542.19
428.069	491.19
428.292	404.19
428.514	365.19
428.736	373.19
428.958	333.19
429.181	347.19
429.403	345.19
429.625	354.19
429.847	391.19
430.069	440.19
430.292	441.19
430.514	376.19
430.736	349.19
430.958	341.19
431.18	342.19
431.402	354.19
431.624	319.19
431.846	334.19
432.068	328.19
432.29	325.19
432.512	313.19
432.734	326.19
432.956	354.19
433.178	348.19
433.4	337.19
433.622	324.19
433.844	355.19
434.066	342.19
434.287	314.19
434.509	337.19
434.731	352.19
434.953	362.19
435.175	362.19
435.397	356.19
435.618	386.19
435.84	414.19
436.062	495.19
436.284	530.19
436.505	453.19
436.727	393.19
436.949	388.19
437.17	363.19
437.392	352.19
437.614	351.19
437.835	373.19
438.057	448.19
438.278	517.19
438.5	520.19
438.721	564.19
438.943	552.19
439.165	451.19
439.386	386.19
439.608	401.19
439.829	371.19
440.05	393.19
440.272	422.19
440.493	412.19
440.715	378.19
440.936	355.19
441.158	370.19
441.379	356.19
441.6	356.19
441.822	391.19
442.043	419.19
442.264	465.19
442.486	520.19
442.707	421.19
442.928	398.19
443.149	401.19
443.371	393.19
443.592	417.19
443.813	499.19
444.034	548.19
444.255	444.19
444.476	391.19
444.698	404.19
444.919	385.19
445.14	468.19
445.361	427.19
445.582	399.19
445.803	454.19
446.024	524.19
446.245	540.19
446.466	494.19
446.687	416.19
446.908	374.19
447.129	361.19
447.35	373.19
447.571	352.19
447.792	365.19
448.013	357.19
448.234	375.19
448.455	394.19
448.675	469.19
448.896	595.19
449.117	499.19
449.338	455.19
449.559	538.19
449.779	618.19
450	490.19
450.221	427.19
450.442	370.19
450.662	371.19
450.883	340.19
451.104	344.19
451.324	380.19
451.545	352.19
451.766	325.19
451.986	327.19
452.207	315.19
452.428	328.19
452.648	314.19
452.869	328.19
453.089	335.19
453.31	322.19
453.53	321.19
453.751	314.19
453.971	326.19
454.192	347.19
454.412	319.19
454.633	330.19
454.853	310.19
455.073	313.19
455.294	357.19
455.514	393.19
455.734	382.19
455.955	319.19
456.175	315.19
456.395	321.19
456.616	306.19
456.836	301.19
457.056	294.19
457.276	315.19
457.497	307.19
457.717	297.19
457.937	294.19
458.157	305.19
458.377	311.19
458.598	346.19
458.818	368.19
459.038	408.19
459.258	412.19
459.478	347.19
459.698	328.19
459.918	322.19
460.138	333.19
460.358	328.19
460.578	346.19
460.798	344.19
461.018	332.19
461.238	324.19
461.458	330.19
461.678	343.19
461.898	344.19
462.118	324.19
462.338	359.19
462.558	332.19
462.777	366.19
462.997	345.19
463.217	359.19
463.437	354.19
463.657	366.19
463.876	371.19
464.096	377.19
464.316	364.19
464.536	365.19
464.755	350.19
464.975	380.19
465.195	373.19
465.414	419.19
465.634	364.19
465.854	365.19
466.073	352.19
466.293	320.19
466.512	334.19
466.732	345.19
466.951	335.19
467.171	320.19
467.391	340.19
467.61	339.19
467.829	353.19
468.049	326.19
468.268	347.19
468.488	310.19
468.707	313.19
468.927	329.19
469.146	317.19
469.365	340.19
469.585	338.19
469.804	331.19
470.023	333.19
470.243	327.19
470.462	332.19
470.681	337.19
470.901	325.19
471.12	339.19
471.339	336.19
471.558	346.19
471.777	313.19
471.997	319.19
472.216	328.19
472.435	348.19
472.654	335.19
472.873	325.19
473.092	338.19
473.311	326.19
473.53	349.19
473.749	335.19
473.968	362.19
474.187	446.19
474.406	460.19
474.625	390.19
474.844	334.19
475.063	341.19
475.282	328.19
475.501	324.19
475.72	360.19
475.939	330.19
476.158	360.19
476.377	351.19
476.596	332.19
476.814	337.19
477.033	335.19
477.252	377.19
477.471	344.19
477.69	366.19
477.908	357.19
478.127	383.19
478.346	362.19
478.564	376.19
478.783	342.19
479.002	358.19
479.22	371.19
479.439	368.19
479.658	394.19
479.876	402.19
480.095	385.19
480.313	416.19
480.532	410.19
480.751	412.19
480.969	429.19
481.188	417.19
481.406	460.19
481.624	432.19
481.843	384.19
482.061	394.19
482.28	384.19
482.498	390.19
482.717	385.19
482.935	392.19
483.153	376.19
483.372	392.19
483.59	394.19
483.808	390.19
484.027	377.19
484.245	392.19
484.463	384.19
484.681	386.19
484.9	396.19
485.118	394.19
485.336	386.19
485.554	399.19
485.772	404.19
485.99	397.19
486.209	416.19
486.427	402.19
486.645	410.19
486.863	416.19
487.081	408.19
487.299	417.19
487.517	410.19
487.735	396.19
487.953	411.19
488.171	435.19
488.389	419.19
488.607	420.19
488.825	401.19
489.043	420.19
489.261	412.19
489.479	451.19
489.696	420.19
489.914	420.19
490.132	410.19
490.35	410.19
490.568	427.19
490.786	444.19
491.003	444.19
491.221	462.19
491.439	469.19
491.657	468.19
491.874	452.19
492.092	460.19
492.31	479.19
492.527	464.19
492.745	461.19
492.963	485.19
493.18	475.19
493.398	482.19
493.615	489.19
493.833	480.19
494.05	468.19
494.268	489.19
494.485	472.19
494.703	459.19
494.92	469.19
495.138	472.19
495.355	491.19
495.573	505.19
495.79	493.19
496.008	500.19
496.225	479.19
496.442	485.19
496.66	485.19
496.877	483.19
497.094	508.19
497.312	487.19
497.529	512.19
497.746	507.19
497.963	530.19
498.181	530.19
498.398	538.19
498.615	521.19
498.832	547.19
499.049	549.19
499.267	566.19
499.484	572.19
499.701	584.19
499.918	602.19
500.135	626.19
500.352	640.19
500.569	633.19
500.786	644.19
501.003	620.19
501.22	624.19
501.437	624.19
501.654	595.19
501.871	586.19
502.088	571.19
