Data from 1972.PennyLincolnUp.Lamp.En5.5.200Scan.071719.P1._HRD10591_15-28-49-844.txt Node
Date: Thu Jul 18 15:28:49 EDT 2019
User: cochatt
Spectrometer: HR+D1059
Trigger mode: 1
Integration Time (sec): 1.000000E-1
Scans to average: 1
Electric dark correction enabled: true
Nonlinearity correction enabled: false
Boxcar width: 0
XAxis mode: Wavelengths
Number of Pixels in Spectrum: 2048
>>>>>Begin Spectral Data<<<<<
223.165	-6.44
223.4	-6.44
223.635	-6.44
223.869	-18.44
224.104	-15.44
224.338	-18.44
224.573	-12.44
224.808	-15.44
225.042	-12.44
225.277	-12.44
225.511	7.56
225.746	6.56
225.98	7.56
226.215	9.56
226.449	12.56
226.683	16.56
226.918	22.56
227.152	28.56
227.387	28.56
227.621	38.56
227.856	47.56
228.09	44.56
228.324	47.56
228.559	60.56
228.793	66.56
229.027	106.56
229.262	103.56
229.496	117.56
229.73	134.56
229.964	162.56
230.199	119.56
230.433	121.56
230.667	107.56
230.901	114.56
231.136	125.56
231.37	116.56
231.604	112.56
231.838	110.56
232.072	122.56
232.306	102.56
232.541	113.56
232.775	114.56
233.009	127.56
233.243	114.56
233.477	108.56
233.711	112.56
233.945	114.56
234.179	124.56
234.413	121.56
234.647	116.56
234.881	131.56
235.115	119.56
235.349	119.56
235.583	116.56
235.817	115.56
236.051	131.56
236.285	123.56
236.519	139.56
236.753	143.56
236.987	153.56
237.221	207.56
237.455	262.56
237.689	186.56
237.922	138.56
238.156	155.56
238.39	137.56
238.624	133.56
238.858	124.56
239.091	135.56
239.325	130.56
239.559	144.56
239.793	142.56
240.027	143.56
240.26	160.56
240.494	170.56
240.728	169.56
240.961	148.56
241.195	142.56
241.429	142.56
241.662	134.56
241.896	136.56
242.13	127.56
242.363	132.56
242.597	138.56
242.83	128.56
243.064	139.56
243.298	137.56
243.531	137.56
243.765	139.56
243.998	137.56
244.232	134.56
244.465	166.56
244.699	168.56
244.932	134.56
245.166	147.56
245.399	144.56
245.633	151.56
245.866	150.56
246.099	166.56
246.333	152.56
246.566	150.56
246.8	158.56
247.033	158.56
247.266	156.56
247.5	186.56
247.733	165.56
247.966	172.56
248.2	170.56
248.433	169.56
248.666	189.56
248.899	189.56
249.133	224.56
249.366	233.56
249.599	218.56
249.832	192.56
250.066	187.56
250.299	187.56
250.532	205.56
250.765	212.56
250.998	223.56
251.231	254.56
251.465	239.56
251.698	223.56
251.931	206.56
252.164	207.56
252.397	203.56
252.63	207.56
252.863	208.56
253.096	218.56
253.329	237.56
253.562	238.56
253.795	235.56
254.028	231.56
254.261	230.56
254.494	242.56
254.727	258.56
254.96	314.56
255.193	290.56
255.426	258.56
255.659	248.56
255.892	242.56
256.124	253.56
256.357	246.56
256.59	243.56
256.823	229.56
257.056	223.56
257.289	223.56
257.521	212.56
257.754	219.56
257.987	212.56
258.22	231.56
258.452	224.56
258.685	208.56
258.918	207.56
259.151	213.56
259.383	227.56
259.616	221.56
259.849	232.56
260.081	249.56
260.314	244.56
260.547	254.56
260.779	266.56
261.012	238.56
261.244	240.56
261.477	231.56
261.71	226.56
261.942	240.56
262.175	254.56
262.407	255.56
262.64	247.56
262.872	220.56
263.105	223.56
263.337	208.56
263.57	229.56
263.802	215.56
264.035	208.56
264.267	212.56
264.499	204.56
264.732	213.56
264.964	221.56
265.197	218.56
265.429	223.56
265.661	203.56
265.894	211.56
266.126	231.56
266.358	233.56
266.591	240.56
266.823	245.56
267.055	216.56
267.287	222.56
267.52	227.56
267.752	235.56
267.984	223.56
268.216	238.56
268.448	232.56
268.681	233.56
268.913	258.56
269.145	272.56
269.377	305.56
269.609	280.56
269.841	271.56
270.073	294.56
270.306	311.56
270.538	314.56
270.77	325.56
271.002	334.56
271.234	305.56
271.466	331.56
271.698	326.56
271.93	325.56
272.162	344.56
272.394	342.56
272.626	329.56
272.858	318.56
273.09	317.56
273.322	286.56
273.553	279.56
273.785	292.56
274.017	278.56
274.249	266.56
274.481	274.56
274.713	265.56
274.945	287.56
275.176	276.56
275.408	286.56
275.64	278.56
275.872	277.56
276.104	259.56
276.335	264.56
276.567	278.56
276.799	300.56
277.031	319.56
277.262	332.56
277.494	324.56
277.726	314.56
277.957	290.56
278.189	297.56
278.421	288.56
278.652	279.56
278.884	271.56
279.115	269.56
279.347	282.56
279.579	268.56
279.81	271.56
280.042	270.56
280.273	280.56
280.505	283.56
280.736	271.56
280.968	269.56
281.199	265.56
281.431	280.56
281.662	265.56
281.894	269.56
282.125	275.56
282.356	281.56
282.588	324.56
282.819	323.56
283.051	294.56
283.282	269.56
283.513	276.56
283.745	270.56
283.976	286.56
284.207	274.56
284.439	280.56
284.67	269.56
284.901	275.56
285.132	269.56
285.364	281.56
285.595	290.56
285.826	288.56
286.057	292.56
286.288	280.56
286.52	286.56
286.751	281.56
286.982	296.56
287.213	266.56
287.444	277.56
287.675	278.56
287.906	290.56
288.138	300.56
288.369	314.56
288.6	309.56
288.831	299.56
289.062	295.56
289.293	292.56
289.524	294.56
289.755	287.56
289.986	278.56
290.217	290.56
290.448	271.56
290.679	282.56
290.91	267.56
291.141	274.56
291.371	296.56
291.602	288.56
291.833	286.56
292.064	304.56
292.295	285.56
292.526	285.56
292.757	270.56
292.987	291.56
293.218	275.56
293.449	282.56
293.68	279.56
293.91	279.56
294.141	279.56
294.372	286.56
294.603	274.56
294.833	272.56
295.064	311.56
295.295	284.56
295.525	275.56
295.756	302.56
295.987	283.56
296.217	309.56
296.448	329.56
296.679	302.56
296.909	297.56
297.14	286.56
297.37	302.56
297.601	296.56
297.831	294.56
298.062	296.56
298.292	291.56
298.523	275.56
298.753	313.56
298.984	297.56
299.214	272.56
299.445	302.56
299.675	311.56
299.905	312.56
300.136	301.56
300.366	314.56
300.597	292.56
300.827	315.56
301.057	327.56
301.288	331.56
301.518	322.56
301.748	311.56
301.979	304.56
302.209	325.56
302.439	315.56
302.669	320.56
302.9	309.56
303.13	316.56
303.36	315.56
303.59	341.56
303.82	352.56
304.051	364.56
304.281	320.56
304.511	320.56
304.741	298.56
304.971	318.56
305.201	312.56
305.431	312.56
305.661	318.56
305.891	341.56
306.121	326.56
306.352	333.56
306.582	322.56
306.812	338.56
307.042	310.56
307.272	301.56
307.502	308.56
307.731	321.56
307.961	341.56
308.191	332.56
308.421	335.56
308.651	329.56
308.881	324.56
309.111	344.56
309.341	338.56
309.571	364.56
309.8	372.56
310.03	374.56
310.26	388.56
310.49	378.56
310.72	408.56
310.949	407.56
311.179	415.56
311.409	399.56
311.639	378.56
311.868	374.56
312.098	382.56
312.328	398.56
312.557	413.56
312.787	433.56
313.017	440.56
313.246	409.56
313.476	375.56
313.706	351.56
313.935	390.56
314.165	382.56
314.394	397.56
314.624	415.56
314.853	383.56
315.083	382.56
315.312	383.56
315.542	386.56
315.771	367.56
316.001	372.56
316.23	368.56
316.46	361.56
316.689	360.56
316.919	383.56
317.148	380.56
317.377	413.56
317.607	396.56
317.836	378.56
318.065	381.56
318.295	383.56
318.524	387.56
318.753	373.56
318.983	381.56
319.212	387.56
319.441	380.56
319.67	409.56
319.9	390.56
320.129	386.56
320.358	380.56
320.587	386.56
320.816	388.56
321.046	420.56
321.275	435.56
321.504	399.56
321.733	422.56
321.962	429.56
322.191	433.56
322.42	433.56
322.649	475.56
322.878	453.56
323.108	479.56
323.337	542.56
323.566	536.56
323.795	596.56
324.024	654.56
324.253	811.56
324.482	1182.56
324.71	1922.56
324.939	2828.56
325.168	2445.56
325.397	1228.56
325.626	759.56
325.855	646.56
326.084	570.56
326.313	568.56
326.542	566.56
326.77	620.56
326.999	752.56
327.228	1071.56
327.457	1628.56
327.686	2099.56
327.914	1389.56
328.143	846.56
328.372	751.56
328.6	690.56
328.829	658.56
329.058	680.56
329.287	654.56
329.515	612.56
329.744	570.56
329.972	566.56
330.201	614.56
330.43	621.56
330.658	650.56
330.887	692.56
331.115	684.56
331.344	580.56
331.572	510.56
331.801	534.56
332.03	501.56
332.258	475.56
332.486	477.56
332.715	447.56
332.943	454.56
333.172	484.56
333.4	447.56
333.629	460.56
333.857	472.56
334.085	499.56
334.314	516.56
334.542	544.56
334.771	606.56
334.999	518.56
335.227	464.56
335.455	447.56
335.684	463.56
335.912	429.56
336.14	423.56
336.369	438.56
336.597	456.56
336.825	467.56
337.053	438.56
337.281	438.56
337.51	422.56
337.738	451.56
337.966	426.56
338.194	442.56
338.422	442.56
338.65	441.56
338.878	407.56
339.106	435.56
339.334	408.56
339.562	398.56
339.79	397.56
340.018	423.56
340.246	426.56
340.474	444.56
340.702	418.56
340.93	426.56
341.158	418.56
341.386	408.56
341.614	421.56
341.842	431.56
342.07	419.56
342.298	398.56
342.526	423.56
342.754	402.56
342.981	396.56
343.209	389.56
343.437	395.56
343.665	398.56
343.893	398.56
344.12	408.56
344.348	421.56
344.576	394.56
344.804	422.56
345.031	437.56
345.259	470.56
345.487	438.56
345.714	431.56
345.942	422.56
346.17	416.56
346.397	405.56
346.625	396.56
346.853	405.56
347.08	392.56
347.308	410.56
347.535	433.56
347.763	440.56
347.99	444.56
348.218	423.56
348.445	440.56
348.673	446.56
348.9	407.56
349.128	374.56
349.355	389.56
349.583	415.56
349.81	396.56
350.037	383.56
350.265	393.56
350.492	377.56
350.72	395.56
350.947	392.56
351.174	424.56
351.402	426.56
351.629	429.56
351.856	407.56
352.083	431.56
352.311	431.56
352.538	439.56
352.765	450.56
352.992	428.56
353.22	406.56
353.447	412.56
353.674	399.56
353.901	402.56
354.128	392.56
354.355	381.56
354.583	371.56
354.81	387.56
355.037	369.56
355.264	363.56
355.491	360.56
355.718	366.56
355.945	360.56
356.172	367.56
356.399	360.56
356.626	370.56
356.853	362.56
357.08	361.56
357.307	364.56
357.534	359.56
357.761	355.56
357.988	377.56
358.215	371.56
358.441	363.56
358.668	372.56
358.895	382.56
359.122	381.56
359.349	384.56
359.576	415.56
359.802	432.56
360.029	470.56
360.256	471.56
360.483	482.56
360.709	434.56
360.936	403.56
361.163	406.56
361.39	419.56
361.616	415.56
361.843	418.56
362.07	404.56
362.296	398.56
362.523	388.56
362.749	410.56
362.976	388.56
363.203	412.56
363.429	399.56
363.656	377.56
363.882	397.56
364.109	395.56
364.335	383.56
364.562	384.56
364.788	375.56
365.015	388.56
365.241	382.56
365.468	387.56
365.694	402.56
365.92	390.56
366.147	360.56
366.373	392.56
366.599	387.56
366.826	375.56
367.052	385.56
367.278	376.56
367.505	387.56
367.731	387.56
367.957	379.56
368.184	379.56
368.41	395.56
368.636	370.56
368.862	397.56
369.089	378.56
369.315	378.56
369.541	380.56
369.767	367.56
369.993	396.56
370.219	390.56
370.445	365.56
370.672	359.56
370.898	365.56
371.124	360.56
371.35	376.56
371.576	363.56
371.802	367.56
372.028	358.56
372.254	373.56
372.48	364.56
372.706	380.56
372.932	348.56
373.158	358.56
373.384	385.56
373.61	353.56
373.835	361.56
374.061	361.56
374.287	374.56
374.513	390.56
374.739	379.56
374.965	357.56
375.191	382.56
375.416	360.56
375.642	370.56
375.868	359.56
376.094	359.56
376.319	359.56
376.545	358.56
376.771	367.56
376.997	386.56
377.222	378.56
377.448	365.56
377.674	348.56
377.899	355.56
378.125	358.56
378.35	346.56
378.576	367.56
378.802	361.56
379.027	348.56
379.253	355.56
379.478	365.56
379.704	370.56
379.929	360.56
380.155	352.56
380.38	367.56
380.606	363.56
380.831	375.56
381.057	376.56
381.282	375.56
381.507	376.56
381.733	360.56
381.958	375.56
382.184	359.56
382.409	359.56
382.634	351.56
382.86	360.56
383.085	364.56
383.31	394.56
383.535	370.56
383.761	352.56
383.986	365.56
384.211	363.56
384.436	354.56
384.662	377.56
384.887	385.56
385.112	369.56
385.337	371.56
385.562	371.56
385.787	379.56
386.013	391.56
386.238	384.56
386.463	408.56
386.688	400.56
386.913	379.56
387.138	381.56
387.363	363.56
387.588	394.56
387.813	385.56
388.038	378.56
388.263	370.56
388.488	384.56
388.713	385.56
388.938	381.56
389.163	380.56
389.387	404.56
389.612	387.56
389.837	366.56
390.062	384.56
390.287	386.56
390.512	386.56
390.736	379.56
390.961	386.56
391.186	383.56
391.411	386.56
391.636	380.56
391.86	355.56
392.085	412.56
392.31	386.56
392.534	388.56
392.759	399.56
392.984	380.56
393.208	368.56
393.433	394.56
393.658	408.56
393.882	382.56
394.107	379.56
394.331	396.56
394.556	380.56
394.78	393.56
395.005	396.56
395.229	404.56
395.454	414.56
395.678	395.56
395.903	397.56
396.127	415.56
396.352	423.56
396.576	418.56
396.801	409.56
397.025	412.56
397.249	388.56
397.474	403.56
397.698	407.56
397.922	417.56
398.147	432.56
398.371	433.56
398.595	418.56
398.82	408.56
399.044	430.56
399.268	437.56
399.492	453.56
399.717	459.56
399.941	503.56
400.165	534.56
400.389	551.56
400.613	507.56
400.837	482.56
401.062	463.56
401.286	435.56
401.51	456.56
401.734	422.56
401.958	419.56
402.182	449.56
402.406	458.56
402.63	454.56
402.854	441.56
403.078	449.56
403.302	466.56
403.526	450.56
403.75	441.56
403.974	432.56
404.198	461.56
404.422	474.56
404.645	473.56
404.869	476.56
405.093	504.56
405.317	535.56
405.541	572.56
405.765	536.56
405.988	487.56
406.212	495.56
406.436	505.56
406.66	534.56
406.883	509.56
407.107	524.56
407.331	572.56
407.555	655.56
407.778	637.56
408.002	556.56
408.226	514.56
408.449	505.56
408.673	500.56
408.896	548.56
409.12	579.56
409.344	564.56
409.567	503.56
409.791	439.56
410.014	468.56
410.238	472.56
410.461	452.56
410.685	471.56
410.908	481.56
411.132	515.56
411.355	572.56
411.578	536.56
411.802	481.56
412.025	448.56
412.249	466.56
412.472	494.56
412.695	555.56
412.919	501.56
413.142	472.56
413.365	474.56
413.589	452.56
413.812	453.56
414.035	431.56
414.258	439.56
414.482	406.56
414.705	438.56
414.928	418.56
415.151	433.56
415.374	421.56
415.597	423.56
415.821	426.56
416.044	408.56
416.267	438.56
416.49	430.56
416.713	419.56
416.936	437.56
417.159	431.56
417.382	437.56
417.605	420.56
417.828	431.56
418.051	459.56
418.274	452.56
418.497	462.56
418.72	428.56
418.943	427.56
419.166	448.56
419.389	457.56
419.611	459.56
419.834	463.56
420.057	476.56
420.28	470.56
420.503	465.56
420.726	461.56
420.948	507.56
421.171	532.56
421.394	579.56
421.617	483.56
421.839	462.56
422.062	460.56
422.285	471.56
422.507	532.56
422.73	635.56
422.953	586.56
423.175	548.56
423.398	508.56
423.621	492.56
423.843	494.56
424.066	493.56
424.288	475.56
424.511	544.56
424.733	603.56
424.956	671.56
425.178	642.56
425.401	638.56
425.623	660.56
425.846	553.56
426.068	524.56
426.291	492.56
426.513	514.56
426.735	527.56
426.958	564.56
427.18	660.56
427.402	785.56
427.625	872.56
427.847	819.56
428.069	676.56
428.292	594.56
428.514	540.56
428.736	511.56
428.958	495.56
429.181	465.56
429.403	482.56
429.625	471.56
429.847	531.56
430.069	612.56
430.292	582.56
430.514	491.56
430.736	468.56
430.958	442.56
431.18	451.56
431.402	445.56
431.624	439.56
431.846	441.56
432.068	430.56
432.29	440.56
432.512	436.56
432.734	438.56
432.956	435.56
433.178	450.56
433.4	494.56
433.622	431.56
433.844	439.56
434.066	433.56
434.287	443.56
434.509	427.56
434.731	440.56
434.953	456.56
435.175	470.56
435.397	483.56
435.618	493.56
435.84	558.56
436.062	667.56
436.284	733.56
436.505	592.56
436.727	539.56
436.949	502.56
437.17	489.56
437.392	467.56
437.614	485.56
437.835	532.56
438.057	609.56
438.278	759.56
438.5	762.56
438.721	812.56
438.943	796.56
439.165	641.56
439.386	566.56
439.608	546.56
439.829	566.56
440.05	591.56
440.272	613.56
440.493	589.56
440.715	528.56
440.936	494.56
441.158	508.56
441.379	491.56
441.6	482.56
441.822	508.56
442.043	571.56
442.264	644.56
442.486	713.56
442.707	585.56
442.928	517.56
443.149	557.56
443.371	602.56
443.592	633.56
443.813	697.56
444.034	763.56
444.255	637.56
444.476	554.56
444.698	524.56
444.919	524.56
445.14	588.56
445.361	585.56
445.582	575.56
445.803	649.56
446.024	747.56
446.245	804.56
446.466	701.56
446.687	593.56
446.908	532.56
447.129	488.56
447.35	462.56
447.571	504.56
447.792	489.56
448.013	496.56
448.234	515.56
448.455	559.56
448.675	697.56
448.896	820.56
449.117	690.56
449.338	646.56
449.559	758.56
449.779	858.56
450	653.56
450.221	562.56
450.442	518.56
450.662	489.56
450.883	491.56
451.104	506.56
451.324	517.56
451.545	468.56
451.766	430.56
451.986	428.56
452.207	449.56
452.428	404.56
452.648	430.56
452.869	438.56
453.089	418.56
453.31	436.56
453.53	438.56
453.751	425.56
453.971	440.56
454.192	470.56
454.412	456.56
454.633	411.56
454.853	428.56
455.073	437.56
455.294	459.56
455.514	552.56
455.734	524.56
455.955	415.56
456.175	402.56
456.395	408.56
456.616	391.56
456.836	403.56
457.056	410.56
457.276	390.56
457.497	398.56
457.717	406.56
457.937	419.56
458.157	402.56
458.377	418.56
458.598	440.56
458.818	516.56
459.038	618.56
459.258	622.56
459.478	515.56
459.698	448.56
459.918	430.56
460.138	452.56
460.358	445.56
460.578	433.56
460.798	420.56
461.018	439.56
461.238	433.56
461.458	436.56
461.678	430.56
461.898	432.56
462.118	432.56
462.338	431.56
462.558	455.56
462.777	462.56
462.997	435.56
463.217	466.56
463.437	461.56
463.657	452.56
463.876	442.56
464.096	460.56
464.316	445.56
464.536	458.56
464.755	445.56
464.975	472.56
465.195	558.56
465.414	619.56
465.634	544.56
465.854	472.56
466.073	459.56
466.293	452.56
466.512	434.56
466.732	410.56
466.951	425.56
467.171	414.56
467.391	434.56
467.61	441.56
467.829	439.56
468.049	454.56
468.268	455.56
468.488	445.56
468.707	425.56
468.927	431.56
469.146	402.56
469.365	411.56
469.585	415.56
469.804	446.56
470.023	420.56
470.243	430.56
470.462	456.56
470.681	484.56
470.901	457.56
471.12	420.56
471.339	419.56
471.558	441.56
471.777	458.56
471.997	443.56
472.216	447.56
472.435	505.56
472.654	474.56
472.873	447.56
473.092	439.56
473.311	424.56
473.53	445.56
473.749	468.56
473.968	478.56
474.187	640.56
474.406	651.56
474.625	515.56
474.844	460.56
475.063	435.56
475.282	450.56
475.501	440.56
475.72	456.56
475.939	446.56
476.158	442.56
476.377	437.56
476.596	451.56
476.814	452.56
477.033	471.56
477.252	475.56
477.471	464.56
477.69	469.56
477.908	466.56
478.127	471.56
478.346	477.56
478.564	456.56
478.783	516.56
479.002	496.56
479.22	477.56
479.439	518.56
479.658	504.56
479.876	538.56
480.095	541.56
480.313	563.56
480.532	532.56
480.751	541.56
480.969	538.56
481.188	646.56
481.406	681.56
481.624	589.56
481.843	526.56
482.061	539.56
482.28	530.56
482.498	518.56
482.717	511.56
482.935	517.56
483.153	503.56
483.372	525.56
483.59	528.56
483.808	500.56
484.027	504.56
484.245	506.56
484.463	516.56
484.681	522.56
484.9	534.56
485.118	524.56
485.336	545.56
485.554	537.56
485.772	534.56
485.99	524.56
486.209	532.56
486.427	566.56
486.645	543.56
486.863	562.56
487.081	558.56
487.299	551.56
487.517	552.56
487.735	546.56
487.953	551.56
488.171	565.56
488.389	549.56
488.607	557.56
488.825	568.56
489.043	556.56
489.261	544.56
489.479	558.56
489.696	554.56
489.914	573.56
490.132	569.56
490.35	577.56
490.568	566.56
490.786	585.56
491.003	611.56
491.221	607.56
491.439	614.56
491.657	627.56
491.874	649.56
492.092	644.56
492.31	645.56
492.527	623.56
492.745	638.56
492.963	650.56
493.18	640.56
493.398	647.56
493.615	674.56
493.833	662.56
494.05	638.56
494.268	674.56
494.485	650.56
494.703	666.56
494.92	653.56
495.138	660.56
495.355	653.56
495.573	679.56
495.79	652.56
496.008	655.56
496.225	649.56
496.442	635.56
496.66	662.56
496.877	660.56
497.094	646.56
497.312	666.56
497.529	676.56
497.746	701.56
497.963	671.56
498.181	698.56
498.398	703.56
498.615	687.56
498.832	704.56
499.049	724.56
499.267	721.56
499.484	739.56
499.701	731.56
499.918	766.56
500.135	774.56
500.352	790.56
500.569	801.56
500.786	776.56
501.003	811.56
501.22	813.56
501.437	783.56
501.654	830.56
501.871	808.56
