Data from 1972.PennyLincolnUp.Lamp.En5.5.200Scan.071719.P1._HRD10591_15-28-37-844.txt Node
Date: Thu Jul 18 15:28:37 EDT 2019
User: cochatt
Spectrometer: HR+D1059
Trigger mode: 1
Integration Time (sec): 1.000000E-1
Scans to average: 1
Electric dark correction enabled: true
Nonlinearity correction enabled: false
Boxcar width: 0
XAxis mode: Wavelengths
Number of Pixels in Spectrum: 2048
>>>>>Begin Spectral Data<<<<<
223.165	-17.88
223.4	-17.88
223.635	-17.88
223.869	-16.88
224.104	-18.88
224.338	-19.88
224.573	-10.88
224.808	-7.88
225.042	-6.88
225.277	-11.88
225.511	10.12
225.746	16.12
225.98	0.12
226.215	5.12
226.449	16.12
226.683	9.12
226.918	33.12
227.152	21.12
227.387	28.12
227.621	38.12
227.856	42.12
228.09	29.12
228.324	56.12
228.559	33.12
228.793	60.12
229.027	94.12
229.262	101.12
229.496	113.12
229.73	129.12
229.964	154.12
230.199	141.12
230.433	121.12
230.667	109.12
230.901	100.12
231.136	103.12
231.37	117.12
231.604	100.12
231.838	97.12
232.072	129.12
232.306	101.12
232.541	108.12
232.775	116.12
233.009	114.12
233.243	109.12
233.477	116.12
233.711	114.12
233.945	111.12
234.179	112.12
234.413	120.12
234.647	102.12
234.881	104.12
235.115	101.12
235.349	116.12
235.583	112.12
235.817	117.12
236.051	127.12
236.285	137.12
236.519	117.12
236.753	138.12
236.987	139.12
237.221	186.12
237.455	268.12
237.689	202.12
237.922	152.12
238.156	124.12
238.39	133.12
238.624	132.12
238.858	122.12
239.091	118.12
239.325	110.12
239.559	122.12
239.793	120.12
240.027	126.12
240.26	144.12
240.494	170.12
240.728	147.12
240.961	163.12
241.195	154.12
241.429	137.12
241.662	119.12
241.896	136.12
242.13	133.12
242.363	137.12
242.597	133.12
242.83	117.12
243.064	121.12
243.298	146.12
243.531	131.12
243.765	135.12
243.998	140.12
244.232	134.12
244.465	134.12
244.699	126.12
244.932	142.12
245.166	132.12
245.399	146.12
245.633	145.12
245.866	149.12
246.099	136.12
246.333	142.12
246.566	147.12
246.8	162.12
247.033	154.12
247.266	154.12
247.5	157.12
247.733	169.12
247.966	188.12
248.2	165.12
248.433	169.12
248.666	184.12
248.899	178.12
249.133	203.12
249.366	212.12
249.599	196.12
249.832	212.12
250.066	184.12
250.299	181.12
250.532	199.12
250.765	211.12
250.998	251.12
251.231	250.12
251.465	229.12
251.698	210.12
251.931	213.12
252.164	213.12
252.397	195.12
252.63	191.12
252.863	186.12
253.096	214.12
253.329	249.12
253.562	241.12
253.795	219.12
254.028	231.12
254.261	230.12
254.494	237.12
254.727	286.12
254.96	314.12
255.193	288.12
255.426	248.12
255.659	238.12
255.892	240.12
256.124	256.12
256.357	263.12
256.59	236.12
256.823	232.12
257.056	229.12
257.289	207.12
257.521	236.12
257.754	227.12
257.987	220.12
258.22	229.12
258.452	210.12
258.685	228.12
258.918	221.12
259.151	209.12
259.383	239.12
259.616	217.12
259.849	228.12
260.081	260.12
260.314	272.12
260.547	280.12
260.779	247.12
261.012	237.12
261.244	226.12
261.477	248.12
261.71	221.12
261.942	250.12
262.175	254.12
262.407	234.12
262.64	224.12
262.872	210.12
263.105	220.12
263.337	213.12
263.57	215.12
263.802	225.12
264.035	213.12
264.267	208.12
264.499	207.12
264.732	201.12
264.964	219.12
265.197	212.12
265.429	193.12
265.661	205.12
265.894	225.12
266.126	211.12
266.358	212.12
266.591	232.12
266.823	236.12
267.055	228.12
267.287	241.12
267.52	236.12
267.752	228.12
267.984	239.12
268.216	217.12
268.448	238.12
268.681	238.12
268.913	236.12
269.145	281.12
269.377	297.12
269.609	296.12
269.841	280.12
270.073	279.12
270.306	297.12
270.538	333.12
270.77	323.12
271.002	338.12
271.234	330.12
271.466	295.12
271.698	323.12
271.93	326.12
272.162	351.12
272.394	336.12
272.626	304.12
272.858	326.12
273.09	302.12
273.322	293.12
273.553	274.12
273.785	258.12
274.017	274.12
274.249	260.12
274.481	272.12
274.713	259.12
274.945	268.12
275.176	283.12
275.408	288.12
275.64	269.12
275.872	265.12
276.104	264.12
276.335	273.12
276.567	286.12
276.799	292.12
277.031	333.12
277.262	333.12
277.494	341.12
277.726	300.12
277.957	314.12
278.189	280.12
278.421	263.12
278.652	274.12
278.884	254.12
279.115	276.12
279.347	255.12
279.579	271.12
279.81	269.12
280.042	262.12
280.273	279.12
280.505	258.12
280.736	270.12
280.968	249.12
281.199	276.12
281.431	271.12
281.662	263.12
281.894	284.12
282.125	290.12
282.356	280.12
282.588	330.12
282.819	331.12
283.051	291.12
283.282	262.12
283.513	273.12
283.745	273.12
283.976	263.12
284.207	265.12
284.439	284.12
284.67	282.12
284.901	281.12
285.132	280.12
285.364	281.12
285.595	261.12
285.826	276.12
286.057	283.12
286.288	263.12
286.52	268.12
286.751	265.12
286.982	288.12
287.213	269.12
287.444	284.12
287.675	296.12
287.906	302.12
288.138	302.12
288.369	298.12
288.6	306.12
288.831	301.12
289.062	285.12
289.293	288.12
289.524	278.12
289.755	283.12
289.986	278.12
290.217	284.12
290.448	281.12
290.679	276.12
290.91	291.12
291.141	292.12
291.371	281.12
291.602	272.12
291.833	286.12
292.064	268.12
292.295	286.12
292.526	273.12
292.757	285.12
292.987	297.12
293.218	294.12
293.449	282.12
293.68	277.12
293.91	284.12
294.141	273.12
294.372	284.12
294.603	286.12
294.833	287.12
295.064	280.12
295.295	295.12
295.525	300.12
295.756	286.12
295.987	294.12
296.217	323.12
296.448	349.12
296.679	290.12
296.909	289.12
297.14	278.12
297.37	306.12
297.601	296.12
297.831	289.12
298.062	302.12
298.292	305.12
298.523	293.12
298.753	281.12
298.984	303.12
299.214	299.12
299.445	292.12
299.675	300.12
299.905	303.12
300.136	311.12
300.366	296.12
300.597	298.12
300.827	279.12
301.057	314.12
301.288	319.12
301.518	328.12
301.748	331.12
301.979	313.12
302.209	304.12
302.439	324.12
302.669	320.12
302.9	324.12
303.13	319.12
303.36	302.12
303.59	335.12
303.82	336.12
304.051	342.12
304.281	315.12
304.511	324.12
304.741	328.12
304.971	295.12
305.201	308.12
305.431	296.12
305.661	312.12
305.891	310.12
306.121	312.12
306.352	321.12
306.582	327.12
306.812	327.12
307.042	341.12
307.272	320.12
307.502	322.12
307.731	336.12
307.961	321.12
308.191	321.12
308.421	329.12
308.651	332.12
308.881	351.12
309.111	339.12
309.341	340.12
309.571	350.12
309.8	371.12
310.03	384.12
310.26	400.12
310.49	367.12
310.72	398.12
310.949	414.12
311.179	408.12
311.409	374.12
311.639	365.12
311.868	387.12
312.098	389.12
312.328	432.12
312.557	406.12
312.787	434.12
313.017	416.12
313.246	398.12
313.476	374.12
313.706	384.12
313.935	380.12
314.165	403.12
314.394	406.12
314.624	420.12
314.853	404.12
315.083	394.12
315.312	387.12
315.542	384.12
315.771	364.12
316.001	359.12
316.23	370.12
316.46	381.12
316.689	382.12
316.919	397.12
317.148	379.12
317.377	373.12
317.607	387.12
317.836	383.12
318.065	396.12
318.295	393.12
318.524	389.12
318.753	368.12
318.983	375.12
319.212	384.12
319.441	384.12
319.67	404.12
319.9	388.12
320.129	357.12
320.358	372.12
320.587	374.12
320.816	388.12
321.046	409.12
321.275	408.12
321.504	401.12
321.733	412.12
321.962	413.12
322.191	432.12
322.42	458.12
322.649	483.12
322.878	480.12
323.108	503.12
323.337	520.12
323.566	557.12
323.795	606.12
324.024	665.12
324.253	822.12
324.482	1202.12
324.71	1883.12
324.939	2720.12
325.168	2421.12
325.397	1218.12
325.626	776.12
325.855	614.12
326.084	577.12
326.313	575.12
326.542	594.12
326.77	654.12
326.999	737.12
327.228	1088.12
327.457	1660.12
327.686	2077.12
327.914	1396.12
328.143	892.12
328.372	729.12
328.6	676.12
328.829	656.12
329.058	660.12
329.287	656.12
329.515	616.12
329.744	589.12
329.972	573.12
330.201	604.12
330.43	636.12
330.658	662.12
330.887	702.12
331.115	655.12
331.344	572.12
331.572	553.12
331.801	526.12
332.03	521.12
332.258	515.12
332.486	458.12
332.715	478.12
332.943	444.12
333.172	482.12
333.4	456.12
333.629	463.12
333.857	483.12
334.085	522.12
334.314	526.12
334.542	564.12
334.771	590.12
334.999	538.12
335.227	495.12
335.455	482.12
335.684	456.12
335.912	444.12
336.14	436.12
336.369	436.12
336.597	458.12
336.825	446.12
337.053	445.12
337.281	417.12
337.51	440.12
337.738	441.12
337.966	437.12
338.194	437.12
338.422	416.12
338.65	444.12
338.878	412.12
339.106	412.12
339.334	409.12
339.562	406.12
339.79	414.12
340.018	423.12
340.246	414.12
340.474	427.12
340.702	418.12
340.93	414.12
341.158	438.12
341.386	431.12
341.614	429.12
341.842	433.12
342.07	430.12
342.298	406.12
342.526	387.12
342.754	384.12
342.981	395.12
343.209	400.12
343.437	398.12
343.665	402.12
343.893	419.12
344.12	414.12
344.348	429.12
344.576	420.12
344.804	439.12
345.031	453.12
345.259	438.12
345.487	449.12
345.714	432.12
345.942	415.12
346.17	408.12
346.397	412.12
346.625	406.12
346.853	412.12
347.08	396.12
347.308	399.12
347.535	431.12
347.763	414.12
347.99	416.12
348.218	426.12
348.445	424.12
348.673	438.12
348.9	432.12
349.128	393.12
349.355	375.12
349.583	378.12
349.81	383.12
350.037	393.12
350.265	396.12
350.492	374.12
350.72	395.12
350.947	414.12
351.174	420.12
351.402	426.12
351.629	425.12
351.856	420.12
352.083	432.12
352.311	436.12
352.538	432.12
352.765	452.12
352.992	412.12
353.22	414.12
353.447	402.12
353.674	403.12
353.901	397.12
354.128	394.12
354.355	368.12
354.583	375.12
354.81	385.12
355.037	372.12
355.264	377.12
355.491	376.12
355.718	382.12
355.945	374.12
356.172	359.12
356.399	376.12
356.626	390.12
356.853	386.12
357.08	373.12
357.307	368.12
357.534	358.12
357.761	378.12
357.988	374.12
358.215	371.12
358.441	388.12
358.668	384.12
358.895	372.12
359.122	406.12
359.349	413.12
359.576	407.12
359.802	437.12
360.029	467.12
360.256	493.12
360.483	451.12
360.709	420.12
360.936	417.12
361.163	401.12
361.39	414.12
361.616	422.12
361.843	421.12
362.07	407.12
362.296	394.12
362.523	412.12
362.749	412.12
362.976	418.12
363.203	393.12
363.429	389.12
363.656	399.12
363.882	388.12
364.109	383.12
364.335	408.12
364.562	384.12
364.788	393.12
365.015	383.12
365.241	374.12
365.468	388.12
365.694	388.12
365.92	399.12
366.147	380.12
366.373	380.12
366.599	373.12
366.826	400.12
367.052	382.12
367.278	383.12
367.505	369.12
367.731	377.12
367.957	379.12
368.184	391.12
368.41	389.12
368.636	397.12
368.862	391.12
369.089	395.12
369.315	385.12
369.541	379.12
369.767	394.12
369.993	374.12
370.219	384.12
370.445	370.12
370.672	360.12
370.898	371.12
371.124	358.12
371.35	370.12
371.576	374.12
371.802	362.12
372.028	366.12
372.254	367.12
372.48	373.12
372.706	367.12
372.932	371.12
373.158	366.12
373.384	366.12
373.61	356.12
373.835	376.12
374.061	372.12
374.287	381.12
374.513	378.12
374.739	373.12
374.965	406.12
375.191	387.12
375.416	376.12
375.642	397.12
375.868	371.12
376.094	365.12
376.319	377.12
376.545	385.12
376.771	372.12
376.997	365.12
377.222	366.12
377.448	361.12
377.674	369.12
377.899	357.12
378.125	353.12
378.35	361.12
378.576	364.12
378.802	357.12
379.027	356.12
379.253	345.12
379.478	343.12
379.704	358.12
379.929	379.12
380.155	388.12
380.38	378.12
380.606	377.12
380.831	357.12
381.057	368.12
381.282	372.12
381.507	343.12
381.733	348.12
381.958	361.12
382.184	373.12
382.409	368.12
382.634	370.12
382.86	368.12
383.085	359.12
383.31	357.12
383.535	385.12
383.761	366.12
383.986	365.12
384.211	370.12
384.436	389.12
384.662	400.12
384.887	381.12
385.112	391.12
385.337	374.12
385.562	380.12
385.787	382.12
386.013	404.12
386.238	381.12
386.463	397.12
386.688	388.12
386.913	373.12
387.138	368.12
387.363	363.12
387.588	378.12
387.813	379.12
388.038	372.12
388.263	384.12
388.488	374.12
388.713	391.12
388.938	408.12
389.163	388.12
389.387	418.12
389.612	399.12
389.837	404.12
390.062	377.12
390.287	375.12
390.512	391.12
390.736	393.12
390.961	372.12
391.186	389.12
391.411	382.12
391.636	401.12
391.86	391.12
392.085	403.12
392.31	400.12
392.534	394.12
392.759	382.12
392.984	411.12
393.208	396.12
393.433	381.12
393.658	422.12
393.882	421.12
394.107	394.12
394.331	394.12
394.556	377.12
394.78	368.12
395.005	397.12
395.229	409.12
395.454	410.12
395.678	418.12
395.903	423.12
396.127	453.12
396.352	448.12
396.576	424.12
396.801	422.12
397.025	414.12
397.249	426.12
397.474	421.12
397.698	417.12
397.922	433.12
398.147	426.12
398.371	425.12
398.595	439.12
398.82	426.12
399.044	443.12
399.268	441.12
399.492	452.12
399.717	485.12
399.941	506.12
400.165	542.12
400.389	562.12
400.613	508.12
400.837	473.12
401.062	457.12
401.286	473.12
401.51	454.12
401.734	441.12
401.958	454.12
402.182	444.12
402.406	451.12
402.63	460.12
402.854	461.12
403.078	445.12
403.302	443.12
403.526	456.12
403.75	480.12
403.974	449.12
404.198	477.12
404.422	464.12
404.645	480.12
404.869	474.12
405.093	516.12
405.317	562.12
405.541	601.12
405.765	535.12
405.988	514.12
406.212	504.12
406.436	528.12
406.66	560.12
406.883	514.12
407.107	556.12
407.331	571.12
407.555	641.12
407.778	638.12
408.002	579.12
408.226	536.12
408.449	511.12
408.673	502.12
408.896	530.12
409.12	583.12
409.344	535.12
409.567	495.12
409.791	481.12
410.014	465.12
410.238	457.12
410.461	464.12
410.685	478.12
410.908	490.12
411.132	535.12
411.355	562.12
411.578	520.12
411.802	478.12
412.025	474.12
412.249	466.12
412.472	494.12
412.695	528.12
412.919	552.12
413.142	494.12
413.365	475.12
413.589	446.12
413.812	467.12
414.035	466.12
414.258	450.12
414.482	437.12
414.705	427.12
414.928	443.12
415.151	430.12
415.374	435.12
415.597	427.12
415.821	429.12
416.044	441.12
416.267	449.12
416.49	447.12
416.713	441.12
416.936	437.12
417.159	433.12
417.382	440.12
417.605	430.12
417.828	456.12
418.051	459.12
418.274	466.12
418.497	455.12
418.72	456.12
418.943	436.12
419.166	449.12
419.389	463.12
419.611	480.12
419.834	476.12
420.057	467.12
420.28	470.12
420.503	463.12
420.726	462.12
420.948	480.12
421.171	527.12
421.394	580.12
421.617	487.12
421.839	468.12
422.062	474.12
422.285	482.12
422.507	545.12
422.73	611.12
422.953	603.12
423.175	516.12
423.398	506.12
423.621	475.12
423.843	504.12
424.066	524.12
424.288	507.12
424.511	540.12
424.733	598.12
424.956	692.12
425.178	632.12
425.401	651.12
425.623	667.12
425.846	584.12
426.068	532.12
426.291	514.12
426.513	533.12
426.735	542.12
426.958	553.12
427.18	653.12
427.402	806.12
427.625	899.12
427.847	798.12
428.069	682.12
428.292	613.12
428.514	543.12
428.736	505.12
428.958	499.12
429.181	472.12
429.403	477.12
429.625	493.12
429.847	518.12
430.069	596.12
430.292	552.12
430.514	509.12
430.736	480.12
430.958	470.12
431.18	467.12
431.402	469.12
431.624	448.12
431.846	440.12
432.068	417.12
432.29	439.12
432.512	413.12
432.734	464.12
432.956	455.12
433.178	453.12
433.4	485.12
433.622	456.12
433.844	448.12
434.066	445.12
434.287	429.12
434.509	442.12
434.731	459.12
434.953	463.12
435.175	478.12
435.397	521.12
435.618	505.12
435.84	571.12
436.062	658.12
436.284	750.12
436.505	617.12
436.727	556.12
436.949	514.12
437.17	474.12
437.392	481.12
437.614	506.12
437.835	532.12
438.057	669.12
438.278	757.12
438.5	741.12
438.721	832.12
438.943	796.12
439.165	646.12
439.386	548.12
439.608	563.12
439.829	572.12
440.05	584.12
440.272	639.12
440.493	613.12
440.715	550.12
440.936	516.12
441.158	505.12
441.379	474.12
441.6	492.12
441.822	523.12
442.043	557.12
442.264	673.12
442.486	708.12
442.707	597.12
442.928	566.12
443.149	543.12
443.371	566.12
443.592	623.12
443.813	728.12
444.034	790.12
444.255	636.12
444.476	552.12
444.698	538.12
444.919	528.12
445.14	613.12
445.361	576.12
445.582	592.12
445.803	659.12
446.024	814.12
446.245	774.12
446.466	731.12
446.687	572.12
446.908	535.12
447.129	509.12
447.35	491.12
447.571	481.12
447.792	481.12
448.013	504.12
448.234	532.12
448.455	566.12
448.675	711.12
448.896	812.12
449.117	668.12
449.338	662.12
449.559	748.12
449.779	856.12
450	672.12
450.221	563.12
450.442	500.12
450.662	500.12
450.883	520.12
451.104	525.12
451.324	514.12
451.545	481.12
451.766	457.12
451.986	441.12
452.207	425.12
452.428	440.12
452.648	428.12
452.869	440.12
453.089	444.12
453.31	473.12
453.53	449.12
453.751	448.12
453.971	448.12
454.192	461.12
454.412	445.12
454.633	427.12
454.853	429.12
455.073	425.12
455.294	463.12
455.514	532.12
455.734	520.12
455.955	432.12
456.175	438.12
456.395	408.12
456.616	386.12
456.836	415.12
457.056	399.12
457.276	390.12
457.497	403.12
457.717	410.12
457.937	404.12
458.157	413.12
458.377	413.12
458.598	449.12
458.818	512.12
459.038	587.12
459.258	629.12
459.478	535.12
459.698	472.12
459.918	447.12
460.138	439.12
460.358	428.12
460.578	452.12
460.798	447.12
461.018	440.12
461.238	421.12
461.458	446.12
461.678	426.12
461.898	432.12
462.118	412.12
462.338	457.12
462.558	442.12
462.777	440.12
462.997	467.12
463.217	473.12
463.437	459.12
463.657	442.12
463.876	474.12
464.096	490.12
464.316	435.12
464.536	474.12
464.755	452.12
464.975	502.12
465.195	536.12
465.414	643.12
465.634	567.12
465.854	497.12
466.073	470.12
466.293	429.12
466.512	434.12
466.732	429.12
466.951	437.12
467.171	424.12
467.391	420.12
467.61	444.12
467.829	468.12
468.049	439.12
468.268	454.12
468.488	432.12
468.707	432.12
468.927	423.12
469.146	432.12
469.365	428.12
469.585	431.12
469.804	426.12
470.023	433.12
470.243	450.12
470.462	424.12
470.681	457.12
470.901	456.12
471.12	438.12
471.339	447.12
471.558	436.12
471.777	431.12
471.997	437.12
472.216	458.12
472.435	503.12
472.654	494.12
472.873	438.12
473.092	438.12
473.311	452.12
473.53	447.12
473.749	465.12
473.968	527.12
474.187	645.12
474.406	640.12
474.625	508.12
474.844	462.12
475.063	456.12
475.282	448.12
475.501	455.12
475.72	467.12
475.939	450.12
476.158	463.12
476.377	452.12
476.596	437.12
476.814	465.12
477.033	471.12
477.252	458.12
477.471	470.12
477.69	477.12
477.908	457.12
478.127	490.12
478.346	469.12
478.564	480.12
478.783	490.12
479.002	488.12
479.22	471.12
479.439	527.12
479.658	533.12
479.876	534.12
480.095	548.12
480.313	562.12
480.532	576.12
480.751	547.12
480.969	546.12
481.188	633.12
481.406	712.12
481.624	613.12
481.843	570.12
482.061	538.12
482.28	493.12
482.498	527.12
482.717	532.12
482.935	509.12
483.153	528.12
483.372	492.12
483.59	519.12
483.808	517.12
484.027	498.12
484.245	525.12
484.463	526.12
484.681	537.12
484.9	518.12
485.118	531.12
485.336	528.12
485.554	525.12
485.772	543.12
485.99	544.12
486.209	549.12
486.427	553.12
486.645	534.12
486.863	574.12
487.081	578.12
487.299	549.12
487.517	568.12
487.735	554.12
487.953	555.12
488.171	570.12
488.389	561.12
488.607	568.12
488.825	582.12
489.043	532.12
489.261	537.12
489.479	561.12
489.696	585.12
489.914	579.12
490.132	559.12
490.35	574.12
490.568	575.12
490.786	604.12
491.003	584.12
491.221	637.12
491.439	634.12
491.657	638.12
491.874	667.12
492.092	650.12
492.31	639.12
492.527	660.12
492.745	638.12
492.963	652.12
493.18	638.12
493.398	634.12
493.615	650.12
493.833	648.12
494.05	686.12
494.268	681.12
494.485	673.12
494.703	647.12
494.92	663.12
495.138	647.12
495.355	678.12
495.573	666.12
495.79	663.12
496.008	657.12
496.225	668.12
496.442	675.12
496.66	661.12
496.877	669.12
497.094	668.12
497.312	681.12
497.529	697.12
497.746	703.12
497.963	711.12
498.181	709.12
498.398	723.12
498.615	726.12
498.832	733.12
499.049	739.12
499.267	761.12
499.484	766.12
499.701	768.12
499.918	793.12
500.135	789.12
500.352	838.12
500.569	832.12
500.786	834.12
501.003	841.12
501.22	833.12
501.437	816.12
501.654	828.12
501.871	824.12
