Data from 1972.PennyLincolnUp.Lamp.En5.5.200Scan.071719.P1._HRD10591_15-28-09-843.txt Node
Date: Thu Jul 18 15:28:09 EDT 2019
User: cochatt
Spectrometer: HR+D1059
Trigger mode: 1
Integration Time (sec): 1.000000E-1
Scans to average: 1
Electric dark correction enabled: true
Nonlinearity correction enabled: false
Boxcar width: 0
XAxis mode: Wavelengths
Number of Pixels in Spectrum: 2048
>>>>>Begin Spectral Data<<<<<
223.165	-21.75
223.4	-21.75
223.635	-21.75
223.869	-1.75
224.104	-27.75
224.338	-14.75
224.573	-21.75
224.808	-1.75
225.042	5.25
225.277	4.25
225.511	2.25
225.746	-8.75
225.98	4.25
226.215	17.25
226.449	18.25
226.683	15.25
226.918	20.25
227.152	11.25
227.387	27.25
227.621	38.25
227.856	33.25
228.09	46.25
228.324	44.25
228.559	58.25
228.793	52.25
229.027	100.25
229.262	126.25
229.496	116.25
229.73	150.25
229.964	162.25
230.199	139.25
230.433	124.25
230.667	123.25
230.901	105.25
231.136	120.25
231.37	100.25
231.604	105.25
231.838	114.25
232.072	107.25
232.306	107.25
232.541	111.25
232.775	120.25
233.009	125.25
233.243	114.25
233.477	100.25
233.711	103.25
233.945	121.25
234.179	128.25
234.413	117.25
234.647	113.25
234.881	112.25
235.115	107.25
235.349	107.25
235.583	109.25
235.817	120.25
236.051	129.25
236.285	121.25
236.519	126.25
236.753	133.25
236.987	150.25
237.221	215.25
237.455	250.25
237.689	187.25
237.922	142.25
238.156	133.25
238.39	133.25
238.624	106.25
238.858	119.25
239.091	136.25
239.325	125.25
239.559	127.25
239.793	124.25
240.027	125.25
240.26	129.25
240.494	151.25
240.728	155.25
240.961	154.25
241.195	153.25
241.429	133.25
241.662	121.25
241.896	129.25
242.13	120.25
242.363	144.25
242.597	143.25
242.83	139.25
243.064	132.25
243.298	141.25
243.531	132.25
243.765	131.25
243.998	129.25
244.232	133.25
244.465	137.25
244.699	146.25
244.932	143.25
245.166	134.25
245.399	132.25
245.633	143.25
245.866	142.25
246.099	128.25
246.333	152.25
246.566	149.25
246.8	132.25
247.033	146.25
247.266	164.25
247.5	156.25
247.733	168.25
247.966	170.25
248.2	150.25
248.433	148.25
248.666	164.25
248.899	179.25
249.133	189.25
249.366	214.25
249.599	202.25
249.832	176.25
250.066	196.25
250.299	194.25
250.532	185.25
250.765	198.25
250.998	227.25
251.231	225.25
251.465	216.25
251.698	205.25
251.931	192.25
252.164	199.25
252.397	198.25
252.63	201.25
252.863	211.25
253.096	225.25
253.329	222.25
253.562	228.25
253.795	220.25
254.028	229.25
254.261	213.25
254.494	230.25
254.727	266.25
254.96	282.25
255.193	279.25
255.426	269.25
255.659	259.25
255.892	237.25
256.124	248.25
256.357	221.25
256.59	232.25
256.823	229.25
257.056	202.25
257.289	204.25
257.521	227.25
257.754	190.25
257.987	203.25
258.22	224.25
258.452	217.25
258.685	207.25
258.918	198.25
259.151	216.25
259.383	220.25
259.616	228.25
259.849	232.25
260.081	232.25
260.314	243.25
260.547	268.25
260.779	241.25
261.012	236.25
261.244	226.25
261.477	216.25
261.71	227.25
261.942	240.25
262.175	241.25
262.407	232.25
262.64	231.25
262.872	224.25
263.105	223.25
263.337	208.25
263.57	212.25
263.802	218.25
264.035	207.25
264.267	196.25
264.499	220.25
264.732	222.25
264.964	224.25
265.197	198.25
265.429	202.25
265.661	207.25
265.894	214.25
266.126	202.25
266.358	206.25
266.591	223.25
266.823	213.25
267.055	235.25
267.287	224.25
267.52	232.25
267.752	209.25
267.984	224.25
268.216	229.25
268.448	225.25
268.681	222.25
268.913	246.25
269.145	258.25
269.377	285.25
269.609	275.25
269.841	275.25
270.073	283.25
270.306	292.25
270.538	318.25
270.77	310.25
271.002	300.25
271.234	291.25
271.466	286.25
271.698	305.25
271.93	314.25
272.162	320.25
272.394	318.25
272.626	324.25
272.858	299.25
273.09	289.25
273.322	288.25
273.553	268.25
273.785	262.25
274.017	268.25
274.249	275.25
274.481	273.25
274.713	251.25
274.945	243.25
275.176	268.25
275.408	257.25
275.64	282.25
275.872	264.25
276.104	266.25
276.335	264.25
276.567	278.25
276.799	291.25
277.031	293.25
277.262	329.25
277.494	330.25
277.726	289.25
277.957	291.25
278.189	274.25
278.421	265.25
278.652	260.25
278.884	266.25
279.115	278.25
279.347	256.25
279.579	262.25
279.81	266.25
280.042	274.25
280.273	269.25
280.505	257.25
280.736	257.25
280.968	270.25
281.199	271.25
281.431	262.25
281.662	268.25
281.894	259.25
282.125	270.25
282.356	275.25
282.588	306.25
282.819	307.25
283.051	270.25
283.282	253.25
283.513	275.25
283.745	259.25
283.976	276.25
284.207	286.25
284.439	282.25
284.67	277.25
284.901	273.25
285.132	259.25
285.364	269.25
285.595	266.25
285.826	245.25
286.057	282.25
286.288	267.25
286.52	273.25
286.751	260.25
286.982	279.25
287.213	281.25
287.444	268.25
287.675	290.25
287.906	282.25
288.138	285.25
288.369	291.25
288.6	294.25
288.831	294.25
289.062	268.25
289.293	277.25
289.524	288.25
289.755	281.25
289.986	278.25
290.217	265.25
290.448	269.25
290.679	292.25
290.91	268.25
291.141	266.25
291.371	275.25
291.602	265.25
291.833	256.25
292.064	275.25
292.295	263.25
292.526	265.25
292.757	280.25
292.987	266.25
293.218	268.25
293.449	256.25
293.68	259.25
293.91	276.25
294.141	277.25
294.372	266.25
294.603	264.25
294.833	269.25
295.064	265.25
295.295	288.25
295.525	282.25
295.756	278.25
295.987	299.25
296.217	331.25
296.448	340.25
296.679	299.25
296.909	282.25
297.14	273.25
297.37	271.25
297.601	282.25
297.831	284.25
298.062	279.25
298.292	275.25
298.523	289.25
298.753	294.25
298.984	279.25
299.214	287.25
299.445	293.25
299.675	311.25
299.905	291.25
300.136	297.25
300.366	306.25
300.597	306.25
300.827	299.25
301.057	314.25
301.288	315.25
301.518	297.25
301.748	307.25
301.979	310.25
302.209	307.25
302.439	316.25
302.669	299.25
302.9	312.25
303.13	308.25
303.36	301.25
303.59	307.25
303.82	344.25
304.051	347.25
304.281	329.25
304.511	321.25
304.741	301.25
304.971	276.25
305.201	316.25
305.431	320.25
305.661	327.25
305.891	328.25
306.121	317.25
306.352	315.25
306.582	310.25
306.812	320.25
307.042	315.25
307.272	312.25
307.502	312.25
307.731	307.25
307.961	329.25
308.191	315.25
308.421	319.25
308.651	323.25
308.881	326.25
309.111	351.25
309.341	324.25
309.571	333.25
309.8	347.25
310.03	352.25
310.26	373.25
310.49	370.25
310.72	381.25
310.949	403.25
311.179	402.25
311.409	388.25
311.639	381.25
311.868	361.25
312.098	351.25
312.328	368.25
312.557	406.25
312.787	392.25
313.017	414.25
313.246	411.25
313.476	338.25
313.706	350.25
313.935	379.25
314.165	384.25
314.394	392.25
314.624	409.25
314.853	380.25
315.083	375.25
315.312	366.25
315.542	370.25
315.771	369.25
316.001	368.25
316.23	355.25
316.46	349.25
316.689	360.25
316.919	380.25
317.148	378.25
317.377	363.25
317.607	372.25
317.836	380.25
318.065	375.25
318.295	361.25
318.524	349.25
318.753	352.25
318.983	368.25
319.212	342.25
319.441	380.25
319.67	388.25
319.9	381.25
320.129	368.25
320.358	358.25
320.587	379.25
320.816	378.25
321.046	378.25
321.275	416.25
321.504	392.25
321.733	398.25
321.962	415.25
322.191	410.25
322.42	432.25
322.649	457.25
322.878	465.25
323.108	483.25
323.337	509.25
323.566	532.25
323.795	550.25
324.024	619.25
324.253	777.25
324.482	1110.25
324.71	1754.25
324.939	2629.25
325.168	2239.25
325.397	1162.25
325.626	761.25
325.855	617.25
326.084	548.25
326.313	530.25
326.542	526.25
326.77	576.25
326.999	728.25
327.228	983.25
327.457	1529.25
327.686	1940.25
327.914	1266.25
328.143	818.25
328.372	683.25
328.6	646.25
328.829	618.25
329.058	633.25
329.287	644.25
329.515	582.25
329.744	540.25
329.972	542.25
330.201	549.25
330.43	624.25
330.658	642.25
330.887	663.25
331.115	621.25
331.344	526.25
331.572	488.25
331.801	478.25
332.03	497.25
332.258	476.25
332.486	438.25
332.715	410.25
332.943	443.25
333.172	418.25
333.4	420.25
333.629	422.25
333.857	451.25
334.085	476.25
334.314	487.25
334.542	502.25
334.771	568.25
334.999	501.25
335.227	470.25
335.455	465.25
335.684	449.25
335.912	417.25
336.14	406.25
336.369	414.25
336.597	425.25
336.825	428.25
337.053	426.25
337.281	425.25
337.51	414.25
337.738	435.25
337.966	414.25
338.194	430.25
338.422	441.25
338.65	402.25
338.878	390.25
339.106	393.25
339.334	412.25
339.562	394.25
339.79	397.25
340.018	413.25
340.246	414.25
340.474	433.25
340.702	403.25
340.93	394.25
341.158	392.25
341.386	382.25
341.614	406.25
341.842	408.25
342.07	399.25
342.298	416.25
342.526	414.25
342.754	406.25
342.981	374.25
343.209	374.25
343.437	402.25
343.665	387.25
343.893	398.25
344.12	419.25
344.348	413.25
344.576	422.25
344.804	420.25
345.031	428.25
345.259	428.25
345.487	432.25
345.714	412.25
345.942	414.25
346.17	413.25
346.397	395.25
346.625	405.25
346.853	399.25
347.08	410.25
347.308	390.25
347.535	412.25
347.763	417.25
347.99	413.25
348.218	391.25
348.445	397.25
348.673	404.25
348.9	388.25
349.128	384.25
349.355	387.25
349.583	377.25
349.81	385.25
350.037	384.25
350.265	384.25
350.492	377.25
350.72	389.25
350.947	389.25
351.174	378.25
351.402	402.25
351.629	391.25
351.856	426.25
352.083	407.25
352.311	418.25
352.538	427.25
352.765	414.25
352.992	406.25
353.22	395.25
353.447	408.25
353.674	378.25
353.901	375.25
354.128	379.25
354.355	395.25
354.583	361.25
354.81	368.25
355.037	368.25
355.264	346.25
355.491	350.25
355.718	359.25
355.945	354.25
356.172	358.25
356.399	357.25
356.626	350.25
356.853	355.25
357.08	354.25
357.307	356.25
357.534	365.25
357.761	360.25
357.988	348.25
358.215	341.25
358.441	357.25
358.668	374.25
358.895	373.25
359.122	382.25
359.349	377.25
359.576	395.25
359.802	404.25
360.029	462.25
360.256	486.25
360.483	440.25
360.709	396.25
360.936	398.25
361.163	392.25
361.39	404.25
361.616	408.25
361.843	378.25
362.07	386.25
362.296	406.25
362.523	379.25
362.749	390.25
362.976	365.25
363.203	372.25
363.429	366.25
363.656	371.25
363.882	374.25
364.109	369.25
364.335	369.25
364.562	387.25
364.788	371.25
365.015	387.25
365.241	363.25
365.468	384.25
365.694	388.25
365.92	384.25
366.147	380.25
366.373	384.25
366.599	382.25
366.826	370.25
367.052	362.25
367.278	352.25
367.505	374.25
367.731	374.25
367.957	363.25
368.184	365.25
368.41	369.25
368.636	376.25
368.862	369.25
369.089	392.25
369.315	368.25
369.541	362.25
369.767	348.25
369.993	373.25
370.219	363.25
370.445	360.25
370.672	361.25
370.898	343.25
371.124	357.25
371.35	368.25
371.576	354.25
371.802	376.25
372.028	363.25
372.254	361.25
372.48	355.25
372.706	346.25
372.932	347.25
373.158	348.25
373.384	352.25
373.61	355.25
373.835	353.25
374.061	352.25
374.287	349.25
374.513	358.25
374.739	351.25
374.965	350.25
375.191	378.25
375.416	363.25
375.642	345.25
375.868	358.25
376.094	357.25
376.319	360.25
376.545	359.25
376.771	345.25
376.997	349.25
377.222	371.25
377.448	344.25
377.674	340.25
377.899	349.25
378.125	352.25
378.35	354.25
378.576	344.25
378.802	347.25
379.027	342.25
379.253	357.25
379.478	363.25
379.704	342.25
379.929	353.25
380.155	368.25
380.38	368.25
380.606	364.25
380.831	355.25
381.057	362.25
381.282	328.25
381.507	372.25
381.733	354.25
381.958	348.25
382.184	362.25
382.409	362.25
382.634	356.25
382.86	346.25
383.085	357.25
383.31	362.25
383.535	358.25
383.761	363.25
383.986	350.25
384.211	350.25
384.436	353.25
384.662	369.25
384.887	358.25
385.112	356.25
385.337	369.25
385.562	356.25
385.787	373.25
386.013	388.25
386.238	372.25
386.463	381.25
386.688	376.25
386.913	365.25
387.138	362.25
387.363	389.25
387.588	396.25
387.813	380.25
388.038	356.25
388.263	370.25
388.488	380.25
388.713	371.25
388.938	373.25
389.163	385.25
389.387	377.25
389.612	355.25
389.837	368.25
390.062	370.25
390.287	359.25
390.512	374.25
390.736	376.25
390.961	375.25
391.186	360.25
391.411	378.25
391.636	390.25
391.86	380.25
392.085	392.25
392.31	360.25
392.534	358.25
392.759	382.25
392.984	369.25
393.208	398.25
393.433	377.25
393.658	392.25
393.882	369.25
394.107	370.25
394.331	374.25
394.556	386.25
394.78	375.25
395.005	369.25
395.229	382.25
395.454	389.25
395.678	388.25
395.903	408.25
396.127	432.25
396.352	433.25
396.576	420.25
396.801	390.25
397.025	393.25
397.249	401.25
397.474	398.25
397.698	405.25
397.922	400.25
398.147	454.25
398.371	444.25
398.595	429.25
398.82	418.25
399.044	414.25
399.268	426.25
399.492	449.25
399.717	469.25
399.941	478.25
400.165	521.25
400.389	517.25
400.613	491.25
400.837	464.25
401.062	438.25
401.286	434.25
401.51	428.25
401.734	409.25
401.958	416.25
402.182	444.25
402.406	449.25
402.63	449.25
402.854	439.25
403.078	438.25
403.302	421.25
403.526	424.25
403.75	446.25
403.974	445.25
404.198	432.25
404.422	449.25
404.645	444.25
404.869	454.25
405.093	490.25
405.317	526.25
405.541	560.25
405.765	496.25
405.988	474.25
406.212	476.25
406.436	523.25
406.66	526.25
406.883	518.25
407.107	530.25
407.331	553.25
407.555	629.25
407.778	638.25
408.002	552.25
408.226	475.25
408.449	486.25
408.673	497.25
408.896	516.25
409.12	578.25
409.344	538.25
409.567	493.25
409.791	473.25
410.014	445.25
410.238	444.25
410.461	422.25
410.685	448.25
410.908	462.25
411.132	501.25
411.355	547.25
411.578	526.25
411.802	474.25
412.025	462.25
412.249	450.25
412.472	484.25
412.695	551.25
412.919	502.25
413.142	469.25
413.365	463.25
413.589	458.25
413.812	443.25
414.035	428.25
414.258	437.25
414.482	423.25
414.705	410.25
414.928	421.25
415.151	411.25
415.374	407.25
415.597	412.25
415.821	421.25
416.044	422.25
416.267	413.25
416.49	401.25
416.713	418.25
416.936	430.25
417.159	420.25
417.382	419.25
417.605	446.25
417.828	432.25
418.051	430.25
418.274	448.25
418.497	413.25
418.72	405.25
418.943	419.25
419.166	440.25
419.389	456.25
419.611	425.25
419.834	429.25
420.057	457.25
420.28	443.25
420.503	454.25
420.726	454.25
420.948	461.25
421.171	499.25
421.394	548.25
421.617	472.25
421.839	460.25
422.062	449.25
422.285	452.25
422.507	542.25
422.73	606.25
422.953	598.25
423.175	495.25
423.398	472.25
423.621	458.25
423.843	495.25
424.066	496.25
424.288	500.25
424.511	529.25
424.733	577.25
424.956	652.25
425.178	619.25
425.401	641.25
425.623	632.25
425.846	541.25
426.068	496.25
426.291	505.25
426.513	506.25
426.735	498.25
426.958	565.25
427.18	654.25
427.402	770.25
427.625	844.25
427.847	763.25
428.069	665.25
428.292	566.25
428.514	516.25
428.736	497.25
428.958	457.25
429.181	454.25
429.403	453.25
429.625	467.25
429.847	501.25
430.069	555.25
430.292	556.25
430.514	482.25
430.736	463.25
430.958	451.25
431.18	423.25
431.402	426.25
431.624	441.25
431.846	422.25
432.068	420.25
432.29	413.25
432.512	448.25
432.734	438.25
432.956	445.25
433.178	432.25
433.4	456.25
433.622	446.25
433.844	444.25
434.066	431.25
434.287	443.25
434.509	411.25
434.731	435.25
434.953	433.25
435.175	448.25
435.397	485.25
435.618	504.25
435.84	545.25
436.062	664.25
436.284	730.25
436.505	581.25
436.727	539.25
436.949	490.25
437.17	478.25
437.392	460.25
437.614	480.25
437.835	513.25
438.057	638.25
438.278	717.25
438.5	730.25
438.721	762.25
438.943	765.25
439.165	591.25
439.386	519.25
439.608	543.25
439.829	510.25
440.05	576.25
440.272	605.25
440.493	579.25
440.715	512.25
440.936	473.25
441.158	470.25
441.379	477.25
441.6	472.25
441.822	485.25
442.043	568.25
442.264	622.25
442.486	680.25
442.707	589.25
442.928	499.25
443.149	524.25
443.371	564.25
443.592	606.25
443.813	682.25
444.034	771.25
444.255	611.25
444.476	525.25
444.698	504.25
444.919	499.25
445.14	604.25
445.361	554.25
445.582	564.25
445.803	626.25
446.024	733.25
446.245	772.25
446.466	683.25
446.687	574.25
446.908	530.25
447.129	517.25
447.35	460.25
447.571	466.25
447.792	461.25
448.013	437.25
448.234	503.25
448.455	541.25
448.675	650.25
448.896	780.25
449.117	659.25
449.338	626.25
449.559	723.25
449.779	826.25
450	632.25
450.221	549.25
450.442	478.25
450.662	476.25
450.883	463.25
451.104	493.25
451.324	496.25
451.545	472.25
451.766	418.25
451.986	411.25
452.207	433.25
452.428	410.25
452.648	419.25
452.869	405.25
453.089	430.25
453.31	440.25
453.53	426.25
453.751	407.25
453.971	416.25
454.192	440.25
454.412	439.25
454.633	441.25
454.853	410.25
455.073	421.25
455.294	461.25
455.514	522.25
455.734	511.25
455.955	419.25
456.175	392.25
456.395	381.25
456.616	373.25
456.836	381.25
457.056	387.25
457.276	374.25
457.497	392.25
457.717	388.25
457.937	410.25
458.157	404.25
458.377	409.25
458.598	417.25
458.818	495.25
459.038	571.25
459.258	618.25
459.478	521.25
459.698	444.25
459.918	434.25
460.138	426.25
460.358	432.25
460.578	402.25
460.798	420.25
461.018	422.25
461.238	425.25
461.458	408.25
461.678	415.25
461.898	414.25
462.118	432.25
462.338	428.25
462.558	426.25
462.777	408.25
462.997	426.25
463.217	430.25
463.437	433.25
463.657	463.25
463.876	445.25
464.096	441.25
464.316	429.25
464.536	433.25
464.755	458.25
464.975	475.25
465.195	534.25
465.414	607.25
465.634	514.25
465.854	483.25
466.073	453.25
466.293	445.25
466.512	448.25
466.732	428.25
466.951	397.25
467.171	401.25
467.391	412.25
467.61	419.25
467.829	456.25
468.049	435.25
468.268	444.25
468.488	420.25
468.707	396.25
468.927	402.25
469.146	412.25
469.365	410.25
469.585	408.25
469.804	419.25
470.023	450.25
470.243	434.25
470.462	445.25
470.681	462.25
470.901	442.25
471.12	439.25
471.339	422.25
471.558	423.25
471.777	420.25
471.997	409.25
472.216	434.25
472.435	482.25
472.654	490.25
472.873	436.25
473.092	418.25
473.311	419.25
473.53	433.25
473.749	448.25
473.968	473.25
474.187	607.25
474.406	640.25
474.625	492.25
474.844	456.25
475.063	457.25
475.282	439.25
475.501	439.25
475.72	409.25
475.939	432.25
476.158	434.25
476.377	438.25
476.596	454.25
476.814	435.25
477.033	451.25
477.252	445.25
477.471	447.25
477.69	447.25
477.908	441.25
478.127	450.25
478.346	461.25
478.564	470.25
478.783	461.25
479.002	472.25
479.22	482.25
479.439	482.25
479.658	514.25
479.876	536.25
480.095	516.25
480.313	547.25
480.532	517.25
480.751	492.25
480.969	539.25
481.188	612.25
481.406	673.25
481.624	570.25
481.843	536.25
482.061	529.25
482.28	543.25
482.498	499.25
482.717	483.25
482.935	490.25
483.153	504.25
483.372	499.25
483.59	505.25
483.808	491.25
484.027	489.25
484.245	500.25
484.463	510.25
484.681	518.25
484.9	524.25
485.118	505.25
485.336	522.25
485.554	518.25
485.772	526.25
485.99	520.25
486.209	506.25
486.427	546.25
486.645	527.25
486.863	551.25
487.081	534.25
487.299	557.25
487.517	564.25
487.735	561.25
487.953	524.25
488.171	544.25
488.389	514.25
488.607	540.25
488.825	539.25
489.043	536.25
489.261	551.25
489.479	576.25
489.696	548.25
489.914	566.25
490.132	547.25
490.35	564.25
490.568	547.25
490.786	574.25
491.003	579.25
491.221	585.25
491.439	597.25
491.657	620.25
491.874	609.25
492.092	604.25
492.31	628.25
492.527	637.25
492.745	645.25
492.963	639.25
493.18	628.25
493.398	616.25
493.615	648.25
493.833	654.25
494.05	665.25
494.268	614.25
494.485	634.25
494.703	628.25
494.92	630.25
495.138	629.25
495.355	633.25
495.573	641.25
495.79	643.25
496.008	656.25
496.225	624.25
496.442	627.25
496.66	632.25
496.877	640.25
497.094	647.25
497.312	675.25
497.529	642.25
497.746	671.25
497.963	670.25
498.181	697.25
498.398	725.25
498.615	669.25
498.832	720.25
499.049	715.25
499.267	714.25
499.484	717.25
499.701	716.25
499.918	754.25
500.135	767.25
500.352	774.25
500.569	788.25
500.786	780.25
501.003	799.25
501.22	789.25
501.437	784.25
501.654	782.25
501.871	804.25
