Data from 1972.PennyLincolnUp.Lamp.En5.5.200Scan.071719.P1._HRD10591_15-27-08-843.txt Node
Date: Thu Jul 18 15:27:08 EDT 2019
User: cochatt
Spectrometer: HR+D1059
Trigger mode: 1
Integration Time (sec): 1.000000E-1
Scans to average: 1
Electric dark correction enabled: true
Nonlinearity correction enabled: false
Boxcar width: 0
XAxis mode: Wavelengths
Number of Pixels in Spectrum: 2048
>>>>>Begin Spectral Data<<<<<
223.165	-20.25
223.4	-20.25
223.635	-20.25
223.869	-4.25
224.104	-26.25
224.338	-9.25
224.573	-18.25
224.808	-23.25
225.042	-13.25
225.277	-3.25
225.511	12.75
225.746	10.75
225.98	-5.25
226.215	14.75
226.449	16.75
226.683	14.75
226.918	23.75
227.152	29.75
227.387	33.75
227.621	35.75
227.856	51.75
228.09	55.75
228.324	54.75
228.559	50.75
228.793	48.75
229.027	82.75
229.262	90.75
229.496	99.75
229.73	122.75
229.964	139.75
230.199	127.75
230.433	109.75
230.667	95.75
230.901	114.75
231.136	98.75
231.37	105.75
231.604	93.75
231.838	121.75
232.072	118.75
232.306	120.75
232.541	104.75
232.775	107.75
233.009	109.75
233.243	106.75
233.477	106.75
233.711	114.75
233.945	116.75
234.179	102.75
234.413	120.75
234.647	108.75
234.881	116.75
235.115	118.75
235.349	120.75
235.583	105.75
235.817	114.75
236.051	111.75
236.285	114.75
236.519	136.75
236.753	130.75
236.987	143.75
237.221	166.75
237.455	222.75
237.689	170.75
237.922	128.75
238.156	123.75
238.39	120.75
238.624	126.75
238.858	125.75
239.091	114.75
239.325	110.75
239.559	123.75
239.793	117.75
240.027	126.75
240.26	134.75
240.494	145.75
240.728	149.75
240.961	128.75
241.195	138.75
241.429	126.75
241.662	114.75
241.896	136.75
242.13	131.75
242.363	118.75
242.597	129.75
242.83	127.75
243.064	135.75
243.298	125.75
243.531	127.75
243.765	115.75
243.998	135.75
244.232	133.75
244.465	131.75
244.699	133.75
244.932	141.75
245.166	133.75
245.399	143.75
245.633	129.75
245.866	138.75
246.099	142.75
246.333	136.75
246.566	146.75
246.8	134.75
247.033	146.75
247.266	158.75
247.5	156.75
247.733	159.75
247.966	159.75
248.2	168.75
248.433	175.75
248.666	161.75
248.899	147.75
249.133	167.75
249.366	201.75
249.599	203.75
249.832	172.75
250.066	175.75
250.299	172.75
250.532	180.75
250.765	180.75
250.998	203.75
251.231	204.75
251.465	212.75
251.698	191.75
251.931	186.75
252.164	181.75
252.397	181.75
252.63	187.75
252.863	199.75
253.096	202.75
253.329	202.75
253.562	232.75
253.795	194.75
254.028	196.75
254.261	211.75
254.494	218.75
254.727	234.75
254.96	237.75
255.193	246.75
255.426	218.75
255.659	217.75
255.892	220.75
256.124	227.75
256.357	219.75
256.59	204.75
256.823	200.75
257.056	201.75
257.289	195.75
257.521	196.75
257.754	203.75
257.987	181.75
258.22	183.75
258.452	195.75
258.685	187.75
258.918	191.75
259.151	205.75
259.383	204.75
259.616	201.75
259.849	207.75
260.081	217.75
260.314	211.75
260.547	254.75
260.779	219.75
261.012	216.75
261.244	206.75
261.477	206.75
261.71	207.75
261.942	220.75
262.175	220.75
262.407	200.75
262.64	197.75
262.872	199.75
263.105	193.75
263.337	206.75
263.57	193.75
263.802	190.75
264.035	187.75
264.267	195.75
264.499	172.75
264.732	198.75
264.964	196.75
265.197	212.75
265.429	196.75
265.661	201.75
265.894	203.75
266.126	202.75
266.358	200.75
266.591	194.75
266.823	194.75
267.055	207.75
267.287	203.75
267.52	200.75
267.752	199.75
267.984	219.75
268.216	214.75
268.448	209.75
268.681	198.75
268.913	215.75
269.145	217.75
269.377	253.75
269.609	231.75
269.841	235.75
270.073	224.75
270.306	234.75
270.538	279.75
270.77	269.75
271.002	276.75
271.234	266.75
271.466	260.75
271.698	295.75
271.93	277.75
272.162	290.75
272.394	274.75
272.626	263.75
272.858	262.75
273.09	265.75
273.322	243.75
273.553	244.75
273.785	236.75
274.017	229.75
274.249	227.75
274.481	224.75
274.713	240.75
274.945	253.75
275.176	234.75
275.408	240.75
275.64	225.75
275.872	236.75
276.104	231.75
276.335	254.75
276.567	231.75
276.799	261.75
277.031	278.75
277.262	275.75
277.494	277.75
277.726	272.75
277.957	265.75
278.189	254.75
278.421	229.75
278.652	247.75
278.884	232.75
279.115	248.75
279.347	237.75
279.579	236.75
279.81	244.75
280.042	239.75
280.273	230.75
280.505	242.75
280.736	239.75
280.968	219.75
281.199	232.75
281.431	234.75
281.662	246.75
281.894	244.75
282.125	218.75
282.356	246.75
282.588	265.75
282.819	258.75
283.051	251.75
283.282	220.75
283.513	227.75
283.745	239.75
283.976	231.75
284.207	252.75
284.439	244.75
284.67	251.75
284.901	258.75
285.132	252.75
285.364	237.75
285.595	237.75
285.826	244.75
286.057	249.75
286.288	245.75
286.52	240.75
286.751	257.75
286.982	250.75
287.213	263.75
287.444	245.75
287.675	253.75
287.906	272.75
288.138	272.75
288.369	263.75
288.6	262.75
288.831	259.75
289.062	253.75
289.293	278.75
289.524	238.75
289.755	227.75
289.986	241.75
290.217	256.75
290.448	244.75
290.679	234.75
290.91	244.75
291.141	242.75
291.371	257.75
291.602	254.75
291.833	260.75
292.064	235.75
292.295	244.75
292.526	246.75
292.757	235.75
292.987	263.75
293.218	231.75
293.449	251.75
293.68	242.75
293.91	258.75
294.141	237.75
294.372	270.75
294.603	257.75
294.833	251.75
295.064	267.75
295.295	246.75
295.525	258.75
295.756	258.75
295.987	259.75
296.217	283.75
296.448	276.75
296.679	256.75
296.909	272.75
297.14	240.75
297.37	271.75
297.601	245.75
297.831	264.75
298.062	257.75
298.292	250.75
298.523	249.75
298.753	258.75
298.984	269.75
299.214	283.75
299.445	250.75
299.675	262.75
299.905	265.75
300.136	269.75
300.366	266.75
300.597	255.75
300.827	276.75
301.057	282.75
301.288	270.75
301.518	276.75
301.748	258.75
301.979	279.75
302.209	284.75
302.439	264.75
302.669	291.75
302.9	276.75
303.13	285.75
303.36	288.75
303.59	295.75
303.82	284.75
304.051	301.75
304.281	293.75
304.511	295.75
304.741	282.75
304.971	281.75
305.201	280.75
305.431	270.75
305.661	301.75
305.891	309.75
306.121	274.75
306.352	304.75
306.582	276.75
306.812	286.75
307.042	287.75
307.272	300.75
307.502	293.75
307.731	296.75
307.961	284.75
308.191	287.75
308.421	282.75
308.651	282.75
308.881	277.75
309.111	292.75
309.341	312.75
309.571	326.75
309.8	303.75
310.03	313.75
310.26	329.75
310.49	323.75
310.72	324.75
310.949	335.75
311.179	348.75
311.409	356.75
311.639	325.75
311.868	329.75
312.098	337.75
312.328	329.75
312.557	344.75
312.787	341.75
313.017	358.75
313.246	328.75
313.476	330.75
313.706	318.75
313.935	316.75
314.165	327.75
314.394	354.75
314.624	356.75
314.853	341.75
315.083	333.75
315.312	332.75
315.542	331.75
315.771	311.75
316.001	336.75
316.23	317.75
316.46	312.75
316.689	337.75
316.919	348.75
317.148	322.75
317.377	354.75
317.607	321.75
317.836	348.75
318.065	310.75
318.295	319.75
318.524	338.75
318.753	322.75
318.983	347.75
319.212	314.75
319.441	334.75
319.67	354.75
319.9	325.75
320.129	325.75
320.358	339.75
320.587	345.75
320.816	335.75
321.046	346.75
321.275	346.75
321.504	345.75
321.733	336.75
321.962	342.75
322.191	343.75
322.42	389.75
322.649	390.75
322.878	412.75
323.108	412.75
323.337	404.75
323.566	442.75
323.795	474.75
324.024	531.75
324.253	623.75
324.482	873.75
324.71	1380.75
324.939	2029.75
325.168	1736.75
325.397	885.75
325.626	612.75
325.855	493.75
326.084	480.75
326.313	439.75
326.542	451.75
326.77	500.75
326.999	573.75
327.228	779.75
327.457	1204.75
327.686	1526.75
327.914	998.75
328.143	649.75
328.372	553.75
328.6	516.75
328.829	524.75
329.058	511.75
329.287	529.75
329.515	477.75
329.744	454.75
329.972	478.75
330.201	484.75
330.43	468.75
330.658	509.75
330.887	545.75
331.115	538.75
331.344	445.75
331.572	414.75
331.801	424.75
332.03	431.75
332.258	394.75
332.486	402.75
332.715	381.75
332.943	398.75
333.172	384.75
333.4	376.75
333.629	389.75
333.857	411.75
334.085	420.75
334.314	434.75
334.542	469.75
334.771	456.75
334.999	421.75
335.227	407.75
335.455	378.75
335.684	393.75
335.912	374.75
336.14	366.75
336.369	379.75
336.597	402.75
336.825	381.75
337.053	363.75
337.281	356.75
337.51	372.75
337.738	363.75
337.966	372.75
338.194	360.75
338.422	366.75
338.65	370.75
338.878	373.75
339.106	350.75
339.334	355.75
339.562	342.75
339.79	358.75
340.018	372.75
340.246	386.75
340.474	379.75
340.702	387.75
340.93	371.75
341.158	363.75
341.386	371.75
341.614	359.75
341.842	362.75
342.07	362.75
342.298	371.75
342.526	356.75
342.754	342.75
342.981	355.75
343.209	337.75
343.437	360.75
343.665	353.75
343.893	366.75
344.12	368.75
344.348	363.75
344.576	354.75
344.804	367.75
345.031	388.75
345.259	381.75
345.487	372.75
345.714	367.75
345.942	386.75
346.17	356.75
346.397	376.75
346.625	347.75
346.853	352.75
347.08	346.75
347.308	364.75
347.535	368.75
347.763	386.75
347.99	365.75
348.218	365.75
348.445	370.75
348.673	366.75
348.9	350.75
349.128	343.75
349.355	343.75
349.583	339.75
349.81	368.75
350.037	360.75
350.265	355.75
350.492	361.75
350.72	343.75
350.947	327.75
351.174	361.75
351.402	360.75
351.629	353.75
351.856	350.75
352.083	367.75
352.311	375.75
352.538	368.75
352.765	378.75
352.992	359.75
353.22	388.75
353.447	357.75
353.674	351.75
353.901	350.75
354.128	337.75
354.355	333.75
354.583	340.75
354.81	330.75
355.037	316.75
355.264	336.75
355.491	322.75
355.718	337.75
355.945	326.75
356.172	329.75
356.399	314.75
356.626	342.75
356.853	329.75
357.08	340.75
357.307	338.75
357.534	322.75
357.761	347.75
357.988	328.75
358.215	341.75
358.441	340.75
358.668	346.75
358.895	345.75
359.122	331.75
359.349	348.75
359.576	370.75
359.802	382.75
360.029	395.75
360.256	423.75
360.483	378.75
360.709	356.75
360.936	363.75
361.163	358.75
361.39	360.75
361.616	359.75
361.843	351.75
362.07	359.75
362.296	355.75
362.523	343.75
362.749	353.75
362.976	362.75
363.203	358.75
363.429	347.75
363.656	354.75
363.882	336.75
364.109	326.75
364.335	340.75
364.562	330.75
364.788	341.75
365.015	344.75
365.241	336.75
365.468	332.75
365.694	343.75
365.92	331.75
366.147	328.75
366.373	351.75
366.599	338.75
366.826	332.75
367.052	324.75
367.278	331.75
367.505	339.75
367.731	354.75
367.957	338.75
368.184	348.75
368.41	320.75
368.636	337.75
368.862	356.75
369.089	340.75
369.315	346.75
369.541	328.75
369.767	351.75
369.993	330.75
370.219	335.75
370.445	309.75
370.672	322.75
370.898	325.75
371.124	328.75
371.35	333.75
371.576	331.75
371.802	330.75
372.028	332.75
372.254	323.75
372.48	339.75
372.706	331.75
372.932	338.75
373.158	334.75
373.384	334.75
373.61	322.75
373.835	339.75
374.061	314.75
374.287	334.75
374.513	348.75
374.739	310.75
374.965	319.75
375.191	315.75
375.416	338.75
375.642	331.75
375.868	350.75
376.094	347.75
376.319	318.75
376.545	336.75
376.771	346.75
376.997	336.75
377.222	346.75
377.448	330.75
377.674	312.75
377.899	352.75
378.125	344.75
378.35	348.75
378.576	323.75
378.802	317.75
379.027	312.75
379.253	336.75
379.478	343.75
379.704	339.75
379.929	348.75
380.155	345.75
380.38	330.75
380.606	345.75
380.831	337.75
381.057	333.75
381.282	338.75
381.507	332.75
381.733	365.75
381.958	332.75
382.184	331.75
382.409	333.75
382.634	340.75
382.86	325.75
383.085	350.75
383.31	342.75
383.535	339.75
383.761	336.75
383.986	362.75
384.211	348.75
384.436	354.75
384.662	380.75
384.887	346.75
385.112	357.75
385.337	345.75
385.562	348.75
385.787	340.75
386.013	349.75
386.238	361.75
386.463	363.75
386.688	354.75
386.913	354.75
387.138	343.75
387.363	360.75
387.588	345.75
387.813	364.75
388.038	348.75
388.263	333.75
388.488	336.75
388.713	375.75
388.938	372.75
389.163	356.75
389.387	358.75
389.612	359.75
389.837	332.75
390.062	354.75
390.287	377.75
390.512	336.75
390.736	357.75
390.961	348.75
391.186	348.75
391.411	368.75
391.636	374.75
391.86	362.75
392.085	353.75
392.31	366.75
392.534	364.75
392.759	355.75
392.984	362.75
393.208	345.75
393.433	371.75
393.658	391.75
393.882	371.75
394.107	355.75
394.331	360.75
394.556	360.75
394.78	355.75
395.005	378.75
395.229	366.75
395.454	376.75
395.678	375.75
395.903	370.75
396.127	412.75
396.352	411.75
396.576	402.75
396.801	382.75
397.025	396.75
397.249	367.75
397.474	377.75
397.698	378.75
397.922	388.75
398.147	416.75
398.371	380.75
398.595	400.75
398.82	385.75
399.044	398.75
399.268	400.75
399.492	427.75
399.717	431.75
399.941	458.75
400.165	487.75
400.389	510.75
400.613	452.75
400.837	431.75
401.062	415.75
401.286	414.75
401.51	406.75
401.734	391.75
401.958	400.75
402.182	400.75
402.406	438.75
402.63	438.75
402.854	410.75
403.078	418.75
403.302	406.75
403.526	409.75
403.75	424.75
403.974	391.75
404.198	407.75
404.422	412.75
404.645	392.75
404.869	411.75
405.093	459.75
405.317	480.75
405.541	500.75
405.765	483.75
405.988	455.75
406.212	436.75
406.436	453.75
406.66	472.75
406.883	459.75
407.107	475.75
407.331	502.75
407.555	568.75
407.778	568.75
408.002	517.75
408.226	475.75
408.449	472.75
408.673	472.75
408.896	509.75
409.12	520.75
409.344	521.75
409.567	446.75
409.791	451.75
410.014	415.75
410.238	413.75
410.461	431.75
410.685	423.75
410.908	443.75
411.132	481.75
411.355	501.75
411.578	474.75
411.802	443.75
412.025	398.75
412.249	431.75
412.472	457.75
412.695	490.75
412.919	468.75
413.142	421.75
413.365	412.75
413.589	421.75
413.812	387.75
414.035	400.75
414.258	397.75
414.482	412.75
414.705	392.75
414.928	403.75
415.151	390.75
415.374	386.75
415.597	381.75
415.821	382.75
416.044	391.75
416.267	388.75
416.49	402.75
416.713	403.75
416.936	362.75
417.159	396.75
417.382	406.75
417.605	394.75
417.828	422.75
418.051	420.75
418.274	414.75
418.497	397.75
418.72	408.75
418.943	394.75
419.166	399.75
419.389	422.75
419.611	421.75
419.834	412.75
420.057	421.75
420.28	417.75
420.503	414.75
420.726	405.75
420.948	444.75
421.171	470.75
421.394	483.75
421.617	438.75
421.839	424.75
422.062	425.75
422.285	429.75
422.507	491.75
422.73	539.75
422.953	536.75
423.175	458.75
423.398	421.75
423.621	451.75
423.843	450.75
424.066	459.75
424.288	440.75
424.511	480.75
424.733	502.75
424.956	582.75
425.178	554.75
425.401	568.75
425.623	581.75
425.846	494.75
426.068	462.75
426.291	451.75
426.513	446.75
426.735	448.75
426.958	504.75
427.18	558.75
427.402	674.75
427.625	757.75
427.847	666.75
428.069	553.75
428.292	518.75
428.514	481.75
428.736	444.75
428.958	444.75
429.181	450.75
429.403	427.75
429.625	436.75
429.847	438.75
430.069	524.75
430.292	514.75
430.514	438.75
430.736	447.75
430.958	425.75
431.18	397.75
431.402	404.75
431.624	390.75
431.846	398.75
432.068	384.75
432.29	386.75
432.512	417.75
432.734	408.75
432.956	418.75
433.178	421.75
433.4	404.75
433.622	384.75
433.844	388.75
434.066	393.75
434.287	384.75
434.509	384.75
434.731	405.75
434.953	414.75
435.175	451.75
435.397	458.75
435.618	443.75
435.84	496.75
436.062	583.75
436.284	639.75
436.505	535.75
436.727	493.75
436.949	456.75
437.17	428.75
437.392	436.75
437.614	443.75
437.835	483.75
438.057	552.75
438.278	628.75
438.5	612.75
438.721	718.75
438.943	680.75
439.165	532.75
439.386	483.75
439.608	483.75
439.829	467.75
440.05	485.75
440.272	561.75
440.493	522.75
440.715	458.75
440.936	422.75
441.158	428.75
441.379	419.75
441.6	454.75
441.822	454.75
442.043	482.75
442.264	574.75
442.486	628.75
442.707	514.75
442.928	470.75
443.149	469.75
443.371	474.75
443.592	548.75
443.813	597.75
444.034	650.75
444.255	549.75
444.476	482.75
444.698	463.75
444.919	464.75
445.14	556.75
445.361	515.75
445.582	513.75
445.803	559.75
446.024	654.75
446.245	652.75
446.466	602.75
446.687	527.75
446.908	441.75
447.129	441.75
447.35	429.75
447.571	436.75
447.792	425.75
448.013	430.75
448.234	467.75
448.455	482.75
448.675	585.75
448.896	698.75
449.117	586.75
449.338	557.75
449.559	665.75
449.779	725.75
450	595.75
450.221	486.75
450.442	444.75
450.662	418.75
450.883	441.75
451.104	444.75
451.324	437.75
451.545	415.75
451.766	378.75
451.986	377.75
452.207	382.75
452.428	370.75
452.648	392.75
452.869	396.75
453.089	382.75
453.31	387.75
453.53	392.75
453.751	366.75
453.971	372.75
454.192	374.75
454.412	367.75
454.633	388.75
454.853	392.75
455.073	386.75
455.294	407.75
455.514	461.75
455.734	463.75
455.955	381.75
456.175	360.75
456.395	372.75
456.616	364.75
456.836	372.75
457.056	367.75
457.276	357.75
457.497	358.75
457.717	353.75
457.937	333.75
458.157	368.75
458.377	373.75
458.598	398.75
458.818	436.75
459.038	508.75
459.258	518.75
459.478	446.75
459.698	388.75
459.918	394.75
460.138	375.75
460.358	399.75
460.578	388.75
460.798	404.75
461.018	394.75
461.238	404.75
461.458	384.75
461.678	395.75
461.898	390.75
462.118	387.75
462.338	394.75
462.558	398.75
462.777	412.75
462.997	406.75
463.217	403.75
463.437	418.75
463.657	416.75
463.876	414.75
464.096	420.75
464.316	428.75
464.536	429.75
464.755	401.75
464.975	426.75
465.195	474.75
465.414	546.75
465.634	478.75
465.854	444.75
466.073	425.75
466.293	399.75
466.512	411.75
466.732	390.75
466.951	384.75
467.171	379.75
467.391	388.75
467.61	407.75
467.829	398.75
468.049	410.75
468.268	388.75
468.488	385.75
468.707	378.75
468.927	398.75
469.146	386.75
469.365	391.75
469.585	371.75
469.804	373.75
470.023	382.75
470.243	396.75
470.462	414.75
470.681	418.75
470.901	388.75
471.12	370.75
471.339	397.75
471.558	409.75
471.777	390.75
471.997	406.75
472.216	390.75
472.435	439.75
472.654	394.75
472.873	412.75
473.092	381.75
473.311	373.75
473.53	395.75
473.749	393.75
473.968	456.75
474.187	517.75
474.406	568.75
474.625	457.75
474.844	427.75
475.063	406.75
475.282	385.75
475.501	390.75
475.72	391.75
475.939	409.75
476.158	388.75
476.377	409.75
476.596	402.75
476.814	423.75
477.033	418.75
477.252	419.75
477.471	416.75
477.69	422.75
477.908	431.75
478.127	438.75
478.346	422.75
478.564	440.75
478.783	433.75
479.002	429.75
479.22	451.75
479.439	457.75
479.658	472.75
479.876	473.75
480.095	477.75
480.313	488.75
480.532	489.75
480.751	460.75
480.969	493.75
481.188	548.75
481.406	592.75
481.624	515.75
481.843	487.75
482.061	481.75
482.28	448.75
482.498	438.75
482.717	461.75
482.935	476.75
483.153	465.75
483.372	441.75
483.59	465.75
483.808	460.75
484.027	431.75
484.245	463.75
484.463	446.75
484.681	457.75
484.9	464.75
485.118	454.75
485.336	473.75
485.554	478.75
485.772	457.75
485.99	473.75
486.209	496.75
486.427	462.75
486.645	505.75
486.863	521.75
487.081	502.75
487.299	486.75
487.517	495.75
487.735	495.75
487.953	488.75
488.171	505.75
488.389	503.75
488.607	504.75
488.825	479.75
489.043	495.75
489.261	515.75
489.479	518.75
489.696	520.75
489.914	503.75
490.132	520.75
490.35	503.75
490.568	521.75
490.786	521.75
491.003	534.75
491.221	526.75
491.439	544.75
491.657	548.75
491.874	575.75
492.092	568.75
492.31	544.75
492.527	558.75
492.745	558.75
492.963	548.75
493.18	601.75
493.398	571.75
493.615	571.75
493.833	580.75
494.05	592.75
494.268	582.75
494.485	567.75
494.703	564.75
494.92	570.75
495.138	577.75
495.355	582.75
495.573	579.75
495.79	582.75
496.008	594.75
496.225	565.75
496.442	594.75
496.66	602.75
496.877	590.75
497.094	592.75
497.312	591.75
497.529	602.75
497.746	611.75
497.963	608.75
498.181	614.75
498.398	618.75
498.615	616.75
498.832	662.75
499.049	637.75
499.267	653.75
499.484	677.75
499.701	685.75
499.918	695.75
500.135	711.75
500.352	720.75
500.569	747.75
500.786	762.75
501.003	740.75
501.22	739.75
501.437	734.75
501.654	731.75
501.871	715.75
502.088	698.75
