Data from 1972.PennyLincolnUp.Lamp.En5.5.200Scan.071719.P1._HRD10591_15-26-58-843.txt Node
Date: Thu Jul 18 15:26:58 EDT 2019
User: cochatt
Spectrometer: HR+D1059
Trigger mode: 1
Integration Time (sec): 1.000000E-1
Scans to average: 1
Electric dark correction enabled: true
Nonlinearity correction enabled: false
Boxcar width: 0
XAxis mode: Wavelengths
Number of Pixels in Spectrum: 2048
>>>>>Begin Spectral Data<<<<<
223.165	-8.75
223.4	-8.75
223.635	-8.75
223.869	-3.75
224.104	-3.75
224.338	-16.75
224.573	-15.75
224.808	-16.75
225.042	-8.75
225.277	-16.75
225.511	-0.75
225.746	10.25
225.98	-0.75
226.215	-3.75
226.449	20.25
226.683	22.25
226.918	18.25
227.152	25.25
227.387	18.25
227.621	32.25
227.856	42.25
228.09	46.25
228.324	50.25
228.559	50.25
228.793	51.25
229.027	79.25
229.262	106.25
229.496	91.25
229.73	108.25
229.964	121.25
230.199	112.25
230.433	98.25
230.667	94.25
230.901	95.25
231.136	97.25
231.37	97.25
231.604	90.25
231.838	96.25
232.072	87.25
232.306	81.25
232.541	84.25
232.775	101.25
233.009	86.25
233.243	94.25
233.477	98.25
233.711	92.25
233.945	111.25
234.179	102.25
234.413	117.25
234.647	111.25
234.881	104.25
235.115	99.25
235.349	95.25
235.583	110.25
235.817	96.25
236.051	111.25
236.285	115.25
236.519	99.25
236.753	122.25
236.987	116.25
237.221	146.25
237.455	183.25
237.689	148.25
237.922	124.25
238.156	103.25
238.39	103.25
238.624	97.25
238.858	102.25
239.091	109.25
239.325	105.25
239.559	111.25
239.793	119.25
240.027	118.25
240.26	122.25
240.494	124.25
240.728	123.25
240.961	121.25
241.195	124.25
241.429	123.25
241.662	122.25
241.896	111.25
242.13	109.25
242.363	120.25
242.597	128.25
242.83	125.25
243.064	119.25
243.298	122.25
243.531	105.25
243.765	126.25
243.998	120.25
244.232	120.25
244.465	130.25
244.699	129.25
244.932	111.25
245.166	111.25
245.399	130.25
245.633	117.25
245.866	129.25
246.099	130.25
246.333	122.25
246.566	138.25
246.8	140.25
247.033	137.25
247.266	138.25
247.5	145.25
247.733	147.25
247.966	138.25
248.2	144.25
248.433	150.25
248.666	140.25
248.899	152.25
249.133	154.25
249.366	176.25
249.599	174.25
249.832	155.25
250.066	131.25
250.299	159.25
250.532	162.25
250.765	167.25
250.998	171.25
251.231	178.25
251.465	185.25
251.698	186.25
251.931	158.25
252.164	181.25
252.397	169.25
252.63	174.25
252.863	200.25
253.096	183.25
253.329	199.25
253.562	197.25
253.795	172.25
254.028	187.25
254.261	188.25
254.494	179.25
254.727	208.25
254.96	216.25
255.193	223.25
255.426	201.25
255.659	195.25
255.892	207.25
256.124	207.25
256.357	206.25
256.59	188.25
256.823	172.25
257.056	186.25
257.289	180.25
257.521	180.25
257.754	175.25
257.987	180.25
258.22	179.25
258.452	187.25
258.685	183.25
258.918	179.25
259.151	194.25
259.383	192.25
259.616	166.25
259.849	192.25
260.081	200.25
260.314	214.25
260.547	202.25
260.779	217.25
261.012	186.25
261.244	178.25
261.477	180.25
261.71	184.25
261.942	187.25
262.175	185.25
262.407	203.25
262.64	175.25
262.872	169.25
263.105	180.25
263.337	182.25
263.57	182.25
263.802	175.25
264.035	187.25
264.267	174.25
264.499	193.25
264.732	192.25
264.964	155.25
265.197	188.25
265.429	185.25
265.661	180.25
265.894	181.25
266.126	184.25
266.358	184.25
266.591	188.25
266.823	190.25
267.055	167.25
267.287	177.25
267.52	186.25
267.752	181.25
267.984	189.25
268.216	201.25
268.448	191.25
268.681	185.25
268.913	172.25
269.145	207.25
269.377	211.25
269.609	208.25
269.841	208.25
270.073	207.25
270.306	215.25
270.538	232.25
270.77	265.25
271.002	241.25
271.234	245.25
271.466	242.25
271.698	242.25
271.93	267.25
272.162	230.25
272.394	248.25
272.626	238.25
272.858	238.25
273.09	234.25
273.322	222.25
273.553	220.25
273.785	225.25
274.017	219.25
274.249	219.25
274.481	204.25
274.713	225.25
274.945	206.25
275.176	225.25
275.408	225.25
275.64	212.25
275.872	211.25
276.104	198.25
276.335	210.25
276.567	229.25
276.799	234.25
277.031	244.25
277.262	256.25
277.494	235.25
277.726	233.25
277.957	220.25
278.189	220.25
278.421	208.25
278.652	224.25
278.884	222.25
279.115	210.25
279.347	207.25
279.579	203.25
279.81	217.25
280.042	207.25
280.273	208.25
280.505	212.25
280.736	213.25
280.968	214.25
281.199	233.25
281.431	228.25
281.662	230.25
281.894	216.25
282.125	216.25
282.356	211.25
282.588	238.25
282.819	230.25
283.051	236.25
283.282	225.25
283.513	214.25
283.745	201.25
283.976	230.25
284.207	219.25
284.439	228.25
284.67	213.25
284.901	210.25
285.132	226.25
285.364	216.25
285.595	211.25
285.826	214.25
286.057	219.25
286.288	216.25
286.52	228.25
286.751	216.25
286.982	207.25
287.213	217.25
287.444	222.25
287.675	215.25
287.906	218.25
288.138	239.25
288.369	234.25
288.6	238.25
288.831	241.25
289.062	236.25
289.293	242.25
289.524	229.25
289.755	247.25
289.986	234.25
290.217	227.25
290.448	219.25
290.679	242.25
290.91	236.25
291.141	232.25
291.371	235.25
291.602	234.25
291.833	222.25
292.064	220.25
292.295	223.25
292.526	211.25
292.757	226.25
292.987	226.25
293.218	222.25
293.449	239.25
293.68	229.25
293.91	215.25
294.141	234.25
294.372	210.25
294.603	227.25
294.833	223.25
295.064	217.25
295.295	235.25
295.525	218.25
295.756	230.25
295.987	235.25
296.217	254.25
296.448	246.25
296.679	234.25
296.909	240.25
297.14	244.25
297.37	254.25
297.601	246.25
297.831	246.25
298.062	234.25
298.292	239.25
298.523	241.25
298.753	231.25
298.984	220.25
299.214	223.25
299.445	228.25
299.675	240.25
299.905	242.25
300.136	251.25
300.366	241.25
300.597	247.25
300.827	239.25
301.057	254.25
301.288	265.25
301.518	251.25
301.748	255.25
301.979	271.25
302.209	242.25
302.439	238.25
302.669	268.25
302.9	259.25
303.13	247.25
303.36	247.25
303.59	254.25
303.82	268.25
304.051	264.25
304.281	246.25
304.511	260.25
304.741	253.25
304.971	248.25
305.201	259.25
305.431	266.25
305.661	256.25
305.891	242.25
306.121	266.25
306.352	253.25
306.582	248.25
306.812	262.25
307.042	247.25
307.272	247.25
307.502	235.25
307.731	274.25
307.961	244.25
308.191	252.25
308.421	281.25
308.651	268.25
308.881	262.25
309.111	266.25
309.341	256.25
309.571	288.25
309.8	272.25
310.03	267.25
310.26	292.25
310.49	302.25
310.72	312.25
310.949	292.25
311.179	294.25
311.409	293.25
311.639	283.25
311.868	299.25
312.098	284.25
312.328	279.25
312.557	289.25
312.787	314.25
313.017	321.25
313.246	307.25
313.476	287.25
313.706	286.25
313.935	292.25
314.165	305.25
314.394	296.25
314.624	304.25
314.853	292.25
315.083	295.25
315.312	286.25
315.542	292.25
315.771	284.25
316.001	281.25
316.23	284.25
316.46	276.25
316.689	281.25
316.919	291.25
317.148	303.25
317.377	303.25
317.607	296.25
317.836	295.25
318.065	297.25
318.295	303.25
318.524	295.25
318.753	282.25
318.983	284.25
319.212	281.25
319.441	282.25
319.67	310.25
319.9	300.25
320.129	299.25
320.358	315.25
320.587	283.25
320.816	312.25
321.046	323.25
321.275	323.25
321.504	296.25
321.733	295.25
321.962	313.25
322.191	331.25
322.42	345.25
322.649	335.25
322.878	342.25
323.108	369.25
323.337	376.25
323.566	389.25
323.795	422.25
324.024	436.25
324.253	514.25
324.482	719.25
324.71	1111.25
324.939	1652.25
325.168	1482.25
325.397	746.25
325.626	486.25
325.855	424.25
326.084	389.25
326.313	391.25
326.542	390.25
326.77	422.25
326.999	492.25
327.228	666.25
327.457	1007.25
327.686	1263.25
327.914	830.25
328.143	564.25
328.372	473.25
328.6	447.25
328.829	410.25
329.058	411.25
329.287	419.25
329.515	414.25
329.744	394.25
329.972	389.25
330.201	387.25
330.43	434.25
330.658	446.25
330.887	458.25
331.115	442.25
331.344	396.25
331.572	374.25
331.801	372.25
332.03	380.25
332.258	371.25
332.486	340.25
332.715	338.25
332.943	351.25
333.172	368.25
333.4	359.25
333.629	342.25
333.857	361.25
334.085	376.25
334.314	374.25
334.542	397.25
334.771	404.25
334.999	370.25
335.227	361.25
335.455	357.25
335.684	363.25
335.912	327.25
336.14	338.25
336.369	334.25
336.597	339.25
336.825	352.25
337.053	327.25
337.281	344.25
337.51	348.25
337.738	336.25
337.966	328.25
338.194	332.25
338.422	338.25
338.65	324.25
338.878	312.25
339.106	327.25
339.334	338.25
339.562	328.25
339.79	337.25
340.018	330.25
340.246	324.25
340.474	339.25
340.702	344.25
340.93	320.25
341.158	333.25
341.386	332.25
341.614	327.25
341.842	308.25
342.07	334.25
342.298	330.25
342.526	351.25
342.754	322.25
342.981	318.25
343.209	323.25
343.437	319.25
343.665	322.25
343.893	347.25
344.12	320.25
344.348	350.25
344.576	339.25
344.804	340.25
345.031	349.25
345.259	340.25
345.487	336.25
345.714	335.25
345.942	312.25
346.17	337.25
346.397	339.25
346.625	321.25
346.853	320.25
347.08	315.25
347.308	336.25
347.535	332.25
347.763	338.25
347.99	320.25
348.218	339.25
348.445	318.25
348.673	304.25
348.9	324.25
349.128	321.25
349.355	309.25
349.583	297.25
349.81	326.25
350.037	310.25
350.265	313.25
350.492	299.25
350.72	297.25
350.947	300.25
351.174	330.25
351.402	312.25
351.629	330.25
351.856	321.25
352.083	322.25
352.311	340.25
352.538	336.25
352.765	332.25
352.992	324.25
353.22	304.25
353.447	329.25
353.674	322.25
353.901	305.25
354.128	313.25
354.355	285.25
354.583	276.25
354.81	312.25
355.037	290.25
355.264	294.25
355.491	299.25
355.718	299.25
355.945	294.25
356.172	290.25
356.399	304.25
356.626	294.25
356.853	298.25
357.08	308.25
357.307	299.25
357.534	295.25
357.761	311.25
357.988	298.25
358.215	305.25
358.441	315.25
358.668	306.25
358.895	278.25
359.122	311.25
359.349	295.25
359.576	306.25
359.802	346.25
360.029	346.25
360.256	374.25
360.483	336.25
360.709	323.25
360.936	335.25
361.163	310.25
361.39	322.25
361.616	320.25
361.843	318.25
362.07	321.25
362.296	321.25
362.523	322.25
362.749	313.25
362.976	307.25
363.203	328.25
363.429	312.25
363.656	305.25
363.882	291.25
364.109	293.25
364.335	316.25
364.562	297.25
364.788	334.25
365.015	317.25
365.241	319.25
365.468	307.25
365.694	305.25
365.92	303.25
366.147	300.25
366.373	336.25
366.599	288.25
366.826	317.25
367.052	286.25
367.278	307.25
367.505	313.25
367.731	311.25
367.957	303.25
368.184	318.25
368.41	322.25
368.636	318.25
368.862	297.25
369.089	305.25
369.315	306.25
369.541	283.25
369.767	280.25
369.993	312.25
370.219	313.25
370.445	323.25
370.672	298.25
370.898	306.25
371.124	291.25
371.35	296.25
371.576	313.25
371.802	311.25
372.028	323.25
372.254	292.25
372.48	298.25
372.706	286.25
372.932	318.25
373.158	286.25
373.384	311.25
373.61	313.25
373.835	302.25
374.061	299.25
374.287	309.25
374.513	308.25
374.739	313.25
374.965	307.25
375.191	311.25
375.416	313.25
375.642	307.25
375.868	290.25
376.094	311.25
376.319	304.25
376.545	324.25
376.771	295.25
376.997	326.25
377.222	319.25
377.448	282.25
377.674	304.25
377.899	302.25
378.125	311.25
378.35	315.25
378.576	308.25
378.802	311.25
379.027	279.25
379.253	302.25
379.478	302.25
379.704	328.25
379.929	324.25
380.155	293.25
380.38	307.25
380.606	293.25
380.831	317.25
381.057	323.25
381.282	315.25
381.507	310.25
381.733	282.25
381.958	319.25
382.184	311.25
382.409	305.25
382.634	325.25
382.86	305.25
383.085	329.25
383.31	307.25
383.535	325.25
383.761	314.25
383.986	306.25
384.211	316.25
384.436	304.25
384.662	338.25
384.887	316.25
385.112	296.25
385.337	330.25
385.562	318.25
385.787	322.25
386.013	324.25
386.238	322.25
386.463	323.25
386.688	319.25
386.913	325.25
387.138	335.25
387.363	331.25
387.588	337.25
387.813	330.25
388.038	314.25
388.263	321.25
388.488	306.25
388.713	323.25
388.938	345.25
389.163	323.25
389.387	309.25
389.612	320.25
389.837	314.25
390.062	343.25
390.287	319.25
390.512	329.25
390.736	324.25
390.961	336.25
391.186	312.25
391.411	321.25
391.636	324.25
391.86	304.25
392.085	327.25
392.31	324.25
392.534	315.25
392.759	332.25
392.984	340.25
393.208	341.25
393.433	339.25
393.658	360.25
393.882	333.25
394.107	319.25
394.331	324.25
394.556	330.25
394.78	318.25
395.005	329.25
395.229	322.25
395.454	332.25
395.678	344.25
395.903	330.25
396.127	344.25
396.352	360.25
396.576	343.25
396.801	342.25
397.025	329.25
397.249	354.25
397.474	351.25
397.698	312.25
397.922	347.25
398.147	366.25
398.371	352.25
398.595	348.25
398.82	355.25
399.044	364.25
399.268	380.25
399.492	391.25
399.717	414.25
399.941	414.25
400.165	440.25
400.389	451.25
400.613	400.25
400.837	377.25
401.062	370.25
401.286	378.25
401.51	363.25
401.734	370.25
401.958	351.25
402.182	374.25
402.406	368.25
402.63	389.25
402.854	368.25
403.078	367.25
403.302	359.25
403.526	384.25
403.75	388.25
403.974	374.25
404.198	381.25
404.422	356.25
404.645	386.25
404.869	374.25
405.093	394.25
405.317	444.25
405.541	474.25
405.765	418.25
405.988	401.25
406.212	409.25
406.436	419.25
406.66	448.25
406.883	415.25
407.107	425.25
407.331	455.25
407.555	504.25
407.778	487.25
408.002	452.25
408.226	433.25
408.449	428.25
408.673	431.25
408.896	432.25
409.12	479.25
409.344	467.25
409.567	401.25
409.791	417.25
410.014	383.25
410.238	382.25
410.461	373.25
410.685	382.25
410.908	397.25
411.132	431.25
411.355	444.25
411.578	422.25
411.802	389.25
412.025	378.25
412.249	377.25
412.472	406.25
412.695	419.25
412.919	442.25
413.142	371.25
413.365	361.25
413.589	370.25
413.812	366.25
414.035	367.25
414.258	368.25
414.482	351.25
414.705	352.25
414.928	359.25
415.151	354.25
415.374	338.25
415.597	353.25
415.821	354.25
416.044	355.25
416.267	384.25
416.49	360.25
416.713	359.25
416.936	355.25
417.159	362.25
417.382	340.25
417.605	338.25
417.828	351.25
418.051	369.25
418.274	370.25
418.497	352.25
418.72	363.25
418.943	348.25
419.166	363.25
419.389	370.25
419.611	384.25
419.834	359.25
420.057	373.25
420.28	366.25
420.503	375.25
420.726	388.25
420.948	395.25
421.171	419.25
421.394	445.25
421.617	394.25
421.839	379.25
422.062	371.25
422.285	415.25
422.507	435.25
422.73	497.25
422.953	461.25
423.175	414.25
423.398	400.25
423.621	388.25
423.843	396.25
424.066	404.25
424.288	403.25
424.511	420.25
424.733	452.25
424.956	526.25
425.178	498.25
425.401	499.25
425.623	501.25
425.846	449.25
426.068	406.25
426.291	420.25
426.513	411.25
426.735	400.25
426.958	434.25
427.18	527.25
427.402	620.25
427.625	673.25
427.847	593.25
428.069	494.25
428.292	457.25
428.514	396.25
428.736	386.25
428.958	379.25
429.181	394.25
429.403	382.25
429.625	404.25
429.847	421.25
430.069	474.25
430.292	465.25
430.514	384.25
430.736	370.25
430.958	366.25
431.18	371.25
431.402	386.25
431.624	355.25
431.846	369.25
432.068	352.25
432.29	358.25
432.512	372.25
432.734	368.25
432.956	374.25
433.178	355.25
433.4	377.25
433.622	352.25
433.844	355.25
434.066	359.25
434.287	355.25
434.509	373.25
434.731	362.25
434.953	378.25
435.175	388.25
435.397	416.25
435.618	417.25
435.84	437.25
436.062	521.25
436.284	566.25
436.505	484.25
436.727	426.25
436.949	387.25
437.17	383.25
437.392	407.25
437.614	411.25
437.835	427.25
438.057	491.25
438.278	583.25
438.5	572.25
438.721	628.25
438.943	634.25
439.165	478.25
439.386	423.25
439.608	407.25
439.829	404.25
440.05	440.25
440.272	473.25
440.493	448.25
440.715	406.25
440.936	382.25
441.158	387.25
441.379	386.25
441.6	381.25
441.822	415.25
442.043	434.25
442.264	477.25
442.486	536.25
442.707	478.25
442.928	418.25
443.149	436.25
443.371	422.25
443.592	486.25
443.813	554.25
444.034	604.25
444.255	482.25
444.476	414.25
444.698	408.25
444.919	412.25
445.14	495.25
445.361	477.25
445.582	459.25
445.803	492.25
446.024	579.25
446.245	584.25
446.466	535.25
446.687	454.25
446.908	419.25
447.129	406.25
447.35	394.25
447.571	392.25
447.792	396.25
448.013	391.25
448.234	409.25
448.455	427.25
448.675	520.25
448.896	631.25
449.117	523.25
449.338	516.25
449.559	580.25
449.779	676.25
450	514.25
450.221	434.25
450.442	400.25
450.662	389.25
450.883	381.25
451.104	406.25
451.324	386.25
451.545	355.25
451.766	347.25
451.986	338.25
452.207	321.25
452.428	339.25
452.648	338.25
452.869	338.25
453.089	349.25
453.31	366.25
453.53	343.25
453.751	354.25
453.971	344.25
454.192	355.25
454.412	354.25
454.633	347.25
454.853	343.25
455.073	333.25
455.294	357.25
455.514	400.25
455.734	411.25
455.955	356.25
456.175	330.25
456.395	315.25
456.616	310.25
456.836	326.25
457.056	322.25
457.276	325.25
457.497	331.25
457.717	314.25
457.937	325.25
458.157	330.25
458.377	331.25
458.598	354.25
458.818	384.25
459.038	448.25
459.258	455.25
459.478	409.25
459.698	364.25
459.918	356.25
460.138	357.25
460.358	345.25
460.578	342.25
460.798	360.25
461.018	378.25
461.238	348.25
461.458	363.25
461.678	354.25
461.898	362.25
462.118	360.25
462.338	368.25
462.558	380.25
462.777	371.25
462.997	363.25
463.217	385.25
463.437	380.25
463.657	357.25
463.876	374.25
464.096	366.25
464.316	386.25
464.536	372.25
464.755	392.25
464.975	379.25
465.195	411.25
465.414	451.25
465.634	397.25
465.854	405.25
466.073	370.25
466.293	371.25
466.512	342.25
466.732	339.25
466.951	343.25
467.171	349.25
467.391	362.25
467.61	339.25
467.829	367.25
468.049	351.25
468.268	347.25
468.488	342.25
468.707	331.25
468.927	345.25
469.146	347.25
469.365	353.25
469.585	344.25
469.804	345.25
470.023	341.25
470.243	355.25
470.462	363.25
470.681	336.25
470.901	352.25
471.12	344.25
471.339	352.25
471.558	340.25
471.777	367.25
471.997	368.25
472.216	350.25
472.435	378.25
472.654	380.25
472.873	356.25
473.092	357.25
473.311	347.25
473.53	355.25
473.749	338.25
473.968	385.25
474.187	463.25
474.406	490.25
474.625	413.25
474.844	373.25
475.063	366.25
475.282	372.25
475.501	379.25
475.72	367.25
475.939	369.25
476.158	370.25
476.377	353.25
476.596	348.25
476.814	378.25
477.033	376.25
477.252	370.25
477.471	350.25
477.69	368.25
477.908	384.25
478.127	366.25
478.346	407.25
478.564	401.25
478.783	400.25
479.002	390.25
479.22	396.25
479.439	380.25
479.658	414.25
479.876	432.25
480.095	427.25
480.313	450.25
480.532	442.25
480.751	439.25
480.969	431.25
481.188	475.25
481.406	487.25
481.624	450.25
481.843	446.25
482.061	420.25
482.28	394.25
482.498	403.25
482.717	422.25
482.935	408.25
483.153	411.25
483.372	425.25
483.59	423.25
483.808	425.25
484.027	420.25
484.245	410.25
484.463	417.25
484.681	425.25
484.9	404.25
485.118	430.25
485.336	432.25
485.554	443.25
485.772	422.25
485.99	430.25
486.209	432.25
486.427	435.25
486.645	448.25
486.863	452.25
487.081	465.25
487.299	444.25
487.517	448.25
487.735	450.25
487.953	444.25
488.171	439.25
488.389	455.25
488.607	450.25
488.825	432.25
489.043	440.25
489.261	452.25
489.479	452.25
489.696	427.25
489.914	450.25
490.132	476.25
490.35	463.25
490.568	479.25
490.786	479.25
491.003	471.25
491.221	499.25
491.439	482.25
491.657	476.25
491.874	488.25
492.092	523.25
492.31	513.25
492.527	504.25
492.745	506.25
492.963	509.25
493.18	501.25
493.398	518.25
493.615	521.25
493.833	484.25
494.05	529.25
494.268	526.25
494.485	510.25
494.703	515.25
494.92	523.25
495.138	525.25
495.355	523.25
495.573	534.25
495.79	532.25
496.008	534.25
496.225	535.25
496.442	524.25
496.66	541.25
496.877	529.25
497.094	548.25
497.312	538.25
497.529	562.25
497.746	538.25
497.963	560.25
498.181	570.25
498.398	551.25
498.615	577.25
498.832	570.25
499.049	588.25
499.267	580.25
499.484	614.25
499.701	629.25
499.918	646.25
500.135	648.25
500.352	696.25
500.569	683.25
500.786	679.25
501.003	677.25
501.22	687.25
501.437	667.25
501.654	666.25
501.871	615.25
502.088	636.25
502.305	595.25
