Data from 1972.PennyLincolnUp.Lamp.En5.5.200Scan.071719.P1._HRD10591_15-28-18-844.txt Node
Date: Thu Jul 18 15:28:18 EDT 2019
User: cochatt
Spectrometer: HR+D1059
Trigger mode: 1
Integration Time (sec): 1.000000E-1
Scans to average: 1
Electric dark correction enabled: true
Nonlinearity correction enabled: false
Boxcar width: 0
XAxis mode: Wavelengths
Number of Pixels in Spectrum: 2048
>>>>>Begin Spectral Data<<<<<
223.165	-12.69
223.4	-12.69
223.635	-12.69
223.869	-20.69
224.104	-21.69
224.338	-23.69
224.573	-14.69
224.808	-12.69
225.042	5.31
225.277	-7.69
225.511	-1.69
225.746	5.31
225.98	-5.69
226.215	13.31
226.449	19.31
226.683	19.31
226.918	29.31
227.152	29.31
227.387	36.31
227.621	51.31
227.856	42.31
228.09	43.31
228.324	47.31
228.559	50.31
228.793	67.31
229.027	105.31
229.262	114.31
229.496	107.31
229.73	113.31
229.964	166.31
230.199	137.31
230.433	123.31
230.667	114.31
230.901	115.31
231.136	110.31
231.37	115.31
231.604	115.31
231.838	121.31
232.072	114.31
232.306	106.31
232.541	109.31
232.775	113.31
233.009	113.31
233.243	110.31
233.477	105.31
233.711	98.31
233.945	115.31
234.179	117.31
234.413	102.31
234.647	109.31
234.881	121.31
235.115	116.31
235.349	117.31
235.583	134.31
235.817	133.31
236.051	117.31
236.285	138.31
236.519	141.31
236.753	137.31
236.987	122.31
237.221	181.31
237.455	247.31
237.689	199.31
237.922	146.31
238.156	125.31
238.39	139.31
238.624	138.31
238.858	127.31
239.091	126.31
239.325	116.31
239.559	111.31
239.793	115.31
240.027	139.31
240.26	134.31
240.494	156.31
240.728	145.31
240.961	143.31
241.195	147.31
241.429	133.31
241.662	137.31
241.896	137.31
242.13	132.31
242.363	134.31
242.597	127.31
242.83	137.31
243.064	129.31
243.298	131.31
243.531	145.31
243.765	139.31
243.998	130.31
244.232	146.31
244.465	125.31
244.699	147.31
244.932	151.31
245.166	142.31
245.399	140.31
245.633	139.31
245.866	142.31
246.099	142.31
246.333	151.31
246.566	157.31
246.8	154.31
247.033	157.31
247.266	149.31
247.5	168.31
247.733	159.31
247.966	170.31
248.2	179.31
248.433	155.31
248.666	180.31
248.899	182.31
249.133	193.31
249.366	212.31
249.599	201.31
249.832	186.31
250.066	193.31
250.299	179.31
250.532	198.31
250.765	206.31
250.998	230.31
251.231	229.31
251.465	211.31
251.698	205.31
251.931	217.31
252.164	204.31
252.397	199.31
252.63	203.31
252.863	206.31
253.096	228.31
253.329	234.31
253.562	242.31
253.795	212.31
254.028	238.31
254.261	213.31
254.494	232.31
254.727	272.31
254.96	297.31
255.193	283.31
255.426	248.31
255.659	235.31
255.892	227.31
256.124	237.31
256.357	242.31
256.59	233.31
256.823	221.31
257.056	217.31
257.289	216.31
257.521	229.31
257.754	208.31
257.987	198.31
258.22	202.31
258.452	205.31
258.685	217.31
258.918	209.31
259.151	214.31
259.383	205.31
259.616	212.31
259.849	226.31
260.081	233.31
260.314	233.31
260.547	231.31
260.779	234.31
261.012	234.31
261.244	219.31
261.477	228.31
261.71	227.31
261.942	223.31
262.175	241.31
262.407	230.31
262.64	212.31
262.872	210.31
263.105	208.31
263.337	188.31
263.57	210.31
263.802	203.31
264.035	221.31
264.267	214.31
264.499	213.31
264.732	212.31
264.964	214.31
265.197	211.31
265.429	207.31
265.661	228.31
265.894	231.31
266.126	239.31
266.358	204.31
266.591	207.31
266.823	202.31
267.055	220.31
267.287	224.31
267.52	228.31
267.752	216.31
267.984	227.31
268.216	230.31
268.448	222.31
268.681	241.31
268.913	232.31
269.145	251.31
269.377	269.31
269.609	286.31
269.841	264.31
270.073	278.31
270.306	298.31
270.538	313.31
270.77	310.31
271.002	309.31
271.234	295.31
271.466	292.31
271.698	313.31
271.93	314.31
272.162	309.31
272.394	317.31
272.626	312.31
272.858	289.31
273.09	283.31
273.322	281.31
273.553	263.31
273.785	287.31
274.017	270.31
274.249	265.31
274.481	262.31
274.713	245.31
274.945	270.31
275.176	261.31
275.408	275.31
275.64	254.31
275.872	268.31
276.104	262.31
276.335	274.31
276.567	268.31
276.799	279.31
277.031	300.31
277.262	315.31
277.494	313.31
277.726	320.31
277.957	285.31
278.189	290.31
278.421	274.31
278.652	269.31
278.884	269.31
279.115	285.31
279.347	272.31
279.579	246.31
279.81	243.31
280.042	263.31
280.273	269.31
280.505	257.31
280.736	253.31
280.968	250.31
281.199	258.31
281.431	263.31
281.662	268.31
281.894	243.31
282.125	276.31
282.356	284.31
282.588	311.31
282.819	300.31
283.051	279.31
283.282	270.31
283.513	281.31
283.745	275.31
283.976	272.31
284.207	269.31
284.439	279.31
284.67	252.31
284.901	289.31
285.132	277.31
285.364	250.31
285.595	258.31
285.826	261.31
286.057	257.31
286.288	265.31
286.52	265.31
286.751	283.31
286.982	274.31
287.213	259.31
287.444	289.31
287.675	285.31
287.906	282.31
288.138	290.31
288.369	292.31
288.6	286.31
288.831	281.31
289.062	289.31
289.293	275.31
289.524	280.31
289.755	272.31
289.986	276.31
290.217	269.31
290.448	255.31
290.679	273.31
290.91	266.31
291.141	278.31
291.371	275.31
291.602	285.31
291.833	258.31
292.064	279.31
292.295	272.31
292.526	282.31
292.757	277.31
292.987	269.31
293.218	272.31
293.449	289.31
293.68	276.31
293.91	269.31
294.141	256.31
294.372	285.31
294.603	268.31
294.833	279.31
295.064	266.31
295.295	301.31
295.525	295.31
295.756	273.31
295.987	297.31
296.217	310.31
296.448	327.31
296.679	299.31
296.909	282.31
297.14	283.31
297.37	307.31
297.601	281.31
297.831	281.31
298.062	286.31
298.292	270.31
298.523	284.31
298.753	290.31
298.984	289.31
299.214	306.31
299.445	291.31
299.675	294.31
299.905	308.31
300.136	295.31
300.366	296.31
300.597	284.31
300.827	292.31
301.057	295.31
301.288	324.31
301.518	307.31
301.748	313.31
301.979	310.31
302.209	309.31
302.439	321.31
302.669	308.31
302.9	309.31
303.13	306.31
303.36	330.31
303.59	308.31
303.82	306.31
304.051	318.31
304.281	296.31
304.511	318.31
304.741	293.31
304.971	314.31
305.201	297.31
305.431	309.31
305.661	289.31
305.891	300.31
306.121	320.31
306.352	313.31
306.582	317.31
306.812	316.31
307.042	296.31
307.272	298.31
307.502	319.31
307.731	338.31
307.961	315.31
308.191	310.31
308.421	324.31
308.651	333.31
308.881	331.31
309.111	314.31
309.341	330.31
309.571	347.31
309.8	340.31
310.03	345.31
310.26	378.31
310.49	362.31
310.72	378.31
310.949	389.31
311.179	381.31
311.409	378.31
311.639	356.31
311.868	364.31
312.098	379.31
312.328	381.31
312.557	402.31
312.787	415.31
313.017	400.31
313.246	389.31
313.476	356.31
313.706	360.31
313.935	378.31
314.165	374.31
314.394	391.31
314.624	390.31
314.853	374.31
315.083	362.31
315.312	362.31
315.542	342.31
315.771	353.31
316.001	358.31
316.23	367.31
316.46	364.31
316.689	353.31
316.919	375.31
317.148	380.31
317.377	387.31
317.607	361.31
317.836	385.31
318.065	373.31
318.295	354.31
318.524	366.31
318.753	366.31
318.983	365.31
319.212	370.31
319.441	373.31
319.67	385.31
319.9	378.31
320.129	355.31
320.358	359.31
320.587	366.31
320.816	373.31
321.046	382.31
321.275	399.31
321.504	392.31
321.733	422.31
321.962	413.31
322.191	415.31
322.42	426.31
322.649	452.31
322.878	462.31
323.108	469.31
323.337	515.31
323.566	531.31
323.795	568.31
324.024	618.31
324.253	745.31
324.482	1116.31
324.71	1761.31
324.939	2621.31
325.168	2253.31
325.397	1144.31
325.626	750.31
325.855	593.31
326.084	542.31
326.313	535.31
326.542	538.31
326.77	588.31
326.999	696.31
327.228	1023.31
327.457	1537.31
327.686	1957.31
327.914	1276.31
328.143	813.31
328.372	706.31
328.6	648.31
328.829	603.31
329.058	623.31
329.287	617.31
329.515	582.31
329.744	571.31
329.972	541.31
330.201	558.31
330.43	596.31
330.658	650.31
330.887	669.31
331.115	635.31
331.344	539.31
331.572	492.31
331.801	507.31
332.03	485.31
332.258	482.31
332.486	474.31
332.715	458.31
332.943	431.31
333.172	455.31
333.4	446.31
333.629	419.31
333.857	464.31
334.085	486.31
334.314	528.31
334.542	552.31
334.771	569.31
334.999	497.31
335.227	459.31
335.455	443.31
335.684	445.31
335.912	428.31
336.14	405.31
336.369	411.31
336.597	414.31
336.825	456.31
337.053	421.31
337.281	414.31
337.51	413.31
337.738	421.31
337.966	424.31
338.194	429.31
338.422	427.31
338.65	417.31
338.878	412.31
339.106	415.31
339.334	398.31
339.562	400.31
339.79	395.31
340.018	404.31
340.246	421.31
340.474	420.31
340.702	410.31
340.93	390.31
341.158	414.31
341.386	381.31
341.614	408.31
341.842	418.31
342.07	397.31
342.298	403.31
342.526	391.31
342.754	376.31
342.981	387.31
343.209	390.31
343.437	415.31
343.665	396.31
343.893	393.31
344.12	405.31
344.348	405.31
344.576	403.31
344.804	402.31
345.031	436.31
345.259	428.31
345.487	435.31
345.714	393.31
345.942	409.31
346.17	392.31
346.397	378.31
346.625	403.31
346.853	401.31
347.08	396.31
347.308	389.31
347.535	418.31
347.763	419.31
347.99	407.31
348.218	409.31
348.445	413.31
348.673	420.31
348.9	416.31
349.128	383.31
349.355	395.31
349.583	375.31
349.81	361.31
350.037	371.31
350.265	376.31
350.492	377.31
350.72	386.31
350.947	386.31
351.174	406.31
351.402	406.31
351.629	403.31
351.856	415.31
352.083	411.31
352.311	410.31
352.538	407.31
352.765	432.31
352.992	402.31
353.22	402.31
353.447	378.31
353.674	399.31
353.901	379.31
354.128	366.31
354.355	385.31
354.583	379.31
354.81	365.31
355.037	369.31
355.264	360.31
355.491	343.31
355.718	343.31
355.945	355.31
356.172	365.31
356.399	347.31
356.626	366.31
356.853	356.31
357.08	377.31
357.307	341.31
357.534	353.31
357.761	371.31
357.988	343.31
358.215	361.31
358.441	358.31
358.668	349.31
358.895	367.31
359.122	378.31
359.349	371.31
359.576	372.31
359.802	422.31
360.029	460.31
360.256	464.31
360.483	435.31
360.709	386.31
360.936	376.31
361.163	367.31
361.39	394.31
361.616	393.31
361.843	399.31
362.07	407.31
362.296	398.31
362.523	394.31
362.749	402.31
362.976	366.31
363.203	375.31
363.429	389.31
363.656	388.31
363.882	388.31
364.109	371.31
364.335	371.31
364.562	381.31
364.788	387.31
365.015	356.31
365.241	377.31
365.468	389.31
365.694	377.31
365.92	394.31
366.147	378.31
366.373	370.31
366.599	358.31
366.826	370.31
367.052	358.31
367.278	350.31
367.505	365.31
367.731	335.31
367.957	361.31
368.184	375.31
368.41	361.31
368.636	361.31
368.862	386.31
369.089	378.31
369.315	377.31
369.541	369.31
369.767	374.31
369.993	362.31
370.219	375.31
370.445	359.31
370.672	352.31
370.898	359.31
371.124	352.31
371.35	365.31
371.576	345.31
371.802	339.31
372.028	347.31
372.254	349.31
372.48	362.31
372.706	380.31
372.932	351.31
373.158	342.31
373.384	355.31
373.61	354.31
373.835	367.31
374.061	353.31
374.287	375.31
374.513	345.31
374.739	356.31
374.965	369.31
375.191	360.31
375.416	368.31
375.642	353.31
375.868	335.31
376.094	349.31
376.319	345.31
376.545	355.31
376.771	357.31
376.997	344.31
377.222	337.31
377.448	335.31
377.674	343.31
377.899	353.31
378.125	359.31
378.35	364.31
378.576	348.31
378.802	355.31
379.027	345.31
379.253	335.31
379.478	350.31
379.704	364.31
379.929	361.31
380.155	359.31
380.38	357.31
380.606	346.31
380.831	361.31
381.057	365.31
381.282	353.31
381.507	377.31
381.733	379.31
381.958	354.31
382.184	349.31
382.409	384.31
382.634	366.31
382.86	383.31
383.085	354.31
383.31	362.31
383.535	371.31
383.761	363.31
383.986	366.31
384.211	353.31
384.436	362.31
384.662	367.31
384.887	379.31
385.112	358.31
385.337	365.31
385.562	350.31
385.787	363.31
386.013	394.31
386.238	387.31
386.463	395.31
386.688	371.31
386.913	376.31
387.138	379.31
387.363	361.31
387.588	379.31
387.813	355.31
388.038	384.31
388.263	379.31
388.488	356.31
388.713	395.31
388.938	377.31
389.163	394.31
389.387	386.31
389.612	378.31
389.837	380.31
390.062	381.31
390.287	366.31
390.512	393.31
390.736	379.31
390.961	357.31
391.186	375.31
391.411	374.31
391.636	379.31
391.86	357.31
392.085	379.31
392.31	385.31
392.534	373.31
392.759	394.31
392.984	387.31
393.208	391.31
393.433	369.31
393.658	394.31
393.882	387.31
394.107	382.31
394.331	388.31
394.556	386.31
394.78	379.31
395.005	407.31
395.229	375.31
395.454	377.31
395.678	398.31
395.903	397.31
396.127	413.31
396.352	424.31
396.576	425.31
396.801	404.31
397.025	378.31
397.249	396.31
397.474	408.31
397.698	388.31
397.922	413.31
398.147	430.31
398.371	404.31
398.595	412.31
398.82	426.31
399.044	418.31
399.268	414.31
399.492	445.31
399.717	463.31
399.941	490.31
400.165	511.31
400.389	537.31
400.613	492.31
400.837	475.31
401.062	438.31
401.286	422.31
401.51	430.31
401.734	428.31
401.958	420.31
402.182	442.31
402.406	431.31
402.63	462.31
402.854	429.31
403.078	427.31
403.302	438.31
403.526	442.31
403.75	445.31
403.974	438.31
404.198	429.31
404.422	459.31
404.645	459.31
404.869	463.31
405.093	485.31
405.317	533.31
405.541	580.31
405.765	532.31
405.988	501.31
406.212	490.31
406.436	517.31
406.66	508.31
406.883	502.31
407.107	515.31
407.331	542.31
407.555	609.31
407.778	639.31
408.002	547.31
408.226	521.31
408.449	492.31
408.673	485.31
408.896	517.31
409.12	569.31
409.344	515.31
409.567	478.31
409.791	463.31
410.014	468.31
410.238	449.31
410.461	425.31
410.685	467.31
410.908	479.31
411.132	517.31
411.355	564.31
411.578	500.31
411.802	476.31
412.025	456.31
412.249	463.31
412.472	484.31
412.695	484.31
412.919	501.31
413.142	481.31
413.365	462.31
413.589	435.31
413.812	432.31
414.035	428.31
414.258	415.31
414.482	432.31
414.705	410.31
414.928	416.31
415.151	417.31
415.374	416.31
415.597	403.31
415.821	413.31
416.044	435.31
416.267	425.31
416.49	428.31
416.713	408.31
416.936	414.31
417.159	419.31
417.382	429.31
417.605	433.31
417.828	454.31
418.051	462.31
418.274	434.31
418.497	431.31
418.72	415.31
418.943	405.31
419.166	423.31
419.389	453.31
419.611	460.31
419.834	451.31
420.057	467.31
420.28	430.31
420.503	464.31
420.726	449.31
420.948	473.31
421.171	526.31
421.394	526.31
421.617	463.31
421.839	457.31
422.062	437.31
422.285	463.31
422.507	507.31
422.73	601.31
422.953	575.31
423.175	491.31
423.398	462.31
423.621	485.31
423.843	489.31
424.066	487.31
424.288	487.31
424.511	514.31
424.733	576.31
424.956	671.31
425.178	615.31
425.401	629.31
425.623	632.31
425.846	550.31
426.068	503.31
426.291	507.31
426.513	501.31
426.735	537.31
426.958	555.31
427.18	626.31
427.402	755.31
427.625	884.31
427.847	771.31
428.069	690.31
428.292	578.31
428.514	502.31
428.736	485.31
428.958	480.31
429.181	468.31
429.403	451.31
429.625	486.31
429.847	513.31
430.069	586.31
430.292	568.31
430.514	474.31
430.736	451.31
430.958	453.31
431.18	449.31
431.402	455.31
431.624	433.31
431.846	407.31
432.068	437.31
432.29	435.31
432.512	414.31
432.734	445.31
432.956	454.31
433.178	451.31
433.4	455.31
433.622	440.31
433.844	426.31
434.066	413.31
434.287	418.31
434.509	435.31
434.731	439.31
434.953	467.31
435.175	481.31
435.397	469.31
435.618	507.31
435.84	545.31
436.062	634.31
436.284	726.31
436.505	601.31
436.727	541.31
436.949	490.31
437.17	478.31
437.392	467.31
437.614	500.31
437.835	526.31
438.057	644.31
438.278	715.31
438.5	697.31
438.721	793.31
438.943	756.31
439.165	579.31
439.386	548.31
439.608	513.31
439.829	517.31
440.05	558.31
440.272	627.31
440.493	544.31
440.715	521.31
440.936	469.31
441.158	463.31
441.379	462.31
441.6	485.31
441.822	503.31
442.043	520.31
442.264	658.31
442.486	669.31
442.707	559.31
442.928	499.31
443.149	524.31
443.371	546.31
443.592	574.31
443.813	685.31
444.034	751.31
444.255	622.31
444.476	527.31
444.698	513.31
444.919	495.31
445.14	598.31
445.361	549.31
445.582	552.31
445.803	617.31
446.024	737.31
446.245	744.31
446.466	659.31
446.687	542.31
446.908	529.31
447.129	499.31
447.35	471.31
447.571	463.31
447.792	471.31
448.013	484.31
448.234	499.31
448.455	541.31
448.675	676.31
448.896	771.31
449.117	629.31
449.338	630.31
449.559	705.31
449.779	809.31
450	670.31
450.221	561.31
450.442	507.31
450.662	472.31
450.883	497.31
451.104	504.31
451.324	467.31
451.545	467.31
451.766	425.31
451.986	408.31
452.207	446.31
452.428	414.31
452.648	415.31
452.869	413.31
453.089	420.31
453.31	433.31
453.53	426.31
453.751	407.31
453.971	426.31
454.192	438.31
454.412	429.31
454.633	423.31
454.853	428.31
455.073	422.31
455.294	439.31
455.514	526.31
455.734	497.31
455.955	427.31
456.175	423.31
456.395	396.31
456.616	386.31
456.836	387.31
457.056	389.31
457.276	383.31
457.497	397.31
457.717	394.31
457.937	395.31
458.157	393.31
458.377	414.31
458.598	449.31
458.818	493.31
459.038	590.31
459.258	621.31
459.478	493.31
459.698	448.31
459.918	437.31
460.138	437.31
460.358	427.31
460.578	419.31
460.798	420.31
461.018	424.31
461.238	421.31
461.458	412.31
461.678	415.31
461.898	413.31
462.118	414.31
462.338	427.31
462.558	432.31
462.777	419.31
462.997	439.31
463.217	442.31
463.437	434.31
463.657	439.31
463.876	439.31
464.096	450.31
464.316	439.31
464.536	453.31
464.755	437.31
464.975	486.31
465.195	524.31
465.414	594.31
465.634	510.31
465.854	469.31
466.073	454.31
466.293	411.31
466.512	424.31
466.732	425.31
466.951	431.31
467.171	410.31
467.391	424.31
467.61	439.31
467.829	446.31
468.049	453.31
468.268	434.31
468.488	407.31
468.707	410.31
468.927	405.31
469.146	389.31
469.365	423.31
469.585	410.31
469.804	430.31
470.023	441.31
470.243	440.31
470.462	438.31
470.681	450.31
470.901	428.31
471.12	440.31
471.339	420.31
471.558	453.31
471.777	427.31
471.997	425.31
472.216	446.31
472.435	479.31
472.654	450.31
472.873	435.31
473.092	435.31
473.311	423.31
473.53	427.31
473.749	457.31
473.968	481.31
474.187	620.31
474.406	620.31
474.625	499.31
474.844	460.31
475.063	419.31
475.282	435.31
475.501	430.31
475.72	455.31
475.939	449.31
476.158	433.31
476.377	449.31
476.596	446.31
476.814	426.31
477.033	467.31
477.252	448.31
477.471	474.31
477.69	456.31
477.908	444.31
478.127	476.31
478.346	438.31
478.564	459.31
478.783	467.31
479.002	481.31
479.22	476.31
479.439	511.31
479.658	501.31
479.876	506.31
480.095	522.31
480.313	551.31
480.532	543.31
480.751	510.31
480.969	540.31
481.188	630.31
481.406	671.31
481.624	561.31
481.843	545.31
482.061	490.31
482.28	492.31
482.498	502.31
482.717	491.31
482.935	505.31
483.153	518.31
483.372	492.31
483.59	500.31
483.808	501.31
484.027	494.31
484.245	494.31
484.463	493.31
484.681	502.31
484.9	525.31
485.118	505.31
485.336	501.31
485.554	514.31
485.772	508.31
485.99	515.31
486.209	509.31
486.427	502.31
486.645	542.31
486.863	555.31
487.081	556.31
487.299	526.31
487.517	545.31
487.735	538.31
487.953	552.31
488.171	525.31
488.389	539.31
488.607	557.31
488.825	548.31
489.043	538.31
489.261	548.31
489.479	545.31
489.696	551.31
489.914	543.31
490.132	558.31
490.35	552.31
490.568	561.31
490.786	565.31
491.003	579.31
491.221	588.31
491.439	591.31
491.657	622.31
491.874	618.31
492.092	615.31
492.31	613.31
492.527	617.31
492.745	613.31
492.963	634.31
493.18	615.31
493.398	637.31
493.615	629.31
493.833	640.31
494.05	617.31
494.268	653.31
494.485	635.31
494.703	638.31
494.92	636.31
495.138	640.31
495.355	648.31
495.573	636.31
495.79	632.31
496.008	634.31
496.225	632.31
496.442	635.31
496.66	631.31
496.877	639.31
497.094	651.31
497.312	647.31
497.529	637.31
497.746	654.31
497.963	653.31
498.181	703.31
498.398	679.31
498.615	685.31
498.832	691.31
499.049	696.31
499.267	731.31
499.484	706.31
499.701	734.31
499.918	757.31
500.135	759.31
500.352	771.31
500.569	791.31
500.786	805.31
501.003	812.31
501.22	783.31
501.437	777.31
501.654	770.31
501.871	778.31
