Data from 1972.PennyLincolnUp.Lamp.En5.5.200Scan.071719.P1._HRD10591_15-27-21-843.txt Node
Date: Thu Jul 18 15:27:21 EDT 2019
User: cochatt
Spectrometer: HR+D1059
Trigger mode: 1
Integration Time (sec): 1.000000E-1
Scans to average: 1
Electric dark correction enabled: true
Nonlinearity correction enabled: false
Boxcar width: 0
XAxis mode: Wavelengths
Number of Pixels in Spectrum: 2048
>>>>>Begin Spectral Data<<<<<
223.165	-13.19
223.4	-13.19
223.635	-13.19
223.869	-21.19
224.104	-5.19
224.338	-18.19
224.573	-9.19
224.808	-14.19
225.042	-6.19
225.277	-1.19
225.511	-12.19
225.746	-8.19
225.98	16.81
226.215	3.81
226.449	6.81
226.683	27.81
226.918	20.81
227.152	32.81
227.387	37.81
227.621	41.81
227.856	45.81
228.09	37.81
228.324	53.81
228.559	50.81
228.793	58.81
229.027	91.81
229.262	98.81
229.496	134.81
229.73	125.81
229.964	145.81
230.199	129.81
230.433	99.81
230.667	105.81
230.901	116.81
231.136	114.81
231.37	116.81
231.604	113.81
231.838	109.81
232.072	116.81
232.306	108.81
232.541	110.81
232.775	106.81
233.009	113.81
233.243	117.81
233.477	104.81
233.711	108.81
233.945	114.81
234.179	121.81
234.413	100.81
234.647	85.81
234.881	100.81
235.115	127.81
235.349	108.81
235.583	113.81
235.817	111.81
236.051	126.81
236.285	114.81
236.519	122.81
236.753	126.81
236.987	142.81
237.221	169.81
237.455	226.81
237.689	178.81
237.922	134.81
238.156	119.81
238.39	112.81
238.624	140.81
238.858	123.81
239.091	113.81
239.325	127.81
239.559	132.81
239.793	121.81
240.027	139.81
240.26	121.81
240.494	143.81
240.728	156.81
240.961	137.81
241.195	152.81
241.429	149.81
241.662	137.81
241.896	124.81
242.13	116.81
242.363	117.81
242.597	119.81
242.83	122.81
243.064	151.81
243.298	128.81
243.531	119.81
243.765	130.81
243.998	126.81
244.232	138.81
244.465	133.81
244.699	131.81
244.932	135.81
245.166	150.81
245.399	142.81
245.633	137.81
245.866	136.81
246.099	158.81
246.333	122.81
246.566	151.81
246.8	141.81
247.033	146.81
247.266	129.81
247.5	137.81
247.733	163.81
247.966	166.81
248.2	171.81
248.433	166.81
248.666	171.81
248.899	175.81
249.133	176.81
249.366	199.81
249.599	196.81
249.832	185.81
250.066	178.81
250.299	163.81
250.532	191.81
250.765	198.81
250.998	211.81
251.231	209.81
251.465	208.81
251.698	208.81
251.931	197.81
252.164	191.81
252.397	182.81
252.63	194.81
252.863	212.81
253.096	216.81
253.329	201.81
253.562	211.81
253.795	210.81
254.028	192.81
254.261	215.81
254.494	218.81
254.727	235.81
254.96	262.81
255.193	246.81
255.426	233.81
255.659	227.81
255.892	229.81
256.124	224.81
256.357	222.81
256.59	208.81
256.823	213.81
257.056	199.81
257.289	193.81
257.521	208.81
257.754	190.81
257.987	197.81
258.22	188.81
258.452	191.81
258.685	195.81
258.918	208.81
259.151	209.81
259.383	213.81
259.616	197.81
259.849	221.81
260.081	207.81
260.314	229.81
260.547	225.81
260.779	242.81
261.012	227.81
261.244	211.81
261.477	218.81
261.71	214.81
261.942	201.81
262.175	205.81
262.407	223.81
262.64	199.81
262.872	219.81
263.105	203.81
263.337	210.81
263.57	208.81
263.802	211.81
264.035	206.81
264.267	191.81
264.499	213.81
264.732	208.81
264.964	196.81
265.197	194.81
265.429	205.81
265.661	187.81
265.894	171.81
266.126	199.81
266.358	212.81
266.591	188.81
266.823	223.81
267.055	203.81
267.287	224.81
267.52	210.81
267.752	196.81
267.984	217.81
268.216	203.81
268.448	218.81
268.681	203.81
268.913	226.81
269.145	244.81
269.377	251.81
269.609	253.81
269.841	253.81
270.073	274.81
270.306	265.81
270.538	315.81
270.77	293.81
271.002	298.81
271.234	274.81
271.466	256.81
271.698	269.81
271.93	297.81
272.162	285.81
272.394	291.81
272.626	278.81
272.858	251.81
273.09	254.81
273.322	262.81
273.553	234.81
273.785	251.81
274.017	245.81
274.249	241.81
274.481	233.81
274.713	251.81
274.945	228.81
275.176	230.81
275.408	244.81
275.64	222.81
275.872	250.81
276.104	240.81
276.335	227.81
276.567	238.81
276.799	286.81
277.031	279.81
277.262	291.81
277.494	295.81
277.726	286.81
277.957	279.81
278.189	254.81
278.421	245.81
278.652	244.81
278.884	269.81
279.115	221.81
279.347	255.81
279.579	257.81
279.81	242.81
280.042	234.81
280.273	252.81
280.505	257.81
280.736	243.81
280.968	239.81
281.199	251.81
281.431	259.81
281.662	242.81
281.894	253.81
282.125	238.81
282.356	261.81
282.588	268.81
282.819	308.81
283.051	255.81
283.282	221.81
283.513	245.81
283.745	246.81
283.976	246.81
284.207	260.81
284.439	259.81
284.67	232.81
284.901	257.81
285.132	250.81
285.364	249.81
285.595	251.81
285.826	230.81
286.057	245.81
286.288	262.81
286.52	242.81
286.751	245.81
286.982	266.81
287.213	267.81
287.444	243.81
287.675	269.81
287.906	270.81
288.138	292.81
288.369	283.81
288.6	264.81
288.831	265.81
289.062	271.81
289.293	273.81
289.524	261.81
289.755	267.81
289.986	258.81
290.217	263.81
290.448	250.81
290.679	251.81
290.91	261.81
291.141	258.81
291.371	262.81
291.602	271.81
291.833	254.81
292.064	262.81
292.295	239.81
292.526	259.81
292.757	273.81
292.987	259.81
293.218	257.81
293.449	265.81
293.68	267.81
293.91	247.81
294.141	256.81
294.372	257.81
294.603	246.81
294.833	258.81
295.064	249.81
295.295	261.81
295.525	267.81
295.756	286.81
295.987	267.81
296.217	279.81
296.448	294.81
296.679	275.81
296.909	262.81
297.14	257.81
297.37	283.81
297.601	252.81
297.831	275.81
298.062	276.81
298.292	268.81
298.523	269.81
298.753	270.81
298.984	258.81
299.214	278.81
299.445	272.81
299.675	273.81
299.905	271.81
300.136	267.81
300.366	281.81
300.597	267.81
300.827	278.81
301.057	277.81
301.288	284.81
301.518	276.81
301.748	273.81
301.979	277.81
302.209	279.81
302.439	287.81
302.669	279.81
302.9	292.81
303.13	285.81
303.36	292.81
303.59	290.81
303.82	322.81
304.051	307.81
304.281	297.81
304.511	293.81
304.741	304.81
304.971	294.81
305.201	288.81
305.431	287.81
305.661	277.81
305.891	288.81
306.121	301.81
306.352	287.81
306.582	298.81
306.812	298.81
307.042	288.81
307.272	299.81
307.502	311.81
307.731	299.81
307.961	308.81
308.191	295.81
308.421	297.81
308.651	283.81
308.881	292.81
309.111	308.81
309.341	316.81
309.571	321.81
309.8	333.81
310.03	330.81
310.26	334.81
310.49	343.81
310.72	340.81
310.949	343.81
311.179	359.81
311.409	343.81
311.639	335.81
311.868	331.81
312.098	342.81
312.328	363.81
312.557	366.81
312.787	363.81
313.017	362.81
313.246	360.81
313.476	333.81
313.706	343.81
313.935	334.81
314.165	338.81
314.394	354.81
314.624	352.81
314.853	339.81
315.083	361.81
315.312	334.81
315.542	325.81
315.771	342.81
316.001	342.81
316.23	341.81
316.46	340.81
316.689	341.81
316.919	342.81
317.148	348.81
317.377	355.81
317.607	357.81
317.836	369.81
318.065	346.81
318.295	350.81
318.524	332.81
318.753	327.81
318.983	329.81
319.212	343.81
319.441	327.81
319.67	358.81
319.9	332.81
320.129	326.81
320.358	354.81
320.587	371.81
320.816	362.81
321.046	365.81
321.275	370.81
321.504	355.81
321.733	359.81
321.962	373.81
322.191	376.81
322.42	399.81
322.649	410.81
322.878	413.81
323.108	411.81
323.337	446.81
323.566	461.81
323.795	498.81
324.024	546.81
324.253	659.81
324.482	951.81
324.71	1439.81
324.939	2079.81
325.168	1830.81
325.397	941.81
325.626	611.81
325.855	513.81
326.084	474.81
326.313	467.81
326.542	468.81
326.77	508.81
326.999	598.81
327.228	819.81
327.457	1265.81
327.686	1563.81
327.914	1053.81
328.143	684.81
328.372	618.81
328.6	557.81
328.829	533.81
329.058	551.81
329.287	547.81
329.515	521.81
329.744	456.81
329.972	452.81
330.201	487.81
330.43	498.81
330.658	535.81
330.887	548.81
331.115	552.81
331.344	461.81
331.572	454.81
331.801	445.81
332.03	438.81
332.258	422.81
332.486	396.81
332.715	411.81
332.943	383.81
333.172	372.81
333.4	388.81
333.629	402.81
333.857	415.81
334.085	422.81
334.314	462.81
334.542	453.81
334.771	482.81
334.999	452.81
335.227	405.81
335.455	402.81
335.684	387.81
335.912	384.81
336.14	379.81
336.369	380.81
336.597	386.81
336.825	399.81
337.053	383.81
337.281	363.81
337.51	383.81
337.738	392.81
337.966	386.81
338.194	390.81
338.422	385.81
338.65	363.81
338.878	373.81
339.106	379.81
339.334	394.81
339.562	382.81
339.79	371.81
340.018	381.81
340.246	391.81
340.474	375.81
340.702	357.81
340.93	375.81
341.158	371.81
341.386	362.81
341.614	377.81
341.842	379.81
342.07	394.81
342.298	367.81
342.526	349.81
342.754	375.81
342.981	360.81
343.209	366.81
343.437	362.81
343.665	363.81
343.893	370.81
344.12	375.81
344.348	390.81
344.576	381.81
344.804	385.81
345.031	372.81
345.259	393.81
345.487	378.81
345.714	387.81
345.942	373.81
346.17	354.81
346.397	367.81
346.625	365.81
346.853	365.81
347.08	358.81
347.308	393.81
347.535	381.81
347.763	378.81
347.99	350.81
348.218	375.81
348.445	379.81
348.673	381.81
348.9	375.81
349.128	359.81
349.355	345.81
349.583	325.81
349.81	352.81
350.037	346.81
350.265	364.81
350.492	353.81
350.72	343.81
350.947	355.81
351.174	365.81
351.402	365.81
351.629	365.81
351.856	351.81
352.083	374.81
352.311	398.81
352.538	405.81
352.765	385.81
352.992	355.81
353.22	385.81
353.447	378.81
353.674	355.81
353.901	362.81
354.128	366.81
354.355	341.81
354.583	342.81
354.81	336.81
355.037	361.81
355.264	338.81
355.491	314.81
355.718	340.81
355.945	331.81
356.172	333.81
356.399	328.81
356.626	357.81
356.853	332.81
357.08	332.81
357.307	326.81
357.534	324.81
357.761	350.81
357.988	338.81
358.215	318.81
358.441	327.81
358.668	331.81
358.895	365.81
359.122	345.81
359.349	341.81
359.576	363.81
359.802	370.81
360.029	398.81
360.256	415.81
360.483	420.81
360.709	371.81
360.936	360.81
361.163	356.81
361.39	358.81
361.616	369.81
361.843	368.81
362.07	360.81
362.296	370.81
362.523	359.81
362.749	349.81
362.976	367.81
363.203	359.81
363.429	332.81
363.656	347.81
363.882	343.81
364.109	369.81
364.335	341.81
364.562	332.81
364.788	332.81
365.015	349.81
365.241	349.81
365.468	349.81
365.694	372.81
365.92	363.81
366.147	364.81
366.373	353.81
366.599	343.81
366.826	355.81
367.052	331.81
367.278	330.81
367.505	341.81
367.731	342.81
367.957	347.81
368.184	330.81
368.41	332.81
368.636	355.81
368.862	347.81
369.089	336.81
369.315	346.81
369.541	343.81
369.767	336.81
369.993	322.81
370.219	337.81
370.445	359.81
370.672	344.81
370.898	345.81
371.124	332.81
371.35	332.81
371.576	349.81
371.802	326.81
372.028	332.81
372.254	345.81
372.48	329.81
372.706	354.81
372.932	342.81
373.158	331.81
373.384	348.81
373.61	341.81
373.835	345.81
374.061	335.81
374.287	338.81
374.513	348.81
374.739	333.81
374.965	314.81
375.191	354.81
375.416	354.81
375.642	339.81
375.868	351.81
376.094	340.81
376.319	340.81
376.545	349.81
376.771	335.81
376.997	338.81
377.222	321.81
377.448	338.81
377.674	338.81
377.899	334.81
378.125	332.81
378.35	340.81
378.576	347.81
378.802	330.81
379.027	339.81
379.253	347.81
379.478	339.81
379.704	332.81
379.929	336.81
380.155	343.81
380.38	329.81
380.606	333.81
380.831	335.81
381.057	358.81
381.282	326.81
381.507	347.81
381.733	347.81
381.958	340.81
382.184	334.81
382.409	332.81
382.634	341.81
382.86	338.81
383.085	347.81
383.31	351.81
383.535	355.81
383.761	357.81
383.986	339.81
384.211	352.81
384.436	366.81
384.662	354.81
384.887	365.81
385.112	335.81
385.337	349.81
385.562	358.81
385.787	344.81
386.013	367.81
386.238	376.81
386.463	355.81
386.688	363.81
386.913	348.81
387.138	362.81
387.363	347.81
387.588	356.81
387.813	379.81
388.038	355.81
388.263	357.81
388.488	364.81
388.713	356.81
388.938	348.81
389.163	356.81
389.387	377.81
389.612	367.81
389.837	357.81
390.062	361.81
390.287	358.81
390.512	362.81
390.736	360.81
390.961	358.81
391.186	344.81
391.411	372.81
391.636	361.81
391.86	352.81
392.085	357.81
392.31	359.81
392.534	369.81
392.759	367.81
392.984	363.81
393.208	358.81
393.433	361.81
393.658	400.81
393.882	375.81
394.107	375.81
394.331	349.81
394.556	359.81
394.78	364.81
395.005	370.81
395.229	351.81
395.454	364.81
395.678	366.81
395.903	373.81
396.127	413.81
396.352	386.81
396.576	379.81
396.801	387.81
397.025	381.81
397.249	374.81
397.474	392.81
397.698	395.81
397.922	379.81
398.147	397.81
398.371	407.81
398.595	388.81
398.82	397.81
399.044	397.81
399.268	411.81
399.492	438.81
399.717	455.81
399.941	458.81
400.165	481.81
400.389	526.81
400.613	468.81
400.837	409.81
401.062	422.81
401.286	429.81
401.51	407.81
401.734	413.81
401.958	427.81
402.182	424.81
402.406	415.81
402.63	407.81
402.854	392.81
403.078	418.81
403.302	411.81
403.526	426.81
403.75	429.81
403.974	409.81
404.198	404.81
404.422	421.81
404.645	418.81
404.869	433.81
405.093	461.81
405.317	483.81
405.541	515.81
405.765	475.81
405.988	444.81
406.212	453.81
406.436	470.81
406.66	479.81
406.883	476.81
407.107	467.81
407.331	485.81
407.555	551.81
407.778	554.81
408.002	507.81
408.226	476.81
408.449	459.81
408.673	462.81
408.896	493.81
409.12	540.81
409.344	502.81
409.567	452.81
409.791	423.81
410.014	419.81
410.238	404.81
410.461	422.81
410.685	442.81
410.908	430.81
411.132	498.81
411.355	518.81
411.578	482.81
411.802	450.81
412.025	423.81
412.249	425.81
412.472	453.81
412.695	483.81
412.919	465.81
413.142	430.81
413.365	427.81
413.589	407.81
413.812	408.81
414.035	381.81
414.258	394.81
414.482	388.81
414.705	413.81
414.928	387.81
415.151	392.81
415.374	408.81
415.597	394.81
415.821	386.81
416.044	388.81
416.267	419.81
416.49	394.81
416.713	393.81
416.936	408.81
417.159	408.81
417.382	400.81
417.605	408.81
417.828	419.81
418.051	431.81
418.274	419.81
418.497	410.81
418.72	390.81
418.943	401.81
419.166	421.81
419.389	451.81
419.611	438.81
419.834	415.81
420.057	409.81
420.28	428.81
420.503	415.81
420.726	399.81
420.948	442.81
421.171	484.81
421.394	491.81
421.617	426.81
421.839	425.81
422.062	416.81
422.285	423.81
422.507	487.81
422.73	570.81
422.953	528.81
423.175	490.81
423.398	443.81
423.621	435.81
423.843	451.81
424.066	459.81
424.288	451.81
424.511	468.81
424.733	540.81
424.956	594.81
425.178	593.81
425.401	556.81
425.623	577.81
425.846	521.81
426.068	474.81
426.291	462.81
426.513	450.81
426.735	481.81
426.958	499.81
427.18	587.81
427.402	711.81
427.625	804.81
427.847	674.81
428.069	571.81
428.292	511.81
428.514	474.81
428.736	447.81
428.958	413.81
429.181	430.81
429.403	427.81
429.625	449.81
429.847	460.81
430.069	541.81
430.292	535.81
430.514	470.81
430.736	455.81
430.958	424.81
431.18	393.81
431.402	409.81
431.624	402.81
431.846	387.81
432.068	406.81
432.29	400.81
432.512	394.81
432.734	396.81
432.956	410.81
433.178	415.81
433.4	425.81
433.622	405.81
433.844	395.81
434.066	391.81
434.287	406.81
434.509	392.81
434.731	393.81
434.953	407.81
435.175	439.81
435.397	445.81
435.618	480.81
435.84	510.81
436.062	596.81
436.284	647.81
436.505	516.81
436.727	485.81
436.949	437.81
437.17	418.81
437.392	445.81
437.614	438.81
437.835	478.81
438.057	568.81
438.278	657.81
438.5	669.81
438.721	724.81
438.943	675.81
439.165	531.81
439.386	501.81
439.608	499.81
439.829	490.81
440.05	528.81
440.272	542.81
440.493	522.81
440.715	488.81
440.936	445.81
441.158	441.81
441.379	421.81
441.6	455.81
441.822	476.81
442.043	486.81
442.264	586.81
442.486	617.81
442.707	553.81
442.928	486.81
443.149	467.81
443.371	504.81
443.592	538.81
443.813	640.81
444.034	667.81
444.255	552.81
444.476	491.81
444.698	466.81
444.919	454.81
445.14	573.81
445.361	526.81
445.582	507.81
445.803	564.81
446.024	654.81
446.245	675.81
446.466	611.81
446.687	514.81
446.908	488.81
447.129	475.81
447.35	435.81
447.571	443.81
447.792	435.81
448.013	445.81
448.234	458.81
448.455	489.81
448.675	604.81
448.896	695.81
449.117	594.81
449.338	570.81
449.559	650.81
449.779	726.81
450	596.81
450.221	502.81
450.442	456.81
450.662	455.81
450.883	453.81
451.104	442.81
451.324	424.81
451.545	425.81
451.766	389.81
451.986	393.81
452.207	386.81
452.428	405.81
452.648	399.81
452.869	391.81
453.089	399.81
453.31	441.81
453.53	391.81
453.751	395.81
453.971	413.81
454.192	408.81
454.412	394.81
454.633	396.81
454.853	373.81
455.073	395.81
455.294	423.81
455.514	478.81
455.734	450.81
455.955	405.81
456.175	379.81
456.395	376.81
456.616	361.81
456.836	379.81
457.056	366.81
457.276	367.81
457.497	370.81
457.717	371.81
457.937	359.81
458.157	360.81
458.377	369.81
458.598	397.81
458.818	455.81
459.038	533.81
459.258	536.81
459.478	443.81
459.698	429.81
459.918	417.81
460.138	399.81
460.358	375.81
460.578	394.81
460.798	394.81
461.018	411.81
461.238	404.81
461.458	382.81
461.678	396.81
461.898	396.81
462.118	382.81
462.338	390.81
462.558	405.81
462.777	424.81
462.997	423.81
463.217	418.81
463.437	416.81
463.657	412.81
463.876	439.81
464.096	437.81
464.316	410.81
464.536	425.81
464.755	418.81
464.975	437.81
465.195	487.81
465.414	520.81
465.634	476.81
465.854	435.81
466.073	427.81
466.293	421.81
466.512	416.81
466.732	415.81
466.951	392.81
467.171	394.81
467.391	394.81
467.61	394.81
467.829	437.81
468.049	399.81
468.268	393.81
468.488	375.81
468.707	399.81
468.927	375.81
469.146	367.81
469.365	367.81
469.585	375.81
469.804	420.81
470.023	419.81
470.243	389.81
470.462	393.81
470.681	410.81
470.901	409.81
471.12	414.81
471.339	411.81
471.558	423.81
471.777	414.81
471.997	417.81
472.216	409.81
472.435	438.81
472.654	429.81
472.873	402.81
473.092	429.81
473.311	394.81
473.53	396.81
473.749	402.81
473.968	454.81
474.187	544.81
474.406	572.81
474.625	471.81
474.844	419.81
475.063	416.81
475.282	417.81
475.501	406.81
475.72	413.81
475.939	408.81
476.158	418.81
476.377	418.81
476.596	417.81
476.814	425.81
477.033	429.81
477.252	440.81
477.471	420.81
477.69	426.81
477.908	437.81
478.127	444.81
478.346	429.81
478.564	445.81
478.783	427.81
479.002	437.81
479.22	447.81
479.439	467.81
479.658	491.81
479.876	480.81
480.095	489.81
480.313	475.81
480.532	504.81
480.751	498.81
480.969	492.81
481.188	560.81
481.406	613.81
481.624	527.81
481.843	507.81
482.061	490.81
482.28	470.81
482.498	450.81
482.717	477.81
482.935	470.81
483.153	469.81
483.372	473.81
483.59	477.81
483.808	452.81
484.027	466.81
484.245	473.81
484.463	463.81
484.681	491.81
484.9	469.81
485.118	500.81
485.336	471.81
485.554	502.81
485.772	465.81
485.99	495.81
486.209	476.81
486.427	511.81
486.645	486.81
486.863	523.81
487.081	543.81
487.299	517.81
487.517	502.81
487.735	503.81
487.953	509.81
488.171	503.81
488.389	497.81
488.607	502.81
488.825	499.81
489.043	500.81
489.261	517.81
489.479	496.81
489.696	491.81
489.914	501.81
490.132	516.81
490.35	536.81
490.568	508.81
490.786	539.81
491.003	545.81
491.221	548.81
491.439	564.81
491.657	556.81
491.874	564.81
492.092	572.81
492.31	573.81
492.527	557.81
492.745	573.81
492.963	576.81
493.18	603.81
493.398	590.81
493.615	586.81
493.833	578.81
494.05	585.81
494.268	603.81
494.485	567.81
494.703	591.81
494.92	572.81
495.138	590.81
495.355	574.81
495.573	598.81
495.79	603.81
496.008	598.81
496.225	606.81
496.442	592.81
496.66	609.81
496.877	600.81
497.094	610.81
497.312	594.81
497.529	615.81
497.746	603.81
497.963	625.81
498.181	653.81
498.398	631.81
498.615	652.81
498.832	670.81
499.049	644.81
499.267	680.81
499.484	641.81
499.701	679.81
499.918	737.81
500.135	740.81
500.352	753.81
500.569	783.81
500.786	732.81
501.003	755.81
501.22	763.81
501.437	747.81
501.654	714.81
501.871	713.81
