Data from 1972.PennyLincolnUp.Lamp.En5.5.200Scan.071719.P1._HRD10591_15-27-07-843.txt Node
Date: Thu Jul 18 15:27:07 EDT 2019
User: cochatt
Spectrometer: HR+D1059
Trigger mode: 1
Integration Time (sec): 1.000000E-1
Scans to average: 1
Electric dark correction enabled: true
Nonlinearity correction enabled: false
Boxcar width: 0
XAxis mode: Wavelengths
Number of Pixels in Spectrum: 2048
>>>>>Begin Spectral Data<<<<<
223.165	-16.88
223.4	-16.88
223.635	-16.88
223.869	-15.88
224.104	-10.88
224.338	-6.88
224.573	-4.88
224.808	-14.88
225.042	-10.88
225.277	1.12
225.511	-7.88
225.746	1.12
225.98	-3.88
226.215	5.12
226.449	22.12
226.683	20.12
226.918	25.12
227.152	18.12
227.387	30.12
227.621	39.12
227.856	57.12
228.09	56.12
228.324	57.12
228.559	69.12
228.793	63.12
229.027	89.12
229.262	104.12
229.496	116.12
229.73	138.12
229.964	140.12
230.199	124.12
230.433	116.12
230.667	90.12
230.901	104.12
231.136	110.12
231.37	110.12
231.604	112.12
231.838	106.12
232.072	113.12
232.306	117.12
232.541	97.12
232.775	98.12
233.009	97.12
233.243	113.12
233.477	115.12
233.711	119.12
233.945	109.12
234.179	123.12
234.413	120.12
234.647	120.12
234.881	117.12
235.115	118.12
235.349	104.12
235.583	109.12
235.817	116.12
236.051	130.12
236.285	124.12
236.519	104.12
236.753	124.12
236.987	144.12
237.221	173.12
237.455	201.12
237.689	159.12
237.922	125.12
238.156	138.12
238.39	117.12
238.624	129.12
238.858	113.12
239.091	103.12
239.325	124.12
239.559	112.12
239.793	121.12
240.027	120.12
240.26	133.12
240.494	144.12
240.728	140.12
240.961	132.12
241.195	136.12
241.429	133.12
241.662	133.12
241.896	133.12
242.13	136.12
242.363	136.12
242.597	125.12
242.83	132.12
243.064	133.12
243.298	133.12
243.531	127.12
243.765	129.12
243.998	130.12
244.232	143.12
244.465	141.12
244.699	144.12
244.932	144.12
245.166	121.12
245.399	150.12
245.633	153.12
245.866	126.12
246.099	132.12
246.333	145.12
246.566	144.12
246.8	144.12
247.033	144.12
247.266	159.12
247.5	145.12
247.733	161.12
247.966	158.12
248.2	144.12
248.433	160.12
248.666	154.12
248.899	171.12
249.133	176.12
249.366	186.12
249.599	186.12
249.832	172.12
250.066	199.12
250.299	172.12
250.532	171.12
250.765	191.12
250.998	207.12
251.231	203.12
251.465	195.12
251.698	205.12
251.931	187.12
252.164	173.12
252.397	183.12
252.63	186.12
252.863	191.12
253.096	195.12
253.329	210.12
253.562	203.12
253.795	203.12
254.028	199.12
254.261	201.12
254.494	217.12
254.727	229.12
254.96	264.12
255.193	254.12
255.426	236.12
255.659	205.12
255.892	207.12
256.124	211.12
256.357	208.12
256.59	222.12
256.823	203.12
257.056	210.12
257.289	214.12
257.521	201.12
257.754	213.12
257.987	217.12
258.22	189.12
258.452	187.12
258.685	187.12
258.918	184.12
259.151	188.12
259.383	193.12
259.616	196.12
259.849	200.12
260.081	211.12
260.314	224.12
260.547	235.12
260.779	216.12
261.012	211.12
261.244	200.12
261.477	207.12
261.71	215.12
261.942	221.12
262.175	211.12
262.407	218.12
262.64	205.12
262.872	194.12
263.105	202.12
263.337	187.12
263.57	204.12
263.802	201.12
264.035	200.12
264.267	193.12
264.499	190.12
264.732	195.12
264.964	209.12
265.197	192.12
265.429	182.12
265.661	200.12
265.894	193.12
266.126	207.12
266.358	194.12
266.591	217.12
266.823	210.12
267.055	213.12
267.287	213.12
267.52	196.12
267.752	199.12
267.984	195.12
268.216	217.12
268.448	207.12
268.681	213.12
268.913	218.12
269.145	221.12
269.377	229.12
269.609	240.12
269.841	239.12
270.073	241.12
270.306	252.12
270.538	291.12
270.77	272.12
271.002	269.12
271.234	270.12
271.466	266.12
271.698	281.12
271.93	264.12
272.162	277.12
272.394	283.12
272.626	269.12
272.858	253.12
273.09	263.12
273.322	245.12
273.553	238.12
273.785	244.12
274.017	246.12
274.249	234.12
274.481	250.12
274.713	237.12
274.945	230.12
275.176	234.12
275.408	229.12
275.64	236.12
275.872	232.12
276.104	230.12
276.335	243.12
276.567	218.12
276.799	243.12
277.031	259.12
277.262	271.12
277.494	297.12
277.726	259.12
277.957	260.12
278.189	246.12
278.421	254.12
278.652	246.12
278.884	245.12
279.115	239.12
279.347	242.12
279.579	232.12
279.81	235.12
280.042	237.12
280.273	232.12
280.505	239.12
280.736	239.12
280.968	223.12
281.199	233.12
281.431	264.12
281.662	254.12
281.894	223.12
282.125	239.12
282.356	256.12
282.588	273.12
282.819	273.12
283.051	269.12
283.282	238.12
283.513	241.12
283.745	244.12
283.976	242.12
284.207	250.12
284.439	247.12
284.67	250.12
284.901	235.12
285.132	247.12
285.364	256.12
285.595	244.12
285.826	242.12
286.057	232.12
286.288	237.12
286.52	239.12
286.751	258.12
286.982	251.12
287.213	261.12
287.444	247.12
287.675	266.12
287.906	265.12
288.138	242.12
288.369	274.12
288.6	269.12
288.831	265.12
289.062	248.12
289.293	261.12
289.524	247.12
289.755	245.12
289.986	261.12
290.217	247.12
290.448	240.12
290.679	262.12
290.91	247.12
291.141	250.12
291.371	245.12
291.602	245.12
291.833	259.12
292.064	223.12
292.295	240.12
292.526	248.12
292.757	264.12
292.987	261.12
293.218	238.12
293.449	254.12
293.68	247.12
293.91	285.12
294.141	231.12
294.372	261.12
294.603	240.12
294.833	244.12
295.064	248.12
295.295	250.12
295.525	247.12
295.756	261.12
295.987	261.12
296.217	302.12
296.448	287.12
296.679	264.12
296.909	238.12
297.14	232.12
297.37	260.12
297.601	250.12
297.831	268.12
298.062	250.12
298.292	266.12
298.523	258.12
298.753	262.12
298.984	281.12
299.214	250.12
299.445	266.12
299.675	296.12
299.905	277.12
300.136	276.12
300.366	268.12
300.597	274.12
300.827	275.12
301.057	295.12
301.288	295.12
301.518	281.12
301.748	273.12
301.979	259.12
302.209	300.12
302.439	258.12
302.669	283.12
302.9	270.12
303.13	279.12
303.36	288.12
303.59	288.12
303.82	317.12
304.051	280.12
304.281	271.12
304.511	293.12
304.741	288.12
304.971	279.12
305.201	284.12
305.431	274.12
305.661	293.12
305.891	276.12
306.121	277.12
306.352	281.12
306.582	296.12
306.812	284.12
307.042	284.12
307.272	286.12
307.502	266.12
307.731	278.12
307.961	286.12
308.191	272.12
308.421	297.12
308.651	306.12
308.881	286.12
309.111	292.12
309.341	311.12
309.571	298.12
309.8	303.12
310.03	339.12
310.26	326.12
310.49	300.12
310.72	319.12
310.949	341.12
311.179	342.12
311.409	320.12
311.639	312.12
311.868	311.12
312.098	338.12
312.328	348.12
312.557	339.12
312.787	364.12
313.017	331.12
313.246	358.12
313.476	319.12
313.706	316.12
313.935	325.12
314.165	333.12
314.394	345.12
314.624	352.12
314.853	315.12
315.083	331.12
315.312	329.12
315.542	316.12
315.771	319.12
316.001	330.12
316.23	320.12
316.46	325.12
316.689	321.12
316.919	318.12
317.148	340.12
317.377	347.12
317.607	326.12
317.836	336.12
318.065	321.12
318.295	319.12
318.524	330.12
318.753	325.12
318.983	326.12
319.212	324.12
319.441	331.12
319.67	356.12
319.9	317.12
320.129	328.12
320.358	319.12
320.587	327.12
320.816	327.12
321.046	340.12
321.275	326.12
321.504	343.12
321.733	355.12
321.962	346.12
322.191	358.12
322.42	362.12
322.649	397.12
322.878	396.12
323.108	394.12
323.337	430.12
323.566	429.12
323.795	451.12
324.024	504.12
324.253	614.12
324.482	841.12
324.71	1276.12
324.939	1872.12
325.168	1657.12
325.397	866.12
325.626	558.12
325.855	474.12
326.084	446.12
326.313	442.12
326.542	423.12
326.77	484.12
326.999	526.12
327.228	758.12
327.457	1140.12
327.686	1431.12
327.914	976.12
328.143	625.12
328.372	552.12
328.6	513.12
328.829	480.12
329.058	494.12
329.287	498.12
329.515	488.12
329.744	450.12
329.972	434.12
330.201	460.12
330.43	477.12
330.658	522.12
330.887	504.12
331.115	505.12
331.344	453.12
331.572	418.12
331.801	431.12
332.03	427.12
332.258	405.12
332.486	389.12
332.715	388.12
332.943	382.12
333.172	381.12
333.4	386.12
333.629	382.12
333.857	383.12
334.085	420.12
334.314	442.12
334.542	454.12
334.771	459.12
334.999	424.12
335.227	403.12
335.455	384.12
335.684	396.12
335.912	355.12
336.14	376.12
336.369	374.12
336.597	380.12
336.825	385.12
337.053	380.12
337.281	360.12
337.51	370.12
337.738	374.12
337.966	362.12
338.194	385.12
338.422	376.12
338.65	378.12
338.878	361.12
339.106	380.12
339.334	376.12
339.562	366.12
339.79	376.12
340.018	374.12
340.246	377.12
340.474	384.12
340.702	368.12
340.93	350.12
341.158	373.12
341.386	357.12
341.614	378.12
341.842	387.12
342.07	374.12
342.298	370.12
342.526	346.12
342.754	338.12
342.981	338.12
343.209	337.12
343.437	349.12
343.665	349.12
343.893	366.12
344.12	352.12
344.348	348.12
344.576	346.12
344.804	361.12
345.031	357.12
345.259	366.12
345.487	380.12
345.714	365.12
345.942	334.12
346.17	360.12
346.397	376.12
346.625	374.12
346.853	353.12
347.08	354.12
347.308	356.12
347.535	364.12
347.763	357.12
347.99	358.12
348.218	385.12
348.445	380.12
348.673	360.12
348.9	366.12
349.128	335.12
349.355	338.12
349.583	359.12
349.81	352.12
350.037	362.12
350.265	337.12
350.492	344.12
350.72	340.12
350.947	359.12
351.174	350.12
351.402	368.12
351.629	372.12
351.856	374.12
352.083	377.12
352.311	367.12
352.538	367.12
352.765	357.12
352.992	361.12
353.22	361.12
353.447	350.12
353.674	341.12
353.901	357.12
354.128	337.12
354.355	333.12
354.583	337.12
354.81	336.12
355.037	334.12
355.264	314.12
355.491	328.12
355.718	331.12
355.945	337.12
356.172	328.12
356.399	311.12
356.626	328.12
356.853	319.12
357.08	324.12
357.307	349.12
357.534	334.12
357.761	330.12
357.988	327.12
358.215	325.12
358.441	314.12
358.668	324.12
358.895	337.12
359.122	337.12
359.349	351.12
359.576	357.12
359.802	365.12
360.029	383.12
360.256	410.12
360.483	385.12
360.709	358.12
360.936	349.12
361.163	344.12
361.39	356.12
361.616	347.12
361.843	358.12
362.07	356.12
362.296	364.12
362.523	365.12
362.749	364.12
362.976	339.12
363.203	362.12
363.429	342.12
363.656	342.12
363.882	367.12
364.109	349.12
364.335	356.12
364.562	350.12
364.788	326.12
365.015	339.12
365.241	328.12
365.468	325.12
365.694	356.12
365.92	358.12
366.147	331.12
366.373	324.12
366.599	345.12
366.826	346.12
367.052	342.12
367.278	331.12
367.505	349.12
367.731	327.12
367.957	336.12
368.184	344.12
368.41	346.12
368.636	353.12
368.862	340.12
369.089	328.12
369.315	328.12
369.541	336.12
369.767	336.12
369.993	330.12
370.219	343.12
370.445	312.12
370.672	334.12
370.898	325.12
371.124	340.12
371.35	323.12
371.576	341.12
371.802	334.12
372.028	317.12
372.254	323.12
372.48	340.12
372.706	324.12
372.932	304.12
373.158	354.12
373.384	341.12
373.61	337.12
373.835	336.12
374.061	333.12
374.287	333.12
374.513	332.12
374.739	353.12
374.965	324.12
375.191	335.12
375.416	333.12
375.642	345.12
375.868	343.12
376.094	340.12
376.319	335.12
376.545	322.12
376.771	338.12
376.997	350.12
377.222	326.12
377.448	326.12
377.674	344.12
377.899	325.12
378.125	321.12
378.35	339.12
378.576	325.12
378.802	333.12
379.027	338.12
379.253	324.12
379.478	313.12
379.704	342.12
379.929	334.12
380.155	347.12
380.38	335.12
380.606	315.12
380.831	341.12
381.057	352.12
381.282	313.12
381.507	341.12
381.733	334.12
381.958	321.12
382.184	337.12
382.409	336.12
382.634	332.12
382.86	338.12
383.085	350.12
383.31	323.12
383.535	350.12
383.761	353.12
383.986	339.12
384.211	347.12
384.436	342.12
384.662	344.12
384.887	361.12
385.112	351.12
385.337	365.12
385.562	351.12
385.787	357.12
386.013	348.12
386.238	355.12
386.463	361.12
386.688	361.12
386.913	356.12
387.138	342.12
387.363	372.12
387.588	344.12
387.813	353.12
388.038	353.12
388.263	360.12
388.488	366.12
388.713	369.12
388.938	360.12
389.163	359.12
389.387	362.12
389.612	345.12
389.837	356.12
390.062	336.12
390.287	348.12
390.512	350.12
390.736	344.12
390.961	349.12
391.186	347.12
391.411	364.12
391.636	348.12
391.86	372.12
392.085	356.12
392.31	367.12
392.534	365.12
392.759	367.12
392.984	363.12
393.208	372.12
393.433	394.12
393.658	404.12
393.882	362.12
394.107	353.12
394.331	366.12
394.556	358.12
394.78	346.12
395.005	343.12
395.229	361.12
395.454	351.12
395.678	359.12
395.903	376.12
396.127	401.12
396.352	398.12
396.576	385.12
396.801	370.12
397.025	406.12
397.249	385.12
397.474	366.12
397.698	361.12
397.922	413.12
398.147	390.12
398.371	401.12
398.595	381.12
398.82	390.12
399.044	401.12
399.268	408.12
399.492	407.12
399.717	442.12
399.941	465.12
400.165	503.12
400.389	495.12
400.613	454.12
400.837	436.12
401.062	398.12
401.286	399.12
401.51	396.12
401.734	414.12
401.958	421.12
402.182	424.12
402.406	433.12
402.63	415.12
402.854	392.12
403.078	402.12
403.302	401.12
403.526	413.12
403.75	402.12
403.974	402.12
404.198	408.12
404.422	410.12
404.645	411.12
404.869	412.12
405.093	446.12
405.317	473.12
405.541	479.12
405.765	444.12
405.988	435.12
406.212	448.12
406.436	457.12
406.66	476.12
406.883	461.12
407.107	463.12
407.331	494.12
407.555	549.12
407.778	537.12
408.002	494.12
408.226	452.12
408.449	459.12
408.673	448.12
408.896	470.12
409.12	549.12
409.344	509.12
409.567	434.12
409.791	426.12
410.014	414.12
410.238	412.12
410.461	406.12
410.685	417.12
410.908	433.12
411.132	460.12
411.355	473.12
411.578	463.12
411.802	429.12
412.025	416.12
412.249	405.12
412.472	441.12
412.695	474.12
412.919	481.12
413.142	444.12
413.365	410.12
413.589	405.12
413.812	411.12
414.035	394.12
414.258	393.12
414.482	390.12
414.705	406.12
414.928	392.12
415.151	396.12
415.374	410.12
415.597	383.12
415.821	382.12
416.044	389.12
416.267	408.12
416.49	377.12
416.713	383.12
416.936	394.12
417.159	387.12
417.382	386.12
417.605	388.12
417.828	392.12
418.051	416.12
418.274	414.12
418.497	396.12
418.72	397.12
418.943	390.12
419.166	421.12
419.389	419.12
419.611	409.12
419.834	410.12
420.057	417.12
420.28	407.12
420.503	412.12
420.726	410.12
420.948	436.12
421.171	471.12
421.394	484.12
421.617	429.12
421.839	402.12
422.062	421.12
422.285	419.12
422.507	477.12
422.73	530.12
422.953	520.12
423.175	438.12
423.398	415.12
423.621	430.12
423.843	436.12
424.066	455.12
424.288	435.12
424.511	464.12
424.733	516.12
424.956	576.12
425.178	564.12
425.401	547.12
425.623	578.12
425.846	497.12
426.068	458.12
426.291	439.12
426.513	452.12
426.735	466.12
426.958	496.12
427.18	557.12
427.402	688.12
427.625	763.12
427.847	657.12
428.069	554.12
428.292	501.12
428.514	429.12
428.736	448.12
428.958	422.12
429.181	415.12
429.403	424.12
429.625	442.12
429.847	468.12
430.069	512.12
430.292	510.12
430.514	441.12
430.736	417.12
430.958	411.12
431.18	415.12
431.402	410.12
431.624	376.12
431.846	386.12
432.068	385.12
432.29	393.12
432.512	412.12
432.734	414.12
432.956	390.12
433.178	411.12
433.4	402.12
433.622	414.12
433.844	397.12
434.066	366.12
434.287	382.12
434.509	398.12
434.731	403.12
434.953	416.12
435.175	441.12
435.397	455.12
435.618	439.12
435.84	487.12
436.062	589.12
436.284	642.12
436.505	529.12
436.727	459.12
436.949	453.12
437.17	428.12
437.392	429.12
437.614	445.12
437.835	458.12
438.057	510.12
438.278	625.12
438.5	611.12
438.721	687.12
438.943	644.12
439.165	519.12
439.386	481.12
439.608	476.12
439.829	461.12
440.05	502.12
440.272	508.12
440.493	496.12
440.715	448.12
440.936	422.12
441.158	462.12
441.379	436.12
441.6	445.12
441.822	464.12
442.043	486.12
442.264	537.12
442.486	593.12
442.707	513.12
442.928	475.12
443.149	465.12
443.371	484.12
443.592	528.12
443.813	615.12
444.034	682.12
444.255	536.12
444.476	477.12
444.698	439.12
444.919	455.12
445.14	534.12
445.361	492.12
445.582	474.12
445.803	530.12
446.024	629.12
446.245	654.12
446.466	604.12
446.687	500.12
446.908	462.12
447.129	440.12
447.35	410.12
447.571	423.12
447.792	438.12
448.013	424.12
448.234	442.12
448.455	472.12
448.675	568.12
448.896	669.12
449.117	589.12
449.338	544.12
449.559	638.12
449.779	710.12
450	604.12
450.221	487.12
450.442	444.12
450.662	431.12
450.883	415.12
451.104	417.12
451.324	416.12
451.545	389.12
451.766	402.12
451.986	371.12
452.207	392.12
452.428	379.12
452.648	377.12
452.869	369.12
453.089	392.12
453.31	402.12
453.53	386.12
453.751	358.12
453.971	380.12
454.192	393.12
454.412	392.12
454.633	381.12
454.853	369.12
455.073	369.12
455.294	417.12
455.514	460.12
455.734	417.12
455.955	389.12
456.175	358.12
456.395	345.12
456.616	392.12
456.836	360.12
457.056	339.12
457.276	345.12
457.497	368.12
457.717	335.12
457.937	352.12
458.157	380.12
458.377	354.12
458.598	389.12
458.818	422.12
459.038	494.12
459.258	530.12
459.478	446.12
459.698	406.12
459.918	384.12
460.138	394.12
460.358	384.12
460.578	379.12
460.798	395.12
461.018	400.12
461.238	402.12
461.458	390.12
461.678	394.12
461.898	428.12
462.118	388.12
462.338	383.12
462.558	406.12
462.777	406.12
462.997	429.12
463.217	414.12
463.437	414.12
463.657	420.12
463.876	422.12
464.096	431.12
464.316	418.12
464.536	404.12
464.755	414.12
464.975	439.12
465.195	456.12
465.414	490.12
465.634	438.12
465.854	430.12
466.073	388.12
466.293	385.12
466.512	395.12
466.732	376.12
466.951	377.12
467.171	379.12
467.391	386.12
467.61	380.12
467.829	392.12
468.049	416.12
468.268	385.12
468.488	378.12
468.707	380.12
468.927	366.12
469.146	350.12
469.365	389.12
469.585	373.12
469.804	369.12
470.023	409.12
470.243	395.12
470.462	410.12
470.681	398.12
470.901	406.12
471.12	394.12
471.339	385.12
471.558	388.12
471.777	376.12
471.997	406.12
472.216	392.12
472.435	422.12
472.654	418.12
472.873	416.12
473.092	403.12
473.311	392.12
473.53	388.12
473.749	391.12
473.968	408.12
474.187	529.12
474.406	526.12
474.625	441.12
474.844	422.12
475.063	414.12
475.282	398.12
475.501	379.12
475.72	408.12
475.939	403.12
476.158	396.12
476.377	406.12
476.596	406.12
476.814	405.12
477.033	413.12
477.252	420.12
477.471	420.12
477.69	405.12
477.908	430.12
478.127	433.12
478.346	413.12
478.564	439.12
478.783	407.12
479.002	414.12
479.22	440.12
479.439	441.12
479.658	459.12
479.876	466.12
480.095	470.12
480.313	480.12
480.532	454.12
480.751	476.12
480.969	467.12
481.188	510.12
481.406	564.12
481.624	507.12
481.843	458.12
482.061	464.12
482.28	445.12
482.498	479.12
482.717	432.12
482.935	461.12
483.153	461.12
483.372	459.12
483.59	454.12
483.808	463.12
484.027	456.12
484.245	475.12
484.463	436.12
484.681	477.12
484.9	454.12
485.118	466.12
485.336	445.12
485.554	462.12
485.772	457.12
485.99	459.12
486.209	471.12
486.427	479.12
486.645	474.12
486.863	514.12
487.081	498.12
487.299	506.12
487.517	491.12
487.735	501.12
487.953	486.12
488.171	494.12
488.389	495.12
488.607	507.12
488.825	511.12
489.043	489.12
489.261	496.12
489.479	482.12
489.696	502.12
489.914	511.12
490.132	482.12
490.35	512.12
490.568	506.12
490.786	525.12
491.003	501.12
491.221	545.12
491.439	539.12
491.657	531.12
491.874	548.12
492.092	535.12
492.31	561.12
492.527	551.12
492.745	556.12
492.963	551.12
493.18	563.12
493.398	590.12
493.615	576.12
493.833	560.12
494.05	567.12
494.268	564.12
494.485	570.12
494.703	559.12
494.92	560.12
495.138	558.12
495.355	577.12
495.573	576.12
495.79	575.12
496.008	569.12
496.225	571.12
496.442	592.12
496.66	584.12
496.877	547.12
497.094	569.12
497.312	573.12
497.529	598.12
497.746	634.12
497.963	606.12
498.181	594.12
498.398	638.12
498.615	631.12
498.832	626.12
499.049	632.12
499.267	643.12
499.484	650.12
499.701	682.12
499.918	698.12
500.135	729.12
500.352	744.12
500.569	745.12
500.786	752.12
501.003	731.12
501.22	728.12
501.437	714.12
501.654	712.12
501.871	707.12
502.088	685.12
