Data from 1972.PennyLincolnUp.Lamp.En5.5.200Scan.071719.P1._HRD10591_15-26-46-843.txt Node
Date: Thu Jul 18 15:26:46 EDT 2019
User: cochatt
Spectrometer: HR+D1059
Trigger mode: 1
Integration Time (sec): 1.000000E-1
Scans to average: 1
Electric dark correction enabled: true
Nonlinearity correction enabled: false
Boxcar width: 0
XAxis mode: Wavelengths
Number of Pixels in Spectrum: 2048
>>>>>Begin Spectral Data<<<<<
223.165	-9.44
223.4	-9.44
223.635	-9.44
223.869	-21.44
224.104	-11.44
224.338	-10.44
224.573	-10.44
224.808	-16.44
225.042	-11.44
225.277	2.56
225.511	-1.44
225.746	6.56
225.98	-7.44
226.215	6.56
226.449	13.56
226.683	12.56
226.918	30.56
227.152	27.56
227.387	32.56
227.621	43.56
227.856	31.56
228.09	32.56
228.324	43.56
228.559	54.56
228.793	67.56
229.027	89.56
229.262	92.56
229.496	91.56
229.73	111.56
229.964	121.56
230.199	93.56
230.433	101.56
230.667	100.56
230.901	90.56
231.136	92.56
231.37	103.56
231.604	96.56
231.838	97.56
232.072	94.56
232.306	99.56
232.541	120.56
232.775	100.56
233.009	99.56
233.243	97.56
233.477	96.56
233.711	111.56
233.945	113.56
234.179	102.56
234.413	107.56
234.647	110.56
234.881	88.56
235.115	110.56
235.349	93.56
235.583	102.56
235.817	114.56
236.051	103.56
236.285	101.56
236.519	108.56
236.753	99.56
236.987	109.56
237.221	142.56
237.455	167.56
237.689	151.56
237.922	123.56
238.156	112.56
238.39	111.56
238.624	104.56
238.858	106.56
239.091	103.56
239.325	111.56
239.559	111.56
239.793	115.56
240.027	109.56
240.26	129.56
240.494	133.56
240.728	118.56
240.961	124.56
241.195	121.56
241.429	112.56
241.662	113.56
241.896	118.56
242.13	119.56
242.363	110.56
242.597	128.56
242.83	114.56
243.064	125.56
243.298	132.56
243.531	130.56
243.765	117.56
243.998	108.56
244.232	122.56
244.465	121.56
244.699	124.56
244.932	117.56
245.166	123.56
245.399	134.56
245.633	126.56
245.866	114.56
246.099	114.56
246.333	135.56
246.566	126.56
246.8	130.56
247.033	118.56
247.266	129.56
247.5	126.56
247.733	124.56
247.966	145.56
248.2	128.56
248.433	131.56
248.666	131.56
248.899	145.56
249.133	169.56
249.366	176.56
249.599	149.56
249.832	148.56
250.066	159.56
250.299	151.56
250.532	164.56
250.765	174.56
250.998	173.56
251.231	179.56
251.465	168.56
251.698	192.56
251.931	166.56
252.164	156.56
252.397	168.56
252.63	172.56
252.863	163.56
253.096	182.56
253.329	182.56
253.562	177.56
253.795	175.56
254.028	173.56
254.261	168.56
254.494	183.56
254.727	201.56
254.96	199.56
255.193	203.56
255.426	207.56
255.659	194.56
255.892	191.56
256.124	178.56
256.357	192.56
256.59	196.56
256.823	162.56
257.056	160.56
257.289	168.56
257.521	159.56
257.754	170.56
257.987	180.56
258.22	164.56
258.452	159.56
258.685	160.56
258.918	171.56
259.151	188.56
259.383	180.56
259.616	180.56
259.849	186.56
260.081	194.56
260.314	198.56
260.547	195.56
260.779	180.56
261.012	193.56
261.244	180.56
261.477	187.56
261.71	191.56
261.942	174.56
262.175	165.56
262.407	188.56
262.64	170.56
262.872	152.56
263.105	180.56
263.337	183.56
263.57	157.56
263.802	169.56
264.035	180.56
264.267	175.56
264.499	166.56
264.732	183.56
264.964	170.56
265.197	186.56
265.429	181.56
265.661	172.56
265.894	172.56
266.126	188.56
266.358	182.56
266.591	171.56
266.823	168.56
267.055	172.56
267.287	169.56
267.52	171.56
267.752	191.56
267.984	163.56
268.216	184.56
268.448	187.56
268.681	190.56
268.913	183.56
269.145	204.56
269.377	196.56
269.609	199.56
269.841	210.56
270.073	199.56
270.306	213.56
270.538	239.56
270.77	239.56
271.002	226.56
271.234	218.56
271.466	214.56
271.698	222.56
271.93	239.56
272.162	229.56
272.394	215.56
272.626	221.56
272.858	220.56
273.09	217.56
273.322	213.56
273.553	207.56
273.785	214.56
274.017	218.56
274.249	201.56
274.481	201.56
274.713	208.56
274.945	213.56
275.176	235.56
275.408	204.56
275.64	198.56
275.872	192.56
276.104	215.56
276.335	208.56
276.567	212.56
276.799	223.56
277.031	229.56
277.262	229.56
277.494	228.56
277.726	226.56
277.957	202.56
278.189	211.56
278.421	214.56
278.652	209.56
278.884	210.56
279.115	211.56
279.347	211.56
279.579	208.56
279.81	208.56
280.042	223.56
280.273	221.56
280.505	207.56
280.736	195.56
280.968	201.56
281.199	212.56
281.431	207.56
281.662	211.56
281.894	203.56
282.125	206.56
282.356	222.56
282.588	232.56
282.819	214.56
283.051	200.56
283.282	219.56
283.513	214.56
283.745	214.56
283.976	203.56
284.207	226.56
284.439	193.56
284.67	224.56
284.901	197.56
285.132	213.56
285.364	221.56
285.595	196.56
285.826	226.56
286.057	222.56
286.288	222.56
286.52	217.56
286.751	217.56
286.982	204.56
287.213	219.56
287.444	207.56
287.675	220.56
287.906	208.56
288.138	214.56
288.369	230.56
288.6	220.56
288.831	216.56
289.062	230.56
289.293	227.56
289.524	216.56
289.755	214.56
289.986	218.56
290.217	226.56
290.448	205.56
290.679	217.56
290.91	220.56
291.141	223.56
291.371	213.56
291.602	223.56
291.833	200.56
292.064	222.56
292.295	214.56
292.526	216.56
292.757	234.56
292.987	210.56
293.218	215.56
293.449	226.56
293.68	208.56
293.91	226.56
294.141	223.56
294.372	218.56
294.603	212.56
294.833	209.56
295.064	198.56
295.295	212.56
295.525	216.56
295.756	223.56
295.987	222.56
296.217	238.56
296.448	245.56
296.679	237.56
296.909	217.56
297.14	234.56
297.37	230.56
297.601	228.56
297.831	228.56
298.062	213.56
298.292	232.56
298.523	222.56
298.753	220.56
298.984	235.56
299.214	219.56
299.445	238.56
299.675	220.56
299.905	213.56
300.136	223.56
300.366	215.56
300.597	237.56
300.827	236.56
301.057	235.56
301.288	224.56
301.518	233.56
301.748	226.56
301.979	235.56
302.209	242.56
302.439	251.56
302.669	243.56
302.9	242.56
303.13	225.56
303.36	246.56
303.59	260.56
303.82	236.56
304.051	251.56
304.281	232.56
304.511	248.56
304.741	231.56
304.971	242.56
305.201	266.56
305.431	243.56
305.661	242.56
305.891	255.56
306.121	258.56
306.352	250.56
306.582	234.56
306.812	233.56
307.042	236.56
307.272	260.56
307.502	256.56
307.731	265.56
307.961	255.56
308.191	240.56
308.421	246.56
308.651	268.56
308.881	251.56
309.111	255.56
309.341	255.56
309.571	254.56
309.8	262.56
310.03	262.56
310.26	274.56
310.49	279.56
310.72	273.56
310.949	285.56
311.179	284.56
311.409	279.56
311.639	276.56
311.868	267.56
312.098	285.56
312.328	289.56
312.557	281.56
312.787	297.56
313.017	304.56
313.246	287.56
313.476	273.56
313.706	261.56
313.935	267.56
314.165	283.56
314.394	282.56
314.624	277.56
314.853	268.56
315.083	278.56
315.312	296.56
315.542	272.56
315.771	277.56
316.001	253.56
316.23	274.56
316.46	269.56
316.689	285.56
316.919	269.56
317.148	275.56
317.377	278.56
317.607	297.56
317.836	283.56
318.065	294.56
318.295	275.56
318.524	276.56
318.753	297.56
318.983	283.56
319.212	273.56
319.441	266.56
319.67	285.56
319.9	290.56
320.129	300.56
320.358	279.56
320.587	276.56
320.816	280.56
321.046	298.56
321.275	294.56
321.504	273.56
321.733	282.56
321.962	289.56
322.191	291.56
322.42	318.56
322.649	314.56
322.878	308.56
323.108	347.56
323.337	313.56
323.566	347.56
323.795	362.56
324.024	389.56
324.253	425.56
324.482	641.56
324.71	939.56
324.939	1346.56
325.168	1233.56
325.397	639.56
325.626	460.56
325.855	370.56
326.084	355.56
326.313	347.56
326.542	350.56
326.77	382.56
326.999	438.56
327.228	594.56
327.457	856.56
327.686	1020.56
327.914	716.56
328.143	463.56
328.372	428.56
328.6	391.56
328.829	372.56
329.058	391.56
329.287	375.56
329.515	358.56
329.744	362.56
329.972	350.56
330.201	355.56
330.43	371.56
330.658	404.56
330.887	413.56
331.115	398.56
331.344	344.56
331.572	332.56
331.801	332.56
332.03	336.56
332.258	331.56
332.486	308.56
332.715	328.56
332.943	309.56
333.172	329.56
333.4	311.56
333.629	327.56
333.857	310.56
334.085	363.56
334.314	336.56
334.542	342.56
334.771	361.56
334.999	349.56
335.227	332.56
335.455	347.56
335.684	306.56
335.912	319.56
336.14	312.56
336.369	309.56
336.597	323.56
336.825	327.56
337.053	320.56
337.281	312.56
337.51	306.56
337.738	313.56
337.966	294.56
338.194	300.56
338.422	322.56
338.65	328.56
338.878	315.56
339.106	317.56
339.334	319.56
339.562	294.56
339.79	301.56
340.018	322.56
340.246	308.56
340.474	306.56
340.702	303.56
340.93	291.56
341.158	310.56
341.386	332.56
341.614	322.56
341.842	303.56
342.07	322.56
342.298	318.56
342.526	307.56
342.754	314.56
342.981	280.56
343.209	318.56
343.437	295.56
343.665	313.56
343.893	313.56
344.12	314.56
344.348	306.56
344.576	302.56
344.804	322.56
345.031	309.56
345.259	317.56
345.487	329.56
345.714	312.56
345.942	310.56
346.17	301.56
346.397	303.56
346.625	293.56
346.853	293.56
347.08	313.56
347.308	314.56
347.535	313.56
347.763	308.56
347.99	320.56
348.218	322.56
348.445	312.56
348.673	306.56
348.9	291.56
349.128	300.56
349.355	276.56
349.583	308.56
349.81	312.56
350.037	292.56
350.265	302.56
350.492	289.56
350.72	306.56
350.947	297.56
351.174	306.56
351.402	326.56
351.629	311.56
351.856	296.56
352.083	298.56
352.311	306.56
352.538	326.56
352.765	311.56
352.992	308.56
353.22	301.56
353.447	286.56
353.674	299.56
353.901	295.56
354.128	287.56
354.355	294.56
354.583	292.56
354.81	298.56
355.037	275.56
355.264	287.56
355.491	293.56
355.718	262.56
355.945	274.56
356.172	284.56
356.399	279.56
356.626	294.56
356.853	249.56
357.08	294.56
357.307	296.56
357.534	268.56
357.761	274.56
357.988	289.56
358.215	279.56
358.441	287.56
358.668	282.56
358.895	312.56
359.122	290.56
359.349	299.56
359.576	296.56
359.802	320.56
360.029	334.56
360.256	331.56
360.483	307.56
360.709	295.56
360.936	299.56
361.163	295.56
361.39	310.56
361.616	308.56
361.843	296.56
362.07	283.56
362.296	288.56
362.523	299.56
362.749	297.56
362.976	282.56
363.203	304.56
363.429	273.56
363.656	302.56
363.882	294.56
364.109	305.56
364.335	293.56
364.562	290.56
364.788	297.56
365.015	298.56
365.241	300.56
365.468	277.56
365.694	299.56
365.92	308.56
366.147	304.56
366.373	300.56
366.599	297.56
366.826	270.56
367.052	286.56
367.278	294.56
367.505	279.56
367.731	310.56
367.957	308.56
368.184	279.56
368.41	296.56
368.636	293.56
368.862	303.56
369.089	298.56
369.315	284.56
369.541	262.56
369.767	290.56
369.993	287.56
370.219	292.56
370.445	312.56
370.672	295.56
370.898	286.56
371.124	300.56
371.35	310.56
371.576	298.56
371.802	306.56
372.028	280.56
372.254	309.56
372.48	301.56
372.706	279.56
372.932	284.56
373.158	308.56
373.384	290.56
373.61	326.56
373.835	295.56
374.061	288.56
374.287	285.56
374.513	291.56
374.739	298.56
374.965	301.56
375.191	308.56
375.416	293.56
375.642	301.56
375.868	303.56
376.094	278.56
376.319	296.56
376.545	298.56
376.771	312.56
376.997	293.56
377.222	284.56
377.448	285.56
377.674	276.56
377.899	282.56
378.125	290.56
378.35	285.56
378.576	281.56
378.802	299.56
379.027	278.56
379.253	298.56
379.478	284.56
379.704	303.56
379.929	305.56
380.155	298.56
380.38	308.56
380.606	282.56
380.831	281.56
381.057	285.56
381.282	273.56
381.507	318.56
381.733	298.56
381.958	293.56
382.184	290.56
382.409	299.56
382.634	314.56
382.86	300.56
383.085	289.56
383.31	298.56
383.535	306.56
383.761	306.56
383.986	316.56
384.211	310.56
384.436	296.56
384.662	309.56
384.887	308.56
385.112	296.56
385.337	325.56
385.562	302.56
385.787	311.56
386.013	327.56
386.238	326.56
386.463	333.56
386.688	314.56
386.913	332.56
387.138	323.56
387.363	325.56
387.588	325.56
387.813	313.56
388.038	320.56
388.263	343.56
388.488	329.56
388.713	307.56
388.938	316.56
389.163	345.56
389.387	314.56
389.612	316.56
389.837	317.56
390.062	317.56
390.287	316.56
390.512	312.56
390.736	324.56
390.961	312.56
391.186	310.56
391.411	322.56
391.636	308.56
391.86	313.56
392.085	327.56
392.31	326.56
392.534	324.56
392.759	326.56
392.984	342.56
393.208	345.56
393.433	387.56
393.658	390.56
393.882	347.56
394.107	318.56
394.331	335.56
394.556	302.56
394.78	328.56
395.005	316.56
395.229	311.56
395.454	323.56
395.678	312.56
395.903	315.56
396.127	347.56
396.352	351.56
396.576	352.56
396.801	363.56
397.025	364.56
397.249	377.56
397.474	348.56
397.698	334.56
397.922	328.56
398.147	343.56
398.371	358.56
398.595	342.56
398.82	354.56
399.044	354.56
399.268	342.56
399.492	378.56
399.717	380.56
399.941	407.56
400.165	419.56
400.389	440.56
400.613	390.56
400.837	347.56
401.062	355.56
401.286	359.56
401.51	349.56
401.734	344.56
401.958	342.56
402.182	358.56
402.406	352.56
402.63	358.56
402.854	334.56
403.078	345.56
403.302	346.56
403.526	364.56
403.75	351.56
403.974	364.56
404.198	347.56
404.422	367.56
404.645	376.56
404.869	376.56
405.093	382.56
405.317	422.56
405.541	438.56
405.765	408.56
405.988	384.56
406.212	395.56
406.436	397.56
406.66	412.56
406.883	394.56
407.107	393.56
407.331	418.56
407.555	491.56
407.778	482.56
408.002	472.56
408.226	418.56
408.449	382.56
408.673	411.56
408.896	415.56
409.12	453.56
409.344	446.56
409.567	358.56
409.791	374.56
410.014	373.56
410.238	365.56
410.461	388.56
410.685	359.56
410.908	380.56
411.132	399.56
411.355	435.56
411.578	414.56
411.802	374.56
412.025	346.56
412.249	367.56
412.472	377.56
412.695	410.56
412.919	403.56
413.142	385.56
413.365	348.56
413.589	350.56
413.812	359.56
414.035	360.56
414.258	354.56
414.482	361.56
414.705	344.56
414.928	348.56
415.151	369.56
415.374	348.56
415.597	351.56
415.821	324.56
416.044	347.56
416.267	362.56
416.49	340.56
416.713	339.56
416.936	360.56
417.159	355.56
417.382	347.56
417.605	356.56
417.828	367.56
418.051	357.56
418.274	350.56
418.497	350.56
418.72	349.56
418.943	319.56
419.166	383.56
419.389	355.56
419.611	359.56
419.834	349.56
420.057	383.56
420.28	369.56
420.503	358.56
420.726	366.56
420.948	360.56
421.171	383.56
421.394	420.56
421.617	359.56
421.839	370.56
422.062	354.56
422.285	381.56
422.507	414.56
422.73	479.56
422.953	460.56
423.175	392.56
423.398	390.56
423.621	374.56
423.843	366.56
424.066	388.56
424.288	384.56
424.511	407.56
424.733	434.56
424.956	488.56
425.178	478.56
425.401	450.56
425.623	497.56
425.846	419.56
426.068	409.56
426.291	399.56
426.513	397.56
426.735	416.56
426.958	391.56
427.18	487.56
427.402	575.56
427.625	640.56
427.847	532.56
428.069	467.56
428.292	433.56
428.514	388.56
428.736	391.56
428.958	366.56
429.181	365.56
429.403	379.56
429.625	394.56
429.847	386.56
430.069	454.56
430.292	463.56
430.514	388.56
430.736	366.56
430.958	368.56
431.18	355.56
431.402	345.56
431.624	349.56
431.846	335.56
432.068	348.56
432.29	347.56
432.512	338.56
432.734	348.56
432.956	360.56
433.178	363.56
433.4	366.56
433.622	350.56
433.844	358.56
434.066	338.56
434.287	336.56
434.509	364.56
434.731	351.56
434.953	361.56
435.175	356.56
435.397	377.56
435.618	386.56
435.84	426.56
436.062	495.56
436.284	542.56
436.505	436.56
436.727	410.56
436.949	375.56
437.17	351.56
437.392	344.56
437.614	361.56
437.835	380.56
438.057	435.56
438.278	532.56
438.5	548.56
438.721	604.56
438.943	559.56
439.165	464.56
439.386	408.56
439.608	396.56
439.829	398.56
440.05	409.56
440.272	438.56
440.493	408.56
440.715	375.56
440.936	372.56
441.158	376.56
441.379	354.56
441.6	375.56
441.822	404.56
442.043	397.56
442.264	472.56
442.486	514.56
442.707	437.56
442.928	414.56
443.149	422.56
443.371	409.56
443.592	447.56
443.813	502.56
444.034	579.56
444.255	486.56
444.476	404.56
444.698	380.56
444.919	399.56
445.14	510.56
445.361	436.56
445.582	414.56
445.803	455.56
446.024	527.56
446.245	544.56
446.466	503.56
446.687	422.56
446.908	388.56
447.129	370.56
447.35	358.56
447.571	364.56
447.792	367.56
448.013	381.56
448.234	410.56
448.455	409.56
448.675	509.56
448.896	603.56
449.117	496.56
449.338	466.56
449.559	538.56
449.779	629.56
450	503.56
450.221	403.56
450.442	372.56
450.662	354.56
450.883	360.56
451.104	348.56
451.324	366.56
451.545	327.56
451.766	327.56
451.986	344.56
452.207	337.56
452.428	330.56
452.648	311.56
452.869	335.56
453.089	330.56
453.31	352.56
453.53	322.56
453.751	326.56
453.971	312.56
454.192	326.56
454.412	346.56
454.633	317.56
454.853	323.56
455.073	336.56
455.294	333.56
455.514	388.56
455.734	374.56
455.955	330.56
456.175	342.56
456.395	308.56
456.616	299.56
456.836	316.56
457.056	332.56
457.276	288.56
457.497	324.56
457.717	317.56
457.937	332.56
458.157	303.56
458.377	322.56
458.598	336.56
458.818	363.56
459.038	402.56
459.258	421.56
459.478	380.56
459.698	344.56
459.918	334.56
460.138	350.56
460.358	341.56
460.578	338.56
460.798	363.56
461.018	355.56
461.238	357.56
461.458	349.56
461.678	332.56
461.898	329.56
462.118	352.56
462.338	335.56
462.558	338.56
462.777	361.56
462.997	359.56
463.217	359.56
463.437	368.56
463.657	376.56
463.876	365.56
464.096	370.56
464.316	373.56
464.536	364.56
464.755	370.56
464.975	362.56
465.195	384.56
465.414	402.56
465.634	388.56
465.854	364.56
466.073	347.56
466.293	341.56
466.512	335.56
466.732	338.56
466.951	330.56
467.171	343.56
467.391	334.56
467.61	350.56
467.829	323.56
468.049	337.56
468.268	327.56
468.488	330.56
468.707	312.56
468.927	350.56
469.146	319.56
469.365	333.56
469.585	340.56
469.804	335.56
470.023	342.56
470.243	378.56
470.462	356.56
470.681	363.56
470.901	350.56
471.12	340.56
471.339	326.56
471.558	333.56
471.777	348.56
471.997	323.56
472.216	355.56
472.435	353.56
472.654	367.56
472.873	347.56
473.092	339.56
473.311	328.56
473.53	336.56
473.749	351.56
473.968	395.56
474.187	450.56
474.406	444.56
474.625	383.56
474.844	376.56
475.063	339.56
475.282	354.56
475.501	355.56
475.72	342.56
475.939	340.56
476.158	345.56
476.377	344.56
476.596	345.56
476.814	334.56
477.033	361.56
477.252	365.56
477.471	357.56
477.69	367.56
477.908	379.56
478.127	378.56
478.346	376.56
478.564	366.56
478.783	363.56
479.002	383.56
479.22	394.56
479.439	371.56
479.658	383.56
479.876	400.56
480.095	403.56
480.313	419.56
480.532	414.56
480.751	384.56
480.969	390.56
481.188	434.56
481.406	459.56
481.624	408.56
481.843	411.56
482.061	413.56
482.28	412.56
482.498	415.56
482.717	389.56
482.935	400.56
483.153	407.56
483.372	399.56
483.59	429.56
483.808	399.56
484.027	396.56
484.245	398.56
484.463	414.56
484.681	395.56
484.9	414.56
485.118	419.56
485.336	416.56
485.554	398.56
485.772	407.56
485.99	427.56
486.209	399.56
486.427	400.56
486.645	435.56
486.863	430.56
487.081	440.56
487.299	440.56
487.517	420.56
487.735	419.56
487.953	417.56
488.171	412.56
488.389	430.56
488.607	423.56
488.825	422.56
489.043	433.56
489.261	428.56
489.479	438.56
489.696	434.56
489.914	438.56
490.132	450.56
490.35	436.56
490.568	452.56
490.786	470.56
491.003	465.56
491.221	458.56
491.439	466.56
491.657	480.56
491.874	457.56
492.092	487.56
492.31	489.56
492.527	488.56
492.745	468.56
492.963	494.56
493.18	483.56
493.398	514.56
493.615	491.56
493.833	498.56
494.05	496.56
494.268	487.56
494.485	491.56
494.703	492.56
494.92	478.56
495.138	510.56
495.355	499.56
495.573	521.56
495.79	508.56
496.008	500.56
496.225	494.56
496.442	480.56
496.66	484.56
496.877	496.56
497.094	532.56
497.312	518.56
497.529	524.56
497.746	522.56
497.963	538.56
498.181	539.56
498.398	528.56
498.615	566.56
498.832	547.56
499.049	572.56
499.267	574.56
499.484	604.56
499.701	572.56
499.918	627.56
500.135	619.56
500.352	660.56
500.569	650.56
500.786	651.56
501.003	660.56
501.22	649.56
501.437	646.56
501.654	624.56
501.871	617.56
502.088	580.56
502.305	603.56
