Data from 1972.PennyLincolnUp.Lamp.En5.5.200Scan.071719.P1._HRD10591_15-30-00-845.txt Node
Date: Thu Jul 18 15:30:00 EDT 2019
User: cochatt
Spectrometer: HR+D1059
Trigger mode: 1
Integration Time (sec): 1.000000E-1
Scans to average: 1
Electric dark correction enabled: true
Nonlinearity correction enabled: false
Boxcar width: 0
XAxis mode: Wavelengths
Number of Pixels in Spectrum: 2048
>>>>>Begin Spectral Data<<<<<
223.165	-11.31
223.4	-11.31
223.635	-11.31
223.869	-19.31
224.104	-13.31
224.338	-21.31
224.573	-20.31
224.808	-4.31
225.042	-4.31
225.277	-11.31
225.511	-1.31
225.746	11.69
225.98	5.69
226.215	20.69
226.449	4.69
226.683	19.69
226.918	25.69
227.152	18.69
227.387	27.69
227.621	44.69
227.856	40.69
228.09	56.69
228.324	56.69
228.559	70.69
228.793	73.69
229.027	110.69
229.262	111.69
229.496	130.69
229.73	132.69
229.964	182.69
230.199	140.69
230.433	112.69
230.667	123.69
230.901	111.69
231.136	114.69
231.37	100.69
231.604	104.69
231.838	115.69
232.072	111.69
232.306	140.69
232.541	129.69
232.775	112.69
233.009	133.69
233.243	116.69
233.477	112.69
233.711	132.69
233.945	122.69
234.179	127.69
234.413	123.69
234.647	113.69
234.881	118.69
235.115	119.69
235.349	129.69
235.583	124.69
235.817	115.69
236.051	117.69
236.285	137.69
236.519	137.69
236.753	131.69
236.987	165.69
237.221	195.69
237.455	279.69
237.689	209.69
237.922	144.69
238.156	150.69
238.39	141.69
238.624	130.69
238.858	119.69
239.091	128.69
239.325	137.69
239.559	138.69
239.793	139.69
240.027	138.69
240.26	157.69
240.494	151.69
240.728	156.69
240.961	160.69
241.195	165.69
241.429	148.69
241.662	140.69
241.896	136.69
242.13	144.69
242.363	130.69
242.597	131.69
242.83	154.69
243.064	158.69
243.298	141.69
243.531	150.69
243.765	148.69
243.998	142.69
244.232	149.69
244.465	148.69
244.699	151.69
244.932	155.69
245.166	157.69
245.399	148.69
245.633	138.69
245.866	147.69
246.099	159.69
246.333	148.69
246.566	160.69
246.8	152.69
247.033	159.69
247.266	170.69
247.5	178.69
247.733	176.69
247.966	186.69
248.2	182.69
248.433	185.69
248.666	190.69
248.899	186.69
249.133	204.69
249.366	217.69
249.599	201.69
249.832	195.69
250.066	206.69
250.299	190.69
250.532	224.69
250.765	211.69
250.998	263.69
251.231	258.69
251.465	240.69
251.698	227.69
251.931	202.69
252.164	200.69
252.397	205.69
252.63	211.69
252.863	217.69
253.096	222.69
253.329	241.69
253.562	232.69
253.795	248.69
254.028	233.69
254.261	246.69
254.494	242.69
254.727	290.69
254.96	320.69
255.193	306.69
255.426	295.69
255.659	272.69
255.892	235.69
256.124	242.69
256.357	254.69
256.59	264.69
256.823	252.69
257.056	248.69
257.289	228.69
257.521	237.69
257.754	238.69
257.987	219.69
258.22	220.69
258.452	231.69
258.685	224.69
258.918	218.69
259.151	222.69
259.383	233.69
259.616	238.69
259.849	262.69
260.081	253.69
260.314	288.69
260.547	274.69
260.779	284.69
261.012	261.69
261.244	259.69
261.477	241.69
261.71	259.69
261.942	247.69
262.175	263.69
262.407	262.69
262.64	250.69
262.872	239.69
263.105	256.69
263.337	226.69
263.57	230.69
263.802	232.69
264.035	234.69
264.267	218.69
264.499	239.69
264.732	237.69
264.964	228.69
265.197	230.69
265.429	220.69
265.661	239.69
265.894	231.69
266.126	242.69
266.358	236.69
266.591	233.69
266.823	237.69
267.055	240.69
267.287	256.69
267.52	238.69
267.752	239.69
267.984	248.69
268.216	242.69
268.448	237.69
268.681	247.69
268.913	254.69
269.145	270.69
269.377	298.69
269.609	288.69
269.841	282.69
270.073	296.69
270.306	301.69
270.538	358.69
270.77	336.69
271.002	342.69
271.234	333.69
271.466	325.69
271.698	355.69
271.93	338.69
272.162	351.69
272.394	378.69
272.626	350.69
272.858	307.69
273.09	315.69
273.322	275.69
273.553	293.69
273.785	297.69
274.017	286.69
274.249	284.69
274.481	295.69
274.713	266.69
274.945	297.69
275.176	280.69
275.408	298.69
275.64	278.69
275.872	293.69
276.104	278.69
276.335	295.69
276.567	286.69
276.799	304.69
277.031	344.69
277.262	356.69
277.494	359.69
277.726	337.69
277.957	327.69
278.189	269.69
278.421	277.69
278.652	312.69
278.884	286.69
279.115	292.69
279.347	285.69
279.579	288.69
279.81	278.69
280.042	272.69
280.273	284.69
280.505	278.69
280.736	287.69
280.968	290.69
281.199	275.69
281.431	285.69
281.662	278.69
281.894	282.69
282.125	293.69
282.356	315.69
282.588	333.69
282.819	349.69
283.051	299.69
283.282	266.69
283.513	278.69
283.745	261.69
283.976	286.69
284.207	313.69
284.439	282.69
284.67	309.69
284.901	316.69
285.132	298.69
285.364	278.69
285.595	275.69
285.826	289.69
286.057	282.69
286.288	296.69
286.52	302.69
286.751	259.69
286.982	294.69
287.213	294.69
287.444	286.69
287.675	282.69
287.906	288.69
288.138	315.69
288.369	319.69
288.6	314.69
288.831	299.69
289.062	291.69
289.293	288.69
289.524	310.69
289.755	320.69
289.986	294.69
290.217	292.69
290.448	284.69
290.679	311.69
290.91	291.69
291.141	301.69
291.371	284.69
291.602	284.69
291.833	271.69
292.064	315.69
292.295	295.69
292.526	279.69
292.757	272.69
292.987	282.69
293.218	300.69
293.449	294.69
293.68	292.69
293.91	290.69
294.141	285.69
294.372	298.69
294.603	299.69
294.833	302.69
295.064	318.69
295.295	310.69
295.525	300.69
295.756	302.69
295.987	316.69
296.217	324.69
296.448	360.69
296.679	325.69
296.909	313.69
297.14	303.69
297.37	296.69
297.601	300.69
297.831	282.69
298.062	311.69
298.292	307.69
298.523	309.69
298.753	316.69
298.984	326.69
299.214	323.69
299.445	298.69
299.675	325.69
299.905	309.69
300.136	316.69
300.366	332.69
300.597	322.69
300.827	302.69
301.057	332.69
301.288	325.69
301.518	338.69
301.748	319.69
301.979	324.69
302.209	347.69
302.439	331.69
302.669	342.69
302.9	323.69
303.13	323.69
303.36	334.69
303.59	337.69
303.82	360.69
304.051	339.69
304.281	322.69
304.511	326.69
304.741	315.69
304.971	334.69
305.201	307.69
305.431	333.69
305.661	330.69
305.891	339.69
306.121	331.69
306.352	360.69
306.582	348.69
306.812	335.69
307.042	357.69
307.272	346.69
307.502	342.69
307.731	335.69
307.961	342.69
308.191	351.69
308.421	342.69
308.651	349.69
308.881	334.69
309.111	344.69
309.341	369.69
309.571	376.69
309.8	377.69
310.03	398.69
310.26	409.69
310.49	408.69
310.72	411.69
310.949	408.69
311.179	443.69
311.409	404.69
311.639	418.69
311.868	413.69
312.098	425.69
312.328	398.69
312.557	426.69
312.787	438.69
313.017	431.69
313.246	409.69
313.476	383.69
313.706	378.69
313.935	408.69
314.165	427.69
314.394	431.69
314.624	418.69
314.853	425.69
315.083	411.69
315.312	394.69
315.542	398.69
315.771	351.69
316.001	369.69
316.23	370.69
316.46	385.69
316.689	387.69
316.919	392.69
317.148	401.69
317.377	386.69
317.607	401.69
317.836	396.69
318.065	403.69
318.295	390.69
318.524	390.69
318.753	399.69
318.983	395.69
319.212	393.69
319.441	400.69
319.67	409.69
319.9	398.69
320.129	390.69
320.358	399.69
320.587	415.69
320.816	418.69
321.046	426.69
321.275	419.69
321.504	416.69
321.733	449.69
321.962	423.69
322.191	456.69
322.42	466.69
322.649	495.69
322.878	492.69
323.108	521.69
323.337	568.69
323.566	592.69
323.795	626.69
324.024	684.69
324.253	860.69
324.482	1264.69
324.71	1990.69
324.939	2968.69
325.168	2612.69
325.397	1308.69
325.626	807.69
325.855	674.69
326.084	611.69
326.313	584.69
326.542	585.69
326.77	665.69
326.999	797.69
327.228	1114.69
327.457	1759.69
327.686	2212.69
327.914	1448.69
328.143	931.69
328.372	770.69
328.6	698.69
328.829	670.69
329.058	687.69
329.287	698.69
329.515	656.69
329.744	596.69
329.972	588.69
330.201	629.69
330.43	679.69
330.658	709.69
330.887	724.69
331.115	712.69
331.344	602.69
331.572	557.69
331.801	548.69
332.03	549.69
332.258	482.69
332.486	491.69
332.715	482.69
332.943	452.69
333.172	464.69
333.4	500.69
333.629	498.69
333.857	494.69
334.085	505.69
334.314	537.69
334.542	600.69
334.771	628.69
334.999	534.69
335.227	514.69
335.455	472.69
335.684	454.69
335.912	481.69
336.14	440.69
336.369	448.69
336.597	476.69
336.825	488.69
337.053	459.69
337.281	447.69
337.51	442.69
337.738	476.69
337.966	454.69
338.194	475.69
338.422	461.69
338.65	443.69
338.878	425.69
339.106	440.69
339.334	450.69
339.562	422.69
339.79	435.69
340.018	463.69
340.246	438.69
340.474	452.69
340.702	426.69
340.93	431.69
341.158	433.69
341.386	438.69
341.614	444.69
341.842	422.69
342.07	432.69
342.298	436.69
342.526	410.69
342.754	434.69
342.981	423.69
343.209	402.69
343.437	408.69
343.665	435.69
343.893	431.69
344.12	426.69
344.348	439.69
344.576	429.69
344.804	445.69
345.031	443.69
345.259	473.69
345.487	458.69
345.714	461.69
345.942	427.69
346.17	427.69
346.397	415.69
346.625	430.69
346.853	424.69
347.08	435.69
347.308	452.69
347.535	443.69
347.763	441.69
347.99	446.69
348.218	438.69
348.445	441.69
348.673	456.69
348.9	436.69
349.128	445.69
349.355	414.69
349.583	405.69
349.81	404.69
350.037	408.69
350.265	415.69
350.492	406.69
350.72	406.69
350.947	416.69
351.174	432.69
351.402	455.69
351.629	460.69
351.856	448.69
352.083	439.69
352.311	456.69
352.538	439.69
352.765	459.69
352.992	463.69
353.22	438.69
353.447	427.69
353.674	420.69
353.901	408.69
354.128	406.69
354.355	387.69
354.583	388.69
354.81	383.69
355.037	390.69
355.264	383.69
355.491	377.69
355.718	381.69
355.945	386.69
356.172	368.69
356.399	378.69
356.626	370.69
356.853	386.69
357.08	381.69
357.307	390.69
357.534	379.69
357.761	366.69
357.988	383.69
358.215	385.69
358.441	389.69
358.668	374.69
358.895	401.69
359.122	400.69
359.349	414.69
359.576	423.69
359.802	469.69
360.029	492.69
360.256	494.69
360.483	479.69
360.709	436.69
360.936	422.69
361.163	426.69
361.39	418.69
361.616	417.69
361.843	448.69
362.07	437.69
362.296	437.69
362.523	427.69
362.749	429.69
362.976	429.69
363.203	395.69
363.429	385.69
363.656	413.69
363.882	406.69
364.109	407.69
364.335	388.69
364.562	379.69
364.788	426.69
365.015	398.69
365.241	396.69
365.468	395.69
365.694	412.69
365.92	420.69
366.147	394.69
366.373	396.69
366.599	379.69
366.826	374.69
367.052	387.69
367.278	380.69
367.505	391.69
367.731	401.69
367.957	396.69
368.184	394.69
368.41	394.69
368.636	404.69
368.862	422.69
369.089	428.69
369.315	376.69
369.541	373.69
369.767	404.69
369.993	387.69
370.219	396.69
370.445	387.69
370.672	389.69
370.898	372.69
371.124	387.69
371.35	374.69
371.576	379.69
371.802	382.69
372.028	373.69
372.254	383.69
372.48	360.69
372.706	380.69
372.932	382.69
373.158	384.69
373.384	378.69
373.61	363.69
373.835	400.69
374.061	382.69
374.287	367.69
374.513	372.69
374.739	392.69
374.965	394.69
375.191	375.69
375.416	367.69
375.642	365.69
375.868	373.69
376.094	377.69
376.319	381.69
376.545	359.69
376.771	350.69
376.997	373.69
377.222	379.69
377.448	377.69
377.674	361.69
377.899	379.69
378.125	373.69
378.35	365.69
378.576	377.69
378.802	376.69
379.027	379.69
379.253	380.69
379.478	364.69
379.704	367.69
379.929	374.69
380.155	378.69
380.38	383.69
380.606	386.69
380.831	386.69
381.057	381.69
381.282	359.69
381.507	359.69
381.733	377.69
381.958	360.69
382.184	382.69
382.409	379.69
382.634	375.69
382.86	400.69
383.085	384.69
383.31	379.69
383.535	383.69
383.761	372.69
383.986	364.69
384.211	389.69
384.436	388.69
384.662	394.69
384.887	392.69
385.112	370.69
385.337	380.69
385.562	381.69
385.787	410.69
386.013	394.69
386.238	415.69
386.463	421.69
386.688	393.69
386.913	419.69
387.138	407.69
387.363	379.69
387.588	389.69
387.813	396.69
388.038	374.69
388.263	382.69
388.488	392.69
388.713	403.69
388.938	404.69
389.163	388.69
389.387	408.69
389.612	406.69
389.837	383.69
390.062	392.69
390.287	404.69
390.512	394.69
390.736	392.69
390.961	385.69
391.186	392.69
391.411	401.69
391.636	407.69
391.86	414.69
392.085	414.69
392.31	426.69
392.534	407.69
392.759	403.69
392.984	396.69
393.208	396.69
393.433	398.69
393.658	407.69
393.882	401.69
394.107	403.69
394.331	401.69
394.556	383.69
394.78	420.69
395.005	384.69
395.229	406.69
395.454	410.69
395.678	420.69
395.903	419.69
396.127	463.69
396.352	446.69
396.576	415.69
396.801	412.69
397.025	424.69
397.249	406.69
397.474	414.69
397.698	450.69
397.922	421.69
398.147	433.69
398.371	459.69
398.595	439.69
398.82	441.69
399.044	429.69
399.268	469.69
399.492	472.69
399.717	486.69
399.941	518.69
400.165	563.69
400.389	566.69
400.613	502.69
400.837	472.69
401.062	471.69
401.286	460.69
401.51	452.69
401.734	467.69
401.958	475.69
402.182	448.69
402.406	470.69
402.63	458.69
402.854	454.69
403.078	480.69
403.302	464.69
403.526	479.69
403.75	473.69
403.974	468.69
404.198	447.69
404.422	475.69
404.645	469.69
404.869	502.69
405.093	533.69
405.317	567.69
405.541	624.69
405.765	547.69
405.988	525.69
406.212	524.69
406.436	533.69
406.66	548.69
406.883	506.69
407.107	531.69
407.331	583.69
407.555	666.69
407.778	655.69
408.002	584.69
408.226	537.69
408.449	533.69
408.673	535.69
408.896	546.69
409.12	621.69
409.344	554.69
409.567	490.69
409.791	487.69
410.014	480.69
410.238	485.69
410.461	459.69
410.685	456.69
410.908	478.69
411.132	549.69
411.355	554.69
411.578	545.69
411.802	498.69
412.025	503.69
412.249	484.69
412.472	494.69
412.695	555.69
412.919	541.69
413.142	500.69
413.365	471.69
413.589	487.69
413.812	463.69
414.035	440.69
414.258	457.69
414.482	431.69
414.705	444.69
414.928	454.69
415.151	442.69
415.374	433.69
415.597	428.69
415.821	458.69
416.044	435.69
416.267	454.69
416.49	453.69
416.713	423.69
416.936	436.69
417.159	426.69
417.382	454.69
417.605	459.69
417.828	477.69
418.051	480.69
418.274	470.69
418.497	454.69
418.72	450.69
418.943	437.69
419.166	464.69
419.389	495.69
419.611	477.69
419.834	482.69
420.057	490.69
420.28	476.69
420.503	476.69
420.726	473.69
420.948	499.69
421.171	530.69
421.394	571.69
421.617	507.69
421.839	460.69
422.062	478.69
422.285	497.69
422.507	572.69
422.73	646.69
422.953	622.69
423.175	527.69
423.398	504.69
423.621	507.69
423.843	548.69
424.066	535.69
424.288	514.69
424.511	538.69
424.733	586.69
424.956	706.69
425.178	671.69
425.401	674.69
425.623	696.69
425.846	598.69
426.068	524.69
426.291	522.69
426.513	521.69
426.735	528.69
426.958	580.69
427.18	656.69
427.402	826.69
427.625	911.69
427.847	797.69
428.069	734.69
428.292	617.69
428.514	549.69
428.736	532.69
428.958	524.69
429.181	486.69
429.403	487.69
429.625	508.69
429.847	558.69
430.069	632.69
430.292	627.69
430.514	521.69
430.736	500.69
430.958	498.69
431.18	464.69
431.402	474.69
431.624	460.69
431.846	438.69
432.068	431.69
432.29	441.69
432.512	461.69
432.734	452.69
432.956	464.69
433.178	469.69
433.4	478.69
433.622	453.69
433.844	438.69
434.066	464.69
434.287	453.69
434.509	455.69
434.731	453.69
434.953	483.69
435.175	485.69
435.397	538.69
435.618	551.69
435.84	587.69
436.062	690.69
436.284	770.69
436.505	615.69
436.727	573.69
436.949	520.69
437.17	514.69
437.392	487.69
437.614	515.69
437.835	565.69
438.057	659.69
438.278	786.69
438.5	783.69
438.721	834.69
438.943	822.69
439.165	630.69
439.386	571.69
439.608	569.69
439.829	566.69
440.05	599.69
440.272	672.69
440.493	607.69
440.715	538.69
440.936	531.69
441.158	486.69
441.379	500.69
441.6	504.69
441.822	549.69
442.043	599.69
442.264	688.69
442.486	757.69
442.707	601.69
442.928	544.69
443.149	566.69
443.371	582.69
443.592	645.69
443.813	756.69
444.034	810.69
444.255	654.69
444.476	569.69
444.698	545.69
444.919	539.69
445.14	613.69
445.361	593.69
445.582	582.69
445.803	664.69
446.024	818.69
446.245	822.69
446.466	741.69
446.687	593.69
446.908	551.69
447.129	522.69
447.35	519.69
447.571	494.69
447.792	498.69
448.013	527.69
448.234	532.69
448.455	589.69
448.675	703.69
448.896	836.69
449.117	727.69
449.338	683.69
449.559	750.69
449.779	875.69
450	717.69
450.221	583.69
450.442	514.69
450.662	533.69
450.883	506.69
451.104	532.69
451.324	519.69
451.545	506.69
451.766	455.69
451.986	444.69
452.207	444.69
452.428	447.69
452.648	447.69
452.869	455.69
453.089	478.69
453.31	481.69
453.53	471.69
453.751	434.69
453.971	436.69
454.192	475.69
454.412	461.69
454.633	450.69
454.853	447.69
455.073	440.69
455.294	479.69
455.514	568.69
455.734	540.69
455.955	452.69
456.175	416.69
456.395	403.69
456.616	410.69
456.836	412.69
457.056	398.69
457.276	386.69
457.497	396.69
457.717	382.69
457.937	413.69
458.157	425.69
458.377	438.69
458.598	488.69
458.818	524.69
459.038	622.69
459.258	649.69
459.478	529.69
459.698	465.69
459.918	462.69
460.138	446.69
460.358	463.69
460.578	434.69
460.798	461.69
461.018	462.69
461.238	445.69
461.458	447.69
461.678	437.69
461.898	443.69
462.118	436.69
462.338	451.69
462.558	435.69
462.777	459.69
462.997	451.69
463.217	458.69
463.437	447.69
463.657	454.69
463.876	466.69
464.096	447.69
464.316	461.69
464.536	466.69
464.755	473.69
464.975	485.69
465.195	559.69
465.414	662.69
465.634	563.69
465.854	506.69
466.073	480.69
466.293	451.69
466.512	444.69
466.732	435.69
466.951	460.69
467.171	427.69
467.391	431.69
467.61	470.69
467.829	467.69
468.049	471.69
468.268	477.69
468.488	448.69
468.707	445.69
468.927	419.69
469.146	454.69
469.365	422.69
469.585	439.69
469.804	444.69
470.023	471.69
470.243	454.69
470.462	469.69
470.681	475.69
470.901	482.69
471.12	437.69
471.339	457.69
471.558	446.69
471.777	444.69
471.997	446.69
472.216	467.69
472.435	528.69
472.654	521.69
472.873	463.69
473.092	459.69
473.311	440.69
473.53	438.69
473.749	449.69
473.968	502.69
474.187	648.69
474.406	671.69
474.625	518.69
474.844	471.69
475.063	458.69
475.282	482.69
475.501	447.69
475.72	474.69
475.939	460.69
476.158	452.69
476.377	473.69
476.596	456.69
476.814	494.69
477.033	469.69
477.252	466.69
477.471	475.69
477.69	476.69
477.908	489.69
478.127	482.69
478.346	472.69
478.564	494.69
478.783	507.69
479.002	523.69
479.22	516.69
479.439	508.69
479.658	555.69
479.876	539.69
480.095	532.69
480.313	574.69
480.532	566.69
480.751	566.69
480.969	575.69
481.188	658.69
481.406	736.69
481.624	632.69
481.843	577.69
482.061	570.69
482.28	531.69
482.498	536.69
482.717	549.69
482.935	541.69
483.153	533.69
483.372	520.69
483.59	523.69
483.808	521.69
484.027	524.69
484.245	537.69
484.463	548.69
484.681	558.69
484.9	539.69
485.118	542.69
485.336	534.69
485.554	548.69
485.772	562.69
485.99	550.69
486.209	542.69
486.427	556.69
486.645	571.69
486.863	618.69
487.081	598.69
487.299	574.69
487.517	592.69
487.735	569.69
487.953	569.69
488.171	595.69
488.389	567.69
488.607	583.69
488.825	557.69
489.043	589.69
489.261	592.69
489.479	601.69
489.696	576.69
489.914	592.69
490.132	586.69
490.35	597.69
490.568	608.69
490.786	606.69
491.003	636.69
491.221	630.69
491.439	656.69
491.657	650.69
491.874	676.69
492.092	684.69
492.31	693.69
492.527	650.69
492.745	678.69
492.963	671.69
493.18	677.69
493.398	674.69
493.615	696.69
493.833	704.69
494.05	685.69
494.268	710.69
494.485	699.69
494.703	693.69
494.92	675.69
495.138	687.69
495.355	684.69
495.573	701.69
495.79	687.69
496.008	690.69
496.225	696.69
496.442	687.69
496.66	696.69
496.877	671.69
497.094	671.69
497.312	682.69
497.529	704.69
497.746	694.69
497.963	715.69
498.181	718.69
498.398	734.69
498.615	731.69
498.832	748.69
499.049	728.69
499.267	755.69
499.484	754.69
499.701	770.69
499.918	781.69
500.135	824.69
500.352	851.69
500.569	838.69
500.786	859.69
501.003	850.69
501.22	837.69
501.437	814.69
501.654	811.69
501.871	850.69
