Data from 1972.PennyLincolnUp.Lamp.En5.5.200Scan.071719.P1._HRD10591_15-29-32-845.txt Node
Date: Thu Jul 18 15:29:32 EDT 2019
User: cochatt
Spectrometer: HR+D1059
Trigger mode: 1
Integration Time (sec): 1.000000E-1
Scans to average: 1
Electric dark correction enabled: true
Nonlinearity correction enabled: false
Boxcar width: 0
XAxis mode: Wavelengths
Number of Pixels in Spectrum: 2048
>>>>>Begin Spectral Data<<<<<
223.165	-18.38
223.4	-18.38
223.635	-18.38
223.869	-19.38
224.104	-18.38
224.338	-11.38
224.573	2.62
224.808	-26.38
225.042	3.62
225.277	-9.38
225.511	-11.38
225.746	8.62
225.98	11.62
226.215	16.62
226.449	18.62
226.683	22.62
226.918	7.62
227.152	22.62
227.387	48.62
227.621	33.62
227.856	56.62
228.09	36.62
228.324	50.62
228.559	39.62
228.793	72.62
229.027	98.62
229.262	107.62
229.496	126.62
229.73	142.62
229.964	182.62
230.199	138.62
230.433	132.62
230.667	132.62
230.901	116.62
231.136	114.62
231.37	114.62
231.604	118.62
231.838	101.62
232.072	118.62
232.306	107.62
232.541	128.62
232.775	132.62
233.009	125.62
233.243	118.62
233.477	128.62
233.711	110.62
233.945	128.62
234.179	118.62
234.413	121.62
234.647	124.62
234.881	122.62
235.115	124.62
235.349	110.62
235.583	122.62
235.817	128.62
236.051	131.62
236.285	136.62
236.519	119.62
236.753	132.62
236.987	158.62
237.221	195.62
237.455	269.62
237.689	211.62
237.922	168.62
238.156	140.62
238.39	143.62
238.624	123.62
238.858	127.62
239.091	134.62
239.325	145.62
239.559	130.62
239.793	132.62
240.027	149.62
240.26	148.62
240.494	177.62
240.728	161.62
240.961	156.62
241.195	165.62
241.429	147.62
241.662	124.62
241.896	137.62
242.13	142.62
242.363	140.62
242.597	132.62
242.83	125.62
243.064	147.62
243.298	151.62
243.531	138.62
243.765	138.62
243.998	153.62
244.232	144.62
244.465	153.62
244.699	152.62
244.932	155.62
245.166	136.62
245.399	148.62
245.633	148.62
245.866	141.62
246.099	146.62
246.333	158.62
246.566	164.62
246.8	169.62
247.033	168.62
247.266	160.62
247.5	168.62
247.733	170.62
247.966	180.62
248.2	169.62
248.433	178.62
248.666	184.62
248.899	189.62
249.133	218.62
249.366	222.62
249.599	219.62
249.832	195.62
250.066	199.62
250.299	199.62
250.532	218.62
250.765	214.62
250.998	235.62
251.231	232.62
251.465	222.62
251.698	222.62
251.931	221.62
252.164	215.62
252.397	225.62
252.63	211.62
252.863	203.62
253.096	213.62
253.329	255.62
253.562	232.62
253.795	250.62
254.028	256.62
254.261	221.62
254.494	260.62
254.727	254.62
254.96	306.62
255.193	307.62
255.426	265.62
255.659	246.62
255.892	252.62
256.124	240.62
256.357	268.62
256.59	264.62
256.823	237.62
257.056	247.62
257.289	219.62
257.521	211.62
257.754	224.62
257.987	219.62
258.22	222.62
258.452	215.62
258.685	228.62
258.918	232.62
259.151	214.62
259.383	217.62
259.616	254.62
259.849	240.62
260.081	257.62
260.314	262.62
260.547	272.62
260.779	268.62
261.012	242.62
261.244	243.62
261.477	264.62
261.71	236.62
261.942	260.62
262.175	270.62
262.407	269.62
262.64	222.62
262.872	205.62
263.105	242.62
263.337	256.62
263.57	222.62
263.802	219.62
264.035	221.62
264.267	221.62
264.499	220.62
264.732	242.62
264.964	207.62
265.197	212.62
265.429	221.62
265.661	221.62
265.894	229.62
266.126	224.62
266.358	220.62
266.591	235.62
266.823	244.62
267.055	254.62
267.287	248.62
267.52	233.62
267.752	233.62
267.984	229.62
268.216	241.62
268.448	248.62
268.681	249.62
268.913	241.62
269.145	274.62
269.377	294.62
269.609	272.62
269.841	291.62
270.073	304.62
270.306	315.62
270.538	347.62
270.77	352.62
271.002	322.62
271.234	318.62
271.466	334.62
271.698	336.62
271.93	372.62
272.162	362.62
272.394	342.62
272.626	338.62
272.858	321.62
273.09	316.62
273.322	298.62
273.553	296.62
273.785	282.62
274.017	268.62
274.249	291.62
274.481	270.62
274.713	272.62
274.945	289.62
275.176	290.62
275.408	300.62
275.64	277.62
275.872	288.62
276.104	289.62
276.335	284.62
276.567	288.62
276.799	306.62
277.031	346.62
277.262	339.62
277.494	358.62
277.726	342.62
277.957	318.62
278.189	314.62
278.421	277.62
278.652	290.62
278.884	295.62
279.115	264.62
279.347	281.62
279.579	289.62
279.81	297.62
280.042	282.62
280.273	291.62
280.505	271.62
280.736	292.62
280.968	272.62
281.199	276.62
281.431	283.62
281.662	289.62
281.894	262.62
282.125	280.62
282.356	297.62
282.588	328.62
282.819	330.62
283.051	320.62
283.282	281.62
283.513	284.62
283.745	294.62
283.976	276.62
284.207	286.62
284.439	282.62
284.67	275.62
284.901	274.62
285.132	276.62
285.364	271.62
285.595	283.62
285.826	297.62
286.057	294.62
286.288	296.62
286.52	288.62
286.751	278.62
286.982	298.62
287.213	285.62
287.444	280.62
287.675	281.62
287.906	298.62
288.138	319.62
288.369	312.62
288.6	317.62
288.831	308.62
289.062	281.62
289.293	286.62
289.524	291.62
289.755	308.62
289.986	288.62
290.217	291.62
290.448	291.62
290.679	279.62
290.91	287.62
291.141	290.62
291.371	306.62
291.602	296.62
291.833	277.62
292.064	299.62
292.295	309.62
292.526	295.62
292.757	288.62
292.987	300.62
293.218	292.62
293.449	268.62
293.68	304.62
293.91	276.62
294.141	291.62
294.372	279.62
294.603	291.62
294.833	298.62
295.064	308.62
295.295	298.62
295.525	313.62
295.756	324.62
295.987	316.62
296.217	333.62
296.448	353.62
296.679	313.62
296.909	316.62
297.14	299.62
297.37	288.62
297.601	303.62
297.831	298.62
298.062	283.62
298.292	321.62
298.523	324.62
298.753	279.62
298.984	301.62
299.214	301.62
299.445	317.62
299.675	323.62
299.905	316.62
300.136	305.62
300.366	309.62
300.597	306.62
300.827	324.62
301.057	334.62
301.288	322.62
301.518	346.62
301.748	314.62
301.979	331.62
302.209	339.62
302.439	349.62
302.669	342.62
302.9	318.62
303.13	341.62
303.36	323.62
303.59	328.62
303.82	354.62
304.051	341.62
304.281	341.62
304.511	329.62
304.741	328.62
304.971	316.62
305.201	326.62
305.431	330.62
305.661	330.62
305.891	330.62
306.121	324.62
306.352	322.62
306.582	338.62
306.812	349.62
307.042	342.62
307.272	330.62
307.502	339.62
307.731	341.62
307.961	333.62
308.191	341.62
308.421	346.62
308.651	360.62
308.881	369.62
309.111	354.62
309.341	354.62
309.571	360.62
309.8	372.62
310.03	396.62
310.26	395.62
310.49	398.62
310.72	410.62
310.949	420.62
311.179	444.62
311.409	405.62
311.639	390.62
311.868	396.62
312.098	416.62
312.328	405.62
312.557	437.62
312.787	446.62
313.017	427.62
313.246	404.62
313.476	395.62
313.706	395.62
313.935	410.62
314.165	412.62
314.394	417.62
314.624	412.62
314.853	410.62
315.083	422.62
315.312	394.62
315.542	380.62
315.771	396.62
316.001	379.62
316.23	395.62
316.46	370.62
316.689	392.62
316.919	388.62
317.148	405.62
317.377	406.62
317.607	392.62
317.836	403.62
318.065	386.62
318.295	394.62
318.524	397.62
318.753	376.62
318.983	388.62
319.212	406.62
319.441	404.62
319.67	419.62
319.9	398.62
320.129	393.62
320.358	390.62
320.587	398.62
320.816	413.62
321.046	418.62
321.275	437.62
321.504	402.62
321.733	420.62
321.962	428.62
322.191	443.62
322.42	489.62
322.649	493.62
322.878	505.62
323.108	494.62
323.337	546.62
323.566	592.62
323.795	635.62
324.024	686.62
324.253	869.62
324.482	1295.62
324.71	2080.62
324.939	3074.62
325.168	2628.62
325.397	1313.62
325.626	826.62
325.855	672.62
326.084	617.62
326.313	582.62
326.542	591.62
326.77	651.62
326.999	799.62
327.228	1162.62
327.457	1811.62
327.686	2341.62
327.914	1489.62
328.143	926.62
328.372	812.62
328.6	733.62
328.829	697.62
329.058	701.62
329.287	728.62
329.515	650.62
329.744	606.62
329.972	624.62
330.201	622.62
330.43	680.62
330.658	721.62
330.887	733.62
331.115	723.62
331.344	584.62
331.572	540.62
331.801	526.62
332.03	533.62
332.258	503.62
332.486	488.62
332.715	466.62
332.943	469.62
333.172	489.62
333.4	479.62
333.629	488.62
333.857	518.62
334.085	539.62
334.314	523.62
334.542	573.62
334.771	607.62
334.999	542.62
335.227	512.62
335.455	466.62
335.684	471.62
335.912	452.62
336.14	446.62
336.369	450.62
336.597	472.62
336.825	482.62
337.053	458.62
337.281	458.62
337.51	428.62
337.738	456.62
337.966	462.62
338.194	444.62
338.422	450.62
338.65	440.62
338.878	434.62
339.106	457.62
339.334	449.62
339.562	438.62
339.79	423.62
340.018	438.62
340.246	452.62
340.474	445.62
340.702	426.62
340.93	420.62
341.158	426.62
341.386	427.62
341.614	464.62
341.842	449.62
342.07	413.62
342.298	427.62
342.526	419.62
342.754	428.62
342.981	432.62
343.209	397.62
343.437	418.62
343.665	406.62
343.893	431.62
344.12	435.62
344.348	422.62
344.576	432.62
344.804	436.62
345.031	437.62
345.259	464.62
345.487	471.62
345.714	447.62
345.942	409.62
346.17	422.62
346.397	424.62
346.625	417.62
346.853	414.62
347.08	429.62
347.308	434.62
347.535	440.62
347.763	455.62
347.99	447.62
348.218	456.62
348.445	460.62
348.673	436.62
348.9	428.62
349.128	414.62
349.355	408.62
349.583	426.62
349.81	404.62
350.037	402.62
350.265	394.62
350.492	413.62
350.72	413.62
350.947	417.62
351.174	442.62
351.402	446.62
351.629	445.62
351.856	444.62
352.083	438.62
352.311	476.62
352.538	448.62
352.765	458.62
352.992	449.62
353.22	438.62
353.447	443.62
353.674	410.62
353.901	397.62
354.128	403.62
354.355	397.62
354.583	385.62
354.81	379.62
355.037	401.62
355.264	370.62
355.491	358.62
355.718	372.62
355.945	386.62
356.172	383.62
356.399	381.62
356.626	397.62
356.853	377.62
357.08	375.62
357.307	377.62
357.534	359.62
357.761	366.62
357.988	378.62
358.215	350.62
358.441	400.62
358.668	394.62
358.895	381.62
359.122	386.62
359.349	407.62
359.576	425.62
359.802	440.62
360.029	493.62
360.256	525.62
360.483	473.62
360.709	460.62
360.936	419.62
361.163	429.62
361.39	450.62
361.616	436.62
361.843	434.62
362.07	429.62
362.296	414.62
362.523	415.62
362.749	408.62
362.976	407.62
363.203	407.62
363.429	397.62
363.656	406.62
363.882	392.62
364.109	392.62
364.335	409.62
364.562	407.62
364.788	390.62
365.015	403.62
365.241	390.62
365.468	385.62
365.694	393.62
365.92	415.62
366.147	423.62
366.373	389.62
366.599	396.62
366.826	378.62
367.052	376.62
367.278	409.62
367.505	388.62
367.731	387.62
367.957	382.62
368.184	378.62
368.41	407.62
368.636	394.62
368.862	421.62
369.089	398.62
369.315	385.62
369.541	393.62
369.767	389.62
369.993	387.62
370.219	384.62
370.445	391.62
370.672	366.62
370.898	369.62
371.124	388.62
371.35	392.62
371.576	393.62
371.802	369.62
372.028	375.62
372.254	379.62
372.48	363.62
372.706	376.62
372.932	362.62
373.158	369.62
373.384	364.62
373.61	370.62
373.835	374.62
374.061	381.62
374.287	366.62
374.513	378.62
374.739	363.62
374.965	386.62
375.191	386.62
375.416	388.62
375.642	379.62
375.868	378.62
376.094	380.62
376.319	376.62
376.545	363.62
376.771	360.62
376.997	360.62
377.222	372.62
377.448	361.62
377.674	382.62
377.899	369.62
378.125	359.62
378.35	361.62
378.576	366.62
378.802	373.62
379.027	356.62
379.253	375.62
379.478	374.62
379.704	368.62
379.929	392.62
380.155	371.62
380.38	375.62
380.606	356.62
380.831	365.62
381.057	373.62
381.282	376.62
381.507	356.62
381.733	380.62
381.958	370.62
382.184	375.62
382.409	386.62
382.634	366.62
382.86	366.62
383.085	384.62
383.31	384.62
383.535	380.62
383.761	374.62
383.986	392.62
384.211	372.62
384.436	390.62
384.662	397.62
384.887	375.62
385.112	387.62
385.337	370.62
385.562	380.62
385.787	409.62
386.013	411.62
386.238	385.62
386.463	426.62
386.688	401.62
386.913	372.62
387.138	383.62
387.363	391.62
387.588	404.62
387.813	395.62
388.038	393.62
388.263	410.62
388.488	381.62
388.713	392.62
388.938	402.62
389.163	413.62
389.387	389.62
389.612	389.62
389.837	390.62
390.062	401.62
390.287	378.62
390.512	383.62
390.736	402.62
390.961	393.62
391.186	386.62
391.411	390.62
391.636	394.62
391.86	392.62
392.085	384.62
392.31	400.62
392.534	406.62
392.759	399.62
392.984	401.62
393.208	397.62
393.433	400.62
393.658	397.62
393.882	370.62
394.107	398.62
394.331	393.62
394.556	424.62
394.78	394.62
395.005	402.62
395.229	398.62
395.454	400.62
395.678	426.62
395.903	432.62
396.127	453.62
396.352	452.62
396.576	406.62
396.801	380.62
397.025	397.62
397.249	398.62
397.474	429.62
397.698	434.62
397.922	428.62
398.147	449.62
398.371	448.62
398.595	426.62
398.82	441.62
399.044	435.62
399.268	463.62
399.492	469.62
399.717	493.62
399.941	510.62
400.165	545.62
400.389	578.62
400.613	522.62
400.837	498.62
401.062	470.62
401.286	444.62
401.51	436.62
401.734	464.62
401.958	456.62
402.182	463.62
402.406	492.62
402.63	462.62
402.854	466.62
403.078	477.62
403.302	475.62
403.526	460.62
403.75	479.62
403.974	464.62
404.198	465.62
404.422	481.62
404.645	488.62
404.869	476.62
405.093	522.62
405.317	568.62
405.541	596.62
405.765	548.62
405.988	515.62
406.212	526.62
406.436	561.62
406.66	544.62
406.883	533.62
407.107	540.62
407.331	567.62
407.555	636.62
407.778	664.62
408.002	569.62
408.226	530.62
408.449	534.62
408.673	535.62
408.896	534.62
409.12	611.62
409.344	551.62
409.567	494.62
409.791	501.62
410.014	472.62
410.238	480.62
410.461	485.62
410.685	473.62
410.908	487.62
411.132	539.62
411.355	564.62
411.578	543.62
411.802	491.62
412.025	473.62
412.249	482.62
412.472	520.62
412.695	562.62
412.919	549.62
413.142	497.62
413.365	472.62
413.589	454.62
413.812	458.62
414.035	467.62
414.258	448.62
414.482	456.62
414.705	430.62
414.928	434.62
415.151	458.62
415.374	427.62
415.597	445.62
415.821	409.62
416.044	440.62
416.267	452.62
416.49	466.62
416.713	458.62
416.936	445.62
417.159	433.62
417.382	475.62
417.605	450.62
417.828	469.62
418.051	493.62
418.274	471.62
418.497	448.62
418.72	448.62
418.943	451.62
419.166	457.62
419.389	487.62
419.611	457.62
419.834	461.62
420.057	481.62
420.28	482.62
420.503	472.62
420.726	476.62
420.948	467.62
421.171	529.62
421.394	581.62
421.617	501.62
421.839	502.62
422.062	484.62
422.285	482.62
422.507	568.62
422.73	647.62
422.953	630.62
423.175	522.62
423.398	501.62
423.621	480.62
423.843	530.62
424.066	524.62
424.288	509.62
424.511	533.62
424.733	625.62
424.956	712.62
425.178	683.62
425.401	679.62
425.623	693.62
425.846	592.62
426.068	510.62
426.291	531.62
426.513	522.62
426.735	556.62
426.958	584.62
427.18	698.62
427.402	837.62
427.625	937.62
427.847	847.62
428.069	706.62
428.292	602.62
428.514	551.62
428.736	536.62
428.958	519.62
429.181	486.62
429.403	483.62
429.625	497.62
429.847	548.62
430.069	636.62
430.292	619.62
430.514	521.62
430.736	491.62
430.958	476.62
431.18	475.62
431.402	443.62
431.624	460.62
431.846	433.62
432.068	449.62
432.29	445.62
432.512	446.62
432.734	466.62
432.956	466.62
433.178	477.62
433.4	482.62
433.622	452.62
433.844	465.62
434.066	472.62
434.287	429.62
434.509	432.62
434.731	482.62
434.953	462.62
435.175	487.62
435.397	507.62
435.618	541.62
435.84	607.62
436.062	712.62
436.284	747.62
436.505	636.62
436.727	568.62
436.949	500.62
437.17	506.62
437.392	491.62
437.614	504.62
437.835	573.62
438.057	640.62
438.278	805.62
438.5	788.62
438.721	854.62
438.943	803.62
439.165	656.62
439.386	605.62
439.608	576.62
439.829	573.62
440.05	607.62
440.272	662.62
440.493	603.62
440.715	552.62
440.936	535.62
441.158	499.62
441.379	488.62
441.6	491.62
441.822	540.62
442.043	608.62
442.264	662.62
442.486	723.62
442.707	626.62
442.928	572.62
443.149	552.62
443.371	582.62
443.592	624.62
443.813	730.62
444.034	803.62
444.255	673.62
444.476	579.62
444.698	538.62
444.919	532.62
445.14	630.62
445.361	585.62
445.582	579.62
445.803	685.62
446.024	817.62
446.245	822.62
446.466	737.62
446.687	622.62
446.908	562.62
447.129	519.62
447.35	496.62
447.571	488.62
447.792	481.62
448.013	505.62
448.234	533.62
448.455	589.62
448.675	720.62
448.896	837.62
449.117	706.62
449.338	696.62
449.559	757.62
449.779	896.62
450	709.62
450.221	580.62
450.442	540.62
450.662	499.62
450.883	508.62
451.104	547.62
451.324	518.62
451.545	481.62
451.766	478.62
451.986	459.62
452.207	446.62
452.428	460.62
452.648	440.62
452.869	444.62
453.089	466.62
453.31	491.62
453.53	473.62
453.751	448.62
453.971	457.62
454.192	487.62
454.412	462.62
454.633	442.62
454.853	457.62
455.073	443.62
455.294	490.62
455.514	544.62
455.734	537.62
455.955	440.62
456.175	417.62
456.395	424.62
456.616	409.62
456.836	416.62
457.056	392.62
457.276	397.62
457.497	405.62
457.717	386.62
457.937	410.62
458.157	415.62
458.377	433.62
458.598	469.62
458.818	503.62
459.038	638.62
459.258	694.62
459.478	543.62
459.698	469.62
459.918	466.62
460.138	436.62
460.358	446.62
460.578	448.62
460.798	443.62
461.018	451.62
461.238	456.62
461.458	432.62
461.678	452.62
461.898	431.62
462.118	441.62
462.338	464.62
462.558	473.62
462.777	435.62
462.997	440.62
463.217	482.62
463.437	473.62
463.657	448.62
463.876	453.62
464.096	453.62
464.316	449.62
464.536	476.62
464.755	468.62
464.975	491.62
465.195	544.62
465.414	678.62
465.634	590.62
465.854	514.62
466.073	479.62
466.293	451.62
466.512	437.62
466.732	446.62
466.951	454.62
467.171	423.62
467.391	454.62
467.61	452.62
467.829	468.62
468.049	466.62
468.268	482.62
468.488	457.62
468.707	443.62
468.927	430.62
469.146	430.62
469.365	422.62
469.585	420.62
469.804	443.62
470.023	443.62
470.243	451.62
470.462	461.62
470.681	477.62
470.901	476.62
471.12	460.62
471.339	452.62
471.558	456.62
471.777	440.62
471.997	437.62
472.216	472.62
472.435	530.62
472.654	499.62
472.873	467.62
473.092	458.62
473.311	452.62
473.53	445.62
473.749	493.62
473.968	516.62
474.187	648.62
474.406	676.62
474.625	519.62
474.844	482.62
475.063	461.62
475.282	462.62
475.501	452.62
475.72	454.62
475.939	459.62
476.158	471.62
476.377	446.62
476.596	455.62
476.814	469.62
477.033	481.62
477.252	469.62
477.471	477.62
477.69	465.62
477.908	491.62
478.127	484.62
478.346	496.62
478.564	486.62
478.783	490.62
479.002	487.62
479.22	499.62
479.439	552.62
479.658	552.62
479.876	549.62
480.095	548.62
480.313	604.62
480.532	577.62
480.751	563.62
480.969	580.62
481.188	675.62
481.406	738.62
481.624	606.62
481.843	556.62
482.061	567.62
482.28	550.62
482.498	548.62
482.717	549.62
482.935	527.62
483.153	542.62
483.372	524.62
483.59	533.62
483.808	523.62
484.027	537.62
484.245	538.62
484.463	532.62
484.681	549.62
484.9	546.62
485.118	539.62
485.336	540.62
485.554	505.62
485.772	538.62
485.99	544.62
486.209	523.62
486.427	562.62
486.645	561.62
486.863	595.62
487.081	593.62
487.299	573.62
487.517	566.62
487.735	552.62
487.953	579.62
488.171	562.62
488.389	551.62
488.607	570.62
488.825	604.62
489.043	567.62
489.261	576.62
489.479	578.62
489.696	570.62
489.914	596.62
490.132	587.62
490.35	596.62
490.568	599.62
490.786	597.62
491.003	644.62
491.221	615.62
491.439	676.62
491.657	660.62
491.874	672.62
492.092	654.62
492.31	671.62
492.527	664.62
492.745	660.62
492.963	683.62
493.18	692.62
493.398	688.62
493.615	664.62
493.833	661.62
494.05	651.62
494.268	696.62
494.485	671.62
494.703	658.62
494.92	654.62
495.138	660.62
495.355	660.62
495.573	684.62
495.79	698.62
496.008	680.62
496.225	662.62
496.442	661.62
496.66	679.62
496.877	677.62
497.094	684.62
497.312	711.62
497.529	706.62
497.746	724.62
497.963	717.62
498.181	731.62
498.398	741.62
498.615	740.62
498.832	743.62
499.049	766.62
499.267	755.62
499.484	756.62
499.701	795.62
499.918	812.62
500.135	807.62
500.352	816.62
500.569	826.62
500.786	850.62
501.003	834.62
501.22	802.62
501.437	810.62
501.654	842.62
501.871	854.62
