Data from 1972.PennyLincolnUp.Lamp.En5.5.200Scan.071719.P1._HRD10591_15-28-34-844.txt Node
Date: Thu Jul 18 15:28:34 EDT 2019
User: cochatt
Spectrometer: HR+D1059
Trigger mode: 1
Integration Time (sec): 1.000000E-1
Scans to average: 1
Electric dark correction enabled: true
Nonlinearity correction enabled: false
Boxcar width: 0
XAxis mode: Wavelengths
Number of Pixels in Spectrum: 2048
>>>>>Begin Spectral Data<<<<<
223.165	-6.88
223.4	-6.88
223.635	-6.88
223.869	-12.88
224.104	-14.88
224.338	-7.88
224.573	-4.88
224.808	-16.88
225.042	-11.88
225.277	-12.88
225.511	-8.88
225.746	-6.88
225.98	12.12
226.215	10.12
226.449	10.12
226.683	20.12
226.918	21.12
227.152	31.12
227.387	41.12
227.621	25.12
227.856	40.12
228.09	48.12
228.324	46.12
228.559	61.12
228.793	69.12
229.027	108.12
229.262	109.12
229.496	135.12
229.73	147.12
229.964	169.12
230.199	151.12
230.433	121.12
230.667	122.12
230.901	115.12
231.136	119.12
231.37	111.12
231.604	121.12
231.838	101.12
232.072	119.12
232.306	103.12
232.541	108.12
232.775	117.12
233.009	117.12
233.243	105.12
233.477	109.12
233.711	123.12
233.945	115.12
234.179	104.12
234.413	129.12
234.647	123.12
234.881	130.12
235.115	110.12
235.349	127.12
235.583	123.12
235.817	128.12
236.051	120.12
236.285	119.12
236.519	141.12
236.753	135.12
236.987	164.12
237.221	195.12
237.455	268.12
237.689	222.12
237.922	150.12
238.156	140.12
238.39	145.12
238.624	136.12
238.858	137.12
239.091	140.12
239.325	143.12
239.559	137.12
239.793	125.12
240.027	131.12
240.26	149.12
240.494	183.12
240.728	152.12
240.961	164.12
241.195	164.12
241.429	137.12
241.662	136.12
241.896	136.12
242.13	154.12
242.363	149.12
242.597	125.12
242.83	141.12
243.064	148.12
243.298	149.12
243.531	150.12
243.765	148.12
243.998	131.12
244.232	134.12
244.465	145.12
244.699	160.12
244.932	150.12
245.166	141.12
245.399	147.12
245.633	139.12
245.866	148.12
246.099	147.12
246.333	162.12
246.566	153.12
246.8	152.12
247.033	169.12
247.266	168.12
247.5	153.12
247.733	167.12
247.966	184.12
248.2	160.12
248.433	194.12
248.666	185.12
248.899	197.12
249.133	209.12
249.366	231.12
249.599	222.12
249.832	208.12
250.066	201.12
250.299	187.12
250.532	179.12
250.765	210.12
250.998	236.12
251.231	239.12
251.465	239.12
251.698	225.12
251.931	200.12
252.164	223.12
252.397	198.12
252.63	209.12
252.863	223.12
253.096	231.12
253.329	261.12
253.562	252.12
253.795	241.12
254.028	250.12
254.261	226.12
254.494	248.12
254.727	277.12
254.96	314.12
255.193	285.12
255.426	271.12
255.659	253.12
255.892	250.12
256.124	248.12
256.357	271.12
256.59	264.12
256.823	243.12
257.056	228.12
257.289	233.12
257.521	229.12
257.754	224.12
257.987	220.12
258.22	221.12
258.452	223.12
258.685	224.12
258.918	221.12
259.151	229.12
259.383	235.12
259.616	231.12
259.849	239.12
260.081	257.12
260.314	278.12
260.547	275.12
260.779	284.12
261.012	268.12
261.244	238.12
261.477	262.12
261.71	247.12
261.942	239.12
262.175	255.12
262.407	257.12
262.64	240.12
262.872	220.12
263.105	222.12
263.337	230.12
263.57	237.12
263.802	247.12
264.035	231.12
264.267	213.12
264.499	224.12
264.732	216.12
264.964	225.12
265.197	241.12
265.429	224.12
265.661	212.12
265.894	219.12
266.126	209.12
266.358	209.12
266.591	233.12
266.823	232.12
267.055	241.12
267.287	230.12
267.52	236.12
267.752	230.12
267.984	220.12
268.216	238.12
268.448	243.12
268.681	252.12
268.913	256.12
269.145	308.12
269.377	293.12
269.609	304.12
269.841	316.12
270.073	294.12
270.306	315.12
270.538	343.12
270.77	330.12
271.002	311.12
271.234	314.12
271.466	331.12
271.698	331.12
271.93	363.12
272.162	356.12
272.394	346.12
272.626	347.12
272.858	305.12
273.09	317.12
273.322	297.12
273.553	271.12
273.785	278.12
274.017	299.12
274.249	293.12
274.481	286.12
274.713	274.12
274.945	290.12
275.176	297.12
275.408	298.12
275.64	285.12
275.872	276.12
276.104	273.12
276.335	300.12
276.567	280.12
276.799	300.12
277.031	347.12
277.262	340.12
277.494	326.12
277.726	322.12
277.957	292.12
278.189	292.12
278.421	294.12
278.652	298.12
278.884	288.12
279.115	273.12
279.347	285.12
279.579	288.12
279.81	292.12
280.042	285.12
280.273	286.12
280.505	279.12
280.736	267.12
280.968	273.12
281.199	264.12
281.431	276.12
281.662	284.12
281.894	279.12
282.125	300.12
282.356	313.12
282.588	308.12
282.819	310.12
283.051	319.12
283.282	270.12
283.513	290.12
283.745	278.12
283.976	282.12
284.207	293.12
284.439	281.12
284.67	303.12
284.901	283.12
285.132	284.12
285.364	295.12
285.595	284.12
285.826	267.12
286.057	290.12
286.288	281.12
286.52	278.12
286.751	285.12
286.982	287.12
287.213	315.12
287.444	297.12
287.675	296.12
287.906	313.12
288.138	299.12
288.369	341.12
288.6	297.12
288.831	299.12
289.062	313.12
289.293	302.12
289.524	291.12
289.755	284.12
289.986	317.12
290.217	283.12
290.448	266.12
290.679	289.12
290.91	297.12
291.141	291.12
291.371	287.12
291.602	296.12
291.833	292.12
292.064	309.12
292.295	297.12
292.526	297.12
292.757	308.12
292.987	293.12
293.218	292.12
293.449	297.12
293.68	299.12
293.91	305.12
294.141	295.12
294.372	300.12
294.603	284.12
294.833	278.12
295.064	295.12
295.295	317.12
295.525	297.12
295.756	316.12
295.987	303.12
296.217	332.12
296.448	340.12
296.679	329.12
296.909	291.12
297.14	286.12
297.37	292.12
297.601	308.12
297.831	296.12
298.062	300.12
298.292	295.12
298.523	313.12
298.753	311.12
298.984	304.12
299.214	299.12
299.445	309.12
299.675	312.12
299.905	334.12
300.136	332.12
300.366	304.12
300.597	300.12
300.827	321.12
301.057	340.12
301.288	335.12
301.518	337.12
301.748	319.12
301.979	342.12
302.209	333.12
302.439	331.12
302.669	312.12
302.9	343.12
303.13	316.12
303.36	316.12
303.59	341.12
303.82	356.12
304.051	334.12
304.281	345.12
304.511	313.12
304.741	326.12
304.971	316.12
305.201	338.12
305.431	320.12
305.661	325.12
305.891	317.12
306.121	336.12
306.352	350.12
306.582	347.12
306.812	336.12
307.042	320.12
307.272	318.12
307.502	350.12
307.731	342.12
307.961	335.12
308.191	324.12
308.421	326.12
308.651	349.12
308.881	337.12
309.111	336.12
309.341	352.12
309.571	375.12
309.8	381.12
310.03	373.12
310.26	396.12
310.49	392.12
310.72	410.12
310.949	432.12
311.179	426.12
311.409	378.12
311.639	393.12
311.868	383.12
312.098	395.12
312.328	423.12
312.557	438.12
312.787	447.12
313.017	441.12
313.246	400.12
313.476	397.12
313.706	390.12
313.935	390.12
314.165	409.12
314.394	409.12
314.624	420.12
314.853	409.12
315.083	420.12
315.312	415.12
315.542	407.12
315.771	388.12
316.001	392.12
316.23	390.12
316.46	366.12
316.689	387.12
316.919	395.12
317.148	405.12
317.377	435.12
317.607	422.12
317.836	419.12
318.065	382.12
318.295	396.12
318.524	399.12
318.753	397.12
318.983	397.12
319.212	394.12
319.441	416.12
319.67	391.12
319.9	419.12
320.129	394.12
320.358	400.12
320.587	404.12
320.816	420.12
321.046	423.12
321.275	412.12
321.504	411.12
321.733	414.12
321.962	423.12
322.191	464.12
322.42	456.12
322.649	501.12
322.878	488.12
323.108	537.12
323.337	541.12
323.566	582.12
323.795	617.12
324.024	685.12
324.253	847.12
324.482	1227.12
324.71	1942.12
324.939	2840.12
325.168	2466.12
325.397	1243.12
325.626	791.12
325.855	640.12
326.084	598.12
326.313	583.12
326.542	568.12
326.77	630.12
326.999	752.12
327.228	1071.12
327.457	1688.12
327.686	2139.12
327.914	1386.12
328.143	853.12
328.372	750.12
328.6	711.12
328.829	658.12
329.058	648.12
329.287	704.12
329.515	616.12
329.744	598.12
329.972	573.12
330.201	606.12
330.43	664.12
330.658	679.12
330.887	703.12
331.115	702.12
331.344	568.12
331.572	528.12
331.801	531.12
332.03	531.12
332.258	519.12
332.486	480.12
332.715	479.12
332.943	468.12
333.172	473.12
333.4	480.12
333.629	488.12
333.857	491.12
334.085	492.12
334.314	533.12
334.542	575.12
334.771	603.12
334.999	534.12
335.227	492.12
335.455	457.12
335.684	494.12
335.912	439.12
336.14	449.12
336.369	462.12
336.597	461.12
336.825	459.12
337.053	436.12
337.281	445.12
337.51	448.12
337.738	440.12
337.966	451.12
338.194	465.12
338.422	463.12
338.65	429.12
338.878	437.12
339.106	425.12
339.334	435.12
339.562	439.12
339.79	436.12
340.018	414.12
340.246	437.12
340.474	444.12
340.702	449.12
340.93	409.12
341.158	417.12
341.386	447.12
341.614	443.12
341.842	417.12
342.07	436.12
342.298	441.12
342.526	436.12
342.754	440.12
342.981	412.12
343.209	395.12
343.437	414.12
343.665	420.12
343.893	421.12
344.12	426.12
344.348	439.12
344.576	431.12
344.804	442.12
345.031	465.12
345.259	464.12
345.487	461.12
345.714	442.12
345.942	436.12
346.17	410.12
346.397	418.12
346.625	416.12
346.853	421.12
347.08	431.12
347.308	435.12
347.535	438.12
347.763	436.12
347.99	442.12
348.218	448.12
348.445	436.12
348.673	427.12
348.9	443.12
349.128	431.12
349.355	398.12
349.583	396.12
349.81	393.12
350.037	419.12
350.265	419.12
350.492	408.12
350.72	415.12
350.947	439.12
351.174	428.12
351.402	439.12
351.629	413.12
351.856	432.12
352.083	447.12
352.311	425.12
352.538	457.12
352.765	461.12
352.992	432.12
353.22	435.12
353.447	423.12
353.674	417.12
353.901	409.12
354.128	384.12
354.355	405.12
354.583	404.12
354.81	382.12
355.037	398.12
355.264	398.12
355.491	383.12
355.718	368.12
355.945	387.12
356.172	387.12
356.399	413.12
356.626	393.12
356.853	394.12
357.08	373.12
357.307	368.12
357.534	381.12
357.761	389.12
357.988	384.12
358.215	401.12
358.441	393.12
358.668	407.12
358.895	399.12
359.122	405.12
359.349	402.12
359.576	435.12
359.802	467.12
360.029	493.12
360.256	504.12
360.483	487.12
360.709	445.12
360.936	420.12
361.163	410.12
361.39	421.12
361.616	431.12
361.843	421.12
362.07	441.12
362.296	419.12
362.523	426.12
362.749	423.12
362.976	413.12
363.203	441.12
363.429	398.12
363.656	393.12
363.882	400.12
364.109	381.12
364.335	375.12
364.562	389.12
364.788	399.12
365.015	398.12
365.241	398.12
365.468	393.12
365.694	404.12
365.92	402.12
366.147	394.12
366.373	395.12
366.599	390.12
366.826	375.12
367.052	376.12
367.278	394.12
367.505	387.12
367.731	390.12
367.957	366.12
368.184	391.12
368.41	414.12
368.636	429.12
368.862	427.12
369.089	396.12
369.315	397.12
369.541	404.12
369.767	383.12
369.993	372.12
370.219	403.12
370.445	391.12
370.672	377.12
370.898	375.12
371.124	388.12
371.35	387.12
371.576	387.12
371.802	380.12
372.028	392.12
372.254	379.12
372.48	379.12
372.706	363.12
372.932	389.12
373.158	384.12
373.384	379.12
373.61	387.12
373.835	392.12
374.061	365.12
374.287	361.12
374.513	377.12
374.739	407.12
374.965	376.12
375.191	389.12
375.416	382.12
375.642	387.12
375.868	373.12
376.094	379.12
376.319	389.12
376.545	380.12
376.771	363.12
376.997	373.12
377.222	354.12
377.448	366.12
377.674	368.12
377.899	377.12
378.125	380.12
378.35	378.12
378.576	356.12
378.802	381.12
379.027	383.12
379.253	369.12
379.478	375.12
379.704	371.12
379.929	369.12
380.155	387.12
380.38	377.12
380.606	385.12
380.831	380.12
381.057	365.12
381.282	381.12
381.507	384.12
381.733	389.12
381.958	394.12
382.184	362.12
382.409	393.12
382.634	391.12
382.86	376.12
383.085	381.12
383.31	370.12
383.535	381.12
383.761	382.12
383.986	398.12
384.211	380.12
384.436	397.12
384.662	358.12
384.887	380.12
385.112	402.12
385.337	405.12
385.562	396.12
385.787	390.12
386.013	421.12
386.238	407.12
386.463	419.12
386.688	391.12
386.913	388.12
387.138	415.12
387.363	402.12
387.588	415.12
387.813	400.12
388.038	395.12
388.263	407.12
388.488	382.12
388.713	356.12
388.938	401.12
389.163	401.12
389.387	401.12
389.612	400.12
389.837	395.12
390.062	401.12
390.287	397.12
390.512	411.12
390.736	390.12
390.961	400.12
391.186	406.12
391.411	377.12
391.636	406.12
391.86	400.12
392.085	401.12
392.31	406.12
392.534	405.12
392.759	398.12
392.984	415.12
393.208	401.12
393.433	399.12
393.658	414.12
393.882	388.12
394.107	402.12
394.331	378.12
394.556	409.12
394.78	407.12
395.005	404.12
395.229	392.12
395.454	407.12
395.678	402.12
395.903	407.12
396.127	457.12
396.352	451.12
396.576	407.12
396.801	389.12
397.025	402.12
397.249	407.12
397.474	432.12
397.698	425.12
397.922	451.12
398.147	445.12
398.371	473.12
398.595	441.12
398.82	424.12
399.044	438.12
399.268	454.12
399.492	489.12
399.717	499.12
399.941	517.12
400.165	569.12
400.389	581.12
400.613	529.12
400.837	485.12
401.062	460.12
401.286	460.12
401.51	461.12
401.734	432.12
401.958	463.12
402.182	459.12
402.406	472.12
402.63	490.12
402.854	446.12
403.078	455.12
403.302	468.12
403.526	470.12
403.75	484.12
403.974	474.12
404.198	442.12
404.422	499.12
404.645	498.12
404.869	490.12
405.093	515.12
405.317	550.12
405.541	608.12
405.765	544.12
405.988	513.12
406.212	526.12
406.436	558.12
406.66	544.12
406.883	540.12
407.107	541.12
407.331	580.12
407.555	646.12
407.778	640.12
408.002	563.12
408.226	538.12
408.449	519.12
408.673	517.12
408.896	549.12
409.12	598.12
409.344	566.12
409.567	529.12
409.791	494.12
410.014	475.12
410.238	496.12
410.461	463.12
410.685	499.12
410.908	499.12
411.132	549.12
411.355	562.12
411.578	538.12
411.802	475.12
412.025	465.12
412.249	475.12
412.472	524.12
412.695	557.12
412.919	552.12
413.142	482.12
413.365	466.12
413.589	461.12
413.812	459.12
414.035	458.12
414.258	453.12
414.482	438.12
414.705	450.12
414.928	444.12
415.151	442.12
415.374	461.12
415.597	426.12
415.821	437.12
416.044	451.12
416.267	445.12
416.49	455.12
416.713	464.12
416.936	441.12
417.159	465.12
417.382	468.12
417.605	459.12
417.828	463.12
418.051	490.12
418.274	460.12
418.497	443.12
418.72	462.12
418.943	457.12
419.166	456.12
419.389	485.12
419.611	479.12
419.834	463.12
420.057	479.12
420.28	497.12
420.503	471.12
420.726	449.12
420.948	479.12
421.171	543.12
421.394	588.12
421.617	527.12
421.839	480.12
422.062	481.12
422.285	506.12
422.507	553.12
422.73	635.12
422.953	627.12
423.175	517.12
423.398	488.12
423.621	497.12
423.843	513.12
424.066	525.12
424.288	517.12
424.511	547.12
424.733	589.12
424.956	704.12
425.178	644.12
425.401	662.12
425.623	673.12
425.846	592.12
426.068	537.12
426.291	536.12
426.513	547.12
426.735	539.12
426.958	622.12
427.18	694.12
427.402	809.12
427.625	923.12
427.847	811.12
428.069	713.12
428.292	604.12
428.514	556.12
428.736	512.12
428.958	515.12
429.181	480.12
429.403	506.12
429.625	511.12
429.847	559.12
430.069	604.12
430.292	584.12
430.514	505.12
430.736	503.12
430.958	463.12
431.18	465.12
431.402	472.12
431.624	469.12
431.846	457.12
432.068	439.12
432.29	455.12
432.512	481.12
432.734	483.12
432.956	464.12
433.178	481.12
433.4	473.12
433.622	475.12
433.844	447.12
434.066	455.12
434.287	472.12
434.509	441.12
434.731	442.12
434.953	473.12
435.175	500.12
435.397	513.12
435.618	521.12
435.84	592.12
436.062	684.12
436.284	774.12
436.505	640.12
436.727	560.12
436.949	537.12
437.17	499.12
437.392	499.12
437.614	519.12
437.835	574.12
438.057	659.12
438.278	779.12
438.5	763.12
438.721	859.12
438.943	792.12
439.165	655.12
439.386	589.12
439.608	567.12
439.829	572.12
440.05	590.12
440.272	643.12
440.493	600.12
440.715	558.12
440.936	541.12
441.158	496.12
441.379	496.12
441.6	524.12
441.822	532.12
442.043	576.12
442.264	684.12
442.486	726.12
442.707	607.12
442.928	566.12
443.149	543.12
443.371	565.12
443.592	643.12
443.813	746.12
444.034	791.12
444.255	663.12
444.476	553.12
444.698	532.12
444.919	515.12
445.14	604.12
445.361	587.12
445.582	604.12
445.803	675.12
446.024	778.12
446.245	779.12
446.466	740.12
446.687	597.12
446.908	557.12
447.129	521.12
447.35	522.12
447.571	493.12
447.792	504.12
448.013	513.12
448.234	542.12
448.455	592.12
448.675	685.12
448.896	835.12
449.117	705.12
449.338	657.12
449.559	781.12
449.779	887.12
450	699.12
450.221	569.12
450.442	542.12
450.662	494.12
450.883	495.12
451.104	533.12
451.324	521.12
451.545	492.12
451.766	468.12
451.986	456.12
452.207	446.12
452.428	432.12
452.648	438.12
452.869	437.12
453.089	462.12
453.31	468.12
453.53	477.12
453.751	460.12
453.971	458.12
454.192	475.12
454.412	462.12
454.633	456.12
454.853	465.12
455.073	444.12
455.294	473.12
455.514	555.12
455.734	556.12
455.955	459.12
456.175	439.12
456.395	415.12
456.616	426.12
456.836	405.12
457.056	397.12
457.276	402.12
457.497	418.12
457.717	426.12
457.937	423.12
458.157	412.12
458.377	454.12
458.598	451.12
458.818	539.12
459.038	603.12
459.258	646.12
459.478	545.12
459.698	480.12
459.918	442.12
460.138	461.12
460.358	448.12
460.578	457.12
460.798	445.12
461.018	460.12
461.238	463.12
461.458	402.12
461.678	448.12
461.898	455.12
462.118	451.12
462.338	460.12
462.558	452.12
462.777	449.12
462.997	469.12
463.217	456.12
463.437	467.12
463.657	467.12
463.876	455.12
464.096	471.12
464.316	470.12
464.536	476.12
464.755	478.12
464.975	495.12
465.195	559.12
465.414	640.12
465.634	569.12
465.854	505.12
466.073	481.12
466.293	472.12
466.512	464.12
466.732	416.12
466.951	436.12
467.171	437.12
467.391	452.12
467.61	461.12
467.829	457.12
468.049	453.12
468.268	468.12
468.488	460.12
468.707	429.12
468.927	407.12
469.146	421.12
469.365	417.12
469.585	418.12
469.804	414.12
470.023	436.12
470.243	455.12
470.462	455.12
470.681	477.12
470.901	459.12
471.12	460.12
471.339	455.12
471.558	447.12
471.777	453.12
471.997	439.12
472.216	445.12
472.435	540.12
472.654	505.12
472.873	470.12
473.092	467.12
473.311	449.12
473.53	457.12
473.749	469.12
473.968	516.12
474.187	607.12
474.406	661.12
474.625	547.12
474.844	477.12
475.063	462.12
475.282	455.12
475.501	454.12
475.72	452.12
475.939	461.12
476.158	452.12
476.377	465.12
476.596	464.12
476.814	483.12
477.033	469.12
477.252	489.12
477.471	479.12
477.69	471.12
477.908	458.12
478.127	489.12
478.346	479.12
478.564	505.12
478.783	516.12
479.002	501.12
479.22	516.12
479.439	500.12
479.658	540.12
479.876	565.12
480.095	547.12
480.313	583.12
480.532	556.12
480.751	544.12
480.969	547.12
481.188	646.12
481.406	704.12
481.624	608.12
481.843	558.12
482.061	552.12
482.28	536.12
482.498	540.12
482.717	523.12
482.935	528.12
483.153	530.12
483.372	499.12
483.59	542.12
483.808	525.12
484.027	553.12
484.245	534.12
484.463	538.12
484.681	542.12
484.9	549.12
485.118	537.12
485.336	547.12
485.554	522.12
485.772	551.12
485.99	548.12
486.209	569.12
486.427	569.12
486.645	571.12
486.863	593.12
487.081	602.12
487.299	580.12
487.517	580.12
487.735	566.12
487.953	563.12
488.171	565.12
488.389	567.12
488.607	591.12
488.825	559.12
489.043	565.12
489.261	587.12
489.479	593.12
489.696	584.12
489.914	581.12
490.132	601.12
490.35	605.12
490.568	578.12
490.786	607.12
491.003	623.12
491.221	633.12
491.439	636.12
491.657	639.12
491.874	662.12
492.092	647.12
492.31	672.12
492.527	676.12
492.745	669.12
492.963	703.12
493.18	675.12
493.398	699.12
493.615	684.12
493.833	662.12
494.05	670.12
494.268	663.12
494.485	671.12
494.703	682.12
494.92	693.12
495.138	671.12
495.355	660.12
495.573	653.12
495.79	680.12
496.008	668.12
496.225	683.12
496.442	686.12
496.66	679.12
496.877	676.12
497.094	654.12
497.312	693.12
497.529	715.12
497.746	711.12
497.963	688.12
498.181	716.12
498.398	733.12
498.615	741.12
498.832	755.12
499.049	778.12
499.267	750.12
499.484	789.12
499.701	797.12
499.918	793.12
500.135	800.12
500.352	835.12
500.569	861.12
500.786	810.12
501.003	854.12
501.22	836.12
501.437	812.12
501.654	835.12
501.871	807.12
