Data from 1972.PennyLincolnUp.Lamp.En5.5.200Scan.071719.P1._HRD10591_15-29-11-844.txt Node
Date: Thu Jul 18 15:29:11 EDT 2019
User: cochatt
Spectrometer: HR+D1059
Trigger mode: 1
Integration Time (sec): 1.000000E-1
Scans to average: 1
Electric dark correction enabled: true
Nonlinearity correction enabled: false
Boxcar width: 0
XAxis mode: Wavelengths
Number of Pixels in Spectrum: 2048
>>>>>Begin Spectral Data<<<<<
223.165	-5.31
223.4	-5.31
223.635	-5.31
223.869	-19.31
224.104	-16.31
224.338	-6.31
224.573	-29.31
224.808	-14.31
225.042	-12.31
225.277	8.69
225.511	-4.31
225.746	5.69
225.98	5.69
226.215	4.69
226.449	17.69
226.683	24.69
226.918	18.69
227.152	21.69
227.387	27.69
227.621	44.69
227.856	42.69
228.09	31.69
228.324	60.69
228.559	53.69
228.793	68.69
229.027	89.69
229.262	122.69
229.496	111.69
229.73	144.69
229.964	168.69
230.199	134.69
230.433	139.69
230.667	116.69
230.901	100.69
231.136	108.69
231.37	110.69
231.604	115.69
231.838	122.69
232.072	115.69
232.306	113.69
232.541	115.69
232.775	115.69
233.009	112.69
233.243	124.69
233.477	121.69
233.711	117.69
233.945	93.69
234.179	111.69
234.413	116.69
234.647	106.69
234.881	111.69
235.115	116.69
235.349	108.69
235.583	114.69
235.817	113.69
236.051	123.69
236.285	122.69
236.519	139.69
236.753	125.69
236.987	165.69
237.221	201.69
237.455	263.69
237.689	219.69
237.922	143.69
238.156	145.69
238.39	128.69
238.624	122.69
238.858	137.69
239.091	120.69
239.325	129.69
239.559	108.69
239.793	133.69
240.027	143.69
240.26	141.69
240.494	158.69
240.728	171.69
240.961	154.69
241.195	155.69
241.429	136.69
241.662	131.69
241.896	126.69
242.13	154.69
242.363	145.69
242.597	118.69
242.83	133.69
243.064	136.69
243.298	152.69
243.531	126.69
243.765	127.69
243.998	135.69
244.232	135.69
244.465	132.69
244.699	132.69
244.932	147.69
245.166	145.69
245.399	140.69
245.633	141.69
245.866	138.69
246.099	141.69
246.333	133.69
246.566	140.69
246.8	156.69
247.033	169.69
247.266	172.69
247.5	162.69
247.733	181.69
247.966	167.69
248.2	169.69
248.433	174.69
248.666	183.69
248.899	186.69
249.133	216.69
249.366	213.69
249.599	220.69
249.832	196.69
250.066	196.69
250.299	191.69
250.532	189.69
250.765	207.69
250.998	231.69
251.231	244.69
251.465	229.69
251.698	222.69
251.931	208.69
252.164	196.69
252.397	202.69
252.63	208.69
252.863	200.69
253.096	221.69
253.329	230.69
253.562	244.69
253.795	240.69
254.028	229.69
254.261	212.69
254.494	243.69
254.727	275.69
254.96	321.69
255.193	290.69
255.426	267.69
255.659	240.69
255.892	245.69
256.124	247.69
256.357	249.69
256.59	256.69
256.823	237.69
257.056	213.69
257.289	232.69
257.521	212.69
257.754	236.69
257.987	220.69
258.22	210.69
258.452	222.69
258.685	221.69
258.918	221.69
259.151	220.69
259.383	220.69
259.616	205.69
259.849	228.69
260.081	234.69
260.314	277.69
260.547	269.69
260.779	252.69
261.012	240.69
261.244	241.69
261.477	229.69
261.71	209.69
261.942	244.69
262.175	257.69
262.407	237.69
262.64	236.69
262.872	219.69
263.105	229.69
263.337	224.69
263.57	218.69
263.802	228.69
264.035	226.69
264.267	215.69
264.499	204.69
264.732	219.69
264.964	219.69
265.197	214.69
265.429	226.69
265.661	207.69
265.894	212.69
266.126	208.69
266.358	202.69
266.591	216.69
266.823	237.69
267.055	227.69
267.287	227.69
267.52	216.69
267.752	219.69
267.984	218.69
268.216	237.69
268.448	251.69
268.681	254.69
268.913	234.69
269.145	275.69
269.377	300.69
269.609	275.69
269.841	288.69
270.073	294.69
270.306	306.69
270.538	342.69
270.77	368.69
271.002	323.69
271.234	309.69
271.466	339.69
271.698	314.69
271.93	339.69
272.162	352.69
272.394	336.69
272.626	312.69
272.858	306.69
273.09	307.69
273.322	297.69
273.553	287.69
273.785	277.69
274.017	270.69
274.249	290.69
274.481	290.69
274.713	274.69
274.945	287.69
275.176	281.69
275.408	293.69
275.64	280.69
275.872	292.69
276.104	277.69
276.335	276.69
276.567	298.69
276.799	291.69
277.031	327.69
277.262	329.69
277.494	326.69
277.726	323.69
277.957	294.69
278.189	294.69
278.421	283.69
278.652	266.69
278.884	276.69
279.115	275.69
279.347	268.69
279.579	264.69
279.81	278.69
280.042	259.69
280.273	280.69
280.505	290.69
280.736	244.69
280.968	275.69
281.199	274.69
281.431	273.69
281.662	255.69
281.894	266.69
282.125	301.69
282.356	293.69
282.588	319.69
282.819	311.69
283.051	277.69
283.282	279.69
283.513	279.69
283.745	279.69
283.976	285.69
284.207	271.69
284.439	276.69
284.67	267.69
284.901	265.69
285.132	273.69
285.364	281.69
285.595	273.69
285.826	266.69
286.057	281.69
286.288	270.69
286.52	274.69
286.751	280.69
286.982	281.69
287.213	268.69
287.444	290.69
287.675	296.69
287.906	296.69
288.138	305.69
288.369	291.69
288.6	297.69
288.831	297.69
289.062	290.69
289.293	292.69
289.524	285.69
289.755	288.69
289.986	268.69
290.217	299.69
290.448	279.69
290.679	277.69
290.91	294.69
291.141	268.69
291.371	280.69
291.602	285.69
291.833	285.69
292.064	270.69
292.295	283.69
292.526	284.69
292.757	297.69
292.987	289.69
293.218	269.69
293.449	270.69
293.68	283.69
293.91	285.69
294.141	273.69
294.372	300.69
294.603	272.69
294.833	270.69
295.064	277.69
295.295	301.69
295.525	281.69
295.756	293.69
295.987	292.69
296.217	329.69
296.448	349.69
296.679	311.69
296.909	304.69
297.14	278.69
297.37	309.69
297.601	283.69
297.831	277.69
298.062	297.69
298.292	294.69
298.523	316.69
298.753	283.69
298.984	306.69
299.214	297.69
299.445	308.69
299.675	326.69
299.905	317.69
300.136	312.69
300.366	305.69
300.597	294.69
300.827	307.69
301.057	328.69
301.288	326.69
301.518	315.69
301.748	298.69
301.979	313.69
302.209	319.69
302.439	331.69
302.669	328.69
302.9	313.69
303.13	331.69
303.36	313.69
303.59	333.69
303.82	339.69
304.051	311.69
304.281	325.69
304.511	323.69
304.741	308.69
304.971	324.69
305.201	320.69
305.431	318.69
305.661	316.69
305.891	307.69
306.121	330.69
306.352	334.69
306.582	324.69
306.812	320.69
307.042	320.69
307.272	323.69
307.502	348.69
307.731	340.69
307.961	321.69
308.191	325.69
308.421	329.69
308.651	331.69
308.881	316.69
309.111	340.69
309.341	334.69
309.571	363.69
309.8	372.69
310.03	379.69
310.26	380.69
310.49	389.69
310.72	388.69
310.949	405.69
311.179	451.69
311.409	384.69
311.639	387.69
311.868	409.69
312.098	393.69
312.328	398.69
312.557	432.69
312.787	426.69
313.017	445.69
313.246	410.69
313.476	369.69
313.706	369.69
313.935	387.69
314.165	405.69
314.394	425.69
314.624	413.69
314.853	407.69
315.083	388.69
315.312	391.69
315.542	367.69
315.771	370.69
316.001	395.69
316.23	361.69
316.46	392.69
316.689	392.69
316.919	384.69
317.148	388.69
317.377	388.69
317.607	386.69
317.836	404.69
318.065	387.69
318.295	385.69
318.524	371.69
318.753	364.69
318.983	358.69
319.212	386.69
319.441	399.69
319.67	395.69
319.9	391.69
320.129	383.69
320.358	370.69
320.587	383.69
320.816	401.69
321.046	423.69
321.275	412.69
321.504	405.69
321.733	422.69
321.962	431.69
322.191	447.69
322.42	476.69
322.649	472.69
322.878	491.69
323.108	513.69
323.337	553.69
323.566	565.69
323.795	595.69
324.024	707.69
324.253	836.69
324.482	1233.69
324.71	2014.69
324.939	2917.69
325.168	2487.69
325.397	1286.69
325.626	810.69
325.855	654.69
326.084	577.69
326.313	571.69
326.542	563.69
326.77	604.69
326.999	769.69
327.228	1095.69
327.457	1681.69
327.686	2139.69
327.914	1421.69
328.143	893.69
328.372	753.69
328.6	698.69
328.829	645.69
329.058	697.69
329.287	659.69
329.515	612.69
329.744	576.69
329.972	568.69
330.201	610.69
330.43	651.69
330.658	702.69
330.887	708.69
331.115	691.69
331.344	591.69
331.572	540.69
331.801	529.69
332.03	520.69
332.258	501.69
332.486	482.69
332.715	475.69
332.943	476.69
333.172	471.69
333.4	462.69
333.629	487.69
333.857	501.69
334.085	517.69
334.314	538.69
334.542	569.69
334.771	590.69
334.999	550.69
335.227	485.69
335.455	467.69
335.684	449.69
335.912	453.69
336.14	427.69
336.369	435.69
336.597	444.69
336.825	460.69
337.053	439.69
337.281	428.69
337.51	422.69
337.738	427.69
337.966	457.69
338.194	447.69
338.422	446.69
338.65	422.69
338.878	417.69
339.106	444.69
339.334	427.69
339.562	438.69
339.79	437.69
340.018	435.69
340.246	411.69
340.474	421.69
340.702	443.69
340.93	434.69
341.158	441.69
341.386	410.69
341.614	440.69
341.842	449.69
342.07	426.69
342.298	416.69
342.526	411.69
342.754	406.69
342.981	410.69
343.209	425.69
343.437	417.69
343.665	422.69
343.893	389.69
344.12	428.69
344.348	429.69
344.576	418.69
344.804	426.69
345.031	428.69
345.259	462.69
345.487	440.69
345.714	433.69
345.942	423.69
346.17	407.69
346.397	413.69
346.625	429.69
346.853	412.69
347.08	416.69
347.308	434.69
347.535	425.69
347.763	425.69
347.99	434.69
348.218	438.69
348.445	431.69
348.673	427.69
348.9	421.69
349.128	410.69
349.355	412.69
349.583	391.69
349.81	390.69
350.037	411.69
350.265	403.69
350.492	384.69
350.72	401.69
350.947	394.69
351.174	415.69
351.402	429.69
351.629	435.69
351.856	418.69
352.083	431.69
352.311	457.69
352.538	442.69
352.765	431.69
352.992	420.69
353.22	425.69
353.447	414.69
353.674	411.69
353.901	403.69
354.128	404.69
354.355	383.69
354.583	374.69
354.81	363.69
355.037	378.69
355.264	361.69
355.491	389.69
355.718	358.69
355.945	361.69
356.172	344.69
356.399	371.69
356.626	363.69
356.853	369.69
357.08	371.69
357.307	369.69
357.534	369.69
357.761	403.69
357.988	392.69
358.215	369.69
358.441	384.69
358.668	374.69
358.895	388.69
359.122	384.69
359.349	395.69
359.576	424.69
359.802	449.69
360.029	462.69
360.256	503.69
360.483	467.69
360.709	431.69
360.936	428.69
361.163	418.69
361.39	416.69
361.616	405.69
361.843	409.69
362.07	418.69
362.296	416.69
362.523	415.69
362.749	403.69
362.976	410.69
363.203	419.69
363.429	383.69
363.656	371.69
363.882	389.69
364.109	385.69
364.335	379.69
364.562	358.69
364.788	383.69
365.015	389.69
365.241	377.69
365.468	409.69
365.694	407.69
365.92	395.69
366.147	379.69
366.373	375.69
366.599	371.69
366.826	384.69
367.052	383.69
367.278	378.69
367.505	389.69
367.731	394.69
367.957	371.69
368.184	380.69
368.41	389.69
368.636	387.69
368.862	412.69
369.089	384.69
369.315	378.69
369.541	375.69
369.767	373.69
369.993	368.69
370.219	374.69
370.445	393.69
370.672	369.69
370.898	360.69
371.124	383.69
371.35	364.69
371.576	356.69
371.802	352.69
372.028	368.69
372.254	352.69
372.48	378.69
372.706	364.69
372.932	377.69
373.158	367.69
373.384	358.69
373.61	366.69
373.835	359.69
374.061	367.69
374.287	383.69
374.513	401.69
374.739	374.69
374.965	391.69
375.191	382.69
375.416	393.69
375.642	383.69
375.868	374.69
376.094	377.69
376.319	360.69
376.545	376.69
376.771	374.69
376.997	374.69
377.222	344.69
377.448	356.69
377.674	356.69
377.899	360.69
378.125	346.69
378.35	364.69
378.576	364.69
378.802	361.69
379.027	376.69
379.253	374.69
379.478	344.69
379.704	348.69
379.929	355.69
380.155	365.69
380.38	383.69
380.606	373.69
380.831	371.69
381.057	380.69
381.282	359.69
381.507	379.69
381.733	356.69
381.958	373.69
382.184	360.69
382.409	387.69
382.634	358.69
382.86	368.69
383.085	383.69
383.31	390.69
383.535	374.69
383.761	374.69
383.986	374.69
384.211	391.69
384.436	389.69
384.662	377.69
384.887	359.69
385.112	396.69
385.337	375.69
385.562	379.69
385.787	383.69
386.013	396.69
386.238	433.69
386.463	393.69
386.688	389.69
386.913	391.69
387.138	391.69
387.363	387.69
387.588	387.69
387.813	399.69
388.038	383.69
388.263	384.69
388.488	375.69
388.713	388.69
388.938	396.69
389.163	370.69
389.387	395.69
389.612	391.69
389.837	396.69
390.062	377.69
390.287	378.69
390.512	380.69
390.736	391.69
390.961	375.69
391.186	373.69
391.411	381.69
391.636	389.69
391.86	375.69
392.085	409.69
392.31	387.69
392.534	415.69
392.759	386.69
392.984	395.69
393.208	391.69
393.433	384.69
393.658	391.69
393.882	385.69
394.107	395.69
394.331	406.69
394.556	384.69
394.78	389.69
395.005	391.69
395.229	381.69
395.454	395.69
395.678	387.69
395.903	400.69
396.127	441.69
396.352	438.69
396.576	404.69
396.801	415.69
397.025	402.69
397.249	400.69
397.474	417.69
397.698	427.69
397.922	412.69
398.147	436.69
398.371	454.69
398.595	431.69
398.82	437.69
399.044	434.69
399.268	436.69
399.492	455.69
399.717	475.69
399.941	507.69
400.165	548.69
400.389	561.69
400.613	521.69
400.837	476.69
401.062	462.69
401.286	467.69
401.51	446.69
401.734	455.69
401.958	417.69
402.182	447.69
402.406	457.69
402.63	469.69
402.854	459.69
403.078	447.69
403.302	447.69
403.526	462.69
403.75	466.69
403.974	442.69
404.198	457.69
404.422	473.69
404.645	480.69
404.869	487.69
405.093	501.69
405.317	583.69
405.541	565.69
405.765	522.69
405.988	512.69
406.212	514.69
406.436	547.69
406.66	536.69
406.883	500.69
407.107	529.69
407.331	596.69
407.555	619.69
407.778	642.69
408.002	579.69
408.226	514.69
408.449	510.69
408.673	543.69
408.896	551.69
409.12	589.69
409.344	549.69
409.567	502.69
409.791	491.69
410.014	473.69
410.238	475.69
410.461	472.69
410.685	467.69
410.908	471.69
411.132	532.69
411.355	539.69
411.578	511.69
411.802	477.69
412.025	469.69
412.249	480.69
412.472	497.69
412.695	545.69
412.919	549.69
413.142	487.69
413.365	469.69
413.589	442.69
413.812	443.69
414.035	433.69
414.258	440.69
414.482	438.69
414.705	437.69
414.928	429.69
415.151	455.69
415.374	447.69
415.597	425.69
415.821	445.69
416.044	427.69
416.267	452.69
416.49	442.69
416.713	440.69
416.936	427.69
417.159	446.69
417.382	449.69
417.605	451.69
417.828	457.69
418.051	459.69
418.274	458.69
418.497	458.69
418.72	469.69
418.943	435.69
419.166	470.69
419.389	464.69
419.611	464.69
419.834	473.69
420.057	470.69
420.28	479.69
420.503	469.69
420.726	496.69
420.948	484.69
421.171	528.69
421.394	554.69
421.617	486.69
421.839	468.69
422.062	484.69
422.285	499.69
422.507	541.69
422.73	622.69
422.953	603.69
423.175	516.69
423.398	495.69
423.621	495.69
423.843	516.69
424.066	525.69
424.288	493.69
424.511	532.69
424.733	585.69
424.956	675.69
425.178	666.69
425.401	642.69
425.623	682.69
425.846	584.69
426.068	539.69
426.291	525.69
426.513	516.69
426.735	518.69
426.958	576.69
427.18	694.69
427.402	839.69
427.625	905.69
427.847	809.69
428.069	703.69
428.292	611.69
428.514	521.69
428.736	529.69
428.958	510.69
429.181	470.69
429.403	477.69
429.625	501.69
429.847	548.69
430.069	607.69
430.292	615.69
430.514	502.69
430.736	505.69
430.958	477.69
431.18	463.69
431.402	435.69
431.624	440.69
431.846	452.69
432.068	420.69
432.29	452.69
432.512	453.69
432.734	468.69
432.956	457.69
433.178	478.69
433.4	488.69
433.622	461.69
433.844	448.69
434.066	442.69
434.287	441.69
434.509	443.69
434.731	460.69
434.953	462.69
435.175	471.69
435.397	505.69
435.618	531.69
435.84	585.69
436.062	699.69
436.284	751.69
436.505	618.69
436.727	556.69
436.949	526.69
437.17	515.69
437.392	476.69
437.614	508.69
437.835	553.69
438.057	675.69
438.278	778.69
438.5	751.69
438.721	853.69
438.943	783.69
439.165	617.69
439.386	557.69
439.608	536.69
439.829	543.69
440.05	594.69
440.272	637.69
440.493	611.69
440.715	524.69
440.936	503.69
441.158	504.69
441.379	484.69
441.6	473.69
441.822	543.69
442.043	564.69
442.264	687.69
442.486	705.69
442.707	611.69
442.928	545.69
443.149	537.69
443.371	580.69
443.592	632.69
443.813	731.69
444.034	752.69
444.255	639.69
444.476	557.69
444.698	518.69
444.919	522.69
445.14	595.69
445.361	597.69
445.582	600.69
445.803	675.69
446.024	772.69
446.245	784.69
446.466	733.69
446.687	596.69
446.908	547.69
447.129	500.69
447.35	499.69
447.571	500.69
447.792	471.69
448.013	495.69
448.234	530.69
448.455	575.69
448.675	707.69
448.896	797.69
449.117	698.69
449.338	673.69
449.559	759.69
449.779	855.69
450	673.69
450.221	565.69
450.442	537.69
450.662	475.69
450.883	511.69
451.104	519.69
451.324	490.69
451.545	459.69
451.766	457.69
451.986	452.69
452.207	460.69
452.428	452.69
452.648	412.69
452.869	429.69
453.089	444.69
453.31	446.69
453.53	442.69
453.751	436.69
453.971	450.69
454.192	476.69
454.412	464.69
454.633	441.69
454.853	418.69
455.073	438.69
455.294	456.69
455.514	533.69
455.734	531.69
455.955	476.69
456.175	427.69
456.395	407.69
456.616	403.69
456.836	394.69
457.056	393.69
457.276	402.69
457.497	406.69
457.717	387.69
457.937	399.69
458.157	391.69
458.377	432.69
458.598	463.69
458.818	532.69
459.038	611.69
459.258	623.69
459.478	533.69
459.698	481.69
459.918	454.69
460.138	415.69
460.358	459.69
460.578	428.69
460.798	457.69
461.018	450.69
461.238	451.69
461.458	441.69
461.678	433.69
461.898	444.69
462.118	430.69
462.338	446.69
462.558	449.69
462.777	448.69
462.997	473.69
463.217	459.69
463.437	465.69
463.657	458.69
463.876	455.69
464.096	467.69
464.316	457.69
464.536	478.69
464.755	462.69
464.975	493.69
465.195	534.69
465.414	665.69
465.634	565.69
465.854	507.69
466.073	479.69
466.293	467.69
466.512	432.69
466.732	443.69
466.951	448.69
467.171	435.69
467.391	443.69
467.61	432.69
467.829	461.69
468.049	460.69
468.268	468.69
468.488	405.69
468.707	424.69
468.927	455.69
469.146	422.69
469.365	416.69
469.585	459.69
469.804	451.69
470.023	439.69
470.243	453.69
470.462	443.69
470.681	479.69
470.901	468.69
471.12	453.69
471.339	440.69
471.558	450.69
471.777	446.69
471.997	444.69
472.216	432.69
472.435	521.69
472.654	501.69
472.873	480.69
473.092	462.69
473.311	441.69
473.53	445.69
473.749	473.69
473.968	520.69
474.187	637.69
474.406	663.69
474.625	499.69
474.844	457.69
475.063	451.69
475.282	439.69
475.501	448.69
475.72	439.69
475.939	458.69
476.158	451.69
476.377	444.69
476.596	425.69
476.814	472.69
477.033	466.69
477.252	498.69
477.471	481.69
477.69	461.69
477.908	466.69
478.127	448.69
478.346	471.69
478.564	469.69
478.783	481.69
479.002	494.69
479.22	495.69
479.439	500.69
479.658	538.69
479.876	545.69
480.095	549.69
480.313	568.69
480.532	547.69
480.751	532.69
480.969	557.69
481.188	646.69
481.406	698.69
481.624	606.69
481.843	551.69
482.061	548.69
482.28	540.69
482.498	532.69
482.717	519.69
482.935	503.69
483.153	532.69
483.372	525.69
483.59	531.69
483.808	512.69
484.027	525.69
484.245	508.69
484.463	504.69
484.681	523.69
484.9	523.69
485.118	538.69
485.336	521.69
485.554	534.69
485.772	554.69
485.99	541.69
486.209	541.69
486.427	534.69
486.645	577.69
486.863	553.69
487.081	592.69
487.299	556.69
487.517	540.69
487.735	544.69
487.953	533.69
488.171	554.69
488.389	544.69
488.607	563.69
488.825	550.69
489.043	538.69
489.261	568.69
489.479	567.69
489.696	594.69
489.914	596.69
490.132	568.69
490.35	581.69
490.568	603.69
490.786	589.69
491.003	605.69
491.221	648.69
491.439	645.69
491.657	651.69
491.874	644.69
492.092	659.69
492.31	635.69
492.527	619.69
492.745	665.69
492.963	635.69
493.18	645.69
493.398	651.69
493.615	696.69
493.833	674.69
494.05	673.69
494.268	643.69
494.485	680.69
494.703	680.69
494.92	674.69
495.138	674.69
495.355	684.69
495.573	697.69
495.79	693.69
496.008	676.69
496.225	669.69
496.442	661.69
496.66	666.69
496.877	673.69
497.094	675.69
497.312	691.69
497.529	682.69
497.746	693.69
497.963	699.69
498.181	712.69
498.398	710.69
498.615	741.69
498.832	733.69
499.049	701.69
499.267	754.69
499.484	759.69
499.701	758.69
499.918	767.69
500.135	780.69
500.352	816.69
500.569	832.69
500.786	818.69
501.003	844.69
501.22	811.69
501.437	817.69
501.654	829.69
501.871	832.69
