Data from 1972.PennyLincolnUp.Lamp.En5.5.200Scan.071719.P1._HRD10591_15-28-16-844.txt Node
Date: Thu Jul 18 15:28:16 EDT 2019
User: cochatt
Spectrometer: HR+D1059
Trigger mode: 1
Integration Time (sec): 1.000000E-1
Scans to average: 1
Electric dark correction enabled: true
Nonlinearity correction enabled: false
Boxcar width: 0
XAxis mode: Wavelengths
Number of Pixels in Spectrum: 2048
>>>>>Begin Spectral Data<<<<<
223.165	-20.31
223.4	-20.31
223.635	-20.31
223.869	-9.31
224.104	-5.31
224.338	-14.31
224.573	-16.31
224.808	-13.31
225.042	-0.31
225.277	-2.31
225.511	-10.31
225.746	13.69
225.98	6.69
226.215	17.69
226.449	0.69
226.683	17.69
226.918	13.69
227.152	21.69
227.387	13.69
227.621	43.69
227.856	41.69
228.09	43.69
228.324	43.69
228.559	54.69
228.793	65.69
229.027	103.69
229.262	119.69
229.496	120.69
229.73	125.69
229.964	180.69
230.199	156.69
230.433	120.69
230.667	110.69
230.901	111.69
231.136	119.69
231.37	99.69
231.604	116.69
231.838	103.69
232.072	103.69
232.306	91.69
232.541	106.69
232.775	119.69
233.009	98.69
233.243	112.69
233.477	119.69
233.711	112.69
233.945	96.69
234.179	127.69
234.413	120.69
234.647	118.69
234.881	107.69
235.115	109.69
235.349	116.69
235.583	114.69
235.817	107.69
236.051	126.69
236.285	119.69
236.519	123.69
236.753	140.69
236.987	153.69
237.221	180.69
237.455	264.69
237.689	192.69
237.922	145.69
238.156	134.69
238.39	128.69
238.624	123.69
238.858	103.69
239.091	115.69
239.325	134.69
239.559	131.69
239.793	117.69
240.027	131.69
240.26	152.69
240.494	169.69
240.728	164.69
240.961	141.69
241.195	144.69
241.429	138.69
241.662	142.69
241.896	114.69
242.13	137.69
242.363	142.69
242.597	141.69
242.83	149.69
243.064	122.69
243.298	128.69
243.531	150.69
243.765	127.69
243.998	146.69
244.232	138.69
244.465	135.69
244.699	143.69
244.932	147.69
245.166	151.69
245.399	145.69
245.633	147.69
245.866	131.69
246.099	159.69
246.333	156.69
246.566	152.69
246.8	172.69
247.033	147.69
247.266	176.69
247.5	158.69
247.733	158.69
247.966	184.69
248.2	175.69
248.433	184.69
248.666	179.69
248.899	182.69
249.133	188.69
249.366	205.69
249.599	197.69
249.832	188.69
250.066	198.69
250.299	190.69
250.532	194.69
250.765	217.69
250.998	236.69
251.231	223.69
251.465	229.69
251.698	217.69
251.931	208.69
252.164	191.69
252.397	189.69
252.63	200.69
252.863	229.69
253.096	196.69
253.329	241.69
253.562	229.69
253.795	223.69
254.028	230.69
254.261	242.69
254.494	236.69
254.727	279.69
254.96	294.69
255.193	293.69
255.426	269.69
255.659	243.69
255.892	238.69
256.124	238.69
256.357	259.69
256.59	226.69
256.823	231.69
257.056	215.69
257.289	221.69
257.521	231.69
257.754	219.69
257.987	221.69
258.22	207.69
258.452	226.69
258.685	207.69
258.918	199.69
259.151	218.69
259.383	205.69
259.616	224.69
259.849	235.69
260.081	230.69
260.314	258.69
260.547	259.69
260.779	276.69
261.012	240.69
261.244	227.69
261.477	230.69
261.71	231.69
261.942	222.69
262.175	246.69
262.407	235.69
262.64	220.69
262.872	220.69
263.105	211.69
263.337	199.69
263.57	210.69
263.802	219.69
264.035	223.69
264.267	224.69
264.499	215.69
264.732	223.69
264.964	222.69
265.197	212.69
265.429	227.69
265.661	208.69
265.894	224.69
266.126	216.69
266.358	215.69
266.591	204.69
266.823	212.69
267.055	227.69
267.287	215.69
267.52	231.69
267.752	242.69
267.984	223.69
268.216	220.69
268.448	223.69
268.681	230.69
268.913	254.69
269.145	284.69
269.377	299.69
269.609	284.69
269.841	275.69
270.073	273.69
270.306	311.69
270.538	322.69
270.77	340.69
271.002	327.69
271.234	304.69
271.466	331.69
271.698	322.69
271.93	318.69
272.162	338.69
272.394	324.69
272.626	331.69
272.858	306.69
273.09	295.69
273.322	290.69
273.553	279.69
273.785	266.69
274.017	278.69
274.249	280.69
274.481	262.69
274.713	280.69
274.945	274.69
275.176	292.69
275.408	262.69
275.64	263.69
275.872	268.69
276.104	267.69
276.335	276.69
276.567	278.69
276.799	300.69
277.031	318.69
277.262	320.69
277.494	322.69
277.726	329.69
277.957	289.69
278.189	306.69
278.421	284.69
278.652	259.69
278.884	269.69
279.115	279.69
279.347	270.69
279.579	262.69
279.81	255.69
280.042	268.69
280.273	290.69
280.505	279.69
280.736	257.69
280.968	275.69
281.199	259.69
281.431	281.69
281.662	263.69
281.894	280.69
282.125	278.69
282.356	299.69
282.588	310.69
282.819	330.69
283.051	286.69
283.282	276.69
283.513	288.69
283.745	272.69
283.976	286.69
284.207	285.69
284.439	263.69
284.67	274.69
284.901	265.69
285.132	270.69
285.364	266.69
285.595	280.69
285.826	259.69
286.057	274.69
286.288	272.69
286.52	269.69
286.751	275.69
286.982	272.69
287.213	289.69
287.444	302.69
287.675	272.69
287.906	292.69
288.138	295.69
288.369	292.69
288.6	306.69
288.831	296.69
289.062	303.69
289.293	309.69
289.524	294.69
289.755	278.69
289.986	284.69
290.217	283.69
290.448	281.69
290.679	288.69
290.91	290.69
291.141	283.69
291.371	282.69
291.602	276.69
291.833	294.69
292.064	283.69
292.295	292.69
292.526	288.69
292.757	268.69
292.987	290.69
293.218	269.69
293.449	294.69
293.68	293.69
293.91	280.69
294.141	262.69
294.372	280.69
294.603	310.69
294.833	271.69
295.064	263.69
295.295	269.69
295.525	283.69
295.756	282.69
295.987	291.69
296.217	311.69
296.448	347.69
296.679	318.69
296.909	303.69
297.14	294.69
297.37	292.69
297.601	307.69
297.831	287.69
298.062	308.69
298.292	308.69
298.523	302.69
298.753	295.69
298.984	283.69
299.214	283.69
299.445	297.69
299.675	308.69
299.905	310.69
300.136	294.69
300.366	303.69
300.597	314.69
300.827	328.69
301.057	321.69
301.288	338.69
301.518	323.69
301.748	323.69
301.979	324.69
302.209	296.69
302.439	320.69
302.669	322.69
302.9	320.69
303.13	303.69
303.36	320.69
303.59	337.69
303.82	333.69
304.051	332.69
304.281	304.69
304.511	336.69
304.741	315.69
304.971	316.69
305.201	328.69
305.431	318.69
305.661	320.69
305.891	309.69
306.121	322.69
306.352	323.69
306.582	321.69
306.812	336.69
307.042	331.69
307.272	328.69
307.502	310.69
307.731	338.69
307.961	340.69
308.191	338.69
308.421	325.69
308.651	347.69
308.881	323.69
309.111	328.69
309.341	357.69
309.571	362.69
309.8	356.69
310.03	371.69
310.26	370.69
310.49	382.69
310.72	397.69
310.949	416.69
311.179	415.69
311.409	405.69
311.639	396.69
311.868	391.69
312.098	384.69
312.328	401.69
312.557	412.69
312.787	435.69
313.017	397.69
313.246	411.69
313.476	379.69
313.706	388.69
313.935	405.69
314.165	393.69
314.394	416.69
314.624	407.69
314.853	391.69
315.083	394.69
315.312	376.69
315.542	346.69
315.771	369.69
316.001	370.69
316.23	373.69
316.46	359.69
316.689	382.69
316.919	384.69
317.148	415.69
317.377	395.69
317.607	394.69
317.836	390.69
318.065	384.69
318.295	351.69
318.524	370.69
318.753	368.69
318.983	390.69
319.212	389.69
319.441	387.69
319.67	400.69
319.9	378.69
320.129	383.69
320.358	366.69
320.587	397.69
320.816	401.69
321.046	422.69
321.275	395.69
321.504	422.69
321.733	414.69
321.962	433.69
322.191	421.69
322.42	438.69
322.649	457.69
322.878	472.69
323.108	487.69
323.337	509.69
323.566	536.69
323.795	599.69
324.024	670.69
324.253	806.69
324.482	1196.69
324.71	1877.69
324.939	2787.69
325.168	2375.69
325.397	1230.69
325.626	802.69
325.855	634.69
326.084	588.69
326.313	562.69
326.542	575.69
326.77	635.69
326.999	762.69
327.228	1052.69
327.457	1698.69
327.686	2130.69
327.914	1356.69
328.143	834.69
328.372	735.69
328.6	692.69
328.829	651.69
329.058	657.69
329.287	633.69
329.515	607.69
329.744	555.69
329.972	568.69
330.201	601.69
330.43	656.69
330.658	650.69
330.887	699.69
331.115	662.69
331.344	554.69
331.572	535.69
331.801	512.69
332.03	516.69
332.258	495.69
332.486	496.69
332.715	455.69
332.943	464.69
333.172	455.69
333.4	474.69
333.629	472.69
333.857	468.69
334.085	488.69
334.314	521.69
334.542	552.69
334.771	578.69
334.999	519.69
335.227	486.69
335.455	468.69
335.684	454.69
335.912	443.69
336.14	420.69
336.369	442.69
336.597	445.69
336.825	432.69
337.053	435.69
337.281	450.69
337.51	433.69
337.738	441.69
337.966	420.69
338.194	458.69
338.422	442.69
338.65	451.69
338.878	428.69
339.106	412.69
339.334	436.69
339.562	424.69
339.79	427.69
340.018	409.69
340.246	414.69
340.474	428.69
340.702	444.69
340.93	411.69
341.158	416.69
341.386	422.69
341.614	409.69
341.842	437.69
342.07	411.69
342.298	400.69
342.526	391.69
342.754	391.69
342.981	386.69
343.209	417.69
343.437	406.69
343.665	378.69
343.893	392.69
344.12	417.69
344.348	427.69
344.576	423.69
344.804	424.69
345.031	442.69
345.259	450.69
345.487	457.69
345.714	441.69
345.942	403.69
346.17	411.69
346.397	393.69
346.625	404.69
346.853	401.69
347.08	407.69
347.308	416.69
347.535	417.69
347.763	421.69
347.99	430.69
348.218	419.69
348.445	435.69
348.673	439.69
348.9	393.69
349.128	403.69
349.355	395.69
349.583	401.69
349.81	386.69
350.037	406.69
350.265	402.69
350.492	401.69
350.72	398.69
350.947	413.69
351.174	431.69
351.402	409.69
351.629	418.69
351.856	420.69
352.083	443.69
352.311	434.69
352.538	452.69
352.765	427.69
352.992	425.69
353.22	420.69
353.447	416.69
353.674	419.69
353.901	388.69
354.128	383.69
354.355	371.69
354.583	388.69
354.81	391.69
355.037	367.69
355.264	369.69
355.491	357.69
355.718	353.69
355.945	366.69
356.172	356.69
356.399	362.69
356.626	358.69
356.853	387.69
357.08	375.69
357.307	384.69
357.534	383.69
357.761	376.69
357.988	369.69
358.215	373.69
358.441	386.69
358.668	380.69
358.895	374.69
359.122	386.69
359.349	386.69
359.576	418.69
359.802	451.69
360.029	470.69
360.256	497.69
360.483	456.69
360.709	418.69
360.936	403.69
361.163	406.69
361.39	402.69
361.616	389.69
361.843	423.69
362.07	412.69
362.296	426.69
362.523	393.69
362.749	395.69
362.976	381.69
363.203	381.69
363.429	390.69
363.656	400.69
363.882	394.69
364.109	389.69
364.335	384.69
364.562	389.69
364.788	391.69
365.015	392.69
365.241	400.69
365.468	387.69
365.694	402.69
365.92	391.69
366.147	368.69
366.373	371.69
366.599	377.69
366.826	370.69
367.052	378.69
367.278	377.69
367.505	386.69
367.731	366.69
367.957	380.69
368.184	385.69
368.41	369.69
368.636	378.69
368.862	404.69
369.089	392.69
369.315	398.69
369.541	376.69
369.767	351.69
369.993	376.69
370.219	384.69
370.445	367.69
370.672	374.69
370.898	371.69
371.124	355.69
371.35	384.69
371.576	369.69
371.802	362.69
372.028	359.69
372.254	349.69
372.48	360.69
372.706	364.69
372.932	363.69
373.158	372.69
373.384	366.69
373.61	362.69
373.835	378.69
374.061	374.69
374.287	371.69
374.513	367.69
374.739	361.69
374.965	369.69
375.191	351.69
375.416	374.69
375.642	382.69
375.868	368.69
376.094	369.69
376.319	368.69
376.545	364.69
376.771	369.69
376.997	398.69
377.222	368.69
377.448	370.69
377.674	372.69
377.899	359.69
378.125	359.69
378.35	377.69
378.576	362.69
378.802	344.69
379.027	360.69
379.253	355.69
379.478	358.69
379.704	360.69
379.929	368.69
380.155	375.69
380.38	379.69
380.606	352.69
380.831	371.69
381.057	380.69
381.282	355.69
381.507	373.69
381.733	384.69
381.958	375.69
382.184	365.69
382.409	374.69
382.634	372.69
382.86	371.69
383.085	378.69
383.31	366.69
383.535	370.69
383.761	379.69
383.986	375.69
384.211	376.69
384.436	383.69
384.662	386.69
384.887	382.69
385.112	379.69
385.337	376.69
385.562	400.69
385.787	365.69
386.013	386.69
386.238	396.69
386.463	393.69
386.688	384.69
386.913	384.69
387.138	394.69
387.363	382.69
387.588	384.69
387.813	402.69
388.038	393.69
388.263	399.69
388.488	404.69
388.713	387.69
388.938	392.69
389.163	395.69
389.387	395.69
389.612	395.69
389.837	410.69
390.062	385.69
390.287	390.69
390.512	381.69
390.736	376.69
390.961	415.69
391.186	393.69
391.411	396.69
391.636	394.69
391.86	391.69
392.085	391.69
392.31	362.69
392.534	401.69
392.759	396.69
392.984	391.69
393.208	413.69
393.433	384.69
393.658	390.69
393.882	391.69
394.107	393.69
394.331	392.69
394.556	400.69
394.78	379.69
395.005	381.69
395.229	406.69
395.454	407.69
395.678	412.69
395.903	427.69
396.127	440.69
396.352	425.69
396.576	407.69
396.801	410.69
397.025	405.69
397.249	404.69
397.474	403.69
397.698	406.69
397.922	425.69
398.147	433.69
398.371	447.69
398.595	448.69
398.82	412.69
399.044	430.69
399.268	442.69
399.492	475.69
399.717	480.69
399.941	505.69
400.165	534.69
400.389	545.69
400.613	491.69
400.837	465.69
401.062	453.69
401.286	453.69
401.51	422.69
401.734	434.69
401.958	438.69
402.182	449.69
402.406	458.69
402.63	460.69
402.854	463.69
403.078	449.69
403.302	467.69
403.526	464.69
403.75	462.69
403.974	461.69
404.198	466.69
404.422	465.69
404.645	454.69
404.869	460.69
405.093	497.69
405.317	562.69
405.541	614.69
405.765	516.69
405.988	484.69
406.212	524.69
406.436	534.69
406.66	549.69
406.883	518.69
407.107	532.69
407.331	575.69
407.555	634.69
407.778	612.69
408.002	581.69
408.226	519.69
408.449	504.69
408.673	521.69
408.896	542.69
409.12	608.69
409.344	569.69
409.567	490.69
409.791	469.69
410.014	487.69
410.238	461.69
410.461	448.69
410.685	461.69
410.908	489.69
411.132	516.69
411.355	554.69
411.578	549.69
411.802	491.69
412.025	476.69
412.249	486.69
412.472	499.69
412.695	542.69
412.919	541.69
413.142	472.69
413.365	457.69
413.589	429.69
413.812	448.69
414.035	452.69
414.258	414.69
414.482	446.69
414.705	436.69
414.928	432.69
415.151	442.69
415.374	450.69
415.597	411.69
415.821	428.69
416.044	434.69
416.267	444.69
416.49	435.69
416.713	426.69
416.936	432.69
417.159	438.69
417.382	435.69
417.605	448.69
417.828	456.69
418.051	453.69
418.274	451.69
418.497	430.69
418.72	416.69
418.943	415.69
419.166	439.69
419.389	448.69
419.611	461.69
419.834	451.69
420.057	457.69
420.28	465.69
420.503	485.69
420.726	458.69
420.948	473.69
421.171	529.69
421.394	556.69
421.617	485.69
421.839	463.69
422.062	481.69
422.285	488.69
422.507	538.69
422.73	596.69
422.953	603.69
423.175	505.69
423.398	495.69
423.621	500.69
423.843	530.69
424.066	522.69
424.288	520.69
424.511	531.69
424.733	610.69
424.956	684.69
425.178	642.69
425.401	623.69
425.623	646.69
425.846	564.69
426.068	532.69
426.291	518.69
426.513	496.69
426.735	538.69
426.958	550.69
427.18	673.69
427.402	809.69
427.625	899.69
427.847	834.69
428.069	676.69
428.292	593.69
428.514	553.69
428.736	507.69
428.958	487.69
429.181	479.69
429.403	470.69
429.625	479.69
429.847	513.69
430.069	591.69
430.292	608.69
430.514	521.69
430.736	476.69
430.958	483.69
431.18	459.69
431.402	425.69
431.624	444.69
431.846	454.69
432.068	435.69
432.29	443.69
432.512	450.69
432.734	439.69
432.956	438.69
433.178	453.69
433.4	467.69
433.622	472.69
433.844	448.69
434.066	402.69
434.287	446.69
434.509	433.69
434.731	458.69
434.953	455.69
435.175	472.69
435.397	490.69
435.618	532.69
435.84	574.69
436.062	678.69
436.284	771.69
436.505	622.69
436.727	533.69
436.949	489.69
437.17	481.69
437.392	478.69
437.614	489.69
437.835	561.69
438.057	668.69
438.278	766.69
438.5	750.69
438.721	822.69
438.943	763.69
439.165	627.69
439.386	560.69
439.608	561.69
439.829	566.69
440.05	582.69
440.272	625.69
440.493	592.69
440.715	530.69
440.936	490.69
441.158	478.69
441.379	473.69
441.6	499.69
441.822	510.69
442.043	560.69
442.264	638.69
442.486	731.69
442.707	586.69
442.928	529.69
443.149	542.69
443.371	579.69
443.592	618.69
443.813	730.69
444.034	750.69
444.255	639.69
444.476	555.69
444.698	520.69
444.919	521.69
445.14	594.69
445.361	566.69
445.582	572.69
445.803	665.69
446.024	750.69
446.245	784.69
446.466	712.69
446.687	608.69
446.908	539.69
447.129	482.69
447.35	485.69
447.571	482.69
447.792	504.69
448.013	497.69
448.234	538.69
448.455	564.69
448.675	678.69
448.896	800.69
449.117	687.69
449.338	654.69
449.559	750.69
449.779	840.69
450	714.69
450.221	584.69
450.442	496.69
450.662	494.69
450.883	505.69
451.104	523.69
451.324	515.69
451.545	471.69
451.766	459.69
451.986	442.69
452.207	417.69
452.428	428.69
452.648	412.69
452.869	446.69
453.089	452.69
453.31	481.69
453.53	444.69
453.751	440.69
453.971	440.69
454.192	459.69
454.412	442.69
454.633	439.69
454.853	440.69
455.073	442.69
455.294	457.69
455.514	510.69
455.734	519.69
455.955	430.69
456.175	421.69
456.395	408.69
456.616	411.69
456.836	397.69
457.056	397.69
457.276	410.69
457.497	413.69
457.717	403.69
457.937	418.69
458.157	398.69
458.377	416.69
458.598	446.69
458.818	525.69
459.038	593.69
459.258	618.69
459.478	541.69
459.698	458.69
459.918	430.69
460.138	436.69
460.358	454.69
460.578	436.69
460.798	445.69
461.018	425.69
461.238	437.69
461.458	439.69
461.678	417.69
461.898	424.69
462.118	434.69
462.338	442.69
462.558	456.69
462.777	454.69
462.997	457.69
463.217	469.69
463.437	458.69
463.657	460.69
463.876	439.69
464.096	456.69
464.316	448.69
464.536	451.69
464.755	463.69
464.975	485.69
465.195	552.69
465.414	626.69
465.634	555.69
465.854	485.69
466.073	453.69
466.293	434.69
466.512	442.69
466.732	431.69
466.951	428.69
467.171	426.69
467.391	425.69
467.61	431.69
467.829	455.69
468.049	445.69
468.268	446.69
468.488	443.69
468.707	424.69
468.927	418.69
469.146	414.69
469.365	418.69
469.585	391.69
469.804	423.69
470.023	451.69
470.243	436.69
470.462	452.69
470.681	464.69
470.901	450.69
471.12	435.69
471.339	451.69
471.558	442.69
471.777	444.69
471.997	426.69
472.216	434.69
472.435	489.69
472.654	466.69
472.873	466.69
473.092	448.69
473.311	445.69
473.53	436.69
473.749	453.69
473.968	510.69
474.187	626.69
474.406	657.69
474.625	529.69
474.844	463.69
475.063	456.69
475.282	444.69
475.501	450.69
475.72	451.69
475.939	446.69
476.158	435.69
476.377	446.69
476.596	466.69
476.814	466.69
477.033	461.69
477.252	475.69
477.471	468.69
477.69	457.69
477.908	464.69
478.127	487.69
478.346	459.69
478.564	481.69
478.783	479.69
479.002	485.69
479.22	482.69
479.439	503.69
479.658	546.69
479.876	528.69
480.095	523.69
480.313	575.69
480.532	530.69
480.751	544.69
480.969	544.69
481.188	656.69
481.406	719.69
481.624	600.69
481.843	553.69
482.061	530.69
482.28	527.69
482.498	534.69
482.717	508.69
482.935	534.69
483.153	515.69
483.372	521.69
483.59	510.69
483.808	531.69
484.027	518.69
484.245	534.69
484.463	522.69
484.681	534.69
484.9	513.69
485.118	487.69
485.336	519.69
485.554	527.69
485.772	528.69
485.99	544.69
486.209	524.69
486.427	528.69
486.645	537.69
486.863	592.69
487.081	551.69
487.299	564.69
487.517	554.69
487.735	544.69
487.953	559.69
488.171	554.69
488.389	568.69
488.607	572.69
488.825	564.69
489.043	556.69
489.261	567.69
489.479	564.69
489.696	564.69
489.914	568.69
490.132	576.69
490.35	574.69
490.568	576.69
490.786	576.69
491.003	580.69
491.221	611.69
491.439	612.69
491.657	641.69
491.874	640.69
492.092	641.69
492.31	637.69
492.527	625.69
492.745	634.69
492.963	657.69
493.18	662.69
493.398	671.69
493.615	683.69
493.833	667.69
494.05	657.69
494.268	626.69
494.485	667.69
494.703	668.69
494.92	653.69
495.138	644.69
495.355	671.69
495.573	658.69
495.79	664.69
496.008	665.69
496.225	668.69
496.442	656.69
496.66	690.69
496.877	683.69
497.094	636.69
497.312	660.69
497.529	680.69
497.746	671.69
497.963	691.69
498.181	753.69
498.398	719.69
498.615	730.69
498.832	751.69
499.049	739.69
499.267	740.69
499.484	740.69
499.701	767.69
499.918	806.69
500.135	814.69
500.352	809.69
500.569	825.69
500.786	833.69
501.003	836.69
501.22	850.69
501.437	819.69
501.654	803.69
501.871	842.69
