Data from 1972.PennyLincolnUp.Lamp.En5.5.200Scan.071719.P1._HRD10591_15-29-28-844.txt Node
Date: Thu Jul 18 15:29:28 EDT 2019
User: cochatt
Spectrometer: HR+D1059
Trigger mode: 1
Integration Time (sec): 1.000000E-1
Scans to average: 1
Electric dark correction enabled: true
Nonlinearity correction enabled: false
Boxcar width: 0
XAxis mode: Wavelengths
Number of Pixels in Spectrum: 2048
>>>>>Begin Spectral Data<<<<<
223.165	-9.12
223.4	-9.12
223.635	-9.12
223.869	-10.12
224.104	-20.12
224.338	-20.12
224.573	-16.12
224.808	-18.12
225.042	-4.12
225.277	-3.12
225.511	-6.12
225.746	0.88
225.98	1.88
226.215	16.88
226.449	15.88
226.683	16.88
226.918	20.88
227.152	33.88
227.387	31.88
227.621	47.88
227.856	49.88
228.09	38.88
228.324	36.88
228.559	58.88
228.793	86.88
229.027	110.88
229.262	114.88
229.496	138.88
229.73	154.88
229.964	196.88
230.199	149.88
230.433	123.88
230.667	123.88
230.901	120.88
231.136	104.88
231.37	106.88
231.604	120.88
231.838	104.88
232.072	124.88
232.306	122.88
232.541	128.88
232.775	110.88
233.009	108.88
233.243	121.88
233.477	106.88
233.711	119.88
233.945	127.88
234.179	126.88
234.413	134.88
234.647	119.88
234.881	111.88
235.115	122.88
235.349	144.88
235.583	132.88
235.817	129.88
236.051	132.88
236.285	127.88
236.519	126.88
236.753	134.88
236.987	132.88
237.221	212.88
237.455	257.88
237.689	224.88
237.922	140.88
238.156	127.88
238.39	125.88
238.624	144.88
238.858	137.88
239.091	126.88
239.325	124.88
239.559	136.88
239.793	153.88
240.027	111.88
240.26	127.88
240.494	168.88
240.728	159.88
240.961	174.88
241.195	147.88
241.429	127.88
241.662	151.88
241.896	130.88
242.13	132.88
242.363	116.88
242.597	147.88
242.83	132.88
243.064	142.88
243.298	154.88
243.531	146.88
243.765	140.88
243.998	144.88
244.232	138.88
244.465	148.88
244.699	140.88
244.932	139.88
245.166	148.88
245.399	150.88
245.633	167.88
245.866	159.88
246.099	163.88
246.333	152.88
246.566	164.88
246.8	156.88
247.033	152.88
247.266	166.88
247.5	153.88
247.733	170.88
247.966	184.88
248.2	184.88
248.433	181.88
248.666	182.88
248.899	195.88
249.133	214.88
249.366	216.88
249.599	214.88
249.832	205.88
250.066	196.88
250.299	202.88
250.532	210.88
250.765	212.88
250.998	229.88
251.231	230.88
251.465	236.88
251.698	210.88
251.931	212.88
252.164	197.88
252.397	205.88
252.63	210.88
252.863	217.88
253.096	235.88
253.329	243.88
253.562	254.88
253.795	241.88
254.028	235.88
254.261	229.88
254.494	249.88
254.727	286.88
254.96	322.88
255.193	298.88
255.426	274.88
255.659	283.88
255.892	251.88
256.124	263.88
256.357	244.88
256.59	247.88
256.823	242.88
257.056	223.88
257.289	231.88
257.521	226.88
257.754	237.88
257.987	237.88
258.22	237.88
258.452	215.88
258.685	232.88
258.918	198.88
259.151	215.88
259.383	237.88
259.616	259.88
259.849	264.88
260.081	237.88
260.314	268.88
260.547	274.88
260.779	268.88
261.012	251.88
261.244	232.88
261.477	238.88
261.71	240.88
261.942	249.88
262.175	260.88
262.407	256.88
262.64	238.88
262.872	224.88
263.105	234.88
263.337	245.88
263.57	222.88
263.802	223.88
264.035	219.88
264.267	228.88
264.499	235.88
264.732	228.88
264.964	218.88
265.197	242.88
265.429	211.88
265.661	238.88
265.894	215.88
266.126	211.88
266.358	214.88
266.591	219.88
266.823	234.88
267.055	235.88
267.287	223.88
267.52	226.88
267.752	247.88
267.984	235.88
268.216	235.88
268.448	259.88
268.681	234.88
268.913	272.88
269.145	290.88
269.377	295.88
269.609	282.88
269.841	288.88
270.073	292.88
270.306	310.88
270.538	348.88
270.77	336.88
271.002	330.88
271.234	318.88
271.466	334.88
271.698	350.88
271.93	362.88
272.162	354.88
272.394	352.88
272.626	328.88
272.858	338.88
273.09	318.88
273.322	302.88
273.553	287.88
273.785	291.88
274.017	268.88
274.249	277.88
274.481	295.88
274.713	281.88
274.945	279.88
275.176	286.88
275.408	293.88
275.64	282.88
275.872	270.88
276.104	276.88
276.335	272.88
276.567	276.88
276.799	314.88
277.031	329.88
277.262	351.88
277.494	335.88
277.726	336.88
277.957	311.88
278.189	286.88
278.421	300.88
278.652	300.88
278.884	275.88
279.115	296.88
279.347	302.88
279.579	267.88
279.81	277.88
280.042	275.88
280.273	289.88
280.505	293.88
280.736	279.88
280.968	280.88
281.199	271.88
281.431	282.88
281.662	262.88
281.894	280.88
282.125	287.88
282.356	316.88
282.588	330.88
282.819	329.88
283.051	293.88
283.282	266.88
283.513	281.88
283.745	286.88
283.976	278.88
284.207	294.88
284.439	283.88
284.67	278.88
284.901	279.88
285.132	279.88
285.364	288.88
285.595	282.88
285.826	309.88
286.057	290.88
286.288	291.88
286.52	292.88
286.751	301.88
286.982	277.88
287.213	298.88
287.444	309.88
287.675	306.88
287.906	298.88
288.138	298.88
288.369	314.88
288.6	325.88
288.831	328.88
289.062	290.88
289.293	297.88
289.524	294.88
289.755	280.88
289.986	293.88
290.217	302.88
290.448	272.88
290.679	279.88
290.91	286.88
291.141	289.88
291.371	288.88
291.602	284.88
291.833	294.88
292.064	285.88
292.295	281.88
292.526	284.88
292.757	300.88
292.987	286.88
293.218	294.88
293.449	302.88
293.68	305.88
293.91	292.88
294.141	279.88
294.372	272.88
294.603	309.88
294.833	315.88
295.064	282.88
295.295	291.88
295.525	306.88
295.756	302.88
295.987	336.88
296.217	336.88
296.448	335.88
296.679	319.88
296.909	301.88
297.14	300.88
297.37	308.88
297.601	286.88
297.831	313.88
298.062	304.88
298.292	318.88
298.523	328.88
298.753	322.88
298.984	310.88
299.214	296.88
299.445	294.88
299.675	296.88
299.905	327.88
300.136	307.88
300.366	316.88
300.597	312.88
300.827	326.88
301.057	330.88
301.288	333.88
301.518	329.88
301.748	316.88
301.979	330.88
302.209	315.88
302.439	325.88
302.669	325.88
302.9	335.88
303.13	325.88
303.36	319.88
303.59	336.88
303.82	348.88
304.051	351.88
304.281	343.88
304.511	328.88
304.741	324.88
304.971	321.88
305.201	325.88
305.431	336.88
305.661	324.88
305.891	344.88
306.121	318.88
306.352	325.88
306.582	356.88
306.812	340.88
307.042	323.88
307.272	326.88
307.502	328.88
307.731	332.88
307.961	339.88
308.191	343.88
308.421	339.88
308.651	341.88
308.881	348.88
309.111	358.88
309.341	334.88
309.571	371.88
309.8	372.88
310.03	399.88
310.26	404.88
310.49	388.88
310.72	398.88
310.949	429.88
311.179	444.88
311.409	408.88
311.639	400.88
311.868	425.88
312.098	420.88
312.328	411.88
312.557	438.88
312.787	434.88
313.017	426.88
313.246	424.88
313.476	367.88
313.706	398.88
313.935	416.88
314.165	410.88
314.394	426.88
314.624	420.88
314.853	400.88
315.083	409.88
315.312	402.88
315.542	410.88
315.771	371.88
316.001	381.88
316.23	371.88
316.46	391.88
316.689	388.88
316.919	408.88
317.148	381.88
317.377	414.88
317.607	414.88
317.836	396.88
318.065	397.88
318.295	396.88
318.524	378.88
318.753	377.88
318.983	402.88
319.212	392.88
319.441	432.88
319.67	388.88
319.9	391.88
320.129	389.88
320.358	385.88
320.587	410.88
320.816	405.88
321.046	425.88
321.275	424.88
321.504	430.88
321.733	423.88
321.962	449.88
322.191	458.88
322.42	467.88
322.649	485.88
322.878	512.88
323.108	503.88
323.337	542.88
323.566	575.88
323.795	605.88
324.024	692.88
324.253	832.88
324.482	1239.88
324.71	1974.88
324.939	2949.88
325.168	2519.88
325.397	1269.88
325.626	826.88
325.855	650.88
326.084	604.88
326.313	579.88
326.542	586.88
326.77	660.88
326.999	772.88
327.228	1116.88
327.457	1737.88
327.686	2182.88
327.914	1420.88
328.143	895.88
328.372	771.88
328.6	697.88
328.829	655.88
329.058	667.88
329.287	684.88
329.515	656.88
329.744	601.88
329.972	581.88
330.201	610.88
330.43	670.88
330.658	695.88
330.887	732.88
331.115	709.88
331.344	618.88
331.572	540.88
331.801	531.88
332.03	538.88
332.258	508.88
332.486	487.88
332.715	486.88
332.943	484.88
333.172	456.88
333.4	497.88
333.629	491.88
333.857	495.88
334.085	516.88
334.314	547.88
334.542	583.88
334.771	599.88
334.999	528.88
335.227	502.88
335.455	483.88
335.684	474.88
335.912	438.88
336.14	444.88
336.369	447.88
336.597	459.88
336.825	463.88
337.053	472.88
337.281	423.88
337.51	438.88
337.738	450.88
337.966	456.88
338.194	452.88
338.422	441.88
338.65	448.88
338.878	418.88
339.106	442.88
339.334	431.88
339.562	441.88
339.79	437.88
340.018	427.88
340.246	457.88
340.474	418.88
340.702	439.88
340.93	405.88
341.158	428.88
341.386	426.88
341.614	431.88
341.842	430.88
342.07	426.88
342.298	412.88
342.526	442.88
342.754	407.88
342.981	396.88
343.209	429.88
343.437	399.88
343.665	412.88
343.893	423.88
344.12	416.88
344.348	441.88
344.576	438.88
344.804	457.88
345.031	445.88
345.259	452.88
345.487	431.88
345.714	455.88
345.942	458.88
346.17	427.88
346.397	418.88
346.625	427.88
346.853	426.88
347.08	427.88
347.308	427.88
347.535	420.88
347.763	452.88
347.99	438.88
348.218	432.88
348.445	456.88
348.673	443.88
348.9	435.88
349.128	428.88
349.355	410.88
349.583	414.88
349.81	383.88
350.037	388.88
350.265	411.88
350.492	421.88
350.72	421.88
350.947	422.88
351.174	419.88
351.402	445.88
351.629	416.88
351.856	424.88
352.083	432.88
352.311	451.88
352.538	450.88
352.765	446.88
352.992	451.88
353.22	424.88
353.447	426.88
353.674	427.88
353.901	388.88
354.128	389.88
354.355	388.88
354.583	384.88
354.81	372.88
355.037	392.88
355.264	395.88
355.491	363.88
355.718	388.88
355.945	372.88
356.172	385.88
356.399	370.88
356.626	371.88
356.853	377.88
357.08	383.88
357.307	355.88
357.534	386.88
357.761	378.88
357.988	378.88
358.215	394.88
358.441	380.88
358.668	377.88
358.895	394.88
359.122	391.88
359.349	406.88
359.576	418.88
359.802	468.88
360.029	508.88
360.256	504.88
360.483	486.88
360.709	447.88
360.936	422.88
361.163	425.88
361.39	426.88
361.616	413.88
361.843	403.88
362.07	412.88
362.296	432.88
362.523	419.88
362.749	381.88
362.976	412.88
363.203	408.88
363.429	398.88
363.656	410.88
363.882	405.88
364.109	389.88
364.335	408.88
364.562	396.88
364.788	389.88
365.015	400.88
365.241	383.88
365.468	387.88
365.694	395.88
365.92	399.88
366.147	380.88
366.373	392.88
366.599	377.88
366.826	395.88
367.052	378.88
367.278	380.88
367.505	384.88
367.731	405.88
367.957	425.88
368.184	384.88
368.41	395.88
368.636	418.88
368.862	424.88
369.089	406.88
369.315	370.88
369.541	389.88
369.767	392.88
369.993	380.88
370.219	380.88
370.445	381.88
370.672	368.88
370.898	356.88
371.124	399.88
371.35	370.88
371.576	354.88
371.802	388.88
372.028	376.88
372.254	375.88
372.48	384.88
372.706	380.88
372.932	378.88
373.158	385.88
373.384	364.88
373.61	381.88
373.835	376.88
374.061	372.88
374.287	396.88
374.513	389.88
374.739	371.88
374.965	375.88
375.191	380.88
375.416	401.88
375.642	384.88
375.868	375.88
376.094	393.88
376.319	380.88
376.545	368.88
376.771	376.88
376.997	362.88
377.222	376.88
377.448	372.88
377.674	352.88
377.899	374.88
378.125	380.88
378.35	384.88
378.576	362.88
378.802	364.88
379.027	358.88
379.253	380.88
379.478	366.88
379.704	368.88
379.929	373.88
380.155	371.88
380.38	378.88
380.606	379.88
380.831	386.88
381.057	367.88
381.282	375.88
381.507	379.88
381.733	371.88
381.958	379.88
382.184	370.88
382.409	380.88
382.634	393.88
382.86	394.88
383.085	370.88
383.31	395.88
383.535	373.88
383.761	372.88
383.986	380.88
384.211	379.88
384.436	398.88
384.662	377.88
384.887	390.88
385.112	389.88
385.337	385.88
385.562	380.88
385.787	380.88
386.013	398.88
386.238	418.88
386.463	410.88
386.688	409.88
386.913	376.88
387.138	378.88
387.363	392.88
387.588	401.88
387.813	402.88
388.038	396.88
388.263	393.88
388.488	412.88
388.713	396.88
388.938	389.88
389.163	420.88
389.387	404.88
389.612	409.88
389.837	409.88
390.062	396.88
390.287	383.88
390.512	364.88
390.736	384.88
390.961	388.88
391.186	391.88
391.411	397.88
391.636	421.88
391.86	399.88
392.085	419.88
392.31	392.88
392.534	391.88
392.759	399.88
392.984	400.88
393.208	395.88
393.433	402.88
393.658	411.88
393.882	382.88
394.107	380.88
394.331	386.88
394.556	380.88
394.78	398.88
395.005	405.88
395.229	400.88
395.454	414.88
395.678	411.88
395.903	440.88
396.127	440.88
396.352	440.88
396.576	428.88
396.801	424.88
397.025	399.88
397.249	419.88
397.474	425.88
397.698	433.88
397.922	450.88
398.147	427.88
398.371	451.88
398.595	421.88
398.82	425.88
399.044	449.88
399.268	456.88
399.492	485.88
399.717	483.88
399.941	511.88
400.165	539.88
400.389	557.88
400.613	533.88
400.837	472.88
401.062	458.88
401.286	449.88
401.51	447.88
401.734	456.88
401.958	445.88
402.182	454.88
402.406	478.88
402.63	462.88
402.854	462.88
403.078	482.88
403.302	462.88
403.526	486.88
403.75	487.88
403.974	475.88
404.198	465.88
404.422	463.88
404.645	470.88
404.869	477.88
405.093	533.88
405.317	607.88
405.541	590.88
405.765	551.88
405.988	518.88
406.212	516.88
406.436	544.88
406.66	566.88
406.883	527.88
407.107	551.88
407.331	580.88
407.555	661.88
407.778	660.88
408.002	596.88
408.226	550.88
408.449	533.88
408.673	557.88
408.896	560.88
409.12	621.88
409.344	585.88
409.567	505.88
409.791	491.88
410.014	481.88
410.238	468.88
410.461	468.88
410.685	491.88
410.908	494.88
411.132	542.88
411.355	557.88
411.578	564.88
411.802	493.88
412.025	467.88
412.249	468.88
412.472	522.88
412.695	566.88
412.919	561.88
413.142	495.88
413.365	505.88
413.589	456.88
413.812	460.88
414.035	476.88
414.258	454.88
414.482	421.88
414.705	423.88
414.928	446.88
415.151	452.88
415.374	454.88
415.597	444.88
415.821	445.88
416.044	434.88
416.267	444.88
416.49	463.88
416.713	441.88
416.936	447.88
417.159	442.88
417.382	458.88
417.605	447.88
417.828	473.88
418.051	488.88
418.274	468.88
418.497	435.88
418.72	439.88
418.943	431.88
419.166	467.88
419.389	482.88
419.611	456.88
419.834	483.88
420.057	491.88
420.28	478.88
420.503	485.88
420.726	463.88
420.948	488.88
421.171	559.88
421.394	583.88
421.617	513.88
421.839	480.88
422.062	486.88
422.285	514.88
422.507	544.88
422.73	639.88
422.953	615.88
423.175	520.88
423.398	508.88
423.621	502.88
423.843	535.88
424.066	524.88
424.288	528.88
424.511	554.88
424.733	624.88
424.956	692.88
425.178	664.88
425.401	657.88
425.623	687.88
425.846	589.88
426.068	573.88
426.291	559.88
426.513	534.88
426.735	543.88
426.958	588.88
427.18	667.88
427.402	822.88
427.625	938.88
427.847	832.88
428.069	701.88
428.292	618.88
428.514	551.88
428.736	524.88
428.958	506.88
429.181	499.88
429.403	493.88
429.625	493.88
429.847	533.88
430.069	596.88
430.292	604.88
430.514	519.88
430.736	479.88
430.958	483.88
431.18	454.88
431.402	459.88
431.624	422.88
431.846	452.88
432.068	454.88
432.29	443.88
432.512	474.88
432.734	456.88
432.956	464.88
433.178	461.88
433.4	493.88
433.622	480.88
433.844	458.88
434.066	452.88
434.287	431.88
434.509	464.88
434.731	470.88
434.953	462.88
435.175	492.88
435.397	514.88
435.618	547.88
435.84	574.88
436.062	690.88
436.284	765.88
436.505	633.88
436.727	583.88
436.949	514.88
437.17	483.88
437.392	485.88
437.614	549.88
437.835	571.88
438.057	687.88
438.278	784.88
438.5	774.88
438.721	858.88
438.943	803.88
439.165	627.88
439.386	559.88
439.608	558.88
439.829	551.88
440.05	601.88
440.272	660.88
440.493	623.88
440.715	546.88
440.936	517.88
441.158	494.88
441.379	500.88
441.6	490.88
441.822	556.88
442.043	595.88
442.264	684.88
442.486	731.88
442.707	630.88
442.928	585.88
443.149	578.88
443.371	598.88
443.592	623.88
443.813	733.88
444.034	808.88
444.255	661.88
444.476	574.88
444.698	524.88
444.919	522.88
445.14	620.88
445.361	599.88
445.582	582.88
445.803	647.88
446.024	812.88
446.245	838.88
446.466	740.88
446.687	628.88
446.908	572.88
447.129	522.88
447.35	499.88
447.571	487.88
447.792	492.88
448.013	498.88
448.234	545.88
448.455	591.88
448.675	730.88
448.896	851.88
449.117	726.88
449.338	657.88
449.559	771.88
449.779	886.88
450	718.88
450.221	579.88
450.442	525.88
450.662	510.88
450.883	493.88
451.104	544.88
451.324	508.88
451.545	503.88
451.766	490.88
451.986	453.88
452.207	436.88
452.428	445.88
452.648	440.88
452.869	448.88
453.089	464.88
453.31	461.88
453.53	459.88
453.751	452.88
453.971	465.88
454.192	486.88
454.412	458.88
454.633	446.88
454.853	431.88
455.073	446.88
455.294	497.88
455.514	565.88
455.734	540.88
455.955	454.88
456.175	422.88
456.395	410.88
456.616	412.88
456.836	416.88
457.056	389.88
457.276	402.88
457.497	444.88
457.717	416.88
457.937	416.88
458.157	442.88
458.377	452.88
458.598	447.88
458.818	512.88
459.038	639.88
459.258	646.88
459.478	519.88
459.698	472.88
459.918	439.88
460.138	444.88
460.358	459.88
460.578	436.88
460.798	437.88
461.018	453.88
461.238	456.88
461.458	430.88
461.678	441.88
461.898	460.88
462.118	451.88
462.338	443.88
462.558	441.88
462.777	451.88
462.997	442.88
463.217	474.88
463.437	490.88
463.657	467.88
463.876	477.88
464.096	465.88
464.316	474.88
464.536	469.88
464.755	468.88
464.975	484.88
465.195	556.88
465.414	640.88
465.634	554.88
465.854	512.88
466.073	474.88
466.293	472.88
466.512	473.88
466.732	446.88
466.951	454.88
467.171	432.88
467.391	446.88
467.61	443.88
467.829	487.88
468.049	456.88
468.268	470.88
468.488	436.88
468.707	415.88
468.927	443.88
469.146	426.88
469.365	418.88
469.585	442.88
469.804	451.88
470.023	446.88
470.243	450.88
470.462	465.88
470.681	477.88
470.901	469.88
471.12	435.88
471.339	469.88
471.558	468.88
471.777	448.88
471.997	443.88
472.216	479.88
472.435	504.88
472.654	502.88
472.873	460.88
473.092	460.88
473.311	470.88
473.53	451.88
473.749	464.88
473.968	510.88
474.187	641.88
474.406	674.88
474.625	524.88
474.844	479.88
475.063	444.88
475.282	446.88
475.501	449.88
475.72	462.88
475.939	476.88
476.158	468.88
476.377	464.88
476.596	473.88
476.814	475.88
477.033	488.88
477.252	479.88
477.471	474.88
477.69	488.88
477.908	495.88
478.127	478.88
478.346	475.88
478.564	479.88
478.783	502.88
479.002	517.88
479.22	508.88
479.439	522.88
479.658	531.88
479.876	550.88
480.095	564.88
480.313	586.88
480.532	583.88
480.751	556.88
480.969	561.88
481.188	658.88
481.406	709.88
481.624	626.88
481.843	570.88
482.061	558.88
482.28	534.88
482.498	546.88
482.717	545.88
482.935	529.88
483.153	524.88
483.372	518.88
483.59	533.88
483.808	516.88
484.027	530.88
484.245	554.88
484.463	528.88
484.681	555.88
484.9	538.88
485.118	550.88
485.336	526.88
485.554	550.88
485.772	546.88
485.99	553.88
486.209	541.88
486.427	547.88
486.645	576.88
486.863	607.88
487.081	598.88
487.299	551.88
487.517	544.88
487.735	549.88
487.953	558.88
488.171	566.88
488.389	570.88
488.607	583.88
488.825	572.88
489.043	574.88
489.261	568.88
489.479	575.88
489.696	586.88
489.914	566.88
490.132	603.88
490.35	588.88
490.568	601.88
490.786	607.88
491.003	614.88
491.221	619.88
491.439	632.88
491.657	630.88
491.874	669.88
492.092	686.88
492.31	654.88
492.527	645.88
492.745	668.88
492.963	655.88
493.18	681.88
493.398	669.88
493.615	703.88
493.833	678.88
494.05	694.88
494.268	671.88
494.485	676.88
494.703	654.88
494.92	679.88
495.138	701.88
495.355	706.88
495.573	686.88
495.79	676.88
496.008	692.88
496.225	685.88
496.442	690.88
496.66	690.88
496.877	684.88
497.094	658.88
497.312	681.88
497.529	711.88
497.746	726.88
497.963	716.88
498.181	746.88
498.398	716.88
498.615	755.88
498.832	733.88
499.049	743.88
499.267	725.88
499.484	777.88
499.701	788.88
499.918	777.88
500.135	788.88
500.352	823.88
500.569	827.88
500.786	841.88
501.003	837.88
501.22	831.88
501.437	845.88
501.654	822.88
501.871	824.88
