Data from 1972.PennyLincolnUp.Lamp.En5.5.200Scan.071719.P1._HRD10591_15-29-22-844.txt Node
Date: Thu Jul 18 15:29:22 EDT 2019
User: cochatt
Spectrometer: HR+D1059
Trigger mode: 1
Integration Time (sec): 1.000000E-1
Scans to average: 1
Electric dark correction enabled: true
Nonlinearity correction enabled: false
Boxcar width: 0
XAxis mode: Wavelengths
Number of Pixels in Spectrum: 2048
>>>>>Begin Spectral Data<<<<<
223.165	-12.31
223.4	-12.31
223.635	-12.31
223.869	-9.31
224.104	-21.31
224.338	-13.31
224.573	-19.31
224.808	-18.31
225.042	-6.31
225.277	-11.31
225.511	-19.31
225.746	18.69
225.98	11.69
226.215	11.69
226.449	12.69
226.683	17.69
226.918	23.69
227.152	34.69
227.387	37.69
227.621	32.69
227.856	35.69
228.09	49.69
228.324	61.69
228.559	62.69
228.793	72.69
229.027	99.69
229.262	118.69
229.496	123.69
229.73	141.69
229.964	155.69
230.199	152.69
230.433	129.69
230.667	117.69
230.901	115.69
231.136	104.69
231.37	105.69
231.604	121.69
231.838	133.69
232.072	109.69
232.306	111.69
232.541	125.69
232.775	112.69
233.009	117.69
233.243	109.69
233.477	123.69
233.711	129.69
233.945	111.69
234.179	125.69
234.413	108.69
234.647	113.69
234.881	121.69
235.115	126.69
235.349	120.69
235.583	125.69
235.817	120.69
236.051	115.69
236.285	121.69
236.519	135.69
236.753	140.69
236.987	128.69
237.221	191.69
237.455	272.69
237.689	193.69
237.922	149.69
238.156	144.69
238.39	154.69
238.624	143.69
238.858	123.69
239.091	130.69
239.325	121.69
239.559	121.69
239.793	130.69
240.027	141.69
240.26	153.69
240.494	165.69
240.728	171.69
240.961	156.69
241.195	156.69
241.429	149.69
241.662	147.69
241.896	138.69
242.13	149.69
242.363	125.69
242.597	160.69
242.83	131.69
243.064	143.69
243.298	141.69
243.531	131.69
243.765	146.69
243.998	152.69
244.232	123.69
244.465	143.69
244.699	137.69
244.932	154.69
245.166	138.69
245.399	156.69
245.633	147.69
245.866	139.69
246.099	160.69
246.333	140.69
246.566	137.69
246.8	148.69
247.033	147.69
247.266	176.69
247.5	163.69
247.733	170.69
247.966	179.69
248.2	180.69
248.433	170.69
248.666	187.69
248.899	197.69
249.133	181.69
249.366	212.69
249.599	221.69
249.832	204.69
250.066	188.69
250.299	190.69
250.532	202.69
250.765	219.69
250.998	233.69
251.231	249.69
251.465	263.69
251.698	208.69
251.931	191.69
252.164	203.69
252.397	209.69
252.63	204.69
252.863	204.69
253.096	218.69
253.329	234.69
253.562	240.69
253.795	255.69
254.028	222.69
254.261	240.69
254.494	223.69
254.727	273.69
254.96	306.69
255.193	287.69
255.426	269.69
255.659	267.69
255.892	249.69
256.124	267.69
256.357	294.69
256.59	241.69
256.823	236.69
257.056	241.69
257.289	231.69
257.521	226.69
257.754	248.69
257.987	220.69
258.22	215.69
258.452	217.69
258.685	208.69
258.918	217.69
259.151	224.69
259.383	241.69
259.616	249.69
259.849	245.69
260.081	243.69
260.314	268.69
260.547	285.69
260.779	259.69
261.012	256.69
261.244	221.69
261.477	247.69
261.71	225.69
261.942	244.69
262.175	259.69
262.407	256.69
262.64	237.69
262.872	219.69
263.105	211.69
263.337	209.69
263.57	226.69
263.802	224.69
264.035	227.69
264.267	209.69
264.499	205.69
264.732	218.69
264.964	219.69
265.197	219.69
265.429	231.69
265.661	242.69
265.894	230.69
266.126	230.69
266.358	229.69
266.591	206.69
266.823	234.69
267.055	234.69
267.287	240.69
267.52	248.69
267.752	239.69
267.984	237.69
268.216	243.69
268.448	245.69
268.681	258.69
268.913	250.69
269.145	284.69
269.377	291.69
269.609	289.69
269.841	296.69
270.073	298.69
270.306	307.69
270.538	328.69
270.77	339.69
271.002	335.69
271.234	285.69
271.466	332.69
271.698	359.69
271.93	337.69
272.162	341.69
272.394	344.69
272.626	348.69
272.858	338.69
273.09	304.69
273.322	304.69
273.553	296.69
273.785	276.69
274.017	281.69
274.249	303.69
274.481	289.69
274.713	293.69
274.945	297.69
275.176	284.69
275.408	282.69
275.64	288.69
275.872	270.69
276.104	299.69
276.335	281.69
276.567	276.69
276.799	297.69
277.031	319.69
277.262	341.69
277.494	332.69
277.726	329.69
277.957	307.69
278.189	298.69
278.421	275.69
278.652	268.69
278.884	273.69
279.115	285.69
279.347	274.69
279.579	280.69
279.81	279.69
280.042	287.69
280.273	283.69
280.505	262.69
280.736	271.69
280.968	266.69
281.199	263.69
281.431	268.69
281.662	260.69
281.894	264.69
282.125	294.69
282.356	287.69
282.588	351.69
282.819	329.69
283.051	303.69
283.282	291.69
283.513	262.69
283.745	275.69
283.976	289.69
284.207	287.69
284.439	275.69
284.67	276.69
284.901	270.69
285.132	304.69
285.364	283.69
285.595	285.69
285.826	282.69
286.057	277.69
286.288	282.69
286.52	294.69
286.751	281.69
286.982	303.69
287.213	294.69
287.444	284.69
287.675	301.69
287.906	306.69
288.138	296.69
288.369	283.69
288.6	305.69
288.831	313.69
289.062	290.69
289.293	299.69
289.524	296.69
289.755	294.69
289.986	285.69
290.217	282.69
290.448	295.69
290.679	301.69
290.91	301.69
291.141	293.69
291.371	290.69
291.602	290.69
291.833	298.69
292.064	289.69
292.295	258.69
292.526	303.69
292.757	307.69
292.987	281.69
293.218	288.69
293.449	299.69
293.68	282.69
293.91	288.69
294.141	298.69
294.372	283.69
294.603	282.69
294.833	281.69
295.064	303.69
295.295	286.69
295.525	277.69
295.756	288.69
295.987	312.69
296.217	327.69
296.448	346.69
296.679	307.69
296.909	284.69
297.14	307.69
297.37	311.69
297.601	311.69
297.831	300.69
298.062	309.69
298.292	291.69
298.523	297.69
298.753	298.69
298.984	282.69
299.214	305.69
299.445	288.69
299.675	305.69
299.905	319.69
300.136	310.69
300.366	315.69
300.597	339.69
300.827	316.69
301.057	330.69
301.288	332.69
301.518	331.69
301.748	325.69
301.979	341.69
302.209	328.69
302.439	321.69
302.669	325.69
302.9	346.69
303.13	321.69
303.36	333.69
303.59	317.69
303.82	353.69
304.051	349.69
304.281	341.69
304.511	324.69
304.741	342.69
304.971	328.69
305.201	327.69
305.431	313.69
305.661	312.69
305.891	325.69
306.121	326.69
306.352	341.69
306.582	339.69
306.812	349.69
307.042	346.69
307.272	327.69
307.502	327.69
307.731	339.69
307.961	333.69
308.191	335.69
308.421	349.69
308.651	347.69
308.881	340.69
309.111	352.69
309.341	330.69
309.571	356.69
309.8	396.69
310.03	380.69
310.26	402.69
310.49	396.69
310.72	383.69
310.949	415.69
311.179	420.69
311.409	402.69
311.639	404.69
311.868	407.69
312.098	406.69
312.328	399.69
312.557	424.69
312.787	444.69
313.017	441.69
313.246	401.69
313.476	400.69
313.706	409.69
313.935	409.69
314.165	426.69
314.394	425.69
314.624	410.69
314.853	424.69
315.083	405.69
315.312	408.69
315.542	382.69
315.771	369.69
316.001	390.69
316.23	379.69
316.46	387.69
316.689	383.69
316.919	387.69
317.148	421.69
317.377	422.69
317.607	415.69
317.836	407.69
318.065	407.69
318.295	398.69
318.524	387.69
318.753	385.69
318.983	384.69
319.212	377.69
319.441	416.69
319.67	410.69
319.9	407.69
320.129	387.69
320.358	382.69
320.587	387.69
320.816	406.69
321.046	426.69
321.275	435.69
321.504	417.69
321.733	401.69
321.962	444.69
322.191	457.69
322.42	457.69
322.649	482.69
322.878	520.69
323.108	511.69
323.337	540.69
323.566	556.69
323.795	608.69
324.024	668.69
324.253	866.69
324.482	1234.69
324.71	1970.69
324.939	2904.69
325.168	2497.69
325.397	1260.69
325.626	829.69
325.855	659.69
326.084	599.69
326.313	563.69
326.542	580.69
326.77	673.69
326.999	799.69
327.228	1132.69
327.457	1711.69
327.686	2150.69
327.914	1431.69
328.143	907.69
328.372	774.69
328.6	701.69
328.829	679.69
329.058	674.69
329.287	671.69
329.515	638.69
329.744	598.69
329.972	570.69
330.201	618.69
330.43	660.69
330.658	711.69
330.887	725.69
331.115	696.69
331.344	591.69
331.572	552.69
331.801	539.69
332.03	540.69
332.258	504.69
332.486	495.69
332.715	488.69
332.943	477.69
333.172	460.69
333.4	485.69
333.629	490.69
333.857	528.69
334.085	513.69
334.314	521.69
334.542	593.69
334.771	610.69
334.999	538.69
335.227	508.69
335.455	497.69
335.684	461.69
335.912	459.69
336.14	441.69
336.369	461.69
336.597	472.69
336.825	497.69
337.053	456.69
337.281	464.69
337.51	447.69
337.738	432.69
337.966	430.69
338.194	440.69
338.422	482.69
338.65	459.69
338.878	439.69
339.106	424.69
339.334	445.69
339.562	417.69
339.79	428.69
340.018	431.69
340.246	417.69
340.474	444.69
340.702	458.69
340.93	428.69
341.158	421.69
341.386	447.69
341.614	435.69
341.842	445.69
342.07	427.69
342.298	439.69
342.526	424.69
342.754	413.69
342.981	418.69
343.209	404.69
343.437	420.69
343.665	411.69
343.893	422.69
344.12	436.69
344.348	447.69
344.576	443.69
344.804	428.69
345.031	445.69
345.259	467.69
345.487	471.69
345.714	433.69
345.942	437.69
346.17	426.69
346.397	427.69
346.625	438.69
346.853	412.69
347.08	415.69
347.308	406.69
347.535	442.69
347.763	424.69
347.99	452.69
348.218	432.69
348.445	459.69
348.673	465.69
348.9	447.69
349.128	418.69
349.355	403.69
349.583	397.69
349.81	425.69
350.037	420.69
350.265	409.69
350.492	408.69
350.72	423.69
350.947	433.69
351.174	433.69
351.402	447.69
351.629	434.69
351.856	433.69
352.083	425.69
352.311	451.69
352.538	455.69
352.765	448.69
352.992	459.69
353.22	439.69
353.447	444.69
353.674	413.69
353.901	407.69
354.128	396.69
354.355	393.69
354.583	385.69
354.81	401.69
355.037	387.69
355.264	375.69
355.491	379.69
355.718	371.69
355.945	372.69
356.172	397.69
356.399	369.69
356.626	364.69
356.853	387.69
357.08	377.69
357.307	386.69
357.534	371.69
357.761	366.69
357.988	381.69
358.215	383.69
358.441	380.69
358.668	385.69
358.895	397.69
359.122	387.69
359.349	404.69
359.576	439.69
359.802	424.69
360.029	483.69
360.256	483.69
360.483	477.69
360.709	426.69
360.936	436.69
361.163	419.69
361.39	435.69
361.616	450.69
361.843	421.69
362.07	419.69
362.296	425.69
362.523	423.69
362.749	407.69
362.976	392.69
363.203	414.69
363.429	395.69
363.656	412.69
363.882	393.69
364.109	388.69
364.335	410.69
364.562	394.69
364.788	387.69
365.015	385.69
365.241	396.69
365.468	387.69
365.694	395.69
365.92	399.69
366.147	387.69
366.373	393.69
366.599	380.69
366.826	379.69
367.052	376.69
367.278	375.69
367.505	402.69
367.731	375.69
367.957	367.69
368.184	396.69
368.41	391.69
368.636	397.69
368.862	431.69
369.089	402.69
369.315	380.69
369.541	391.69
369.767	390.69
369.993	380.69
370.219	396.69
370.445	385.69
370.672	378.69
370.898	394.69
371.124	382.69
371.35	372.69
371.576	368.69
371.802	391.69
372.028	375.69
372.254	381.69
372.48	375.69
372.706	379.69
372.932	396.69
373.158	367.69
373.384	385.69
373.61	381.69
373.835	393.69
374.061	397.69
374.287	368.69
374.513	368.69
374.739	382.69
374.965	393.69
375.191	385.69
375.416	378.69
375.642	376.69
375.868	377.69
376.094	403.69
376.319	401.69
376.545	369.69
376.771	364.69
376.997	362.69
377.222	365.69
377.448	370.69
377.674	375.69
377.899	351.69
378.125	368.69
378.35	358.69
378.576	376.69
378.802	366.69
379.027	370.69
379.253	373.69
379.478	363.69
379.704	367.69
379.929	377.69
380.155	383.69
380.38	365.69
380.606	393.69
380.831	383.69
381.057	381.69
381.282	375.69
381.507	373.69
381.733	377.69
381.958	341.69
382.184	379.69
382.409	381.69
382.634	380.69
382.86	359.69
383.085	371.69
383.31	374.69
383.535	391.69
383.761	393.69
383.986	387.69
384.211	400.69
384.436	382.69
384.662	369.69
384.887	406.69
385.112	375.69
385.337	404.69
385.562	392.69
385.787	383.69
386.013	411.69
386.238	389.69
386.463	407.69
386.688	412.69
386.913	378.69
387.138	374.69
387.363	404.69
387.588	406.69
387.813	394.69
388.038	400.69
388.263	405.69
388.488	406.69
388.713	391.69
388.938	395.69
389.163	408.69
389.387	391.69
389.612	376.69
389.837	404.69
390.062	401.69
390.287	387.69
390.512	374.69
390.736	392.69
390.961	386.69
391.186	384.69
391.411	391.69
391.636	406.69
391.86	392.69
392.085	423.69
392.31	387.69
392.534	416.69
392.759	420.69
392.984	412.69
393.208	405.69
393.433	413.69
393.658	396.69
393.882	379.69
394.107	389.69
394.331	398.69
394.556	401.69
394.78	377.69
395.005	386.69
395.229	380.69
395.454	398.69
395.678	421.69
395.903	418.69
396.127	420.69
396.352	445.69
396.576	438.69
396.801	411.69
397.025	416.69
397.249	395.69
397.474	427.69
397.698	432.69
397.922	423.69
398.147	440.69
398.371	451.69
398.595	444.69
398.82	423.69
399.044	462.69
399.268	449.69
399.492	479.69
399.717	508.69
399.941	507.69
400.165	537.69
400.389	581.69
400.613	519.69
400.837	485.69
401.062	451.69
401.286	470.69
401.51	459.69
401.734	465.69
401.958	456.69
402.182	463.69
402.406	461.69
402.63	471.69
402.854	467.69
403.078	456.69
403.302	465.69
403.526	483.69
403.75	465.69
403.974	484.69
404.198	466.69
404.422	481.69
404.645	512.69
404.869	479.69
405.093	506.69
405.317	571.69
405.541	595.69
405.765	571.69
405.988	498.69
406.212	529.69
406.436	553.69
406.66	556.69
406.883	521.69
407.107	555.69
407.331	597.69
407.555	678.69
407.778	645.69
408.002	593.69
408.226	542.69
408.449	530.69
408.673	530.69
408.896	541.69
409.12	613.69
409.344	586.69
409.567	513.69
409.791	495.69
410.014	470.69
410.238	478.69
410.461	472.69
410.685	488.69
410.908	487.69
411.132	539.69
411.355	567.69
411.578	524.69
411.802	490.69
412.025	482.69
412.249	488.69
412.472	523.69
412.695	571.69
412.919	547.69
413.142	504.69
413.365	481.69
413.589	476.69
413.812	469.69
414.035	443.69
414.258	431.69
414.482	456.69
414.705	442.69
414.928	453.69
415.151	460.69
415.374	432.69
415.597	440.69
415.821	423.69
416.044	435.69
416.267	436.69
416.49	448.69
416.713	424.69
416.936	427.69
417.159	445.69
417.382	446.69
417.605	460.69
417.828	473.69
418.051	486.69
418.274	468.69
418.497	452.69
418.72	455.69
418.943	460.69
419.166	452.69
419.389	468.69
419.611	464.69
419.834	455.69
420.057	474.69
420.28	469.69
420.503	484.69
420.726	502.69
420.948	497.69
421.171	529.69
421.394	595.69
421.617	516.69
421.839	473.69
422.062	484.69
422.285	493.69
422.507	543.69
422.73	629.69
422.953	623.69
423.175	537.69
423.398	489.69
423.621	509.69
423.843	517.69
424.066	519.69
424.288	503.69
424.511	529.69
424.733	602.69
424.956	668.69
425.178	644.69
425.401	666.69
425.623	689.69
425.846	596.69
426.068	544.69
426.291	547.69
426.513	525.69
426.735	537.69
426.958	583.69
427.18	696.69
427.402	828.69
427.625	905.69
427.847	825.69
428.069	708.69
428.292	604.69
428.514	546.69
428.736	541.69
428.958	507.69
429.181	479.69
429.403	475.69
429.625	513.69
429.847	556.69
430.069	601.69
430.292	607.69
430.514	528.69
430.736	488.69
430.958	482.69
431.18	478.69
431.402	463.69
431.624	434.69
431.846	456.69
432.068	454.69
432.29	451.69
432.512	448.69
432.734	461.69
432.956	466.69
433.178	488.69
433.4	491.69
433.622	468.69
433.844	471.69
434.066	461.69
434.287	457.69
434.509	479.69
434.731	469.69
434.953	471.69
435.175	495.69
435.397	531.69
435.618	541.69
435.84	599.69
436.062	699.69
436.284	769.69
436.505	629.69
436.727	554.69
436.949	524.69
437.17	522.69
437.392	509.69
437.614	505.69
437.835	566.69
438.057	683.69
438.278	777.69
438.5	801.69
438.721	869.69
438.943	836.69
439.165	646.69
439.386	575.69
439.608	560.69
439.829	573.69
440.05	605.69
440.272	645.69
440.493	615.69
440.715	530.69
440.936	516.69
441.158	486.69
441.379	495.69
441.6	519.69
441.822	535.69
442.043	591.69
442.264	668.69
442.486	740.69
442.707	589.69
442.928	561.69
443.149	560.69
443.371	579.69
443.592	629.69
443.813	728.69
444.034	815.69
444.255	632.69
444.476	572.69
444.698	523.69
444.919	505.69
445.14	619.69
445.361	600.69
445.582	605.69
445.803	691.69
446.024	804.69
446.245	805.69
446.466	723.69
446.687	606.69
446.908	545.69
447.129	523.69
447.35	504.69
447.571	520.69
447.792	495.69
448.013	482.69
448.234	540.69
448.455	583.69
448.675	733.69
448.896	845.69
449.117	699.69
449.338	649.69
449.559	773.69
449.779	891.69
450	684.69
450.221	579.69
450.442	527.69
450.662	496.69
450.883	536.69
451.104	516.69
451.324	503.69
451.545	475.69
451.766	439.69
451.986	445.69
452.207	452.69
452.428	426.69
452.648	441.69
452.869	453.69
453.089	431.69
453.31	461.69
453.53	444.69
453.751	454.69
453.971	425.69
454.192	466.69
454.412	460.69
454.633	435.69
454.853	439.69
455.073	427.69
455.294	464.69
455.514	552.69
455.734	531.69
455.955	460.69
456.175	411.69
456.395	403.69
456.616	422.69
456.836	426.69
457.056	406.69
457.276	407.69
457.497	424.69
457.717	419.69
457.937	424.69
458.157	422.69
458.377	429.69
458.598	457.69
458.818	543.69
459.038	630.69
459.258	652.69
459.478	547.69
459.698	470.69
459.918	455.69
460.138	441.69
460.358	460.69
460.578	446.69
460.798	429.69
461.018	427.69
461.238	451.69
461.458	443.69
461.678	437.69
461.898	455.69
462.118	420.69
462.338	436.69
462.558	443.69
462.777	479.69
462.997	445.69
463.217	463.69
463.437	472.69
463.657	471.69
463.876	452.69
464.096	451.69
464.316	476.69
464.536	502.69
464.755	494.69
464.975	499.69
465.195	556.69
465.414	671.69
465.634	574.69
465.854	502.69
466.073	463.69
466.293	482.69
466.512	437.69
466.732	435.69
466.951	453.69
467.171	442.69
467.391	437.69
467.61	452.69
467.829	475.69
468.049	461.69
468.268	467.69
468.488	447.69
468.707	404.69
468.927	441.69
469.146	407.69
469.365	415.69
469.585	438.69
469.804	451.69
470.023	435.69
470.243	459.69
470.462	464.69
470.681	486.69
470.901	462.69
471.12	447.69
471.339	458.69
471.558	456.69
471.777	459.69
471.997	431.69
472.216	457.69
472.435	512.69
472.654	511.69
472.873	469.69
473.092	449.69
473.311	457.69
473.53	447.69
473.749	475.69
473.968	521.69
474.187	633.69
474.406	658.69
474.625	533.69
474.844	485.69
475.063	476.69
475.282	456.69
475.501	467.69
475.72	445.69
475.939	434.69
476.158	468.69
476.377	478.69
476.596	467.69
476.814	453.69
477.033	479.69
477.252	461.69
477.471	492.69
477.69	493.69
477.908	493.69
478.127	501.69
478.346	463.69
478.564	500.69
478.783	480.69
479.002	496.69
479.22	515.69
479.439	540.69
479.658	544.69
479.876	550.69
480.095	569.69
480.313	564.69
480.532	584.69
480.751	539.69
480.969	543.69
481.188	668.69
481.406	726.69
481.624	610.69
481.843	559.69
482.061	544.69
482.28	578.69
482.498	544.69
482.717	520.69
482.935	546.69
483.153	532.69
483.372	531.69
483.59	517.69
483.808	531.69
484.027	522.69
484.245	523.69
484.463	523.69
484.681	545.69
484.9	560.69
485.118	531.69
485.336	564.69
485.554	549.69
485.772	551.69
485.99	534.69
486.209	548.69
486.427	543.69
486.645	567.69
486.863	593.69
487.081	587.69
487.299	583.69
487.517	593.69
487.735	573.69
487.953	571.69
488.171	572.69
488.389	573.69
488.607	561.69
488.825	572.69
489.043	593.69
489.261	591.69
489.479	582.69
489.696	601.69
489.914	588.69
490.132	623.69
490.35	592.69
490.568	592.69
490.786	607.69
491.003	615.69
491.221	634.69
491.439	634.69
491.657	628.69
491.874	651.69
492.092	663.69
492.31	663.69
492.527	664.69
492.745	655.69
492.963	649.69
493.18	648.69
493.398	690.69
493.615	685.69
493.833	678.69
494.05	694.69
494.268	663.69
494.485	684.69
494.703	688.69
494.92	685.69
495.138	691.69
495.355	684.69
495.573	676.69
495.79	666.69
496.008	696.69
496.225	675.69
496.442	677.69
496.66	688.69
496.877	697.69
497.094	676.69
497.312	703.69
497.529	665.69
497.746	724.69
497.963	725.69
498.181	747.69
498.398	724.69
498.615	736.69
498.832	746.69
499.049	756.69
499.267	755.69
499.484	794.69
499.701	778.69
499.918	787.69
500.135	822.69
500.352	842.69
500.569	825.69
500.786	838.69
501.003	851.69
501.22	822.69
501.437	823.69
501.654	825.69
501.871	835.69
