Data from 1972.PennyLincolnUp.Lamp.En5.5.200Scan.071719.P1._HRD10591_15-27-56-843.txt Node
Date: Thu Jul 18 15:27:56 EDT 2019
User: cochatt
Spectrometer: HR+D1059
Trigger mode: 1
Integration Time (sec): 1.000000E-1
Scans to average: 1
Electric dark correction enabled: true
Nonlinearity correction enabled: false
Boxcar width: 0
XAxis mode: Wavelengths
Number of Pixels in Spectrum: 2048
>>>>>Begin Spectral Data<<<<<
223.165	-30.56
223.4	-30.56
223.635	-30.56
223.869	-9.56
224.104	-10.56
224.338	-29.56
224.573	-0.56
224.808	-14.56
225.042	-10.56
225.277	-3.56
225.511	-2.56
225.746	10.44
225.98	5.44
226.215	9.44
226.449	16.44
226.683	19.44
226.918	19.44
227.152	31.44
227.387	22.44
227.621	23.44
227.856	30.44
228.09	42.44
228.324	48.44
228.559	47.44
228.793	65.44
229.027	109.44
229.262	111.44
229.496	105.44
229.73	132.44
229.964	172.44
230.199	132.44
230.433	109.44
230.667	108.44
230.901	117.44
231.136	113.44
231.37	100.44
231.604	113.44
231.838	112.44
232.072	94.44
232.306	101.44
232.541	121.44
232.775	120.44
233.009	122.44
233.243	96.44
233.477	120.44
233.711	113.44
233.945	115.44
234.179	108.44
234.413	120.44
234.647	113.44
234.881	125.44
235.115	116.44
235.349	113.44
235.583	97.44
235.817	105.44
236.051	120.44
236.285	126.44
236.519	132.44
236.753	142.44
236.987	173.44
237.221	192.44
237.455	246.44
237.689	205.44
237.922	150.44
238.156	139.44
238.39	125.44
238.624	120.44
238.858	141.44
239.091	123.44
239.325	132.44
239.559	135.44
239.793	136.44
240.027	137.44
240.26	138.44
240.494	173.44
240.728	147.44
240.961	152.44
241.195	142.44
241.429	150.44
241.662	134.44
241.896	136.44
242.13	133.44
242.363	132.44
242.597	125.44
242.83	133.44
243.064	136.44
243.298	132.44
243.531	148.44
243.765	136.44
243.998	134.44
244.232	143.44
244.465	153.44
244.699	147.44
244.932	142.44
245.166	129.44
245.399	147.44
245.633	142.44
245.866	145.44
246.099	140.44
246.333	152.44
246.566	141.44
246.8	149.44
247.033	146.44
247.266	156.44
247.5	162.44
247.733	155.44
247.966	157.44
248.2	164.44
248.433	163.44
248.666	163.44
248.899	190.44
249.133	202.44
249.366	200.44
249.599	197.44
249.832	189.44
250.066	193.44
250.299	172.44
250.532	195.44
250.765	211.44
250.998	233.44
251.231	247.44
251.465	225.44
251.698	190.44
251.931	209.44
252.164	199.44
252.397	210.44
252.63	191.44
252.863	182.44
253.096	204.44
253.329	229.44
253.562	225.44
253.795	226.44
254.028	207.44
254.261	231.44
254.494	235.44
254.727	242.44
254.96	282.44
255.193	277.44
255.426	246.44
255.659	234.44
255.892	234.44
256.124	233.44
256.357	234.44
256.59	238.44
256.823	215.44
257.056	236.44
257.289	214.44
257.521	210.44
257.754	221.44
257.987	217.44
258.22	212.44
258.452	214.44
258.685	214.44
258.918	198.44
259.151	234.44
259.383	223.44
259.616	220.44
259.849	237.44
260.081	241.44
260.314	264.44
260.547	266.44
260.779	248.44
261.012	255.44
261.244	230.44
261.477	253.44
261.71	227.44
261.942	225.44
262.175	232.44
262.407	234.44
262.64	221.44
262.872	207.44
263.105	220.44
263.337	223.44
263.57	203.44
263.802	216.44
264.035	191.44
264.267	201.44
264.499	192.44
264.732	218.44
264.964	225.44
265.197	210.44
265.429	209.44
265.661	222.44
265.894	212.44
266.126	216.44
266.358	215.44
266.591	223.44
266.823	212.44
267.055	209.44
267.287	223.44
267.52	226.44
267.752	212.44
267.984	214.44
268.216	222.44
268.448	229.44
268.681	225.44
268.913	267.44
269.145	273.44
269.377	263.44
269.609	279.44
269.841	276.44
270.073	272.44
270.306	300.44
270.538	308.44
270.77	316.44
271.002	291.44
271.234	298.44
271.466	310.44
271.698	321.44
271.93	333.44
272.162	305.44
272.394	313.44
272.626	311.44
272.858	289.44
273.09	278.44
273.322	263.44
273.553	271.44
273.785	290.44
274.017	277.44
274.249	269.44
274.481	286.44
274.713	275.44
274.945	258.44
275.176	275.44
275.408	269.44
275.64	263.44
275.872	268.44
276.104	274.44
276.335	271.44
276.567	260.44
276.799	287.44
277.031	315.44
277.262	331.44
277.494	326.44
277.726	303.44
277.957	301.44
278.189	265.44
278.421	266.44
278.652	275.44
278.884	265.44
279.115	245.44
279.347	263.44
279.579	265.44
279.81	251.44
280.042	257.44
280.273	260.44
280.505	252.44
280.736	261.44
280.968	269.44
281.199	261.44
281.431	252.44
281.662	231.44
281.894	255.44
282.125	271.44
282.356	276.44
282.588	297.44
282.819	317.44
283.051	283.44
283.282	262.44
283.513	258.44
283.745	258.44
283.976	289.44
284.207	288.44
284.439	265.44
284.67	252.44
284.901	277.44
285.132	280.44
285.364	270.44
285.595	269.44
285.826	246.44
286.057	279.44
286.288	265.44
286.52	266.44
286.751	270.44
286.982	267.44
287.213	278.44
287.444	259.44
287.675	259.44
287.906	254.44
288.138	290.44
288.369	283.44
288.6	281.44
288.831	295.44
289.062	275.44
289.293	259.44
289.524	269.44
289.755	248.44
289.986	275.44
290.217	272.44
290.448	270.44
290.679	277.44
290.91	299.44
291.141	270.44
291.371	275.44
291.602	297.44
291.833	281.44
292.064	258.44
292.295	264.44
292.526	279.44
292.757	281.44
292.987	264.44
293.218	270.44
293.449	272.44
293.68	277.44
293.91	265.44
294.141	281.44
294.372	265.44
294.603	279.44
294.833	289.44
295.064	283.44
295.295	285.44
295.525	292.44
295.756	292.44
295.987	284.44
296.217	317.44
296.448	312.44
296.679	296.44
296.909	289.44
297.14	258.44
297.37	274.44
297.601	299.44
297.831	285.44
298.062	278.44
298.292	294.44
298.523	300.44
298.753	277.44
298.984	277.44
299.214	290.44
299.445	299.44
299.675	308.44
299.905	293.44
300.136	307.44
300.366	306.44
300.597	292.44
300.827	285.44
301.057	289.44
301.288	294.44
301.518	305.44
301.748	323.44
301.979	297.44
302.209	301.44
302.439	320.44
302.669	325.44
302.9	322.44
303.13	313.44
303.36	301.44
303.59	300.44
303.82	308.44
304.051	309.44
304.281	299.44
304.511	323.44
304.741	313.44
304.971	310.44
305.201	323.44
305.431	301.44
305.661	316.44
305.891	305.44
306.121	309.44
306.352	326.44
306.582	339.44
306.812	317.44
307.042	336.44
307.272	321.44
307.502	325.44
307.731	318.44
307.961	326.44
308.191	309.44
308.421	311.44
308.651	340.44
308.881	330.44
309.111	315.44
309.341	328.44
309.571	361.44
309.8	354.44
310.03	375.44
310.26	375.44
310.49	369.44
310.72	398.44
310.949	409.44
311.179	381.44
311.409	361.44
311.639	371.44
311.868	373.44
312.098	378.44
312.328	369.44
312.557	397.44
312.787	408.44
313.017	421.44
313.246	395.44
313.476	371.44
313.706	371.44
313.935	376.44
314.165	393.44
314.394	407.44
314.624	386.44
314.853	385.44
315.083	358.44
315.312	350.44
315.542	357.44
315.771	358.44
316.001	350.44
316.23	357.44
316.46	342.44
316.689	353.44
316.919	381.44
317.148	372.44
317.377	396.44
317.607	371.44
317.836	356.44
318.065	371.44
318.295	357.44
318.524	363.44
318.753	373.44
318.983	348.44
319.212	368.44
319.441	361.44
319.67	375.44
319.9	387.44
320.129	359.44
320.358	371.44
320.587	379.44
320.816	376.44
321.046	406.44
321.275	398.44
321.504	397.44
321.733	397.44
321.962	386.44
322.191	404.44
322.42	439.44
322.649	438.44
322.878	465.44
323.108	476.44
323.337	499.44
323.566	505.44
323.795	552.44
324.024	655.44
324.253	764.44
324.482	1148.44
324.71	1787.44
324.939	2549.44
325.168	2295.44
325.397	1145.44
325.626	731.44
325.855	582.44
326.084	550.44
326.313	534.44
326.542	533.44
326.77	629.44
326.999	709.44
327.228	1025.44
327.457	1537.44
327.686	1956.44
327.914	1312.44
328.143	819.44
328.372	691.44
328.6	651.44
328.829	631.44
329.058	620.44
329.287	661.44
329.515	590.44
329.744	554.44
329.972	533.44
330.201	555.44
330.43	597.44
330.658	629.44
330.887	669.44
331.115	622.44
331.344	558.44
331.572	505.44
331.801	503.44
332.03	509.44
332.258	451.44
332.486	445.44
332.715	426.44
332.943	439.44
333.172	443.44
333.4	471.44
333.629	433.44
333.857	455.44
334.085	494.44
334.314	485.44
334.542	540.44
334.771	552.44
334.999	509.44
335.227	453.44
335.455	448.44
335.684	430.44
335.912	425.44
336.14	423.44
336.369	449.44
336.597	437.44
336.825	443.44
337.053	415.44
337.281	397.44
337.51	407.44
337.738	399.44
337.966	419.44
338.194	425.44
338.422	434.44
338.65	406.44
338.878	398.44
339.106	415.44
339.334	394.44
339.562	403.44
339.79	411.44
340.018	414.44
340.246	400.44
340.474	430.44
340.702	403.44
340.93	416.44
341.158	388.44
341.386	400.44
341.614	427.44
341.842	401.44
342.07	401.44
342.298	393.44
342.526	409.44
342.754	398.44
342.981	396.44
343.209	380.44
343.437	386.44
343.665	401.44
343.893	366.44
344.12	396.44
344.348	419.44
344.576	409.44
344.804	414.44
345.031	409.44
345.259	453.44
345.487	422.44
345.714	413.44
345.942	408.44
346.17	397.44
346.397	389.44
346.625	412.44
346.853	408.44
347.08	370.44
347.308	382.44
347.535	409.44
347.763	431.44
347.99	417.44
348.218	407.44
348.445	414.44
348.673	435.44
348.9	415.44
349.128	385.44
349.355	382.44
349.583	385.44
349.81	386.44
350.037	369.44
350.265	390.44
350.492	380.44
350.72	384.44
350.947	397.44
351.174	406.44
351.402	419.44
351.629	394.44
351.856	408.44
352.083	410.44
352.311	414.44
352.538	428.44
352.765	416.44
352.992	410.44
353.22	409.44
353.447	375.44
353.674	391.44
353.901	391.44
354.128	378.44
354.355	371.44
354.583	353.44
354.81	372.44
355.037	362.44
355.264	382.44
355.491	351.44
355.718	357.44
355.945	381.44
356.172	358.44
356.399	355.44
356.626	356.44
356.853	351.44
357.08	355.44
357.307	378.44
357.534	342.44
357.761	365.44
357.988	357.44
358.215	339.44
358.441	360.44
358.668	367.44
358.895	366.44
359.122	385.44
359.349	371.44
359.576	404.44
359.802	435.44
360.029	447.44
360.256	463.44
360.483	445.44
360.709	412.44
360.936	390.44
361.163	391.44
361.39	402.44
361.616	396.44
361.843	405.44
362.07	389.44
362.296	410.44
362.523	407.44
362.749	378.44
362.976	392.44
363.203	387.44
363.429	378.44
363.656	374.44
363.882	367.44
364.109	373.44
364.335	369.44
364.562	376.44
364.788	367.44
365.015	358.44
365.241	370.44
365.468	375.44
365.694	358.44
365.92	379.44
366.147	371.44
366.373	361.44
366.599	372.44
366.826	375.44
367.052	361.44
367.278	360.44
367.505	382.44
367.731	359.44
367.957	355.44
368.184	358.44
368.41	380.44
368.636	384.44
368.862	403.44
369.089	377.44
369.315	359.44
369.541	380.44
369.767	366.44
369.993	355.44
370.219	365.44
370.445	348.44
370.672	363.44
370.898	377.44
371.124	371.44
371.35	368.44
371.576	344.44
371.802	364.44
372.028	356.44
372.254	347.44
372.48	350.44
372.706	357.44
372.932	350.44
373.158	341.44
373.384	356.44
373.61	378.44
373.835	371.44
374.061	357.44
374.287	350.44
374.513	343.44
374.739	351.44
374.965	367.44
375.191	358.44
375.416	357.44
375.642	365.44
375.868	359.44
376.094	364.44
376.319	374.44
376.545	386.44
376.771	354.44
376.997	359.44
377.222	347.44
377.448	362.44
377.674	350.44
377.899	355.44
378.125	356.44
378.35	349.44
378.576	334.44
378.802	361.44
379.027	361.44
379.253	353.44
379.478	354.44
379.704	348.44
379.929	360.44
380.155	345.44
380.38	365.44
380.606	356.44
380.831	356.44
381.057	353.44
381.282	377.44
381.507	360.44
381.733	350.44
381.958	339.44
382.184	358.44
382.409	330.44
382.634	367.44
382.86	350.44
383.085	365.44
383.31	379.44
383.535	371.44
383.761	368.44
383.986	355.44
384.211	360.44
384.436	371.44
384.662	375.44
384.887	379.44
385.112	359.44
385.337	388.44
385.562	408.44
385.787	379.44
386.013	388.44
386.238	395.44
386.463	381.44
386.688	382.44
386.913	386.44
387.138	360.44
387.363	364.44
387.588	359.44
387.813	385.44
388.038	383.44
388.263	386.44
388.488	362.44
388.713	363.44
388.938	377.44
389.163	393.44
389.387	397.44
389.612	365.44
389.837	394.44
390.062	396.44
390.287	379.44
390.512	387.44
390.736	379.44
390.961	387.44
391.186	391.44
391.411	373.44
391.636	376.44
391.86	388.44
392.085	366.44
392.31	372.44
392.534	381.44
392.759	397.44
392.984	391.44
393.208	383.44
393.433	401.44
393.658	389.44
393.882	370.44
394.107	377.44
394.331	367.44
394.556	376.44
394.78	369.44
395.005	377.44
395.229	382.44
395.454	381.44
395.678	399.44
395.903	396.44
396.127	436.44
396.352	417.44
396.576	389.44
396.801	390.44
397.025	393.44
397.249	415.44
397.474	412.44
397.698	389.44
397.922	409.44
398.147	428.44
398.371	426.44
398.595	426.44
398.82	409.44
399.044	413.44
399.268	428.44
399.492	433.44
399.717	441.44
399.941	482.44
400.165	515.44
400.389	532.44
400.613	481.44
400.837	442.44
401.062	434.44
401.286	422.44
401.51	433.44
401.734	426.44
401.958	420.44
402.182	429.44
402.406	463.44
402.63	455.44
402.854	442.44
403.078	423.44
403.302	453.44
403.526	433.44
403.75	442.44
403.974	433.44
404.198	454.44
404.422	440.44
404.645	466.44
404.869	470.44
405.093	491.44
405.317	538.44
405.541	583.44
405.765	503.44
405.988	462.44
406.212	497.44
406.436	515.44
406.66	511.44
406.883	493.44
407.107	512.44
407.331	535.44
407.555	616.44
407.778	616.44
408.002	561.44
408.226	523.44
408.449	483.44
408.673	490.44
408.896	527.44
409.12	575.44
409.344	537.44
409.567	486.44
409.791	475.44
410.014	463.44
410.238	427.44
410.461	454.44
410.685	471.44
410.908	477.44
411.132	507.44
411.355	535.44
411.578	500.44
411.802	462.44
412.025	440.44
412.249	494.44
412.472	505.44
412.695	532.44
412.919	519.44
413.142	459.44
413.365	445.44
413.589	441.44
413.812	427.44
414.035	411.44
414.258	427.44
414.482	418.44
414.705	416.44
414.928	414.44
415.151	413.44
415.374	417.44
415.597	442.44
415.821	419.44
416.044	418.44
416.267	422.44
416.49	421.44
416.713	412.44
416.936	426.44
417.159	439.44
417.382	418.44
417.605	423.44
417.828	436.44
418.051	474.44
418.274	437.44
418.497	437.44
418.72	428.44
418.943	414.44
419.166	429.44
419.389	454.44
419.611	458.44
419.834	422.44
420.057	443.44
420.28	457.44
420.503	436.44
420.726	452.44
420.948	473.44
421.171	504.44
421.394	545.44
421.617	492.44
421.839	444.44
422.062	435.44
422.285	469.44
422.507	523.44
422.73	614.44
422.953	588.44
423.175	521.44
423.398	482.44
423.621	477.44
423.843	488.44
424.066	497.44
424.288	478.44
424.511	532.44
424.733	599.44
424.956	661.44
425.178	643.44
425.401	611.44
425.623	649.44
425.846	557.44
426.068	505.44
426.291	494.44
426.513	498.44
426.735	514.44
426.958	540.44
427.18	639.44
427.402	783.44
427.625	861.44
427.847	758.44
428.069	643.44
428.292	588.44
428.514	513.44
428.736	477.44
428.958	480.44
429.181	473.44
429.403	469.44
429.625	474.44
429.847	501.44
430.069	571.44
430.292	558.44
430.514	494.44
430.736	455.44
430.958	460.44
431.18	451.44
431.402	436.44
431.624	414.44
431.846	433.44
432.068	420.44
432.29	420.44
432.512	426.44
432.734	464.44
432.956	436.44
433.178	442.44
433.4	461.44
433.622	461.44
433.844	437.44
434.066	436.44
434.287	441.44
434.509	439.44
434.731	459.44
434.953	451.44
435.175	437.44
435.397	479.44
435.618	510.44
435.84	561.44
436.062	643.44
436.284	715.44
436.505	578.44
436.727	525.44
436.949	476.44
437.17	455.44
437.392	476.44
437.614	463.44
437.835	528.44
438.057	627.44
438.278	742.44
438.5	713.44
438.721	787.44
438.943	771.44
439.165	581.44
439.386	540.44
439.608	535.44
439.829	547.44
440.05	582.44
440.272	609.44
440.493	598.44
440.715	538.44
440.936	478.44
441.158	475.44
441.379	462.44
441.6	511.44
441.822	500.44
442.043	531.44
442.264	647.44
442.486	670.44
442.707	574.44
442.928	521.44
443.149	543.44
443.371	564.44
443.592	591.44
443.813	706.44
444.034	724.44
444.255	607.44
444.476	526.44
444.698	509.44
444.919	497.44
445.14	602.44
445.361	572.44
445.582	543.44
445.803	622.44
446.024	737.44
446.245	753.44
446.466	684.44
446.687	562.44
446.908	541.44
447.129	504.44
447.35	485.44
447.571	504.44
447.792	459.44
448.013	449.44
448.234	508.44
448.455	539.44
448.675	646.44
448.896	757.44
449.117	650.44
449.338	620.44
449.559	725.44
449.779	812.44
450	655.44
450.221	525.44
450.442	487.44
450.662	459.44
450.883	500.44
451.104	502.44
451.324	492.44
451.545	466.44
451.766	445.44
451.986	429.44
452.207	409.44
452.428	429.44
452.648	413.44
452.869	414.44
453.089	446.44
453.31	446.44
453.53	441.44
453.751	393.44
453.971	408.44
454.192	457.44
454.412	455.44
454.633	426.44
454.853	419.44
455.073	410.44
455.294	437.44
455.514	515.44
455.734	502.44
455.955	444.44
456.175	401.44
456.395	398.44
456.616	374.44
456.836	380.44
457.056	393.44
457.276	390.44
457.497	395.44
457.717	399.44
457.937	402.44
458.157	409.44
458.377	413.44
458.598	426.44
458.818	504.44
459.038	587.44
459.258	618.44
459.478	489.44
459.698	434.44
459.918	438.44
460.138	421.44
460.358	449.44
460.578	431.44
460.798	432.44
461.018	436.44
461.238	434.44
461.458	415.44
461.678	423.44
461.898	437.44
462.118	422.44
462.338	433.44
462.558	417.44
462.777	428.44
462.997	441.44
463.217	451.44
463.437	452.44
463.657	443.44
463.876	443.44
464.096	449.44
464.316	440.44
464.536	449.44
464.755	462.44
464.975	473.44
465.195	531.44
465.414	618.44
465.634	526.44
465.854	480.44
466.073	455.44
466.293	419.44
466.512	444.44
466.732	442.44
466.951	434.44
467.171	412.44
467.391	435.44
467.61	440.44
467.829	440.44
468.049	430.44
468.268	428.44
468.488	432.44
468.707	407.44
468.927	415.44
469.146	387.44
469.365	413.44
469.585	429.44
469.804	448.44
470.023	413.44
470.243	429.44
470.462	441.44
470.681	439.44
470.901	458.44
471.12	450.44
471.339	424.44
471.558	417.44
471.777	438.44
471.997	423.44
472.216	425.44
472.435	494.44
472.654	467.44
472.873	438.44
473.092	415.44
473.311	427.44
473.53	430.44
473.749	445.44
473.968	472.44
474.187	608.44
474.406	631.44
474.625	505.44
474.844	462.44
475.063	447.44
475.282	421.44
475.501	427.44
475.72	425.44
475.939	422.44
476.158	435.44
476.377	439.44
476.596	442.44
476.814	460.44
477.033	462.44
477.252	455.44
477.471	458.44
477.69	434.44
477.908	449.44
478.127	476.44
478.346	460.44
478.564	475.44
478.783	471.44
479.002	475.44
479.22	480.44
479.439	498.44
479.658	493.44
479.876	499.44
480.095	520.44
480.313	538.44
480.532	524.44
480.751	518.44
480.969	519.44
481.188	628.44
481.406	669.44
481.624	548.44
481.843	541.44
482.061	534.44
482.28	500.44
482.498	501.44
482.717	493.44
482.935	515.44
483.153	517.44
483.372	493.44
483.59	511.44
483.808	500.44
484.027	511.44
484.245	502.44
484.463	511.44
484.681	528.44
484.9	502.44
485.118	505.44
485.336	495.44
485.554	502.44
485.772	523.44
485.99	526.44
486.209	501.44
486.427	521.44
486.645	538.44
486.863	555.44
487.081	558.44
487.299	545.44
487.517	543.44
487.735	538.44
487.953	520.44
488.171	536.44
488.389	519.44
488.607	531.44
488.825	527.44
489.043	542.44
489.261	532.44
489.479	539.44
489.696	551.44
489.914	551.44
490.132	562.44
490.35	565.44
490.568	569.44
490.786	574.44
491.003	589.44
491.221	592.44
491.439	602.44
491.657	615.44
491.874	633.44
492.092	612.44
492.31	616.44
492.527	643.44
492.745	643.44
492.963	625.44
493.18	623.44
493.398	629.44
493.615	641.44
493.833	643.44
494.05	632.44
494.268	627.44
494.485	659.44
494.703	638.44
494.92	613.44
495.138	639.44
495.355	625.44
495.573	635.44
495.79	635.44
496.008	640.44
496.225	654.44
496.442	643.44
496.66	628.44
496.877	637.44
497.094	632.44
497.312	644.44
497.529	674.44
497.746	651.44
497.963	677.44
498.181	705.44
498.398	678.44
498.615	719.44
498.832	715.44
499.049	701.44
499.267	712.44
499.484	723.44
499.701	740.44
499.918	759.44
500.135	778.44
500.352	777.44
500.569	798.44
500.786	809.44
501.003	794.44
501.22	771.44
501.437	763.44
501.654	775.44
501.871	761.44
