Data from 1972.PennyLincolnUp.Lamp.En5.5.200Scan.071719.P1._HRD10591_15-26-56-843.txt Node
Date: Thu Jul 18 15:26:56 EDT 2019
User: cochatt
Spectrometer: HR+D1059
Trigger mode: 1
Integration Time (sec): 1.000000E-1
Scans to average: 1
Electric dark correction enabled: true
Nonlinearity correction enabled: false
Boxcar width: 0
XAxis mode: Wavelengths
Number of Pixels in Spectrum: 2048
>>>>>Begin Spectral Data<<<<<
223.165	6.69
223.4	6.69
223.635	6.69
223.869	-23.31
224.104	-8.31
224.338	-14.31
224.573	-13.31
224.808	-19.31
225.042	-6.31
225.277	-15.31
225.511	-2.31
225.746	-7.31
225.98	13.69
226.215	3.69
226.449	16.69
226.683	22.69
226.918	16.69
227.152	29.69
227.387	32.69
227.621	37.69
227.856	46.69
228.09	34.69
228.324	45.69
228.559	59.69
228.793	64.69
229.027	85.69
229.262	88.69
229.496	106.69
229.73	114.69
229.964	113.69
230.199	122.69
230.433	115.69
230.667	98.69
230.901	91.69
231.136	89.69
231.37	91.69
231.604	98.69
231.838	106.69
232.072	117.69
232.306	102.69
232.541	110.69
232.775	113.69
233.009	107.69
233.243	106.69
233.477	103.69
233.711	100.69
233.945	108.69
234.179	109.69
234.413	113.69
234.647	106.69
234.881	113.69
235.115	107.69
235.349	119.69
235.583	123.69
235.817	126.69
236.051	122.69
236.285	91.69
236.519	105.69
236.753	117.69
236.987	119.69
237.221	168.69
237.455	177.69
237.689	154.69
237.922	118.69
238.156	111.69
238.39	125.69
238.624	117.69
238.858	111.69
239.091	114.69
239.325	108.69
239.559	111.69
239.793	123.69
240.027	137.69
240.26	114.69
240.494	147.69
240.728	146.69
240.961	122.69
241.195	131.69
241.429	131.69
241.662	131.69
241.896	127.69
242.13	117.69
242.363	113.69
242.597	118.69
242.83	123.69
243.064	124.69
243.298	119.69
243.531	116.69
243.765	132.69
243.998	137.69
244.232	135.69
244.465	108.69
244.699	122.69
244.932	136.69
245.166	126.69
245.399	119.69
245.633	113.69
245.866	131.69
246.099	140.69
246.333	130.69
246.566	136.69
246.8	135.69
247.033	131.69
247.266	140.69
247.5	149.69
247.733	144.69
247.966	138.69
248.2	147.69
248.433	143.69
248.666	152.69
248.899	153.69
249.133	157.69
249.366	168.69
249.599	181.69
249.832	174.69
250.066	150.69
250.299	143.69
250.532	157.69
250.765	177.69
250.998	192.69
251.231	191.69
251.465	182.69
251.698	179.69
251.931	171.69
252.164	183.69
252.397	187.69
252.63	171.69
252.863	193.69
253.096	179.69
253.329	185.69
253.562	191.69
253.795	202.69
254.028	190.69
254.261	188.69
254.494	179.69
254.727	219.69
254.96	251.69
255.193	228.69
255.426	222.69
255.659	200.69
255.892	199.69
256.124	211.69
256.357	196.69
256.59	207.69
256.823	206.69
257.056	198.69
257.289	181.69
257.521	169.69
257.754	160.69
257.987	183.69
258.22	195.69
258.452	173.69
258.685	191.69
258.918	175.69
259.151	188.69
259.383	193.69
259.616	192.69
259.849	178.69
260.081	194.69
260.314	202.69
260.547	223.69
260.779	200.69
261.012	196.69
261.244	199.69
261.477	199.69
261.71	174.69
261.942	177.69
262.175	197.69
262.407	187.69
262.64	191.69
262.872	185.69
263.105	194.69
263.337	178.69
263.57	178.69
263.802	183.69
264.035	188.69
264.267	197.69
264.499	164.69
264.732	176.69
264.964	191.69
265.197	179.69
265.429	172.69
265.661	197.69
265.894	189.69
266.126	188.69
266.358	172.69
266.591	190.69
266.823	205.69
267.055	194.69
267.287	197.69
267.52	177.69
267.752	185.69
267.984	191.69
268.216	194.69
268.448	195.69
268.681	218.69
268.913	216.69
269.145	207.69
269.377	228.69
269.609	216.69
269.841	213.69
270.073	208.69
270.306	251.69
270.538	250.69
270.77	243.69
271.002	241.69
271.234	237.69
271.466	228.69
271.698	264.69
271.93	256.69
272.162	268.69
272.394	255.69
272.626	228.69
272.858	249.69
273.09	226.69
273.322	215.69
273.553	225.69
273.785	236.69
274.017	220.69
274.249	225.69
274.481	210.69
274.713	217.69
274.945	225.69
275.176	230.69
275.408	204.69
275.64	241.69
275.872	248.69
276.104	231.69
276.335	231.69
276.567	220.69
276.799	226.69
277.031	244.69
277.262	240.69
277.494	245.69
277.726	232.69
277.957	230.69
278.189	218.69
278.421	240.69
278.652	238.69
278.884	218.69
279.115	210.69
279.347	236.69
279.579	235.69
279.81	219.69
280.042	231.69
280.273	211.69
280.505	235.69
280.736	220.69
280.968	233.69
281.199	216.69
281.431	236.69
281.662	222.69
281.894	229.69
282.125	220.69
282.356	234.69
282.588	251.69
282.819	245.69
283.051	231.69
283.282	236.69
283.513	223.69
283.745	222.69
283.976	226.69
284.207	228.69
284.439	213.69
284.67	219.69
284.901	227.69
285.132	234.69
285.364	242.69
285.595	229.69
285.826	221.69
286.057	228.69
286.288	214.69
286.52	225.69
286.751	235.69
286.982	226.69
287.213	223.69
287.444	227.69
287.675	229.69
287.906	237.69
288.138	242.69
288.369	236.69
288.6	243.69
288.831	243.69
289.062	251.69
289.293	237.69
289.524	238.69
289.755	244.69
289.986	233.69
290.217	231.69
290.448	230.69
290.679	242.69
290.91	238.69
291.141	232.69
291.371	220.69
291.602	221.69
291.833	236.69
292.064	223.69
292.295	217.69
292.526	229.69
292.757	228.69
292.987	243.69
293.218	234.69
293.449	230.69
293.68	225.69
293.91	225.69
294.141	223.69
294.372	229.69
294.603	235.69
294.833	227.69
295.064	223.69
295.295	234.69
295.525	241.69
295.756	257.69
295.987	236.69
296.217	269.69
296.448	254.69
296.679	227.69
296.909	247.69
297.14	234.69
297.37	237.69
297.601	231.69
297.831	238.69
298.062	252.69
298.292	226.69
298.523	248.69
298.753	242.69
298.984	236.69
299.214	238.69
299.445	242.69
299.675	265.69
299.905	260.69
300.136	234.69
300.366	239.69
300.597	249.69
300.827	261.69
301.057	249.69
301.288	275.69
301.518	234.69
301.748	251.69
301.979	257.69
302.209	251.69
302.439	249.69
302.669	256.69
302.9	255.69
303.13	233.69
303.36	267.69
303.59	248.69
303.82	268.69
304.051	276.69
304.281	274.69
304.511	266.69
304.741	261.69
304.971	265.69
305.201	234.69
305.431	271.69
305.661	263.69
305.891	259.69
306.121	270.69
306.352	276.69
306.582	286.69
306.812	250.69
307.042	250.69
307.272	250.69
307.502	262.69
307.731	274.69
307.961	262.69
308.191	270.69
308.421	263.69
308.651	271.69
308.881	267.69
309.111	277.69
309.341	277.69
309.571	282.69
309.8	263.69
310.03	273.69
310.26	286.69
310.49	290.69
310.72	298.69
310.949	298.69
311.179	315.69
311.409	289.69
311.639	298.69
311.868	294.69
312.098	296.69
312.328	298.69
312.557	299.69
312.787	328.69
313.017	314.69
313.246	308.69
313.476	299.69
313.706	323.69
313.935	308.69
314.165	320.69
314.394	302.69
314.624	301.69
314.853	297.69
315.083	290.69
315.312	290.69
315.542	299.69
315.771	300.69
316.001	294.69
316.23	298.69
316.46	280.69
316.689	301.69
316.919	318.69
317.148	310.69
317.377	316.69
317.607	289.69
317.836	309.69
318.065	306.69
318.295	301.69
318.524	283.69
318.753	285.69
318.983	302.69
319.212	306.69
319.441	302.69
319.67	312.69
319.9	271.69
320.129	296.69
320.358	291.69
320.587	313.69
320.816	295.69
321.046	330.69
321.275	317.69
321.504	311.69
321.733	326.69
321.962	311.69
322.191	339.69
322.42	340.69
322.649	344.69
322.878	351.69
323.108	353.69
323.337	356.69
323.566	386.69
323.795	416.69
324.024	439.69
324.253	533.69
324.482	741.69
324.71	1145.69
324.939	1683.69
325.168	1511.69
325.397	725.69
325.626	510.69
325.855	443.69
326.084	408.69
326.313	389.69
326.542	397.69
326.77	413.69
326.999	485.69
327.228	648.69
327.457	1026.69
327.686	1226.69
327.914	851.69
328.143	575.69
328.372	493.69
328.6	450.69
328.829	429.69
329.058	437.69
329.287	422.69
329.515	423.69
329.744	401.69
329.972	380.69
330.201	402.69
330.43	425.69
330.658	444.69
330.887	472.69
331.115	441.69
331.344	393.69
331.572	381.69
331.801	372.69
332.03	373.69
332.258	357.69
332.486	350.69
332.715	343.69
332.943	348.69
333.172	344.69
333.4	348.69
333.629	328.69
333.857	362.69
334.085	389.69
334.314	393.69
334.542	388.69
334.771	418.69
334.999	395.69
335.227	381.69
335.455	354.69
335.684	349.69
335.912	355.69
336.14	356.69
336.369	343.69
336.597	358.69
336.825	346.69
337.053	345.69
337.281	331.69
337.51	329.69
337.738	357.69
337.966	336.69
338.194	345.69
338.422	361.69
338.65	363.69
338.878	340.69
339.106	320.69
339.334	327.69
339.562	328.69
339.79	318.69
340.018	333.69
340.246	327.69
340.474	341.69
340.702	340.69
340.93	333.69
341.158	327.69
341.386	341.69
341.614	319.69
341.842	340.69
342.07	345.69
342.298	341.69
342.526	329.69
342.754	321.69
342.981	342.69
343.209	320.69
343.437	307.69
343.665	335.69
343.893	346.69
344.12	360.69
344.348	330.69
344.576	340.69
344.804	353.69
345.031	333.69
345.259	350.69
345.487	341.69
345.714	317.69
345.942	327.69
346.17	317.69
346.397	335.69
346.625	319.69
346.853	322.69
347.08	343.69
347.308	342.69
347.535	328.69
347.763	336.69
347.99	354.69
348.218	349.69
348.445	339.69
348.673	327.69
348.9	324.69
349.128	319.69
349.355	317.69
349.583	315.69
349.81	303.69
350.037	297.69
350.265	329.69
350.492	326.69
350.72	321.69
350.947	321.69
351.174	322.69
351.402	343.69
351.629	315.69
351.856	333.69
352.083	350.69
352.311	333.69
352.538	328.69
352.765	339.69
352.992	345.69
353.22	331.69
353.447	314.69
353.674	302.69
353.901	313.69
354.128	311.69
354.355	295.69
354.583	319.69
354.81	317.69
355.037	311.69
355.264	302.69
355.491	300.69
355.718	286.69
355.945	325.69
356.172	309.69
356.399	291.69
356.626	302.69
356.853	310.69
357.08	296.69
357.307	299.69
357.534	294.69
357.761	306.69
357.988	301.69
358.215	314.69
358.441	302.69
358.668	301.69
358.895	305.69
359.122	322.69
359.349	319.69
359.576	325.69
359.802	328.69
360.029	341.69
360.256	360.69
360.483	348.69
360.709	329.69
360.936	329.69
361.163	341.69
361.39	318.69
361.616	323.69
361.843	298.69
362.07	309.69
362.296	327.69
362.523	324.69
362.749	331.69
362.976	334.69
363.203	318.69
363.429	297.69
363.656	297.69
363.882	303.69
364.109	310.69
364.335	311.69
364.562	322.69
364.788	319.69
365.015	321.69
365.241	318.69
365.468	317.69
365.694	319.69
365.92	310.69
366.147	312.69
366.373	319.69
366.599	308.69
366.826	312.69
367.052	305.69
367.278	300.69
367.505	299.69
367.731	317.69
367.957	327.69
368.184	301.69
368.41	316.69
368.636	333.69
368.862	341.69
369.089	316.69
369.315	316.69
369.541	313.69
369.767	326.69
369.993	317.69
370.219	318.69
370.445	312.69
370.672	310.69
370.898	310.69
371.124	309.69
371.35	304.69
371.576	310.69
371.802	295.69
372.028	312.69
372.254	307.69
372.48	310.69
372.706	320.69
372.932	294.69
373.158	317.69
373.384	307.69
373.61	316.69
373.835	335.69
374.061	310.69
374.287	318.69
374.513	307.69
374.739	302.69
374.965	305.69
375.191	307.69
375.416	301.69
375.642	305.69
375.868	319.69
376.094	319.69
376.319	308.69
376.545	317.69
376.771	315.69
376.997	327.69
377.222	296.69
377.448	309.69
377.674	311.69
377.899	306.69
378.125	310.69
378.35	305.69
378.576	313.69
378.802	307.69
379.027	322.69
379.253	327.69
379.478	323.69
379.704	305.69
379.929	314.69
380.155	305.69
380.38	301.69
380.606	313.69
380.831	316.69
381.057	320.69
381.282	307.69
381.507	330.69
381.733	320.69
381.958	320.69
382.184	317.69
382.409	315.69
382.634	321.69
382.86	330.69
383.085	320.69
383.31	325.69
383.535	330.69
383.761	304.69
383.986	324.69
384.211	324.69
384.436	310.69
384.662	321.69
384.887	331.69
385.112	329.69
385.337	322.69
385.562	335.69
385.787	338.69
386.013	341.69
386.238	347.69
386.463	305.69
386.688	342.69
386.913	336.69
387.138	338.69
387.363	339.69
387.588	330.69
387.813	331.69
388.038	335.69
388.263	338.69
388.488	334.69
388.713	338.69
388.938	330.69
389.163	346.69
389.387	334.69
389.612	318.69
389.837	341.69
390.062	342.69
390.287	343.69
390.512	337.69
390.736	329.69
390.961	359.69
391.186	333.69
391.411	307.69
391.636	351.69
391.86	334.69
392.085	350.69
392.31	340.69
392.534	349.69
392.759	346.69
392.984	334.69
393.208	329.69
393.433	356.69
393.658	375.69
393.882	351.69
394.107	335.69
394.331	332.69
394.556	332.69
394.78	347.69
395.005	318.69
395.229	326.69
395.454	333.69
395.678	337.69
395.903	350.69
396.127	369.69
396.352	378.69
396.576	359.69
396.801	373.69
397.025	352.69
397.249	347.69
397.474	346.69
397.698	346.69
397.922	366.69
398.147	360.69
398.371	385.69
398.595	371.69
398.82	365.69
399.044	375.69
399.268	385.69
399.492	411.69
399.717	414.69
399.941	423.69
400.165	451.69
400.389	453.69
400.613	425.69
400.837	387.69
401.062	395.69
401.286	374.69
401.51	375.69
401.734	369.69
401.958	349.69
402.182	400.69
402.406	391.69
402.63	409.69
402.854	397.69
403.078	367.69
403.302	369.69
403.526	380.69
403.75	373.69
403.974	366.69
404.198	369.69
404.422	382.69
404.645	399.69
404.869	387.69
405.093	406.69
405.317	460.69
405.541	487.69
405.765	440.69
405.988	394.69
406.212	400.69
406.436	432.69
406.66	427.69
406.883	405.69
407.107	446.69
407.331	479.69
407.555	521.69
407.778	526.69
408.002	470.69
408.226	430.69
408.449	417.69
408.673	422.69
408.896	444.69
409.12	472.69
409.344	454.69
409.567	425.69
409.791	394.69
410.014	400.69
410.238	396.69
410.461	407.69
410.685	408.69
410.908	410.69
411.132	429.69
411.355	461.69
411.578	424.69
411.802	411.69
412.025	397.69
412.249	381.69
412.472	410.69
412.695	429.69
412.919	419.69
413.142	376.69
413.365	384.69
413.589	387.69
413.812	387.69
414.035	375.69
414.258	377.69
414.482	366.69
414.705	389.69
414.928	369.69
415.151	363.69
415.374	376.69
415.597	355.69
415.821	363.69
416.044	350.69
416.267	362.69
416.49	375.69
416.713	371.69
416.936	383.69
417.159	374.69
417.382	359.69
417.605	369.69
417.828	371.69
418.051	384.69
418.274	387.69
418.497	372.69
418.72	355.69
418.943	374.69
419.166	399.69
419.389	397.69
419.611	382.69
419.834	366.69
420.057	382.69
420.28	401.69
420.503	377.69
420.726	397.69
420.948	405.69
421.171	431.69
421.394	438.69
421.617	389.69
421.839	364.69
422.062	381.69
422.285	403.69
422.507	446.69
422.73	507.69
422.953	483.69
423.175	426.69
423.398	415.69
423.621	412.69
423.843	411.69
424.066	423.69
424.288	403.69
424.511	439.69
424.733	460.69
424.956	547.69
425.178	531.69
425.401	521.69
425.623	535.69
425.846	469.69
426.068	435.69
426.291	420.69
426.513	409.69
426.735	408.69
426.958	450.69
427.18	544.69
427.402	631.69
427.625	699.69
427.847	589.69
428.069	493.69
428.292	466.69
428.514	408.69
428.736	404.69
428.958	404.69
429.181	405.69
429.403	372.69
429.625	414.69
429.847	433.69
430.069	469.69
430.292	471.69
430.514	407.69
430.736	414.69
430.958	375.69
431.18	363.69
431.402	359.69
431.624	366.69
431.846	370.69
432.068	358.69
432.29	378.69
432.512	363.69
432.734	380.69
432.956	407.69
433.178	389.69
433.4	405.69
433.622	359.69
433.844	373.69
434.066	396.69
434.287	384.69
434.509	387.69
434.731	382.69
434.953	391.69
435.175	385.69
435.397	421.69
435.618	410.69
435.84	459.69
436.062	519.69
436.284	596.69
436.505	519.69
436.727	432.69
436.949	401.69
437.17	398.69
437.392	387.69
437.614	406.69
437.835	417.69
438.057	525.69
438.278	598.69
438.5	579.69
438.721	656.69
438.943	612.69
439.165	493.69
439.386	422.69
439.608	450.69
439.829	415.69
440.05	441.69
440.272	468.69
440.493	468.69
440.715	420.69
440.936	406.69
441.158	403.69
441.379	392.69
441.6	397.69
441.822	409.69
442.043	462.69
442.264	538.69
442.486	552.69
442.707	475.69
442.928	418.69
443.149	430.69
443.371	445.69
443.592	471.69
443.813	561.69
444.034	598.69
444.255	491.69
444.476	413.69
444.698	413.69
444.919	409.69
445.14	508.69
445.361	461.69
445.582	461.69
445.803	513.69
446.024	571.69
446.245	581.69
446.466	552.69
446.687	468.69
446.908	432.69
447.129	413.69
447.35	391.69
447.571	371.69
447.792	390.69
448.013	395.69
448.234	415.69
448.455	465.69
448.675	542.69
448.896	631.69
449.117	537.69
449.338	509.69
449.559	601.69
449.779	692.69
450	537.69
450.221	449.69
450.442	412.69
450.662	407.69
450.883	378.69
451.104	393.69
451.324	379.69
451.545	374.69
451.766	405.69
451.986	366.69
452.207	319.69
452.428	355.69
452.648	357.69
452.869	342.69
453.089	348.69
453.31	352.69
453.53	363.69
453.751	345.69
453.971	379.69
454.192	351.69
454.412	365.69
454.633	349.69
454.853	360.69
455.073	353.69
455.294	389.69
455.514	438.69
455.734	413.69
455.955	353.69
456.175	361.69
456.395	341.69
456.616	322.69
456.836	345.69
457.056	333.69
457.276	349.69
457.497	341.69
457.717	318.69
457.937	337.69
458.157	335.69
458.377	341.69
458.598	365.69
458.818	399.69
459.038	449.69
459.258	459.69
459.478	426.69
459.698	380.69
459.918	350.69
460.138	344.69
460.358	364.69
460.578	361.69
460.798	378.69
461.018	362.69
461.238	383.69
461.458	386.69
461.678	366.69
461.898	371.69
462.118	371.69
462.338	398.69
462.558	383.69
462.777	385.69
462.997	392.69
463.217	392.69
463.437	376.69
463.657	382.69
463.876	390.69
464.096	399.69
464.316	381.69
464.536	388.69
464.755	379.69
464.975	415.69
465.195	421.69
465.414	484.69
465.634	439.69
465.854	395.69
466.073	374.69
466.293	356.69
466.512	358.69
466.732	356.69
466.951	375.69
467.171	347.69
467.391	349.69
467.61	361.69
467.829	349.69
468.049	378.69
468.268	361.69
468.488	360.69
468.707	357.69
468.927	351.69
469.146	361.69
469.365	366.69
469.585	349.69
469.804	342.69
470.023	366.69
470.243	366.69
470.462	366.69
470.681	362.69
470.901	380.69
471.12	373.69
471.339	363.69
471.558	379.69
471.777	360.69
471.997	348.69
472.216	371.69
472.435	379.69
472.654	393.69
472.873	361.69
473.092	362.69
473.311	371.69
473.53	366.69
473.749	385.69
473.968	410.69
474.187	467.69
474.406	479.69
474.625	400.69
474.844	381.69
475.063	381.69
475.282	348.69
475.501	362.69
475.72	366.69
475.939	361.69
476.158	369.69
476.377	387.69
476.596	370.69
476.814	371.69
477.033	398.69
477.252	375.69
477.471	395.69
477.69	389.69
477.908	376.69
478.127	389.69
478.346	386.69
478.564	394.69
478.783	399.69
479.002	428.69
479.22	403.69
479.439	422.69
479.658	423.69
479.876	446.69
480.095	401.69
480.313	455.69
480.532	449.69
480.751	428.69
480.969	452.69
481.188	484.69
481.406	507.69
481.624	433.69
481.843	445.69
482.061	458.69
482.28	417.69
482.498	415.69
482.717	419.69
482.935	441.69
483.153	425.69
483.372	413.69
483.59	423.69
483.808	425.69
484.027	433.69
484.245	447.69
484.463	426.69
484.681	444.69
484.9	437.69
485.118	472.69
485.336	452.69
485.554	451.69
485.772	433.69
485.99	444.69
486.209	433.69
486.427	438.69
486.645	452.69
486.863	461.69
487.081	464.69
487.299	435.69
487.517	453.69
487.735	445.69
487.953	454.69
488.171	459.69
488.389	465.69
488.607	465.69
488.825	450.69
489.043	460.69
489.261	455.69
489.479	458.69
489.696	472.69
489.914	482.69
490.132	477.69
490.35	502.69
490.568	485.69
490.786	454.69
491.003	500.69
491.221	488.69
491.439	493.69
491.657	511.69
491.874	502.69
492.092	506.69
492.31	522.69
492.527	505.69
492.745	517.69
492.963	507.69
493.18	521.69
493.398	530.69
493.615	531.69
493.833	512.69
494.05	521.69
494.268	510.69
494.485	522.69
494.703	524.69
494.92	526.69
495.138	534.69
495.355	517.69
495.573	549.69
495.79	547.69
496.008	543.69
496.225	537.69
496.442	550.69
496.66	524.69
496.877	526.69
497.094	532.69
497.312	519.69
497.529	546.69
497.746	574.69
497.963	576.69
498.181	576.69
498.398	584.69
498.615	580.69
498.832	597.69
499.049	605.69
499.267	597.69
499.484	641.69
499.701	660.69
499.918	636.69
500.135	676.69
500.352	684.69
500.569	705.69
500.786	673.69
501.003	702.69
501.22	664.69
501.437	682.69
501.654	655.69
501.871	660.69
502.088	639.69
