Data from 1972.PennyLincolnUp.Lamp.En5.5.200Scan.071719.P1._HRD10591_15-27-19-844.txt Node
Date: Thu Jul 18 15:27:19 EDT 2019
User: cochatt
Spectrometer: HR+D1059
Trigger mode: 1
Integration Time (sec): 1.000000E-1
Scans to average: 1
Electric dark correction enabled: true
Nonlinearity correction enabled: false
Boxcar width: 0
XAxis mode: Wavelengths
Number of Pixels in Spectrum: 2048
>>>>>Begin Spectral Data<<<<<
223.165	-24.25
223.4	-24.25
223.635	-24.25
223.869	-3.25
224.104	-22.25
224.338	-14.25
224.573	-14.25
224.808	-21.25
225.042	3.75
225.277	1.75
225.511	-6.25
225.746	-4.25
225.98	2.75
226.215	0.75
226.449	5.75
226.683	17.75
226.918	41.75
227.152	35.75
227.387	39.75
227.621	36.75
227.856	43.75
228.09	36.75
228.324	45.75
228.559	48.75
228.793	61.75
229.027	85.75
229.262	85.75
229.496	111.75
229.73	135.75
229.964	146.75
230.199	129.75
230.433	111.75
230.667	122.75
230.901	112.75
231.136	97.75
231.37	93.75
231.604	112.75
231.838	95.75
232.072	103.75
232.306	116.75
232.541	119.75
232.775	103.75
233.009	114.75
233.243	125.75
233.477	124.75
233.711	109.75
233.945	112.75
234.179	101.75
234.413	111.75
234.647	117.75
234.881	109.75
235.115	103.75
235.349	115.75
235.583	113.75
235.817	115.75
236.051	123.75
236.285	131.75
236.519	114.75
236.753	112.75
236.987	131.75
237.221	172.75
237.455	234.75
237.689	183.75
237.922	133.75
238.156	125.75
238.39	128.75
238.624	117.75
238.858	115.75
239.091	119.75
239.325	120.75
239.559	118.75
239.793	124.75
240.027	123.75
240.26	131.75
240.494	144.75
240.728	140.75
240.961	137.75
241.195	138.75
241.429	124.75
241.662	123.75
241.896	122.75
242.13	137.75
242.363	115.75
242.597	132.75
242.83	120.75
243.064	129.75
243.298	140.75
243.531	125.75
243.765	134.75
243.998	131.75
244.232	132.75
244.465	129.75
244.699	139.75
244.932	131.75
245.166	140.75
245.399	142.75
245.633	145.75
245.866	137.75
246.099	155.75
246.333	146.75
246.566	146.75
246.8	138.75
247.033	153.75
247.266	141.75
247.5	151.75
247.733	160.75
247.966	166.75
248.2	141.75
248.433	145.75
248.666	159.75
248.899	173.75
249.133	191.75
249.366	189.75
249.599	186.75
249.832	195.75
250.066	171.75
250.299	153.75
250.532	186.75
250.765	168.75
250.998	202.75
251.231	211.75
251.465	207.75
251.698	194.75
251.931	202.75
252.164	195.75
252.397	202.75
252.63	189.75
252.863	188.75
253.096	210.75
253.329	212.75
253.562	216.75
253.795	195.75
254.028	207.75
254.261	215.75
254.494	209.75
254.727	242.75
254.96	251.75
255.193	242.75
255.426	241.75
255.659	208.75
255.892	227.75
256.124	221.75
256.357	237.75
256.59	219.75
256.823	195.75
257.056	186.75
257.289	200.75
257.521	209.75
257.754	197.75
257.987	191.75
258.22	209.75
258.452	176.75
258.685	178.75
258.918	184.75
259.151	183.75
259.383	199.75
259.616	186.75
259.849	214.75
260.081	218.75
260.314	242.75
260.547	249.75
260.779	221.75
261.012	225.75
261.244	228.75
261.477	217.75
261.71	209.75
261.942	218.75
262.175	230.75
262.407	210.75
262.64	202.75
262.872	202.75
263.105	199.75
263.337	205.75
263.57	189.75
263.802	189.75
264.035	209.75
264.267	200.75
264.499	205.75
264.732	194.75
264.964	207.75
265.197	201.75
265.429	200.75
265.661	208.75
265.894	203.75
266.126	192.75
266.358	180.75
266.591	201.75
266.823	213.75
267.055	204.75
267.287	215.75
267.52	205.75
267.752	204.75
267.984	212.75
268.216	216.75
268.448	218.75
268.681	225.75
268.913	233.75
269.145	227.75
269.377	252.75
269.609	248.75
269.841	240.75
270.073	244.75
270.306	258.75
270.538	268.75
270.77	289.75
271.002	281.75
271.234	264.75
271.466	270.75
271.698	285.75
271.93	282.75
272.162	301.75
272.394	279.75
272.626	271.75
272.858	270.75
273.09	266.75
273.322	245.75
273.553	242.75
273.785	242.75
274.017	252.75
274.249	235.75
274.481	244.75
274.713	246.75
274.945	265.75
275.176	245.75
275.408	247.75
275.64	247.75
275.872	218.75
276.104	227.75
276.335	250.75
276.567	246.75
276.799	250.75
277.031	289.75
277.262	298.75
277.494	298.75
277.726	284.75
277.957	275.75
278.189	259.75
278.421	274.75
278.652	232.75
278.884	253.75
279.115	243.75
279.347	243.75
279.579	239.75
279.81	243.75
280.042	228.75
280.273	230.75
280.505	250.75
280.736	231.75
280.968	244.75
281.199	244.75
281.431	276.75
281.662	239.75
281.894	231.75
282.125	243.75
282.356	243.75
282.588	278.75
282.819	304.75
283.051	254.75
283.282	218.75
283.513	239.75
283.745	244.75
283.976	242.75
284.207	252.75
284.439	250.75
284.67	225.75
284.901	233.75
285.132	256.75
285.364	251.75
285.595	254.75
285.826	229.75
286.057	252.75
286.288	245.75
286.52	243.75
286.751	264.75
286.982	242.75
287.213	261.75
287.444	237.75
287.675	255.75
287.906	264.75
288.138	277.75
288.369	268.75
288.6	265.75
288.831	263.75
289.062	265.75
289.293	258.75
289.524	250.75
289.755	257.75
289.986	257.75
290.217	245.75
290.448	267.75
290.679	265.75
290.91	252.75
291.141	250.75
291.371	241.75
291.602	250.75
291.833	259.75
292.064	268.75
292.295	245.75
292.526	260.75
292.757	256.75
292.987	255.75
293.218	259.75
293.449	269.75
293.68	249.75
293.91	244.75
294.141	261.75
294.372	236.75
294.603	265.75
294.833	247.75
295.064	268.75
295.295	260.75
295.525	251.75
295.756	268.75
295.987	267.75
296.217	297.75
296.448	305.75
296.679	282.75
296.909	247.75
297.14	258.75
297.37	267.75
297.601	253.75
297.831	276.75
298.062	270.75
298.292	270.75
298.523	272.75
298.753	260.75
298.984	253.75
299.214	265.75
299.445	259.75
299.675	268.75
299.905	280.75
300.136	272.75
300.366	267.75
300.597	285.75
300.827	274.75
301.057	291.75
301.288	283.75
301.518	270.75
301.748	301.75
301.979	288.75
302.209	295.75
302.439	282.75
302.669	280.75
302.9	270.75
303.13	282.75
303.36	292.75
303.59	270.75
303.82	279.75
304.051	287.75
304.281	293.75
304.511	278.75
304.741	292.75
304.971	278.75
305.201	295.75
305.431	281.75
305.661	306.75
305.891	305.75
306.121	303.75
306.352	288.75
306.582	315.75
306.812	273.75
307.042	294.75
307.272	292.75
307.502	288.75
307.731	288.75
307.961	305.75
308.191	284.75
308.421	285.75
308.651	309.75
308.881	289.75
309.111	311.75
309.341	314.75
309.571	321.75
309.8	317.75
310.03	319.75
310.26	333.75
310.49	328.75
310.72	346.75
310.949	361.75
311.179	374.75
311.409	343.75
311.639	347.75
311.868	326.75
312.098	355.75
312.328	337.75
312.557	361.75
312.787	375.75
313.017	376.75
313.246	347.75
313.476	339.75
313.706	330.75
313.935	351.75
314.165	347.75
314.394	357.75
314.624	358.75
314.853	336.75
315.083	357.75
315.312	333.75
315.542	326.75
315.771	331.75
316.001	319.75
316.23	323.75
316.46	341.75
316.689	319.75
316.919	324.75
317.148	360.75
317.377	340.75
317.607	353.75
317.836	340.75
318.065	332.75
318.295	331.75
318.524	328.75
318.753	342.75
318.983	339.75
319.212	320.75
319.441	339.75
319.67	369.75
319.9	355.75
320.129	345.75
320.358	337.75
320.587	346.75
320.816	340.75
321.046	363.75
321.275	356.75
321.504	359.75
321.733	361.75
321.962	375.75
322.191	362.75
322.42	387.75
322.649	396.75
322.878	405.75
323.108	405.75
323.337	443.75
323.566	460.75
323.795	496.75
324.024	532.75
324.253	671.75
324.482	952.75
324.71	1454.75
324.939	2132.75
325.168	1852.75
325.397	967.75
325.626	634.75
325.855	505.75
326.084	479.75
326.313	463.75
326.542	481.75
326.77	532.75
326.999	614.75
327.228	870.75
327.457	1284.75
327.686	1627.75
327.914	1068.75
328.143	704.75
328.372	609.75
328.6	550.75
328.829	518.75
329.058	530.75
329.287	565.75
329.515	485.75
329.744	471.75
329.972	451.75
330.201	500.75
330.43	515.75
330.658	576.75
330.887	603.75
331.115	563.75
331.344	497.75
331.572	440.75
331.801	448.75
332.03	453.75
332.258	415.75
332.486	413.75
332.715	366.75
332.943	399.75
333.172	414.75
333.4	416.75
333.629	404.75
333.857	436.75
334.085	429.75
334.314	449.75
334.542	466.75
334.771	487.75
334.999	443.75
335.227	411.75
335.455	388.75
335.684	414.75
335.912	389.75
336.14	373.75
336.369	401.75
336.597	435.75
336.825	400.75
337.053	395.75
337.281	368.75
337.51	405.75
337.738	395.75
337.966	370.75
338.194	385.75
338.422	379.75
338.65	381.75
338.878	381.75
339.106	363.75
339.334	361.75
339.562	370.75
339.79	367.75
340.018	376.75
340.246	358.75
340.474	379.75
340.702	373.75
340.93	376.75
341.158	371.75
341.386	382.75
341.614	369.75
341.842	380.75
342.07	376.75
342.298	352.75
342.526	355.75
342.754	356.75
342.981	367.75
343.209	356.75
343.437	369.75
343.665	373.75
343.893	375.75
344.12	361.75
344.348	365.75
344.576	363.75
344.804	398.75
345.031	405.75
345.259	373.75
345.487	385.75
345.714	379.75
345.942	356.75
346.17	373.75
346.397	358.75
346.625	372.75
346.853	363.75
347.08	363.75
347.308	357.75
347.535	392.75
347.763	387.75
347.99	367.75
348.218	368.75
348.445	395.75
348.673	365.75
348.9	371.75
349.128	364.75
349.355	331.75
349.583	354.75
349.81	351.75
350.037	365.75
350.265	348.75
350.492	347.75
350.72	353.75
350.947	360.75
351.174	376.75
351.402	386.75
351.629	380.75
351.856	377.75
352.083	365.75
352.311	377.75
352.538	371.75
352.765	378.75
352.992	375.75
353.22	370.75
353.447	360.75
353.674	350.75
353.901	349.75
354.128	326.75
354.355	341.75
354.583	348.75
354.81	340.75
355.037	337.75
355.264	337.75
355.491	340.75
355.718	332.75
355.945	333.75
356.172	332.75
356.399	326.75
356.626	329.75
356.853	334.75
357.08	330.75
357.307	329.75
357.534	345.75
357.761	322.75
357.988	343.75
358.215	352.75
358.441	329.75
358.668	343.75
358.895	343.75
359.122	319.75
359.349	329.75
359.576	363.75
359.802	356.75
360.029	408.75
360.256	418.75
360.483	391.75
360.709	378.75
360.936	370.75
361.163	369.75
361.39	371.75
361.616	363.75
361.843	353.75
362.07	367.75
362.296	360.75
362.523	351.75
362.749	373.75
362.976	339.75
363.203	341.75
363.429	336.75
363.656	339.75
363.882	342.75
364.109	349.75
364.335	332.75
364.562	332.75
364.788	327.75
365.015	325.75
365.241	354.75
365.468	347.75
365.694	346.75
365.92	346.75
366.147	341.75
366.373	345.75
366.599	338.75
366.826	333.75
367.052	332.75
367.278	343.75
367.505	340.75
367.731	351.75
367.957	335.75
368.184	337.75
368.41	338.75
368.636	379.75
368.862	362.75
369.089	335.75
369.315	344.75
369.541	340.75
369.767	348.75
369.993	352.75
370.219	316.75
370.445	347.75
370.672	333.75
370.898	327.75
371.124	330.75
371.35	324.75
371.576	326.75
371.802	330.75
372.028	333.75
372.254	314.75
372.48	323.75
372.706	324.75
372.932	345.75
373.158	324.75
373.384	328.75
373.61	336.75
373.835	353.75
374.061	341.75
374.287	338.75
374.513	352.75
374.739	368.75
374.965	337.75
375.191	343.75
375.416	331.75
375.642	335.75
375.868	320.75
376.094	335.75
376.319	337.75
376.545	331.75
376.771	320.75
376.997	335.75
377.222	356.75
377.448	345.75
377.674	322.75
377.899	333.75
378.125	315.75
378.35	330.75
378.576	312.75
378.802	331.75
379.027	342.75
379.253	324.75
379.478	313.75
379.704	326.75
379.929	346.75
380.155	326.75
380.38	345.75
380.606	339.75
380.831	326.75
381.057	331.75
381.282	340.75
381.507	335.75
381.733	332.75
381.958	340.75
382.184	342.75
382.409	345.75
382.634	356.75
382.86	340.75
383.085	357.75
383.31	341.75
383.535	337.75
383.761	348.75
383.986	356.75
384.211	340.75
384.436	348.75
384.662	345.75
384.887	352.75
385.112	348.75
385.337	367.75
385.562	364.75
385.787	367.75
386.013	358.75
386.238	371.75
386.463	359.75
386.688	372.75
386.913	358.75
387.138	344.75
387.363	373.75
387.588	362.75
387.813	379.75
388.038	362.75
388.263	369.75
388.488	351.75
388.713	369.75
388.938	350.75
389.163	356.75
389.387	370.75
389.612	356.75
389.837	343.75
390.062	351.75
390.287	367.75
390.512	351.75
390.736	373.75
390.961	361.75
391.186	368.75
391.411	356.75
391.636	354.75
391.86	358.75
392.085	367.75
392.31	359.75
392.534	367.75
392.759	357.75
392.984	345.75
393.208	372.75
393.433	358.75
393.658	385.75
393.882	369.75
394.107	348.75
394.331	363.75
394.556	361.75
394.78	350.75
395.005	357.75
395.229	364.75
395.454	362.75
395.678	368.75
395.903	377.75
396.127	397.75
396.352	404.75
396.576	391.75
396.801	381.75
397.025	396.75
397.249	411.75
397.474	384.75
397.698	374.75
397.922	381.75
398.147	403.75
398.371	399.75
398.595	380.75
398.82	401.75
399.044	406.75
399.268	417.75
399.492	431.75
399.717	424.75
399.941	440.75
400.165	488.75
400.389	530.75
400.613	460.75
400.837	443.75
401.062	417.75
401.286	396.75
401.51	397.75
401.734	406.75
401.958	411.75
402.182	429.75
402.406	422.75
402.63	429.75
402.854	395.75
403.078	418.75
403.302	418.75
403.526	427.75
403.75	442.75
403.974	385.75
404.198	405.75
404.422	421.75
404.645	421.75
404.869	434.75
405.093	469.75
405.317	484.75
405.541	521.75
405.765	472.75
405.988	465.75
406.212	444.75
406.436	475.75
406.66	468.75
406.883	474.75
407.107	478.75
407.331	528.75
407.555	550.75
407.778	576.75
408.002	523.75
408.226	493.75
408.449	458.75
408.673	466.75
408.896	499.75
409.12	547.75
409.344	509.75
409.567	452.75
409.791	430.75
410.014	439.75
410.238	448.75
410.461	410.75
410.685	454.75
410.908	442.75
411.132	466.75
411.355	507.75
411.578	480.75
411.802	454.75
412.025	413.75
412.249	435.75
412.472	457.75
412.695	477.75
412.919	477.75
413.142	423.75
413.365	420.75
413.589	426.75
413.812	389.75
414.035	419.75
414.258	379.75
414.482	397.75
414.705	394.75
414.928	406.75
415.151	387.75
415.374	391.75
415.597	379.75
415.821	373.75
416.044	405.75
416.267	386.75
416.49	399.75
416.713	387.75
416.936	413.75
417.159	411.75
417.382	380.75
417.605	401.75
417.828	405.75
418.051	414.75
418.274	409.75
418.497	404.75
418.72	391.75
418.943	395.75
419.166	409.75
419.389	416.75
419.611	403.75
419.834	421.75
420.057	427.75
420.28	441.75
420.503	438.75
420.726	410.75
420.948	444.75
421.171	493.75
421.394	483.75
421.617	435.75
421.839	436.75
422.062	432.75
422.285	425.75
422.507	485.75
422.73	556.75
422.953	529.75
423.175	473.75
423.398	440.75
423.621	418.75
423.843	436.75
424.066	428.75
424.288	453.75
424.511	469.75
424.733	534.75
424.956	594.75
425.178	584.75
425.401	583.75
425.623	586.75
425.846	520.75
426.068	469.75
426.291	450.75
426.513	473.75
426.735	486.75
426.958	496.75
427.18	574.75
427.402	714.75
427.625	802.75
427.847	697.75
428.069	573.75
428.292	517.75
428.514	478.75
428.736	449.75
428.958	463.75
429.181	425.75
429.403	423.75
429.625	432.75
429.847	452.75
430.069	534.75
430.292	520.75
430.514	450.75
430.736	412.75
430.958	426.75
431.18	409.75
431.402	385.75
431.624	405.75
431.846	428.75
432.068	387.75
432.29	403.75
432.512	410.75
432.734	398.75
432.956	417.75
433.178	407.75
433.4	433.75
433.622	404.75
433.844	420.75
434.066	412.75
434.287	393.75
434.509	386.75
434.731	404.75
434.953	402.75
435.175	420.75
435.397	457.75
435.618	461.75
435.84	522.75
436.062	572.75
436.284	654.75
436.505	543.75
436.727	481.75
436.949	443.75
437.17	439.75
437.392	452.75
437.614	452.75
437.835	503.75
438.057	577.75
438.278	669.75
438.5	661.75
438.721	713.75
438.943	696.75
439.165	550.75
439.386	513.75
439.608	482.75
439.829	487.75
440.05	498.75
440.272	561.75
440.493	524.75
440.715	480.75
440.936	461.75
441.158	441.75
441.379	441.75
441.6	428.75
441.822	467.75
442.043	505.75
442.264	567.75
442.486	615.75
442.707	536.75
442.928	470.75
443.149	484.75
443.371	513.75
443.592	537.75
443.813	639.75
444.034	681.75
444.255	563.75
444.476	505.75
444.698	463.75
444.919	464.75
445.14	567.75
445.361	527.75
445.582	514.75
445.803	554.75
446.024	677.75
446.245	675.75
446.466	635.75
446.687	518.75
446.908	475.75
447.129	452.75
447.35	441.75
447.571	459.75
447.792	416.75
448.013	444.75
448.234	467.75
448.455	492.75
448.675	600.75
448.896	701.75
449.117	601.75
449.338	555.75
449.559	683.75
449.779	755.75
450	607.75
450.221	511.75
450.442	438.75
450.662	447.75
450.883	452.75
451.104	442.75
451.324	454.75
451.545	414.75
451.766	382.75
451.986	387.75
452.207	391.75
452.428	405.75
452.648	377.75
452.869	389.75
453.089	409.75
453.31	379.75
453.53	395.75
453.751	382.75
453.971	396.75
454.192	412.75
454.412	411.75
454.633	391.75
454.853	391.75
455.073	380.75
455.294	404.75
455.514	488.75
455.734	443.75
455.955	389.75
456.175	385.75
456.395	344.75
456.616	356.75
456.836	370.75
457.056	371.75
457.276	371.75
457.497	338.75
457.717	360.75
457.937	368.75
458.157	387.75
458.377	370.75
458.598	391.75
458.818	468.75
459.038	513.75
459.258	544.75
459.478	469.75
459.698	427.75
459.918	401.75
460.138	409.75
460.358	401.75
460.578	396.75
460.798	409.75
461.018	404.75
461.238	382.75
461.458	383.75
461.678	408.75
461.898	388.75
462.118	387.75
462.338	407.75
462.558	397.75
462.777	391.75
462.997	402.75
463.217	389.75
463.437	421.75
463.657	401.75
463.876	405.75
464.096	423.75
464.316	393.75
464.536	422.75
464.755	425.75
464.975	453.75
465.195	458.75
465.414	553.75
465.634	477.75
465.854	439.75
466.073	434.75
466.293	409.75
466.512	401.75
466.732	411.75
466.951	402.75
467.171	396.75
467.391	403.75
467.61	407.75
467.829	411.75
468.049	400.75
468.268	394.75
468.488	394.75
468.707	381.75
468.927	391.75
469.146	363.75
469.365	362.75
469.585	371.75
469.804	381.75
470.023	407.75
470.243	389.75
470.462	383.75
470.681	401.75
470.901	409.75
471.12	385.75
471.339	395.75
471.558	410.75
471.777	411.75
471.997	394.75
472.216	389.75
472.435	432.75
472.654	433.75
472.873	406.75
473.092	402.75
473.311	397.75
473.53	410.75
473.749	424.75
473.968	445.75
474.187	528.75
474.406	549.75
474.625	477.75
474.844	447.75
475.063	417.75
475.282	405.75
475.501	415.75
475.72	409.75
475.939	412.75
476.158	398.75
476.377	413.75
476.596	417.75
476.814	413.75
477.033	402.75
477.252	425.75
477.471	426.75
477.69	411.75
477.908	431.75
478.127	426.75
478.346	422.75
478.564	426.75
478.783	429.75
479.002	452.75
479.22	453.75
479.439	453.75
479.658	473.75
479.876	474.75
480.095	477.75
480.313	503.75
480.532	477.75
480.751	463.75
480.969	479.75
481.188	555.75
481.406	557.75
481.624	522.75
481.843	480.75
482.061	499.75
482.28	497.75
482.498	457.75
482.717	453.75
482.935	475.75
483.153	444.75
483.372	449.75
483.59	465.75
483.808	468.75
484.027	447.75
484.245	462.75
484.463	479.75
484.681	472.75
484.9	475.75
485.118	496.75
485.336	487.75
485.554	482.75
485.772	493.75
485.99	483.75
486.209	472.75
486.427	491.75
486.645	507.75
486.863	512.75
487.081	513.75
487.299	495.75
487.517	506.75
487.735	482.75
487.953	479.75
488.171	529.75
488.389	508.75
488.607	496.75
488.825	483.75
489.043	506.75
489.261	512.75
489.479	505.75
489.696	507.75
489.914	491.75
490.132	527.75
490.35	509.75
490.568	513.75
490.786	521.75
491.003	533.75
491.221	555.75
491.439	545.75
491.657	565.75
491.874	554.75
492.092	548.75
492.31	575.75
492.527	574.75
492.745	568.75
492.963	591.75
493.18	577.75
493.398	582.75
493.615	590.75
493.833	569.75
494.05	579.75
494.268	569.75
494.485	600.75
494.703	597.75
494.92	589.75
495.138	581.75
495.355	588.75
495.573	592.75
495.79	597.75
496.008	565.75
496.225	572.75
496.442	593.75
496.66	601.75
496.877	589.75
497.094	599.75
497.312	610.75
497.529	598.75
497.746	590.75
497.963	626.75
498.181	637.75
498.398	651.75
498.615	644.75
498.832	675.75
499.049	643.75
499.267	682.75
499.484	690.75
499.701	717.75
499.918	708.75
500.135	718.75
500.352	733.75
500.569	736.75
500.786	756.75
501.003	746.75
501.22	740.75
501.437	739.75
501.654	724.75
501.871	727.75
502.088	687.75
