Data from 1972.PennyLincolnUp.Lamp.En5.5.200Scan.071719.P1._HRD10591_15-29-47-844.txt Node
Date: Thu Jul 18 15:29:47 EDT 2019
User: cochatt
Spectrometer: HR+D1059
Trigger mode: 1
Integration Time (sec): 1.000000E-1
Scans to average: 1
Electric dark correction enabled: true
Nonlinearity correction enabled: false
Boxcar width: 0
XAxis mode: Wavelengths
Number of Pixels in Spectrum: 2048
>>>>>Begin Spectral Data<<<<<
223.165	-17.38
223.4	-17.38
223.635	-17.38
223.869	-32.38
224.104	-24.38
224.338	-9.38
224.573	-15.38
224.808	-21.38
225.042	-5.38
225.277	-8.38
225.511	-1.38
225.746	1.62
225.98	15.62
226.215	17.62
226.449	10.62
226.683	36.62
226.918	24.62
227.152	28.62
227.387	36.62
227.621	45.62
227.856	47.62
228.09	54.62
228.324	51.62
228.559	62.62
228.793	68.62
229.027	111.62
229.262	109.62
229.496	133.62
229.73	140.62
229.964	166.62
230.199	145.62
230.433	123.62
230.667	120.62
230.901	134.62
231.136	124.62
231.37	111.62
231.604	104.62
231.838	117.62
232.072	107.62
232.306	124.62
232.541	119.62
232.775	122.62
233.009	109.62
233.243	126.62
233.477	103.62
233.711	127.62
233.945	124.62
234.179	122.62
234.413	132.62
234.647	119.62
234.881	129.62
235.115	110.62
235.349	131.62
235.583	107.62
235.817	125.62
236.051	129.62
236.285	136.62
236.519	129.62
236.753	127.62
236.987	168.62
237.221	203.62
237.455	248.62
237.689	216.62
237.922	147.62
238.156	141.62
238.39	131.62
238.624	132.62
238.858	135.62
239.091	131.62
239.325	116.62
239.559	146.62
239.793	147.62
240.027	146.62
240.26	163.62
240.494	165.62
240.728	171.62
240.961	156.62
241.195	157.62
241.429	149.62
241.662	132.62
241.896	140.62
242.13	137.62
242.363	153.62
242.597	149.62
242.83	129.62
243.064	138.62
243.298	151.62
243.531	153.62
243.765	148.62
243.998	149.62
244.232	122.62
244.465	156.62
244.699	145.62
244.932	145.62
245.166	158.62
245.399	152.62
245.633	153.62
245.866	155.62
246.099	157.62
246.333	150.62
246.566	141.62
246.8	162.62
247.033	166.62
247.266	163.62
247.5	183.62
247.733	179.62
247.966	193.62
248.2	171.62
248.433	176.62
248.666	184.62
248.899	201.62
249.133	233.62
249.366	232.62
249.599	204.62
249.832	192.62
250.066	191.62
250.299	199.62
250.532	204.62
250.765	237.62
250.998	244.62
251.231	251.62
251.465	226.62
251.698	223.62
251.931	205.62
252.164	216.62
252.397	217.62
252.63	219.62
252.863	216.62
253.096	222.62
253.329	239.62
253.562	250.62
253.795	238.62
254.028	233.62
254.261	238.62
254.494	258.62
254.727	257.62
254.96	310.62
255.193	303.62
255.426	273.62
255.659	263.62
255.892	267.62
256.124	266.62
256.357	268.62
256.59	259.62
256.823	256.62
257.056	241.62
257.289	224.62
257.521	212.62
257.754	232.62
257.987	232.62
258.22	246.62
258.452	231.62
258.685	231.62
258.918	233.62
259.151	227.62
259.383	237.62
259.616	229.62
259.849	239.62
260.081	271.62
260.314	277.62
260.547	286.62
260.779	263.62
261.012	269.62
261.244	267.62
261.477	245.62
261.71	244.62
261.942	242.62
262.175	254.62
262.407	246.62
262.64	222.62
262.872	226.62
263.105	227.62
263.337	253.62
263.57	237.62
263.802	214.62
264.035	222.62
264.267	221.62
264.499	238.62
264.732	225.62
264.964	219.62
265.197	235.62
265.429	226.62
265.661	207.62
265.894	227.62
266.126	216.62
266.358	233.62
266.591	220.62
266.823	234.62
267.055	255.62
267.287	235.62
267.52	248.62
267.752	238.62
267.984	249.62
268.216	234.62
268.448	244.62
268.681	251.62
268.913	248.62
269.145	298.62
269.377	292.62
269.609	304.62
269.841	292.62
270.073	306.62
270.306	336.62
270.538	360.62
270.77	350.62
271.002	333.62
271.234	321.62
271.466	327.62
271.698	347.62
271.93	337.62
272.162	352.62
272.394	349.62
272.626	324.62
272.858	332.62
273.09	318.62
273.322	303.62
273.553	282.62
273.785	293.62
274.017	299.62
274.249	280.62
274.481	302.62
274.713	286.62
274.945	286.62
275.176	282.62
275.408	271.62
275.64	293.62
275.872	275.62
276.104	267.62
276.335	270.62
276.567	299.62
276.799	321.62
277.031	325.62
277.262	360.62
277.494	346.62
277.726	333.62
277.957	314.62
278.189	295.62
278.421	297.62
278.652	290.62
278.884	288.62
279.115	271.62
279.347	291.62
279.579	289.62
279.81	277.62
280.042	291.62
280.273	303.62
280.505	289.62
280.736	271.62
280.968	280.62
281.199	289.62
281.431	289.62
281.662	273.62
281.894	276.62
282.125	284.62
282.356	310.62
282.588	331.62
282.819	337.62
283.051	309.62
283.282	297.62
283.513	295.62
283.745	277.62
283.976	296.62
284.207	305.62
284.439	299.62
284.67	280.62
284.901	273.62
285.132	297.62
285.364	271.62
285.595	279.62
285.826	291.62
286.057	284.62
286.288	287.62
286.52	300.62
286.751	311.62
286.982	293.62
287.213	283.62
287.444	298.62
287.675	325.62
287.906	311.62
288.138	319.62
288.369	305.62
288.6	318.62
288.831	305.62
289.062	303.62
289.293	295.62
289.524	290.62
289.755	317.62
289.986	307.62
290.217	298.62
290.448	295.62
290.679	313.62
290.91	289.62
291.141	293.62
291.371	265.62
291.602	305.62
291.833	319.62
292.064	303.62
292.295	305.62
292.526	296.62
292.757	287.62
292.987	299.62
293.218	301.62
293.449	300.62
293.68	301.62
293.91	305.62
294.141	294.62
294.372	291.62
294.603	284.62
294.833	297.62
295.064	304.62
295.295	314.62
295.525	315.62
295.756	300.62
295.987	304.62
296.217	339.62
296.448	334.62
296.679	309.62
296.909	303.62
297.14	304.62
297.37	305.62
297.601	288.62
297.831	290.62
298.062	307.62
298.292	314.62
298.523	313.62
298.753	322.62
298.984	302.62
299.214	314.62
299.445	300.62
299.675	296.62
299.905	319.62
300.136	320.62
300.366	303.62
300.597	325.62
300.827	309.62
301.057	319.62
301.288	333.62
301.518	355.62
301.748	325.62
301.979	319.62
302.209	330.62
302.439	327.62
302.669	346.62
302.9	339.62
303.13	350.62
303.36	336.62
303.59	343.62
303.82	340.62
304.051	336.62
304.281	337.62
304.511	319.62
304.741	331.62
304.971	339.62
305.201	312.62
305.431	322.62
305.661	320.62
305.891	322.62
306.121	336.62
306.352	346.62
306.582	352.62
306.812	335.62
307.042	341.62
307.272	341.62
307.502	348.62
307.731	331.62
307.961	327.62
308.191	340.62
308.421	339.62
308.651	325.62
308.881	357.62
309.111	351.62
309.341	354.62
309.571	368.62
309.8	385.62
310.03	385.62
310.26	418.62
310.49	399.62
310.72	414.62
310.949	421.62
311.179	446.62
311.409	415.62
311.639	415.62
311.868	394.62
312.098	407.62
312.328	408.62
312.557	429.62
312.787	462.62
313.017	455.62
313.246	436.62
313.476	405.62
313.706	397.62
313.935	405.62
314.165	436.62
314.394	437.62
314.624	427.62
314.853	430.62
315.083	400.62
315.312	398.62
315.542	389.62
315.771	380.62
316.001	384.62
316.23	398.62
316.46	387.62
316.689	393.62
316.919	419.62
317.148	397.62
317.377	407.62
317.607	410.62
317.836	400.62
318.065	395.62
318.295	395.62
318.524	371.62
318.753	388.62
318.983	382.62
319.212	399.62
319.441	415.62
319.67	419.62
319.9	413.62
320.129	383.62
320.358	387.62
320.587	399.62
320.816	432.62
321.046	424.62
321.275	422.62
321.504	418.62
321.733	422.62
321.962	417.62
322.191	474.62
322.42	479.62
322.649	493.62
322.878	503.62
323.108	513.62
323.337	517.62
323.566	591.62
323.795	633.62
324.024	691.62
324.253	863.62
324.482	1259.62
324.71	2019.62
324.939	2960.62
325.168	2556.62
325.397	1294.62
325.626	825.62
325.855	645.62
326.084	605.62
326.313	588.62
326.542	585.62
326.77	649.62
326.999	781.62
327.228	1142.62
327.457	1765.62
327.686	2193.62
327.914	1445.62
328.143	904.62
328.372	781.62
328.6	742.62
328.829	679.62
329.058	691.62
329.287	709.62
329.515	631.62
329.744	580.62
329.972	603.62
330.201	605.62
330.43	668.62
330.658	691.62
330.887	734.62
331.115	731.62
331.344	592.62
331.572	554.62
331.801	534.62
332.03	546.62
332.258	528.62
332.486	490.62
332.715	495.62
332.943	444.62
333.172	467.62
333.4	477.62
333.629	491.62
333.857	507.62
334.085	521.62
334.314	531.62
334.542	615.62
334.771	606.62
334.999	528.62
335.227	504.62
335.455	477.62
335.684	461.62
335.912	447.62
336.14	451.62
336.369	452.62
336.597	473.62
336.825	461.62
337.053	453.62
337.281	443.62
337.51	457.62
337.738	486.62
337.966	445.62
338.194	450.62
338.422	453.62
338.65	451.62
338.878	444.62
339.106	450.62
339.334	442.62
339.562	434.62
339.79	436.62
340.018	425.62
340.246	462.62
340.474	432.62
340.702	438.62
340.93	441.62
341.158	440.62
341.386	443.62
341.614	435.62
341.842	443.62
342.07	406.62
342.298	418.62
342.526	410.62
342.754	440.62
342.981	425.62
343.209	427.62
343.437	415.62
343.665	397.62
343.893	432.62
344.12	414.62
344.348	423.62
344.576	419.62
344.804	439.62
345.031	479.62
345.259	454.62
345.487	464.62
345.714	425.62
345.942	415.62
346.17	432.62
346.397	436.62
346.625	447.62
346.853	420.62
347.08	447.62
347.308	416.62
347.535	444.62
347.763	449.62
347.99	458.62
348.218	459.62
348.445	457.62
348.673	431.62
348.9	427.62
349.128	427.62
349.355	423.62
349.583	402.62
349.81	389.62
350.037	420.62
350.265	419.62
350.492	408.62
350.72	410.62
350.947	400.62
351.174	437.62
351.402	420.62
351.629	424.62
351.856	432.62
352.083	439.62
352.311	444.62
352.538	463.62
352.765	455.62
352.992	474.62
353.22	423.62
353.447	427.62
353.674	423.62
353.901	414.62
354.128	410.62
354.355	385.62
354.583	390.62
354.81	398.62
355.037	386.62
355.264	368.62
355.491	376.62
355.718	382.62
355.945	392.62
356.172	394.62
356.399	379.62
356.626	367.62
356.853	385.62
357.08	391.62
357.307	375.62
357.534	384.62
357.761	398.62
357.988	366.62
358.215	388.62
358.441	377.62
358.668	384.62
358.895	394.62
359.122	392.62
359.349	401.62
359.576	432.62
359.802	467.62
360.029	485.62
360.256	513.62
360.483	465.62
360.709	432.62
360.936	424.62
361.163	433.62
361.39	404.62
361.616	441.62
361.843	407.62
362.07	423.62
362.296	413.62
362.523	454.62
362.749	422.62
362.976	403.62
363.203	423.62
363.429	406.62
363.656	396.62
363.882	399.62
364.109	391.62
364.335	402.62
364.562	386.62
364.788	388.62
365.015	400.62
365.241	392.62
365.468	387.62
365.694	419.62
365.92	419.62
366.147	415.62
366.373	391.62
366.599	374.62
366.826	396.62
367.052	379.62
367.278	397.62
367.505	394.62
367.731	410.62
367.957	386.62
368.184	379.62
368.41	406.62
368.636	415.62
368.862	391.62
369.089	399.62
369.315	394.62
369.541	394.62
369.767	407.62
369.993	395.62
370.219	388.62
370.445	380.62
370.672	405.62
370.898	390.62
371.124	382.62
371.35	390.62
371.576	405.62
371.802	379.62
372.028	374.62
372.254	383.62
372.48	377.62
372.706	380.62
372.932	367.62
373.158	378.62
373.384	387.62
373.61	379.62
373.835	380.62
374.061	400.62
374.287	393.62
374.513	386.62
374.739	376.62
374.965	388.62
375.191	410.62
375.416	379.62
375.642	380.62
375.868	377.62
376.094	384.62
376.319	378.62
376.545	359.62
376.771	394.62
376.997	377.62
377.222	381.62
377.448	384.62
377.674	364.62
377.899	369.62
378.125	365.62
378.35	372.62
378.576	375.62
378.802	383.62
379.027	383.62
379.253	393.62
379.478	383.62
379.704	373.62
379.929	392.62
380.155	365.62
380.38	351.62
380.606	365.62
380.831	384.62
381.057	383.62
381.282	361.62
381.507	378.62
381.733	393.62
381.958	379.62
382.184	414.62
382.409	368.62
382.634	389.62
382.86	392.62
383.085	380.62
383.31	407.62
383.535	390.62
383.761	375.62
383.986	391.62
384.211	398.62
384.436	392.62
384.662	389.62
384.887	407.62
385.112	379.62
385.337	411.62
385.562	389.62
385.787	412.62
386.013	411.62
386.238	416.62
386.463	423.62
386.688	415.62
386.913	399.62
387.138	407.62
387.363	391.62
387.588	385.62
387.813	394.62
388.038	381.62
388.263	399.62
388.488	407.62
388.713	406.62
388.938	408.62
389.163	392.62
389.387	411.62
389.612	400.62
389.837	421.62
390.062	413.62
390.287	417.62
390.512	406.62
390.736	415.62
390.961	382.62
391.186	410.62
391.411	395.62
391.636	411.62
391.86	394.62
392.085	399.62
392.31	416.62
392.534	421.62
392.759	410.62
392.984	403.62
393.208	408.62
393.433	413.62
393.658	405.62
393.882	406.62
394.107	392.62
394.331	424.62
394.556	397.62
394.78	404.62
395.005	406.62
395.229	408.62
395.454	414.62
395.678	424.62
395.903	428.62
396.127	458.62
396.352	451.62
396.576	446.62
396.801	426.62
397.025	431.62
397.249	420.62
397.474	411.62
397.698	418.62
397.922	433.62
398.147	460.62
398.371	452.62
398.595	466.62
398.82	436.62
399.044	441.62
399.268	427.62
399.492	474.62
399.717	492.62
399.941	513.62
400.165	547.62
400.389	568.62
400.613	520.62
400.837	483.62
401.062	478.62
401.286	475.62
401.51	451.62
401.734	452.62
401.958	460.62
402.182	460.62
402.406	481.62
402.63	477.62
402.854	473.62
403.078	471.62
403.302	471.62
403.526	491.62
403.75	477.62
403.974	469.62
404.198	453.62
404.422	487.62
404.645	471.62
404.869	490.62
405.093	540.62
405.317	609.62
405.541	632.62
405.765	564.62
405.988	524.62
406.212	519.62
406.436	557.62
406.66	537.62
406.883	527.62
407.107	539.62
407.331	611.62
407.555	684.62
407.778	671.62
408.002	610.62
408.226	554.62
408.449	515.62
408.673	538.62
408.896	550.62
409.12	622.62
409.344	575.62
409.567	523.62
409.791	519.62
410.014	488.62
410.238	483.62
410.461	478.62
410.685	489.62
410.908	492.62
411.132	549.62
411.355	583.62
411.578	556.62
411.802	501.62
412.025	477.62
412.249	498.62
412.472	515.62
412.695	561.62
412.919	569.62
413.142	507.62
413.365	475.62
413.589	481.62
413.812	443.62
414.035	451.62
414.258	468.62
414.482	454.62
414.705	451.62
414.928	466.62
415.151	433.62
415.374	449.62
415.597	448.62
415.821	431.62
416.044	449.62
416.267	445.62
416.49	454.62
416.713	455.62
416.936	469.62
417.159	445.62
417.382	475.62
417.605	464.62
417.828	481.62
418.051	495.62
418.274	493.62
418.497	459.62
418.72	446.62
418.943	446.62
419.166	457.62
419.389	488.62
419.611	476.62
419.834	494.62
420.057	489.62
420.28	491.62
420.503	474.62
420.726	481.62
420.948	481.62
421.171	554.62
421.394	587.62
421.617	503.62
421.839	484.62
422.062	491.62
422.285	511.62
422.507	555.62
422.73	655.62
422.953	604.62
423.175	529.62
423.398	523.62
423.621	510.62
423.843	504.62
424.066	527.62
424.288	519.62
424.511	581.62
424.733	623.62
424.956	712.62
425.178	663.62
425.401	681.62
425.623	703.62
425.846	557.62
426.068	529.62
426.291	528.62
426.513	532.62
426.735	543.62
426.958	601.62
427.18	702.62
427.402	835.62
427.625	937.62
427.847	837.62
428.069	735.62
428.292	627.62
428.514	579.62
428.736	529.62
428.958	535.62
429.181	491.62
429.403	501.62
429.625	505.62
429.847	563.62
430.069	631.62
430.292	615.62
430.514	510.62
430.736	496.62
430.958	483.62
431.18	459.62
431.402	459.62
431.624	457.62
431.846	446.62
432.068	431.62
432.29	467.62
432.512	464.62
432.734	461.62
432.956	476.62
433.178	473.62
433.4	488.62
433.622	465.62
433.844	454.62
434.066	453.62
434.287	452.62
434.509	473.62
434.731	467.62
434.953	477.62
435.175	484.62
435.397	512.62
435.618	550.62
435.84	587.62
436.062	702.62
436.284	773.62
436.505	663.62
436.727	560.62
436.949	528.62
437.17	514.62
437.392	509.62
437.614	527.62
437.835	582.62
438.057	651.62
438.278	796.62
438.5	795.62
438.721	885.62
438.943	805.62
439.165	642.62
439.386	577.62
439.608	583.62
439.829	575.62
440.05	616.62
440.272	654.62
440.493	624.62
440.715	553.62
440.936	520.62
441.158	507.62
441.379	488.62
441.6	523.62
441.822	540.62
442.043	587.62
442.264	689.62
442.486	721.62
442.707	607.62
442.928	593.62
443.149	575.62
443.371	581.62
443.592	640.62
443.813	753.62
444.034	809.62
444.255	655.62
444.476	567.62
444.698	555.62
444.919	513.62
445.14	616.62
445.361	620.62
445.582	611.62
445.803	676.62
446.024	819.62
446.245	852.62
446.466	733.62
446.687	614.62
446.908	550.62
447.129	536.62
447.35	523.62
447.571	524.62
447.792	486.62
448.013	517.62
448.234	566.62
448.455	598.62
448.675	696.62
448.896	874.62
449.117	715.62
449.338	644.62
449.559	777.62
449.779	898.62
450	693.62
450.221	579.62
450.442	534.62
450.662	501.62
450.883	501.62
451.104	565.62
451.324	529.62
451.545	487.62
451.766	477.62
451.986	458.62
452.207	457.62
452.428	447.62
452.648	447.62
452.869	433.62
453.089	466.62
453.31	453.62
453.53	464.62
453.751	445.62
453.971	464.62
454.192	463.62
454.412	441.62
454.633	449.62
454.853	443.62
455.073	437.62
455.294	487.62
455.514	564.62
455.734	549.62
455.955	468.62
456.175	430.62
456.395	410.62
456.616	405.62
456.836	425.62
457.056	421.62
457.276	400.62
457.497	399.62
457.717	442.62
457.937	428.62
458.157	430.62
458.377	428.62
458.598	461.62
458.818	543.62
459.038	636.62
459.258	660.62
459.478	556.62
459.698	485.62
459.918	480.62
460.138	451.62
460.358	455.62
460.578	465.62
460.798	462.62
461.018	445.62
461.238	468.62
461.458	444.62
461.678	447.62
461.898	471.62
462.118	479.62
462.338	455.62
462.558	450.62
462.777	460.62
462.997	451.62
463.217	468.62
463.437	462.62
463.657	471.62
463.876	477.62
464.096	465.62
464.316	469.62
464.536	492.62
464.755	503.62
464.975	515.62
465.195	564.62
465.414	663.62
465.634	567.62
465.854	504.62
466.073	496.62
466.293	467.62
466.512	457.62
466.732	451.62
466.951	464.62
467.171	447.62
467.391	451.62
467.61	484.62
467.829	479.62
468.049	471.62
468.268	478.62
468.488	460.62
468.707	448.62
468.927	408.62
469.146	426.62
469.365	430.62
469.585	447.62
469.804	453.62
470.023	469.62
470.243	464.62
470.462	457.62
470.681	487.62
470.901	462.62
471.12	459.62
471.339	455.62
471.558	478.62
471.777	462.62
471.997	450.62
472.216	468.62
472.435	516.62
472.654	505.62
472.873	487.62
473.092	461.62
473.311	458.62
473.53	464.62
473.749	460.62
473.968	519.62
474.187	648.62
474.406	659.62
474.625	547.62
474.844	494.62
475.063	454.62
475.282	463.62
475.501	484.62
475.72	473.62
475.939	501.62
476.158	487.62
476.377	483.62
476.596	455.62
476.814	470.62
477.033	485.62
477.252	503.62
477.471	475.62
477.69	484.62
477.908	507.62
478.127	465.62
478.346	481.62
478.564	504.62
478.783	491.62
479.002	507.62
479.22	521.62
479.439	533.62
479.658	536.62
479.876	553.62
480.095	555.62
480.313	573.62
480.532	567.62
480.751	581.62
480.969	579.62
481.188	652.62
481.406	748.62
481.624	638.62
481.843	585.62
482.061	559.62
482.28	542.62
482.498	552.62
482.717	553.62
482.935	549.62
483.153	527.62
483.372	527.62
483.59	531.62
483.808	550.62
484.027	525.62
484.245	530.62
484.463	536.62
484.681	565.62
484.9	544.62
485.118	540.62
485.336	544.62
485.554	551.62
485.772	571.62
485.99	567.62
486.209	568.62
486.427	581.62
486.645	581.62
486.863	588.62
487.081	596.62
487.299	578.62
487.517	583.62
487.735	580.62
487.953	586.62
488.171	595.62
488.389	565.62
488.607	585.62
488.825	580.62
489.043	559.62
489.261	603.62
489.479	590.62
489.696	574.62
489.914	598.62
490.132	600.62
490.35	599.62
490.568	604.62
490.786	611.62
491.003	603.62
491.221	648.62
491.439	640.62
491.657	646.62
491.874	665.62
492.092	656.62
492.31	679.62
492.527	680.62
492.745	698.62
492.963	675.62
493.18	665.62
493.398	690.62
493.615	707.62
493.833	695.62
494.05	702.62
494.268	699.62
494.485	693.62
494.703	696.62
494.92	687.62
495.138	685.62
495.355	666.62
495.573	705.62
495.79	688.62
496.008	704.62
496.225	703.62
496.442	693.62
496.66	680.62
496.877	683.62
497.094	704.62
497.312	691.62
497.529	689.62
497.746	691.62
497.963	698.62
498.181	748.62
498.398	745.62
498.615	747.62
498.832	754.62
499.049	753.62
499.267	755.62
499.484	779.62
499.701	777.62
499.918	792.62
500.135	826.62
500.352	845.62
500.569	833.62
500.786	868.62
501.003	848.62
501.22	833.62
501.437	832.62
501.654	831.62
501.871	845.62
