Data from 1972.PennyLincolnUp.Lamp.En5.5.200Scan.071719.P1._HRD10591_15-29-04-844.txt Node
Date: Thu Jul 18 15:29:04 EDT 2019
User: cochatt
Spectrometer: HR+D1059
Trigger mode: 1
Integration Time (sec): 1.000000E-1
Scans to average: 1
Electric dark correction enabled: true
Nonlinearity correction enabled: false
Boxcar width: 0
XAxis mode: Wavelengths
Number of Pixels in Spectrum: 2048
>>>>>Begin Spectral Data<<<<<
223.165	-16.06
223.4	-16.06
223.635	-16.06
223.869	-16.06
224.104	-13.06
224.338	-0.06
224.573	-17.06
224.808	-15.06
225.042	-3.06
225.277	-23.06
225.511	3.94
225.746	-5.06
225.98	12.94
226.215	11.94
226.449	16.94
226.683	7.94
226.918	15.94
227.152	38.94
227.387	36.94
227.621	40.94
227.856	46.94
228.09	47.94
228.324	59.94
228.559	75.94
228.793	74.94
229.027	113.94
229.262	110.94
229.496	117.94
229.73	151.94
229.964	186.94
230.199	145.94
230.433	124.94
230.667	96.94
230.901	105.94
231.136	122.94
231.37	125.94
231.604	117.94
231.838	133.94
232.072	103.94
232.306	119.94
232.541	109.94
232.775	113.94
233.009	131.94
233.243	117.94
233.477	128.94
233.711	126.94
233.945	124.94
234.179	110.94
234.413	118.94
234.647	124.94
234.881	101.94
235.115	122.94
235.349	123.94
235.583	118.94
235.817	126.94
236.051	127.94
236.285	132.94
236.519	133.94
236.753	127.94
236.987	142.94
237.221	206.94
237.455	252.94
237.689	202.94
237.922	160.94
238.156	134.94
238.39	141.94
238.624	135.94
238.858	130.94
239.091	123.94
239.325	125.94
239.559	127.94
239.793	132.94
240.027	145.94
240.26	143.94
240.494	179.94
240.728	163.94
240.961	147.94
241.195	150.94
241.429	152.94
241.662	138.94
241.896	129.94
242.13	142.94
242.363	121.94
242.597	144.94
242.83	122.94
243.064	141.94
243.298	147.94
243.531	143.94
243.765	139.94
243.998	142.94
244.232	135.94
244.465	153.94
244.699	149.94
244.932	143.94
245.166	139.94
245.399	149.94
245.633	138.94
245.866	142.94
246.099	150.94
246.333	146.94
246.566	141.94
246.8	146.94
247.033	149.94
247.266	159.94
247.5	163.94
247.733	176.94
247.966	170.94
248.2	174.94
248.433	193.94
248.666	190.94
248.899	195.94
249.133	198.94
249.366	220.94
249.599	212.94
249.832	195.94
250.066	199.94
250.299	180.94
250.532	201.94
250.765	223.94
250.998	238.94
251.231	225.94
251.465	217.94
251.698	215.94
251.931	211.94
252.164	209.94
252.397	204.94
252.63	202.94
252.863	188.94
253.096	205.94
253.329	230.94
253.562	229.94
253.795	211.94
254.028	224.94
254.261	223.94
254.494	243.94
254.727	268.94
254.96	296.94
255.193	292.94
255.426	284.94
255.659	249.94
255.892	228.94
256.124	243.94
256.357	259.94
256.59	230.94
256.823	242.94
257.056	221.94
257.289	225.94
257.521	222.94
257.754	224.94
257.987	224.94
258.22	240.94
258.452	217.94
258.685	205.94
258.918	205.94
259.151	205.94
259.383	217.94
259.616	219.94
259.849	222.94
260.081	257.94
260.314	272.94
260.547	278.94
260.779	283.94
261.012	249.94
261.244	239.94
261.477	246.94
261.71	235.94
261.942	240.94
262.175	247.94
262.407	240.94
262.64	235.94
262.872	227.94
263.105	215.94
263.337	211.94
263.57	212.94
263.802	220.94
264.035	236.94
264.267	211.94
264.499	207.94
264.732	224.94
264.964	211.94
265.197	205.94
265.429	212.94
265.661	224.94
265.894	215.94
266.126	233.94
266.358	219.94
266.591	200.94
266.823	232.94
267.055	222.94
267.287	220.94
267.52	215.94
267.752	214.94
267.984	231.94
268.216	240.94
268.448	240.94
268.681	233.94
268.913	263.94
269.145	272.94
269.377	294.94
269.609	278.94
269.841	266.94
270.073	287.94
270.306	301.94
270.538	336.94
270.77	332.94
271.002	319.94
271.234	319.94
271.466	323.94
271.698	336.94
271.93	327.94
272.162	346.94
272.394	348.94
272.626	332.94
272.858	309.94
273.09	291.94
273.322	304.94
273.553	288.94
273.785	281.94
274.017	286.94
274.249	273.94
274.481	269.94
274.713	269.94
274.945	289.94
275.176	266.94
275.408	261.94
275.64	268.94
275.872	269.94
276.104	275.94
276.335	267.94
276.567	283.94
276.799	286.94
277.031	322.94
277.262	340.94
277.494	330.94
277.726	320.94
277.957	301.94
278.189	285.94
278.421	271.94
278.652	277.94
278.884	261.94
279.115	285.94
279.347	245.94
279.579	276.94
279.81	272.94
280.042	243.94
280.273	282.94
280.505	280.94
280.736	250.94
280.968	249.94
281.199	272.94
281.431	263.94
281.662	265.94
281.894	269.94
282.125	275.94
282.356	280.94
282.588	319.94
282.819	336.94
283.051	263.94
283.282	252.94
283.513	281.94
283.745	265.94
283.976	272.94
284.207	274.94
284.439	291.94
284.67	290.94
284.901	277.94
285.132	284.94
285.364	281.94
285.595	263.94
285.826	270.94
286.057	292.94
286.288	267.94
286.52	281.94
286.751	285.94
286.982	275.94
287.213	286.94
287.444	282.94
287.675	284.94
287.906	301.94
288.138	308.94
288.369	301.94
288.6	304.94
288.831	302.94
289.062	277.94
289.293	297.94
289.524	277.94
289.755	291.94
289.986	272.94
290.217	302.94
290.448	271.94
290.679	273.94
290.91	285.94
291.141	265.94
291.371	288.94
291.602	292.94
291.833	273.94
292.064	263.94
292.295	269.94
292.526	264.94
292.757	264.94
292.987	271.94
293.218	288.94
293.449	310.94
293.68	282.94
293.91	294.94
294.141	284.94
294.372	272.94
294.603	281.94
294.833	281.94
295.064	293.94
295.295	284.94
295.525	289.94
295.756	287.94
295.987	287.94
296.217	327.94
296.448	328.94
296.679	299.94
296.909	278.94
297.14	268.94
297.37	301.94
297.601	299.94
297.831	269.94
298.062	294.94
298.292	291.94
298.523	310.94
298.753	295.94
298.984	284.94
299.214	295.94
299.445	308.94
299.675	284.94
299.905	300.94
300.136	307.94
300.366	319.94
300.597	299.94
300.827	311.94
301.057	313.94
301.288	339.94
301.518	313.94
301.748	317.94
301.979	316.94
302.209	323.94
302.439	307.94
302.669	298.94
302.9	293.94
303.13	294.94
303.36	296.94
303.59	303.94
303.82	321.94
304.051	350.94
304.281	312.94
304.511	309.94
304.741	310.94
304.971	318.94
305.201	291.94
305.431	294.94
305.661	331.94
305.891	324.94
306.121	321.94
306.352	334.94
306.582	322.94
306.812	325.94
307.042	318.94
307.272	315.94
307.502	328.94
307.731	324.94
307.961	313.94
308.191	329.94
308.421	337.94
308.651	330.94
308.881	348.94
309.111	351.94
309.341	337.94
309.571	356.94
309.8	352.94
310.03	356.94
310.26	374.94
310.49	379.94
310.72	375.94
310.949	420.94
311.179	443.94
311.409	399.94
311.639	390.94
311.868	381.94
312.098	383.94
312.328	396.94
312.557	400.94
312.787	428.94
313.017	439.94
313.246	395.94
313.476	380.94
313.706	391.94
313.935	387.94
314.165	387.94
314.394	411.94
314.624	399.94
314.853	391.94
315.083	392.94
315.312	378.94
315.542	373.94
315.771	383.94
316.001	366.94
316.23	364.94
316.46	374.94
316.689	360.94
316.919	380.94
317.148	401.94
317.377	397.94
317.607	387.94
317.836	384.94
318.065	373.94
318.295	368.94
318.524	376.94
318.753	378.94
318.983	361.94
319.212	365.94
319.441	389.94
319.67	397.94
319.9	383.94
320.129	378.94
320.358	385.94
320.587	383.94
320.816	399.94
321.046	394.94
321.275	399.94
321.504	390.94
321.733	390.94
321.962	422.94
322.191	441.94
322.42	451.94
322.649	470.94
322.878	499.94
323.108	504.94
323.337	533.94
323.566	558.94
323.795	622.94
324.024	673.94
324.253	811.94
324.482	1211.94
324.71	1944.94
324.939	2799.94
325.168	2454.94
325.397	1238.94
325.626	818.94
325.855	647.94
326.084	588.94
326.313	553.94
326.542	547.94
326.77	624.94
326.999	734.94
327.228	1057.94
327.457	1691.94
327.686	2058.94
327.914	1346.94
328.143	869.94
328.372	759.94
328.6	677.94
328.829	633.94
329.058	647.94
329.287	679.94
329.515	617.94
329.744	574.94
329.972	568.94
330.201	606.94
330.43	630.94
330.658	673.94
330.887	687.94
331.115	681.94
331.344	585.94
331.572	532.94
331.801	517.94
332.03	523.94
332.258	478.94
332.486	454.94
332.715	437.94
332.943	427.94
333.172	441.94
333.4	451.94
333.629	453.94
333.857	455.94
334.085	513.94
334.314	520.94
334.542	601.94
334.771	585.94
334.999	506.94
335.227	471.94
335.455	462.94
335.684	442.94
335.912	448.94
336.14	424.94
336.369	421.94
336.597	408.94
336.825	449.94
337.053	425.94
337.281	416.94
337.51	396.94
337.738	430.94
337.966	437.94
338.194	431.94
338.422	437.94
338.65	417.94
338.878	424.94
339.106	396.94
339.334	417.94
339.562	407.94
339.79	397.94
340.018	430.94
340.246	436.94
340.474	425.94
340.702	412.94
340.93	431.94
341.158	419.94
341.386	411.94
341.614	396.94
341.842	423.94
342.07	399.94
342.298	427.94
342.526	412.94
342.754	404.94
342.981	379.94
343.209	377.94
343.437	394.94
343.665	395.94
343.893	395.94
344.12	408.94
344.348	401.94
344.576	416.94
344.804	427.94
345.031	447.94
345.259	455.94
345.487	430.94
345.714	420.94
345.942	408.94
346.17	420.94
346.397	402.94
346.625	419.94
346.853	383.94
347.08	397.94
347.308	390.94
347.535	409.94
347.763	429.94
347.99	437.94
348.218	416.94
348.445	441.94
348.673	448.94
348.9	415.94
349.128	395.94
349.355	374.94
349.583	396.94
349.81	392.94
350.037	397.94
350.265	391.94
350.492	389.94
350.72	397.94
350.947	403.94
351.174	444.94
351.402	417.94
351.629	402.94
351.856	413.94
352.083	428.94
352.311	441.94
352.538	440.94
352.765	455.94
352.992	412.94
353.22	425.94
353.447	408.94
353.674	403.94
353.901	400.94
354.128	407.94
354.355	389.94
354.583	378.94
354.81	385.94
355.037	375.94
355.264	363.94
355.491	363.94
355.718	373.94
355.945	379.94
356.172	360.94
356.399	368.94
356.626	375.94
356.853	366.94
357.08	347.94
357.307	336.94
357.534	344.94
357.761	360.94
357.988	365.94
358.215	385.94
358.441	379.94
358.668	363.94
358.895	362.94
359.122	382.94
359.349	402.94
359.576	420.94
359.802	452.94
360.029	463.94
360.256	484.94
360.483	463.94
360.709	429.94
360.936	419.94
361.163	406.94
361.39	397.94
361.616	421.94
361.843	407.94
362.07	417.94
362.296	407.94
362.523	410.94
362.749	383.94
362.976	400.94
363.203	389.94
363.429	379.94
363.656	365.94
363.882	379.94
364.109	373.94
364.335	384.94
364.562	360.94
364.788	359.94
365.015	387.94
365.241	392.94
365.468	404.94
365.694	397.94
365.92	381.94
366.147	373.94
366.373	362.94
366.599	377.94
366.826	347.94
367.052	366.94
367.278	368.94
367.505	390.94
367.731	368.94
367.957	378.94
368.184	377.94
368.41	382.94
368.636	376.94
368.862	394.94
369.089	357.94
369.315	372.94
369.541	361.94
369.767	386.94
369.993	379.94
370.219	352.94
370.445	357.94
370.672	357.94
370.898	371.94
371.124	368.94
371.35	366.94
371.576	350.94
371.802	355.94
372.028	355.94
372.254	349.94
372.48	360.94
372.706	343.94
372.932	359.94
373.158	352.94
373.384	368.94
373.61	382.94
373.835	368.94
374.061	359.94
374.287	361.94
374.513	385.94
374.739	363.94
374.965	360.94
375.191	368.94
375.416	365.94
375.642	355.94
375.868	373.94
376.094	356.94
376.319	351.94
376.545	376.94
376.771	346.94
376.997	354.94
377.222	352.94
377.448	364.94
377.674	352.94
377.899	358.94
378.125	364.94
378.35	352.94
378.576	351.94
378.802	356.94
379.027	361.94
379.253	356.94
379.478	336.94
379.704	360.94
379.929	372.94
380.155	358.94
380.38	347.94
380.606	365.94
380.831	348.94
381.057	360.94
381.282	354.94
381.507	373.94
381.733	362.94
381.958	373.94
382.184	341.94
382.409	363.94
382.634	354.94
382.86	345.94
383.085	353.94
383.31	368.94
383.535	353.94
383.761	369.94
383.986	358.94
384.211	366.94
384.436	356.94
384.662	384.94
384.887	364.94
385.112	365.94
385.337	375.94
385.562	360.94
385.787	383.94
386.013	387.94
386.238	396.94
386.463	404.94
386.688	379.94
386.913	372.94
387.138	385.94
387.363	371.94
387.588	391.94
387.813	376.94
388.038	356.94
388.263	369.94
388.488	375.94
388.713	374.94
388.938	383.94
389.163	380.94
389.387	376.94
389.612	371.94
389.837	376.94
390.062	368.94
390.287	387.94
390.512	365.94
390.736	384.94
390.961	375.94
391.186	372.94
391.411	362.94
391.636	375.94
391.86	383.94
392.085	391.94
392.31	397.94
392.534	375.94
392.759	378.94
392.984	356.94
393.208	360.94
393.433	391.94
393.658	352.94
393.882	389.94
394.107	395.94
394.331	358.94
394.556	383.94
394.78	383.94
395.005	383.94
395.229	379.94
395.454	362.94
395.678	395.94
395.903	416.94
396.127	414.94
396.352	415.94
396.576	422.94
396.801	402.94
397.025	416.94
397.249	405.94
397.474	411.94
397.698	401.94
397.922	413.94
398.147	412.94
398.371	412.94
398.595	405.94
398.82	431.94
399.044	405.94
399.268	427.94
399.492	448.94
399.717	470.94
399.941	489.94
400.165	503.94
400.389	565.94
400.613	495.94
400.837	446.94
401.062	459.94
401.286	443.94
401.51	419.94
401.734	422.94
401.958	437.94
402.182	436.94
402.406	459.94
402.63	441.94
402.854	432.94
403.078	443.94
403.302	450.94
403.526	453.94
403.75	449.94
403.974	459.94
404.198	457.94
404.422	461.94
404.645	437.94
404.869	477.94
405.093	498.94
405.317	525.94
405.541	583.94
405.765	543.94
405.988	461.94
406.212	480.94
406.436	529.94
406.66	517.94
406.883	511.94
407.107	508.94
407.331	539.94
407.555	614.94
407.778	622.94
408.002	568.94
408.226	517.94
408.449	503.94
408.673	507.94
408.896	546.94
409.12	587.94
409.344	551.94
409.567	476.94
409.791	470.94
410.014	449.94
410.238	463.94
410.461	463.94
410.685	459.94
410.908	475.94
411.132	529.94
411.355	565.94
411.578	520.94
411.802	458.94
412.025	452.94
412.249	472.94
412.472	467.94
412.695	557.94
412.919	522.94
413.142	485.94
413.365	443.94
413.589	431.94
413.812	442.94
414.035	401.94
414.258	410.94
414.482	402.94
414.705	404.94
414.928	398.94
415.151	409.94
415.374	425.94
415.597	402.94
415.821	401.94
416.044	396.94
416.267	419.94
416.49	424.94
416.713	413.94
416.936	413.94
417.159	415.94
417.382	428.94
417.605	449.94
417.828	439.94
418.051	456.94
418.274	452.94
418.497	420.94
418.72	426.94
418.943	430.94
419.166	439.94
419.389	443.94
419.611	456.94
419.834	460.94
420.057	447.94
420.28	484.94
420.503	453.94
420.726	448.94
420.948	461.94
421.171	525.94
421.394	532.94
421.617	479.94
421.839	483.94
422.062	472.94
422.285	455.94
422.507	529.94
422.73	641.94
422.953	594.94
423.175	501.94
423.398	475.94
423.621	487.94
423.843	504.94
424.066	503.94
424.288	488.94
424.511	527.94
424.733	574.94
424.956	661.94
425.178	631.94
425.401	640.94
425.623	670.94
425.846	548.94
426.068	513.94
426.291	500.94
426.513	511.94
426.735	547.94
426.958	583.94
427.18	651.94
427.402	779.94
427.625	874.94
427.847	788.94
428.069	693.94
428.292	598.94
428.514	524.94
428.736	481.94
428.958	491.94
429.181	475.94
429.403	472.94
429.625	486.94
429.847	523.94
430.069	596.94
430.292	567.94
430.514	494.94
430.736	454.94
430.958	449.94
431.18	447.94
431.402	436.94
431.624	455.94
431.846	440.94
432.068	432.94
432.29	443.94
432.512	453.94
432.734	451.94
432.956	431.94
433.178	465.94
433.4	439.94
433.622	428.94
433.844	419.94
434.066	430.94
434.287	417.94
434.509	427.94
434.731	441.94
434.953	445.94
435.175	474.94
435.397	496.94
435.618	520.94
435.84	548.94
436.062	652.94
436.284	738.94
436.505	602.94
436.727	544.94
436.949	496.94
437.17	482.94
437.392	490.94
437.614	503.94
437.835	541.94
438.057	662.94
438.278	765.94
438.5	719.94
438.721	815.94
438.943	783.94
439.165	603.94
439.386	538.94
439.608	530.94
439.829	520.94
440.05	589.94
440.272	614.94
440.493	594.94
440.715	532.94
440.936	468.94
441.158	464.94
441.379	471.94
441.6	501.94
441.822	525.94
442.043	543.94
442.264	629.94
442.486	728.94
442.707	564.94
442.928	552.94
443.149	559.94
443.371	568.94
443.592	605.94
443.813	714.94
444.034	719.94
444.255	600.94
444.476	557.94
444.698	493.94
444.919	501.94
445.14	610.94
445.361	579.94
445.582	590.94
445.803	660.94
446.024	764.94
446.245	756.94
446.466	695.94
446.687	570.94
446.908	553.94
447.129	501.94
447.35	479.94
447.571	472.94
447.792	487.94
448.013	499.94
448.234	539.94
448.455	572.94
448.675	669.94
448.896	785.94
449.117	669.94
449.338	640.94
449.559	741.94
449.779	850.94
450	661.94
450.221	601.94
450.442	499.94
450.662	480.94
450.883	486.94
451.104	491.94
451.324	478.94
451.545	466.94
451.766	441.94
451.986	423.94
452.207	445.94
452.428	431.94
452.648	439.94
452.869	423.94
453.089	437.94
453.31	445.94
453.53	453.94
453.751	413.94
453.971	429.94
454.192	477.94
454.412	441.94
454.633	429.94
454.853	429.94
455.073	404.94
455.294	450.94
455.514	523.94
455.734	537.94
455.955	435.94
456.175	400.94
456.395	389.94
456.616	388.94
456.836	393.94
457.056	406.94
457.276	394.94
457.497	407.94
457.717	387.94
457.937	398.94
458.157	395.94
458.377	415.94
458.598	440.94
458.818	493.94
459.038	611.94
459.258	600.94
459.478	520.94
459.698	436.94
459.918	430.94
460.138	421.94
460.358	439.94
460.578	428.94
460.798	421.94
461.018	443.94
461.238	428.94
461.458	432.94
461.678	414.94
461.898	441.94
462.118	427.94
462.338	451.94
462.558	422.94
462.777	429.94
462.997	423.94
463.217	429.94
463.437	437.94
463.657	445.94
463.876	426.94
464.096	413.94
464.316	452.94
464.536	457.94
464.755	451.94
464.975	464.94
465.195	506.94
465.414	629.94
465.634	543.94
465.854	473.94
466.073	443.94
466.293	423.94
466.512	426.94
466.732	437.94
466.951	439.94
467.171	420.94
467.391	411.94
467.61	455.94
467.829	440.94
468.049	445.94
468.268	440.94
468.488	417.94
468.707	407.94
468.927	418.94
469.146	425.94
469.365	408.94
469.585	391.94
469.804	420.94
470.023	436.94
470.243	433.94
470.462	431.94
470.681	465.94
470.901	445.94
471.12	435.94
471.339	443.94
471.558	443.94
471.777	433.94
471.997	438.94
472.216	439.94
472.435	487.94
472.654	494.94
472.873	448.94
473.092	432.94
473.311	420.94
473.53	453.94
473.749	454.94
473.968	469.94
474.187	626.94
474.406	670.94
474.625	514.94
474.844	468.94
475.063	439.94
475.282	435.94
475.501	423.94
475.72	445.94
475.939	455.94
476.158	441.94
476.377	453.94
476.596	447.94
476.814	461.94
477.033	452.94
477.252	475.94
477.471	453.94
477.69	441.94
477.908	470.94
478.127	466.94
478.346	470.94
478.564	452.94
478.783	461.94
479.002	480.94
479.22	478.94
479.439	505.94
479.658	539.94
479.876	506.94
480.095	513.94
480.313	542.94
480.532	526.94
480.751	507.94
480.969	557.94
481.188	640.94
481.406	689.94
481.624	615.94
481.843	531.94
482.061	520.94
482.28	520.94
482.498	521.94
482.717	516.94
482.935	505.94
483.153	512.94
483.372	486.94
483.59	520.94
483.808	494.94
484.027	506.94
484.245	496.94
484.463	525.94
484.681	534.94
484.9	531.94
485.118	518.94
485.336	520.94
485.554	545.94
485.772	525.94
485.99	547.94
486.209	510.94
486.427	521.94
486.645	557.94
486.863	572.94
487.081	552.94
487.299	575.94
487.517	561.94
487.735	545.94
487.953	573.94
488.171	548.94
488.389	542.94
488.607	549.94
488.825	524.94
489.043	553.94
489.261	555.94
489.479	550.94
489.696	548.94
489.914	540.94
490.132	569.94
490.35	585.94
490.568	566.94
490.786	574.94
491.003	607.94
491.221	606.94
491.439	609.94
491.657	611.94
491.874	633.94
492.092	617.94
492.31	627.94
492.527	649.94
492.745	620.94
492.963	625.94
493.18	608.94
493.398	657.94
493.615	643.94
493.833	655.94
494.05	638.94
494.268	641.94
494.485	657.94
494.703	636.94
494.92	651.94
495.138	656.94
495.355	650.94
495.573	661.94
495.79	647.94
496.008	649.94
496.225	627.94
496.442	643.94
496.66	652.94
496.877	653.94
497.094	657.94
497.312	656.94
497.529	666.94
497.746	675.94
497.963	667.94
498.181	680.94
498.398	705.94
498.615	698.94
498.832	729.94
499.049	702.94
499.267	701.94
499.484	723.94
499.701	730.94
499.918	745.94
500.135	749.94
500.352	778.94
500.569	762.94
500.786	798.94
501.003	804.94
501.22	780.94
501.437	798.94
501.654	783.94
501.871	795.94
