Data from 1972.PennyLincolnUp.Lamp.En5.5.200Scan.071719.P1._HRD10591_15-28-50-844.txt Node
Date: Thu Jul 18 15:28:50 EDT 2019
User: cochatt
Spectrometer: HR+D1059
Trigger mode: 1
Integration Time (sec): 1.000000E-1
Scans to average: 1
Electric dark correction enabled: true
Nonlinearity correction enabled: false
Boxcar width: 0
XAxis mode: Wavelengths
Number of Pixels in Spectrum: 2048
>>>>>Begin Spectral Data<<<<<
223.165	-17.81
223.4	-17.81
223.635	-17.81
223.869	-12.81
224.104	-10.81
224.338	-26.81
224.573	-9.81
224.808	-19.81
225.042	-4.81
225.277	-6.81
225.511	-3.81
225.746	13.19
225.98	3.19
226.215	9.19
226.449	21.19
226.683	15.19
226.918	25.19
227.152	26.19
227.387	37.19
227.621	41.19
227.856	46.19
228.09	45.19
228.324	46.19
228.559	60.19
228.793	67.19
229.027	105.19
229.262	121.19
229.496	124.19
229.73	135.19
229.964	168.19
230.199	135.19
230.433	114.19
230.667	109.19
230.901	125.19
231.136	113.19
231.37	119.19
231.604	94.19
231.838	127.19
232.072	104.19
232.306	113.19
232.541	108.19
232.775	103.19
233.009	126.19
233.243	123.19
233.477	107.19
233.711	115.19
233.945	106.19
234.179	122.19
234.413	110.19
234.647	113.19
234.881	105.19
235.115	99.19
235.349	127.19
235.583	125.19
235.817	130.19
236.051	106.19
236.285	133.19
236.519	137.19
236.753	133.19
236.987	150.19
237.221	177.19
237.455	257.19
237.689	199.19
237.922	141.19
238.156	135.19
238.39	126.19
238.624	141.19
238.858	131.19
239.091	113.19
239.325	127.19
239.559	122.19
239.793	131.19
240.027	138.19
240.26	136.19
240.494	157.19
240.728	164.19
240.961	169.19
241.195	146.19
241.429	150.19
241.662	127.19
241.896	141.19
242.13	153.19
242.363	133.19
242.597	127.19
242.83	137.19
243.064	135.19
243.298	129.19
243.531	146.19
243.765	147.19
243.998	143.19
244.232	153.19
244.465	130.19
244.699	157.19
244.932	137.19
245.166	151.19
245.399	146.19
245.633	143.19
245.866	134.19
246.099	158.19
246.333	144.19
246.566	160.19
246.8	152.19
247.033	150.19
247.266	140.19
247.5	151.19
247.733	153.19
247.966	185.19
248.2	161.19
248.433	169.19
248.666	160.19
248.899	201.19
249.133	220.19
249.366	214.19
249.599	199.19
249.832	205.19
250.066	182.19
250.299	188.19
250.532	206.19
250.765	211.19
250.998	233.19
251.231	229.19
251.465	197.19
251.698	214.19
251.931	196.19
252.164	201.19
252.397	198.19
252.63	187.19
252.863	225.19
253.096	222.19
253.329	223.19
253.562	226.19
253.795	217.19
254.028	211.19
254.261	211.19
254.494	238.19
254.727	263.19
254.96	287.19
255.193	289.19
255.426	255.19
255.659	229.19
255.892	253.19
256.124	245.19
256.357	238.19
256.59	243.19
256.823	218.19
257.056	231.19
257.289	222.19
257.521	207.19
257.754	211.19
257.987	203.19
258.22	198.19
258.452	218.19
258.685	200.19
258.918	211.19
259.151	207.19
259.383	217.19
259.616	221.19
259.849	230.19
260.081	254.19
260.314	268.19
260.547	276.19
260.779	263.19
261.012	233.19
261.244	234.19
261.477	225.19
261.71	237.19
261.942	229.19
262.175	247.19
262.407	221.19
262.64	229.19
262.872	222.19
263.105	214.19
263.337	205.19
263.57	216.19
263.802	202.19
264.035	211.19
264.267	198.19
264.499	222.19
264.732	215.19
264.964	221.19
265.197	201.19
265.429	219.19
265.661	198.19
265.894	211.19
266.126	205.19
266.358	202.19
266.591	220.19
266.823	228.19
267.055	230.19
267.287	233.19
267.52	217.19
267.752	223.19
267.984	232.19
268.216	225.19
268.448	230.19
268.681	227.19
268.913	249.19
269.145	274.19
269.377	292.19
269.609	285.19
269.841	266.19
270.073	279.19
270.306	293.19
270.538	341.19
270.77	314.19
271.002	310.19
271.234	289.19
271.466	307.19
271.698	319.19
271.93	301.19
272.162	337.19
272.394	333.19
272.626	323.19
272.858	285.19
273.09	286.19
273.322	287.19
273.553	283.19
273.785	275.19
274.017	271.19
274.249	257.19
274.481	261.19
274.713	246.19
274.945	279.19
275.176	257.19
275.408	265.19
275.64	266.19
275.872	274.19
276.104	274.19
276.335	278.19
276.567	278.19
276.799	280.19
277.031	322.19
277.262	327.19
277.494	307.19
277.726	291.19
277.957	297.19
278.189	262.19
278.421	277.19
278.652	273.19
278.884	284.19
279.115	277.19
279.347	260.19
279.579	266.19
279.81	244.19
280.042	263.19
280.273	267.19
280.505	257.19
280.736	267.19
280.968	245.19
281.199	236.19
281.431	255.19
281.662	262.19
281.894	259.19
282.125	255.19
282.356	277.19
282.588	296.19
282.819	307.19
283.051	272.19
283.282	260.19
283.513	252.19
283.745	249.19
283.976	266.19
284.207	276.19
284.439	253.19
284.67	258.19
284.901	265.19
285.132	272.19
285.364	253.19
285.595	268.19
285.826	271.19
286.057	286.19
286.288	277.19
286.52	270.19
286.751	268.19
286.982	261.19
287.213	262.19
287.444	281.19
287.675	263.19
287.906	299.19
288.138	280.19
288.369	293.19
288.6	290.19
288.831	264.19
289.062	262.19
289.293	286.19
289.524	258.19
289.755	247.19
289.986	278.19
290.217	261.19
290.448	260.19
290.679	279.19
290.91	274.19
291.141	266.19
291.371	283.19
291.602	270.19
291.833	263.19
292.064	268.19
292.295	269.19
292.526	271.19
292.757	269.19
292.987	265.19
293.218	260.19
293.449	274.19
293.68	277.19
293.91	281.19
294.141	259.19
294.372	268.19
294.603	277.19
294.833	261.19
295.064	277.19
295.295	281.19
295.525	283.19
295.756	290.19
295.987	285.19
296.217	319.19
296.448	319.19
296.679	296.19
296.909	268.19
297.14	268.19
297.37	276.19
297.601	265.19
297.831	278.19
298.062	286.19
298.292	281.19
298.523	272.19
298.753	284.19
298.984	283.19
299.214	277.19
299.445	286.19
299.675	301.19
299.905	305.19
300.136	278.19
300.366	284.19
300.597	306.19
300.827	287.19
301.057	289.19
301.288	315.19
301.518	299.19
301.748	310.19
301.979	311.19
302.209	302.19
302.439	313.19
302.669	321.19
302.9	312.19
303.13	300.19
303.36	300.19
303.59	302.19
303.82	297.19
304.051	322.19
304.281	321.19
304.511	305.19
304.741	297.19
304.971	300.19
305.201	284.19
305.431	294.19
305.661	305.19
305.891	304.19
306.121	310.19
306.352	318.19
306.582	332.19
306.812	325.19
307.042	303.19
307.272	302.19
307.502	298.19
307.731	301.19
307.961	327.19
308.191	315.19
308.421	310.19
308.651	309.19
308.881	334.19
309.111	316.19
309.341	328.19
309.571	314.19
309.8	334.19
310.03	349.19
310.26	390.19
310.49	364.19
310.72	366.19
310.949	402.19
311.179	412.19
311.409	363.19
311.639	377.19
311.868	356.19
312.098	362.19
312.328	382.19
312.557	397.19
312.787	407.19
313.017	411.19
313.246	383.19
313.476	359.19
313.706	346.19
313.935	363.19
314.165	383.19
314.394	405.19
314.624	403.19
314.853	375.19
315.083	375.19
315.312	333.19
315.542	337.19
315.771	361.19
316.001	336.19
316.23	346.19
316.46	364.19
316.689	375.19
316.919	369.19
317.148	373.19
317.377	383.19
317.607	380.19
317.836	358.19
318.065	364.19
318.295	365.19
318.524	367.19
318.753	341.19
318.983	348.19
319.212	341.19
319.441	371.19
319.67	381.19
319.9	375.19
320.129	376.19
320.358	366.19
320.587	364.19
320.816	389.19
321.046	372.19
321.275	387.19
321.504	395.19
321.733	375.19
321.962	415.19
322.191	399.19
322.42	423.19
322.649	446.19
322.878	451.19
323.108	474.19
323.337	510.19
323.566	539.19
323.795	587.19
324.024	624.19
324.253	811.19
324.482	1162.19
324.71	1836.19
324.939	2735.19
325.168	2371.19
325.397	1171.19
325.626	755.19
325.855	618.19
326.084	555.19
326.313	523.19
326.542	553.19
326.77	598.19
326.999	713.19
327.228	1033.19
327.457	1596.19
327.686	2029.19
327.914	1365.19
328.143	867.19
328.372	714.19
328.6	663.19
328.829	618.19
329.058	637.19
329.287	652.19
329.515	599.19
329.744	531.19
329.972	553.19
330.201	564.19
330.43	617.19
330.658	656.19
330.887	691.19
331.115	680.19
331.344	535.19
331.572	504.19
331.801	509.19
332.03	489.19
332.258	487.19
332.486	450.19
332.715	425.19
332.943	430.19
333.172	446.19
333.4	429.19
333.629	436.19
333.857	441.19
334.085	466.19
334.314	499.19
334.542	559.19
334.771	581.19
334.999	530.19
335.227	442.19
335.455	460.19
335.684	428.19
335.912	411.19
336.14	418.19
336.369	407.19
336.597	435.19
336.825	442.19
337.053	418.19
337.281	409.19
337.51	399.19
337.738	399.19
337.966	391.19
338.194	420.19
338.422	386.19
338.65	399.19
338.878	405.19
339.106	394.19
339.334	371.19
339.562	394.19
339.79	395.19
340.018	389.19
340.246	397.19
340.474	403.19
340.702	413.19
340.93	389.19
341.158	396.19
341.386	399.19
341.614	393.19
341.842	414.19
342.07	402.19
342.298	392.19
342.526	409.19
342.754	386.19
342.981	383.19
343.209	379.19
343.437	382.19
343.665	382.19
343.893	382.19
344.12	390.19
344.348	402.19
344.576	385.19
344.804	375.19
345.031	415.19
345.259	403.19
345.487	431.19
345.714	412.19
345.942	413.19
346.17	408.19
346.397	406.19
346.625	387.19
346.853	374.19
347.08	386.19
347.308	376.19
347.535	391.19
347.763	405.19
347.99	413.19
348.218	405.19
348.445	415.19
348.673	412.19
348.9	403.19
349.128	383.19
349.355	373.19
349.583	383.19
349.81	369.19
350.037	380.19
350.265	388.19
350.492	370.19
350.72	376.19
350.947	378.19
351.174	381.19
351.402	402.19
351.629	387.19
351.856	396.19
352.083	405.19
352.311	417.19
352.538	417.19
352.765	410.19
352.992	416.19
353.22	399.19
353.447	395.19
353.674	403.19
353.901	378.19
354.128	361.19
354.355	360.19
354.583	372.19
354.81	363.19
355.037	373.19
355.264	359.19
355.491	337.19
355.718	362.19
355.945	348.19
356.172	335.19
356.399	328.19
356.626	341.19
356.853	332.19
357.08	351.19
357.307	356.19
357.534	345.19
357.761	333.19
357.988	342.19
358.215	350.19
358.441	364.19
358.668	380.19
358.895	366.19
359.122	365.19
359.349	393.19
359.576	399.19
359.802	402.19
360.029	463.19
360.256	473.19
360.483	436.19
360.709	397.19
360.936	409.19
361.163	381.19
361.39	396.19
361.616	386.19
361.843	395.19
362.07	389.19
362.296	386.19
362.523	404.19
362.749	400.19
362.976	391.19
363.203	364.19
363.429	355.19
363.656	361.19
363.882	363.19
364.109	382.19
364.335	355.19
364.562	364.19
364.788	363.19
365.015	345.19
365.241	350.19
365.468	381.19
365.694	377.19
365.92	347.19
366.147	366.19
366.373	356.19
366.599	354.19
366.826	365.19
367.052	348.19
367.278	333.19
367.505	354.19
367.731	369.19
367.957	358.19
368.184	363.19
368.41	360.19
368.636	369.19
368.862	385.19
369.089	370.19
369.315	354.19
369.541	357.19
369.767	354.19
369.993	373.19
370.219	353.19
370.445	372.19
370.672	362.19
370.898	351.19
371.124	350.19
371.35	361.19
371.576	362.19
371.802	354.19
372.028	348.19
372.254	337.19
372.48	333.19
372.706	352.19
372.932	345.19
373.158	356.19
373.384	356.19
373.61	346.19
373.835	344.19
374.061	338.19
374.287	367.19
374.513	365.19
374.739	355.19
374.965	349.19
375.191	343.19
375.416	351.19
375.642	339.19
375.868	350.19
376.094	349.19
376.319	343.19
376.545	349.19
376.771	353.19
376.997	351.19
377.222	350.19
377.448	332.19
377.674	347.19
377.899	330.19
378.125	339.19
378.35	341.19
378.576	327.19
378.802	355.19
379.027	335.19
379.253	342.19
379.478	326.19
379.704	332.19
379.929	350.19
380.155	350.19
380.38	347.19
380.606	329.19
380.831	355.19
381.057	345.19
381.282	348.19
381.507	350.19
381.733	331.19
381.958	335.19
382.184	352.19
382.409	341.19
382.634	354.19
382.86	330.19
383.085	345.19
383.31	351.19
383.535	336.19
383.761	358.19
383.986	361.19
384.211	346.19
384.436	358.19
384.662	355.19
384.887	355.19
385.112	347.19
385.337	357.19
385.562	356.19
385.787	365.19
386.013	385.19
386.238	378.19
386.463	383.19
386.688	370.19
386.913	362.19
387.138	349.19
387.363	361.19
387.588	360.19
387.813	371.19
388.038	372.19
388.263	344.19
388.488	346.19
388.713	361.19
388.938	355.19
389.163	381.19
389.387	373.19
389.612	355.19
389.837	353.19
390.062	362.19
390.287	358.19
390.512	351.19
390.736	357.19
390.961	366.19
391.186	357.19
391.411	366.19
391.636	346.19
391.86	366.19
392.085	363.19
392.31	378.19
392.534	375.19
392.759	372.19
392.984	382.19
393.208	367.19
393.433	373.19
393.658	358.19
393.882	375.19
394.107	358.19
394.331	356.19
394.556	361.19
394.78	361.19
395.005	374.19
395.229	372.19
395.454	354.19
395.678	374.19
395.903	377.19
396.127	423.19
396.352	408.19
396.576	381.19
396.801	362.19
397.025	369.19
397.249	411.19
397.474	382.19
397.698	389.19
397.922	397.19
398.147	399.19
398.371	414.19
398.595	409.19
398.82	397.19
399.044	410.19
399.268	408.19
399.492	435.19
399.717	450.19
399.941	478.19
400.165	518.19
400.389	517.19
400.613	462.19
400.837	436.19
401.062	401.19
401.286	423.19
401.51	420.19
401.734	400.19
401.958	418.19
402.182	422.19
402.406	437.19
402.63	413.19
402.854	408.19
403.078	425.19
403.302	417.19
403.526	417.19
403.75	439.19
403.974	407.19
404.198	408.19
404.422	444.19
404.645	465.19
404.869	461.19
405.093	487.19
405.317	526.19
405.541	567.19
405.765	515.19
405.988	479.19
406.212	493.19
406.436	501.19
406.66	520.19
406.883	455.19
407.107	493.19
407.331	516.19
407.555	579.19
407.778	589.19
408.002	543.19
408.226	490.19
408.449	477.19
408.673	486.19
408.896	519.19
409.12	580.19
409.344	518.19
409.567	452.19
409.791	440.19
410.014	446.19
410.238	452.19
410.461	446.19
410.685	439.19
410.908	468.19
411.132	479.19
411.355	533.19
411.578	505.19
411.802	454.19
412.025	428.19
412.249	429.19
412.472	458.19
412.695	505.19
412.919	493.19
413.142	437.19
413.365	429.19
413.589	443.19
413.812	423.19
414.035	421.19
414.258	411.19
414.482	420.19
414.705	427.19
414.928	403.19
415.151	407.19
415.374	404.19
415.597	403.19
415.821	382.19
416.044	403.19
416.267	397.19
416.49	405.19
416.713	404.19
416.936	389.19
417.159	409.19
417.382	426.19
417.605	438.19
417.828	435.19
418.051	438.19
418.274	427.19
418.497	402.19
418.72	416.19
418.943	415.19
419.166	429.19
419.389	457.19
419.611	426.19
419.834	435.19
420.057	442.19
420.28	446.19
420.503	436.19
420.726	427.19
420.948	461.19
421.171	501.19
421.394	535.19
421.617	471.19
421.839	443.19
422.062	438.19
422.285	460.19
422.507	521.19
422.73	593.19
422.953	555.19
423.175	499.19
423.398	454.19
423.621	459.19
423.843	481.19
424.066	509.19
424.288	488.19
424.511	483.19
424.733	561.19
424.956	636.19
425.178	609.19
425.401	598.19
425.623	643.19
425.846	519.19
426.068	497.19
426.291	483.19
426.513	469.19
426.735	480.19
426.958	551.19
427.18	625.19
427.402	747.19
427.625	847.19
427.847	783.19
428.069	650.19
428.292	565.19
428.514	505.19
428.736	484.19
428.958	473.19
429.181	421.19
429.403	429.19
429.625	468.19
429.847	512.19
430.069	568.19
430.292	572.19
430.514	489.19
430.736	457.19
430.958	436.19
431.18	436.19
431.402	404.19
431.624	384.19
431.846	392.19
432.068	409.19
432.29	423.19
432.512	413.19
432.734	424.19
432.956	436.19
433.178	441.19
433.4	423.19
433.622	414.19
433.844	389.19
434.066	411.19
434.287	398.19
434.509	408.19
434.731	437.19
434.953	437.19
435.175	454.19
435.397	469.19
435.618	481.19
435.84	533.19
436.062	626.19
436.284	679.19
436.505	583.19
436.727	545.19
436.949	466.19
437.17	451.19
437.392	477.19
437.614	488.19
437.835	514.19
438.057	618.19
438.278	689.19
438.5	698.19
438.721	755.19
438.943	740.19
439.165	598.19
439.386	501.19
439.608	500.19
439.829	508.19
440.05	559.19
440.272	601.19
440.493	565.19
440.715	507.19
440.936	473.19
441.158	481.19
441.379	464.19
441.6	460.19
441.822	492.19
442.043	554.19
442.264	614.19
442.486	657.19
442.707	569.19
442.928	528.19
443.149	535.19
443.371	544.19
443.592	586.19
443.813	682.19
444.034	732.19
444.255	607.19
444.476	516.19
444.698	483.19
444.919	482.19
445.14	573.19
445.361	527.19
445.582	537.19
445.803	625.19
446.024	733.19
446.245	753.19
446.466	682.19
446.687	550.19
446.908	517.19
447.129	461.19
447.35	448.19
447.571	486.19
447.792	460.19
448.013	456.19
448.234	495.19
448.455	545.19
448.675	643.19
448.896	796.19
449.117	640.19
449.338	603.19
449.559	722.19
449.779	786.19
450	648.19
450.221	533.19
450.442	493.19
450.662	471.19
450.883	469.19
451.104	501.19
451.324	477.19
451.545	453.19
451.766	423.19
451.986	413.19
452.207	405.19
452.428	408.19
452.648	414.19
452.869	411.19
453.089	414.19
453.31	450.19
453.53	378.19
453.751	404.19
453.971	425.19
454.192	453.19
454.412	429.19
454.633	417.19
454.853	410.19
455.073	405.19
455.294	441.19
455.514	503.19
455.734	501.19
455.955	410.19
456.175	377.19
456.395	387.19
456.616	391.19
456.836	378.19
457.056	367.19
457.276	366.19
457.497	414.19
457.717	386.19
457.937	393.19
458.157	402.19
458.377	401.19
458.598	405.19
458.818	498.19
459.038	573.19
459.258	605.19
459.478	489.19
459.698	426.19
459.918	404.19
460.138	403.19
460.358	409.19
460.578	408.19
460.798	394.19
461.018	413.19
461.238	397.19
461.458	401.19
461.678	387.19
461.898	404.19
462.118	407.19
462.338	396.19
462.558	421.19
462.777	434.19
462.997	415.19
463.217	407.19
463.437	417.19
463.657	427.19
463.876	422.19
464.096	441.19
464.316	419.19
464.536	453.19
464.755	444.19
464.975	443.19
465.195	523.19
465.414	635.19
465.634	523.19
465.854	461.19
466.073	426.19
466.293	440.19
466.512	407.19
466.732	394.19
466.951	438.19
467.171	406.19
467.391	415.19
467.61	427.19
467.829	446.19
468.049	428.19
468.268	419.19
468.488	415.19
468.707	390.19
468.927	400.19
469.146	391.19
469.365	396.19
469.585	398.19
469.804	404.19
470.023	437.19
470.243	441.19
470.462	412.19
470.681	451.19
470.901	451.19
471.12	437.19
471.339	390.19
471.558	399.19
471.777	419.19
471.997	418.19
472.216	408.19
472.435	492.19
472.654	457.19
472.873	416.19
473.092	434.19
473.311	419.19
473.53	423.19
473.749	450.19
473.968	469.19
474.187	587.19
474.406	616.19
474.625	477.19
474.844	447.19
475.063	439.19
475.282	437.19
475.501	406.19
475.72	438.19
475.939	425.19
476.158	443.19
476.377	418.19
476.596	438.19
476.814	426.19
477.033	428.19
477.252	443.19
477.471	419.19
477.69	436.19
477.908	453.19
478.127	423.19
478.346	442.19
478.564	461.19
478.783	446.19
479.002	455.19
479.22	453.19
479.439	482.19
479.658	516.19
479.876	515.19
480.095	512.19
480.313	536.19
480.532	510.19
480.751	511.19
480.969	501.19
481.188	594.19
481.406	663.19
481.624	600.19
481.843	541.19
482.061	494.19
482.28	513.19
482.498	487.19
482.717	517.19
482.935	497.19
483.153	495.19
483.372	485.19
483.59	479.19
483.808	510.19
484.027	480.19
484.245	473.19
484.463	491.19
484.681	490.19
484.9	496.19
485.118	489.19
485.336	492.19
485.554	498.19
485.772	501.19
485.99	534.19
486.209	491.19
486.427	502.19
486.645	525.19
486.863	551.19
487.081	554.19
487.299	515.19
487.517	526.19
487.735	530.19
487.953	525.19
488.171	531.19
488.389	541.19
488.607	521.19
488.825	522.19
489.043	525.19
489.261	546.19
489.479	554.19
489.696	534.19
489.914	521.19
490.132	539.19
490.35	538.19
490.568	539.19
490.786	571.19
491.003	567.19
491.221	571.19
491.439	595.19
491.657	610.19
491.874	611.19
492.092	623.19
492.31	603.19
492.527	579.19
492.745	629.19
492.963	633.19
493.18	618.19
493.398	662.19
493.615	626.19
493.833	606.19
494.05	626.19
494.268	620.19
494.485	630.19
494.703	613.19
494.92	622.19
495.138	606.19
495.355	637.19
495.573	628.19
495.79	614.19
496.008	622.19
496.225	638.19
496.442	616.19
496.66	658.19
496.877	595.19
497.094	626.19
497.312	647.19
497.529	648.19
497.746	657.19
497.963	646.19
498.181	686.19
498.398	656.19
498.615	652.19
498.832	643.19
499.049	677.19
499.267	686.19
499.484	663.19
499.701	721.19
499.918	713.19
500.135	736.19
500.352	727.19
500.569	766.19
500.786	749.19
501.003	755.19
501.22	747.19
501.437	748.19
501.654	747.19
501.871	747.19
