Data from 1972.PennyLincolnUp.Lamp.En5.5.200Scan.071719.P1._HRD10591_15-27-45-844.txt Node
Date: Thu Jul 18 15:27:45 EDT 2019
User: cochatt
Spectrometer: HR+D1059
Trigger mode: 1
Integration Time (sec): 1.000000E-1
Scans to average: 1
Electric dark correction enabled: true
Nonlinearity correction enabled: false
Boxcar width: 0
XAxis mode: Wavelengths
Number of Pixels in Spectrum: 2048
>>>>>Begin Spectral Data<<<<<
223.165	-14.19
223.4	-14.19
223.635	-14.19
223.869	-23.19
224.104	-19.19
224.338	-15.19
224.573	-13.19
224.808	-10.19
225.042	-0.19
225.277	-13.19
225.511	-1.19
225.746	2.81
225.98	7.81
226.215	4.81
226.449	22.81
226.683	19.81
226.918	23.81
227.152	27.81
227.387	25.81
227.621	37.81
227.856	47.81
228.09	37.81
228.324	54.81
228.559	56.81
228.793	71.81
229.027	110.81
229.262	97.81
229.496	118.81
229.73	136.81
229.964	145.81
230.199	139.81
230.433	126.81
230.667	112.81
230.901	110.81
231.136	111.81
231.37	124.81
231.604	113.81
231.838	121.81
232.072	126.81
232.306	117.81
232.541	123.81
232.775	121.81
233.009	130.81
233.243	130.81
233.477	115.81
233.711	117.81
233.945	123.81
234.179	111.81
234.413	123.81
234.647	120.81
234.881	115.81
235.115	117.81
235.349	115.81
235.583	128.81
235.817	121.81
236.051	121.81
236.285	127.81
236.519	129.81
236.753	138.81
236.987	155.81
237.221	191.81
237.455	234.81
237.689	190.81
237.922	152.81
238.156	137.81
238.39	127.81
238.624	129.81
238.858	129.81
239.091	126.81
239.325	124.81
239.559	132.81
239.793	151.81
240.027	139.81
240.26	145.81
240.494	162.81
240.728	145.81
240.961	148.81
241.195	143.81
241.429	134.81
241.662	135.81
241.896	142.81
242.13	135.81
242.363	132.81
242.597	145.81
242.83	143.81
243.064	145.81
243.298	137.81
243.531	135.81
243.765	141.81
243.998	155.81
244.232	139.81
244.465	137.81
244.699	146.81
244.932	136.81
245.166	144.81
245.399	156.81
245.633	142.81
245.866	139.81
246.099	148.81
246.333	148.81
246.566	151.81
246.8	152.81
247.033	149.81
247.266	149.81
247.5	145.81
247.733	172.81
247.966	169.81
248.2	172.81
248.433	174.81
248.666	188.81
248.899	186.81
249.133	199.81
249.366	230.81
249.599	200.81
249.832	197.81
250.066	188.81
250.299	189.81
250.532	195.81
250.765	214.81
250.998	222.81
251.231	230.81
251.465	215.81
251.698	193.81
251.931	194.81
252.164	190.81
252.397	201.81
252.63	199.81
252.863	206.81
253.096	219.81
253.329	232.81
253.562	239.81
253.795	218.81
254.028	216.81
254.261	240.81
254.494	232.81
254.727	250.81
254.96	277.81
255.193	267.81
255.426	247.81
255.659	235.81
255.892	239.81
256.124	259.81
256.357	248.81
256.59	226.81
256.823	223.81
257.056	210.81
257.289	221.81
257.521	215.81
257.754	188.81
257.987	210.81
258.22	218.81
258.452	208.81
258.685	215.81
258.918	206.81
259.151	201.81
259.383	211.81
259.616	222.81
259.849	235.81
260.081	233.81
260.314	250.81
260.547	259.81
260.779	240.81
261.012	237.81
261.244	221.81
261.477	219.81
261.71	227.81
261.942	245.81
262.175	224.81
262.407	238.81
262.64	218.81
262.872	222.81
263.105	211.81
263.337	216.81
263.57	213.81
263.802	213.81
264.035	202.81
264.267	196.81
264.499	213.81
264.732	196.81
264.964	205.81
265.197	215.81
265.429	212.81
265.661	192.81
265.894	226.81
266.126	208.81
266.358	202.81
266.591	211.81
266.823	219.81
267.055	214.81
267.287	217.81
267.52	228.81
267.752	234.81
267.984	230.81
268.216	234.81
268.448	241.81
268.681	219.81
268.913	239.81
269.145	250.81
269.377	266.81
269.609	270.81
269.841	260.81
270.073	277.81
270.306	292.81
270.538	312.81
270.77	309.81
271.002	291.81
271.234	282.81
271.466	305.81
271.698	299.81
271.93	302.81
272.162	321.81
272.394	324.81
272.626	314.81
272.858	305.81
273.09	292.81
273.322	275.81
273.553	269.81
273.785	276.81
274.017	283.81
274.249	270.81
274.481	261.81
274.713	247.81
274.945	290.81
275.176	270.81
275.408	271.81
275.64	256.81
275.872	271.81
276.104	255.81
276.335	261.81
276.567	284.81
276.799	290.81
277.031	309.81
277.262	315.81
277.494	325.81
277.726	297.81
277.957	298.81
278.189	288.81
278.421	272.81
278.652	269.81
278.884	261.81
279.115	259.81
279.347	265.81
279.579	258.81
279.81	256.81
280.042	248.81
280.273	257.81
280.505	260.81
280.736	276.81
280.968	275.81
281.199	267.81
281.431	258.81
281.662	265.81
281.894	279.81
282.125	267.81
282.356	284.81
282.588	311.81
282.819	301.81
283.051	271.81
283.282	297.81
283.513	271.81
283.745	267.81
283.976	276.81
284.207	259.81
284.439	271.81
284.67	284.81
284.901	261.81
285.132	280.81
285.364	276.81
285.595	260.81
285.826	277.81
286.057	275.81
286.288	251.81
286.52	282.81
286.751	254.81
286.982	270.81
287.213	270.81
287.444	262.81
287.675	281.81
287.906	282.81
288.138	278.81
288.369	302.81
288.6	309.81
288.831	295.81
289.062	295.81
289.293	279.81
289.524	280.81
289.755	283.81
289.986	284.81
290.217	278.81
290.448	280.81
290.679	273.81
290.91	278.81
291.141	261.81
291.371	296.81
291.602	279.81
291.833	275.81
292.064	279.81
292.295	267.81
292.526	261.81
292.757	291.81
292.987	282.81
293.218	274.81
293.449	272.81
293.68	265.81
293.91	261.81
294.141	270.81
294.372	275.81
294.603	271.81
294.833	281.81
295.064	277.81
295.295	269.81
295.525	267.81
295.756	290.81
295.987	300.81
296.217	315.81
296.448	333.81
296.679	294.81
296.909	293.81
297.14	262.81
297.37	269.81
297.601	283.81
297.831	277.81
298.062	278.81
298.292	290.81
298.523	279.81
298.753	289.81
298.984	278.81
299.214	285.81
299.445	287.81
299.675	290.81
299.905	288.81
300.136	274.81
300.366	305.81
300.597	296.81
300.827	306.81
301.057	294.81
301.288	314.81
301.518	314.81
301.748	303.81
301.979	306.81
302.209	310.81
302.439	305.81
302.669	311.81
302.9	304.81
303.13	302.81
303.36	304.81
303.59	319.81
303.82	333.81
304.051	320.81
304.281	319.81
304.511	323.81
304.741	302.81
304.971	320.81
305.201	288.81
305.431	297.81
305.661	311.81
305.891	327.81
306.121	305.81
306.352	316.81
306.582	319.81
306.812	312.81
307.042	300.81
307.272	306.81
307.502	334.81
307.731	321.81
307.961	325.81
308.191	318.81
308.421	311.81
308.651	329.81
308.881	330.81
309.111	346.81
309.341	319.81
309.571	328.81
309.8	346.81
310.03	359.81
310.26	359.81
310.49	378.81
310.72	364.81
310.949	377.81
311.179	393.81
311.409	391.81
311.639	361.81
311.868	367.81
312.098	354.81
312.328	361.81
312.557	391.81
312.787	413.81
313.017	414.81
313.246	381.81
313.476	356.81
313.706	357.81
313.935	384.81
314.165	384.81
314.394	392.81
314.624	390.81
314.853	389.81
315.083	374.81
315.312	369.81
315.542	363.81
315.771	344.81
316.001	340.81
316.23	359.81
316.46	352.81
316.689	355.81
316.919	388.81
317.148	375.81
317.377	377.81
317.607	369.81
317.836	367.81
318.065	370.81
318.295	367.81
318.524	348.81
318.753	351.81
318.983	359.81
319.212	369.81
319.441	367.81
319.67	390.81
319.9	359.81
320.129	358.81
320.358	381.81
320.587	376.81
320.816	400.81
321.046	411.81
321.275	390.81
321.504	389.81
321.733	384.81
321.962	381.81
322.191	414.81
322.42	434.81
322.649	454.81
322.878	459.81
323.108	467.81
323.337	482.81
323.566	517.81
323.795	554.81
324.024	607.81
324.253	734.81
324.482	1097.81
324.71	1704.81
324.939	2544.81
325.168	2183.81
325.397	1096.81
325.626	705.81
325.855	607.81
326.084	525.81
326.313	525.81
326.542	516.81
326.77	575.81
326.999	663.81
327.228	953.81
327.457	1495.81
327.686	1861.81
327.914	1235.81
328.143	821.81
328.372	684.81
328.6	643.81
328.829	587.81
329.058	597.81
329.287	624.81
329.515	577.81
329.744	531.81
329.972	534.81
330.201	559.81
330.43	601.81
330.658	599.81
330.887	645.81
331.115	633.81
331.344	560.81
331.572	513.81
331.801	495.81
332.03	470.81
332.258	476.81
332.486	458.81
332.715	449.81
332.943	457.81
333.172	443.81
333.4	464.81
333.629	454.81
333.857	451.81
334.085	461.81
334.314	485.81
334.542	514.81
334.771	551.81
334.999	488.81
335.227	445.81
335.455	417.81
335.684	431.81
335.912	424.81
336.14	416.81
336.369	403.81
336.597	423.81
336.825	441.81
337.053	425.81
337.281	423.81
337.51	406.81
337.738	411.81
337.966	416.81
338.194	413.81
338.422	416.81
338.65	415.81
338.878	409.81
339.106	397.81
339.334	399.81
339.562	418.81
339.79	416.81
340.018	412.81
340.246	395.81
340.474	421.81
340.702	404.81
340.93	420.81
341.158	396.81
341.386	397.81
341.614	428.81
341.842	410.81
342.07	414.81
342.298	396.81
342.526	390.81
342.754	364.81
342.981	384.81
343.209	385.81
343.437	366.81
343.665	393.81
343.893	401.81
344.12	399.81
344.348	394.81
344.576	406.81
344.804	409.81
345.031	399.81
345.259	416.81
345.487	415.81
345.714	414.81
345.942	412.81
346.17	374.81
346.397	391.81
346.625	395.81
346.853	381.81
347.08	399.81
347.308	418.81
347.535	394.81
347.763	410.81
347.99	403.81
348.218	397.81
348.445	422.81
348.673	398.81
348.9	399.81
349.128	411.81
349.355	397.81
349.583	384.81
349.81	375.81
350.037	388.81
350.265	376.81
350.492	389.81
350.72	378.81
350.947	379.81
351.174	378.81
351.402	400.81
351.629	425.81
351.856	401.81
352.083	398.81
352.311	427.81
352.538	416.81
352.765	405.81
352.992	389.81
353.22	389.81
353.447	420.81
353.674	394.81
353.901	361.81
354.128	384.81
354.355	363.81
354.583	364.81
354.81	370.81
355.037	365.81
355.264	360.81
355.491	345.81
355.718	346.81
355.945	366.81
356.172	374.81
356.399	360.81
356.626	340.81
356.853	358.81
357.08	363.81
357.307	365.81
357.534	352.81
357.761	361.81
357.988	358.81
358.215	355.81
358.441	353.81
358.668	382.81
358.895	347.81
359.122	383.81
359.349	391.81
359.576	381.81
359.802	430.81
360.029	447.81
360.256	443.81
360.483	427.81
360.709	398.81
360.936	393.81
361.163	393.81
361.39	386.81
361.616	403.81
361.843	400.81
362.07	379.81
362.296	387.81
362.523	382.81
362.749	397.81
362.976	384.81
363.203	368.81
363.429	370.81
363.656	369.81
363.882	377.81
364.109	363.81
364.335	362.81
364.562	393.81
364.788	370.81
365.015	345.81
365.241	347.81
365.468	367.81
365.694	354.81
365.92	384.81
366.147	353.81
366.373	384.81
366.599	373.81
366.826	372.81
367.052	368.81
367.278	381.81
367.505	384.81
367.731	371.81
367.957	362.81
368.184	351.81
368.41	379.81
368.636	395.81
368.862	387.81
369.089	380.81
369.315	359.81
369.541	357.81
369.767	359.81
369.993	357.81
370.219	381.81
370.445	373.81
370.672	354.81
370.898	354.81
371.124	366.81
371.35	370.81
371.576	358.81
371.802	366.81
372.028	352.81
372.254	378.81
372.48	358.81
372.706	335.81
372.932	345.81
373.158	366.81
373.384	358.81
373.61	344.81
373.835	361.81
374.061	370.81
374.287	351.81
374.513	359.81
374.739	346.81
374.965	366.81
375.191	343.81
375.416	361.81
375.642	359.81
375.868	371.81
376.094	338.81
376.319	367.81
376.545	358.81
376.771	359.81
376.997	344.81
377.222	339.81
377.448	358.81
377.674	357.81
377.899	341.81
378.125	346.81
378.35	359.81
378.576	350.81
378.802	364.81
379.027	353.81
379.253	358.81
379.478	346.81
379.704	352.81
379.929	352.81
380.155	349.81
380.38	360.81
380.606	357.81
380.831	343.81
381.057	334.81
381.282	347.81
381.507	349.81
381.733	358.81
381.958	353.81
382.184	352.81
382.409	341.81
382.634	339.81
382.86	357.81
383.085	367.81
383.31	365.81
383.535	349.81
383.761	353.81
383.986	355.81
384.211	347.81
384.436	355.81
384.662	366.81
384.887	362.81
385.112	358.81
385.337	347.81
385.562	378.81
385.787	355.81
386.013	401.81
386.238	387.81
386.463	373.81
386.688	381.81
386.913	384.81
387.138	364.81
387.363	393.81
387.588	361.81
387.813	383.81
388.038	369.81
388.263	364.81
388.488	368.81
388.713	384.81
388.938	374.81
389.163	385.81
389.387	381.81
389.612	367.81
389.837	366.81
390.062	393.81
390.287	377.81
390.512	382.81
390.736	366.81
390.961	373.81
391.186	411.81
391.411	386.81
391.636	378.81
391.86	372.81
392.085	376.81
392.31	382.81
392.534	374.81
392.759	369.81
392.984	377.81
393.208	385.81
393.433	401.81
393.658	393.81
393.882	379.81
394.107	389.81
394.331	374.81
394.556	376.81
394.78	387.81
395.005	399.81
395.229	366.81
395.454	373.81
395.678	395.81
395.903	404.81
396.127	413.81
396.352	419.81
396.576	399.81
396.801	390.81
397.025	393.81
397.249	416.81
397.474	397.81
397.698	392.81
397.922	395.81
398.147	421.81
398.371	425.81
398.595	412.81
398.82	427.81
399.044	423.81
399.268	439.81
399.492	441.81
399.717	456.81
399.941	477.81
400.165	505.81
400.389	530.81
400.613	491.81
400.837	467.81
401.062	459.81
401.286	444.81
401.51	439.81
401.734	421.81
401.958	427.81
402.182	447.81
402.406	453.81
402.63	445.81
402.854	431.81
403.078	441.81
403.302	453.81
403.526	438.81
403.75	441.81
403.974	434.81
404.198	446.81
404.422	449.81
404.645	448.81
404.869	450.81
405.093	465.81
405.317	542.81
405.541	540.81
405.765	514.81
405.988	493.81
406.212	488.81
406.436	521.81
406.66	517.81
406.883	484.81
407.107	487.81
407.331	530.81
407.555	622.81
407.778	603.81
408.002	539.81
408.226	485.81
408.449	521.81
408.673	487.81
408.896	505.81
409.12	565.81
409.344	528.81
409.567	490.81
409.791	473.81
410.014	454.81
410.238	443.81
410.461	451.81
410.685	447.81
410.908	473.81
411.132	505.81
411.355	546.81
411.578	530.81
411.802	464.81
412.025	430.81
412.249	456.81
412.472	485.81
412.695	515.81
412.919	520.81
413.142	467.81
413.365	447.81
413.589	439.81
413.812	434.81
414.035	424.81
414.258	433.81
414.482	415.81
414.705	399.81
414.928	422.81
415.151	423.81
415.374	421.81
415.597	410.81
415.821	407.81
416.044	403.81
416.267	428.81
416.49	413.81
416.713	410.81
416.936	411.81
417.159	406.81
417.382	422.81
417.605	434.81
417.828	456.81
418.051	447.81
418.274	457.81
418.497	426.81
418.72	419.81
418.943	418.81
419.166	430.81
419.389	459.81
419.611	458.81
419.834	439.81
420.057	475.81
420.28	462.81
420.503	440.81
420.726	449.81
420.948	441.81
421.171	480.81
421.394	528.81
421.617	462.81
421.839	458.81
422.062	433.81
422.285	459.81
422.507	521.81
422.73	596.81
422.953	591.81
423.175	502.81
423.398	457.81
423.621	464.81
423.843	477.81
424.066	470.81
424.288	487.81
424.511	535.81
424.733	562.81
424.956	645.81
425.178	640.81
425.401	611.81
425.623	631.81
425.846	521.81
426.068	507.81
426.291	502.81
426.513	501.81
426.735	517.81
426.958	570.81
427.18	618.81
427.402	738.81
427.625	849.81
427.847	739.81
428.069	651.81
428.292	559.81
428.514	490.81
428.736	489.81
428.958	479.81
429.181	463.81
429.403	443.81
429.625	478.81
429.847	492.81
430.069	585.81
430.292	559.81
430.514	476.81
430.736	454.81
430.958	458.81
431.18	432.81
431.402	449.81
431.624	429.81
431.846	423.81
432.068	434.81
432.29	423.81
432.512	411.81
432.734	415.81
432.956	438.81
433.178	441.81
433.4	456.81
433.622	440.81
433.844	430.81
434.066	431.81
434.287	418.81
434.509	422.81
434.731	447.81
434.953	441.81
435.175	461.81
435.397	480.81
435.618	495.81
435.84	531.81
436.062	656.81
436.284	697.81
436.505	586.81
436.727	503.81
436.949	480.81
437.17	456.81
437.392	453.81
437.614	461.81
437.835	531.81
438.057	620.81
438.278	727.81
438.5	727.81
438.721	778.81
438.943	719.81
439.165	586.81
439.386	540.81
439.608	526.81
439.829	553.81
440.05	559.81
440.272	635.81
440.493	575.81
440.715	505.81
440.936	464.81
441.158	441.81
441.379	452.81
441.6	464.81
441.822	486.81
442.043	531.81
442.264	619.81
442.486	657.81
442.707	587.81
442.928	506.81
443.149	535.81
443.371	560.81
443.592	603.81
443.813	674.81
444.034	746.81
444.255	615.81
444.476	536.81
444.698	509.81
444.919	501.81
445.14	621.81
445.361	563.81
445.582	545.81
445.803	612.81
446.024	720.81
446.245	738.81
446.466	687.81
446.687	559.81
446.908	509.81
447.129	492.81
447.35	483.81
447.571	451.81
447.792	459.81
448.013	451.81
448.234	471.81
448.455	537.81
448.675	670.81
448.896	753.81
449.117	641.81
449.338	605.81
449.559	716.81
449.779	799.81
450	653.81
450.221	529.81
450.442	486.81
450.662	454.81
450.883	473.81
451.104	485.81
451.324	465.81
451.545	459.81
451.766	439.81
451.986	429.81
452.207	411.81
452.428	405.81
452.648	410.81
452.869	425.81
453.089	414.81
453.31	446.81
453.53	420.81
453.751	432.81
453.971	425.81
454.192	418.81
454.412	425.81
454.633	400.81
454.853	421.81
455.073	434.81
455.294	446.81
455.514	503.81
455.734	496.81
455.955	426.81
456.175	411.81
456.395	387.81
456.616	383.81
456.836	399.81
457.056	390.81
457.276	378.81
457.497	391.81
457.717	389.81
457.937	376.81
458.157	397.81
458.377	403.81
458.598	413.81
458.818	482.81
459.038	594.81
459.258	595.81
459.478	491.81
459.698	465.81
459.918	428.81
460.138	434.81
460.358	406.81
460.578	425.81
460.798	426.81
461.018	433.81
461.238	443.81
461.458	430.81
461.678	403.81
461.898	400.81
462.118	417.81
462.338	431.81
462.558	423.81
462.777	415.81
462.997	451.81
463.217	440.81
463.437	425.81
463.657	441.81
463.876	431.81
464.096	432.81
464.316	426.81
464.536	450.81
464.755	431.81
464.975	450.81
465.195	523.81
465.414	616.81
465.634	519.81
465.854	493.81
466.073	457.81
466.293	431.81
466.512	433.81
466.732	405.81
466.951	401.81
467.171	412.81
467.391	409.81
467.61	433.81
467.829	427.81
468.049	433.81
468.268	429.81
468.488	427.81
468.707	410.81
468.927	401.81
469.146	395.81
469.365	438.81
469.585	405.81
469.804	408.81
470.023	414.81
470.243	427.81
470.462	433.81
470.681	455.81
470.901	432.81
471.12	434.81
471.339	424.81
471.558	426.81
471.777	406.81
471.997	417.81
472.216	429.81
472.435	460.81
472.654	465.81
472.873	431.81
473.092	438.81
473.311	417.81
473.53	412.81
473.749	447.81
473.968	473.81
474.187	574.81
474.406	597.81
474.625	497.81
474.844	439.81
475.063	441.81
475.282	414.81
475.501	432.81
475.72	419.81
475.939	440.81
476.158	435.81
476.377	432.81
476.596	446.81
476.814	454.81
477.033	448.81
477.252	472.81
477.471	470.81
477.69	464.81
477.908	452.81
478.127	456.81
478.346	458.81
478.564	466.81
478.783	454.81
479.002	463.81
479.22	451.81
479.439	480.81
479.658	515.81
479.876	533.81
480.095	525.81
480.313	539.81
480.532	522.81
480.751	503.81
480.969	513.81
481.188	633.81
481.406	660.81
481.624	555.81
481.843	529.81
482.061	499.81
482.28	488.81
482.498	515.81
482.717	507.81
482.935	511.81
483.153	496.81
483.372	489.81
483.59	506.81
483.808	474.81
484.027	487.81
484.245	491.81
484.463	521.81
484.681	517.81
484.9	493.81
485.118	489.81
485.336	523.81
485.554	515.81
485.772	517.81
485.99	541.81
486.209	518.81
486.427	523.81
486.645	518.81
486.863	562.81
487.081	557.81
487.299	545.81
487.517	541.81
487.735	521.81
487.953	525.81
488.171	543.81
488.389	532.81
488.607	521.81
488.825	528.81
489.043	536.81
489.261	540.81
489.479	563.81
489.696	539.81
489.914	547.81
490.132	543.81
490.35	568.81
490.568	550.81
490.786	573.81
491.003	562.81
491.221	573.81
491.439	599.81
491.657	584.81
491.874	608.81
492.092	608.81
492.31	617.81
492.527	617.81
492.745	623.81
492.963	618.81
493.18	616.81
493.398	627.81
493.615	637.81
493.833	643.81
494.05	621.81
494.268	629.81
494.485	611.81
494.703	620.81
494.92	636.81
495.138	633.81
495.355	647.81
495.573	629.81
495.79	619.81
496.008	654.81
496.225	643.81
496.442	632.81
496.66	637.81
496.877	619.81
497.094	605.81
497.312	659.81
497.529	643.81
497.746	651.81
497.963	663.81
498.181	670.81
498.398	690.81
498.615	686.81
498.832	691.81
499.049	699.81
499.267	695.81
499.484	714.81
499.701	729.81
499.918	731.81
500.135	766.81
500.352	804.81
500.569	789.81
500.786	770.81
501.003	806.81
501.22	761.81
501.437	772.81
501.654	768.81
501.871	791.81
