Data from 1972.PennyLincolnUp.Lamp.En5.5.200Scan.071719.P1._HRD10591_15-29-40-844.txt Node
Date: Thu Jul 18 15:29:40 EDT 2019
User: cochatt
Spectrometer: HR+D1059
Trigger mode: 1
Integration Time (sec): 1.000000E-1
Scans to average: 1
Electric dark correction enabled: true
Nonlinearity correction enabled: false
Boxcar width: 0
XAxis mode: Wavelengths
Number of Pixels in Spectrum: 2048
>>>>>Begin Spectral Data<<<<<
223.165	-8.69
223.4	-8.69
223.635	-8.69
223.869	-21.69
224.104	-19.69
224.338	-7.69
224.573	-0.69
224.808	-5.69
225.042	-4.69
225.277	-15.69
225.511	-1.69
225.746	1.31
225.98	11.31
226.215	16.31
226.449	13.31
226.683	15.31
226.918	14.31
227.152	14.31
227.387	31.31
227.621	29.31
227.856	31.31
228.09	36.31
228.324	41.31
228.559	53.31
228.793	74.31
229.027	99.31
229.262	115.31
229.496	115.31
229.73	131.31
229.964	164.31
230.199	151.31
230.433	114.31
230.667	116.31
230.901	105.31
231.136	119.31
231.37	109.31
231.604	123.31
231.838	129.31
232.072	126.31
232.306	111.31
232.541	108.31
232.775	115.31
233.009	132.31
233.243	108.31
233.477	107.31
233.711	109.31
233.945	115.31
234.179	118.31
234.413	125.31
234.647	125.31
234.881	136.31
235.115	113.31
235.349	123.31
235.583	124.31
235.817	124.31
236.051	131.31
236.285	127.31
236.519	133.31
236.753	136.31
236.987	147.31
237.221	201.31
237.455	253.31
237.689	226.31
237.922	151.31
238.156	138.31
238.39	139.31
238.624	128.31
238.858	133.31
239.091	134.31
239.325	139.31
239.559	127.31
239.793	148.31
240.027	134.31
240.26	135.31
240.494	168.31
240.728	157.31
240.961	170.31
241.195	162.31
241.429	133.31
241.662	138.31
241.896	132.31
242.13	134.31
242.363	128.31
242.597	131.31
242.83	124.31
243.064	144.31
243.298	154.31
243.531	130.31
243.765	144.31
243.998	120.31
244.232	137.31
244.465	145.31
244.699	132.31
244.932	140.31
245.166	143.31
245.399	135.31
245.633	137.31
245.866	159.31
246.099	146.31
246.333	155.31
246.566	171.31
246.8	153.31
247.033	157.31
247.266	164.31
247.5	165.31
247.733	179.31
247.966	172.31
248.2	162.31
248.433	169.31
248.666	184.31
248.899	208.31
249.133	218.31
249.366	235.31
249.599	219.31
249.832	196.31
250.066	186.31
250.299	200.31
250.532	208.31
250.765	201.31
250.998	242.31
251.231	236.31
251.465	249.31
251.698	215.31
251.931	211.31
252.164	212.31
252.397	210.31
252.63	210.31
252.863	220.31
253.096	220.31
253.329	228.31
253.562	234.31
253.795	236.31
254.028	250.31
254.261	231.31
254.494	234.31
254.727	276.31
254.96	296.31
255.193	286.31
255.426	254.31
255.659	242.31
255.892	245.31
256.124	264.31
256.357	251.31
256.59	256.31
256.823	242.31
257.056	244.31
257.289	233.31
257.521	223.31
257.754	230.31
257.987	219.31
258.22	223.31
258.452	216.31
258.685	226.31
258.918	218.31
259.151	229.31
259.383	229.31
259.616	228.31
259.849	236.31
260.081	259.31
260.314	265.31
260.547	284.31
260.779	257.31
261.012	266.31
261.244	229.31
261.477	248.31
261.71	228.31
261.942	226.31
262.175	258.31
262.407	256.31
262.64	231.31
262.872	213.31
263.105	218.31
263.337	229.31
263.57	227.31
263.802	228.31
264.035	201.31
264.267	210.31
264.499	211.31
264.732	222.31
264.964	199.31
265.197	199.31
265.429	213.31
265.661	220.31
265.894	219.31
266.126	235.31
266.358	231.31
266.591	228.31
266.823	233.31
267.055	217.31
267.287	229.31
267.52	245.31
267.752	246.31
267.984	239.31
268.216	241.31
268.448	244.31
268.681	251.31
268.913	249.31
269.145	274.31
269.377	287.31
269.609	282.31
269.841	277.31
270.073	299.31
270.306	307.31
270.538	333.31
270.77	345.31
271.002	328.31
271.234	329.31
271.466	327.31
271.698	331.31
271.93	359.31
272.162	348.31
272.394	354.31
272.626	340.31
272.858	319.31
273.09	315.31
273.322	289.31
273.553	285.31
273.785	281.31
274.017	280.31
274.249	291.31
274.481	282.31
274.713	269.31
274.945	277.31
275.176	277.31
275.408	294.31
275.64	287.31
275.872	275.31
276.104	293.31
276.335	280.31
276.567	276.31
276.799	306.31
277.031	344.31
277.262	343.31
277.494	349.31
277.726	331.31
277.957	310.31
278.189	293.31
278.421	293.31
278.652	280.31
278.884	268.31
279.115	285.31
279.347	273.31
279.579	279.31
279.81	271.31
280.042	279.31
280.273	290.31
280.505	276.31
280.736	274.31
280.968	250.31
281.199	269.31
281.431	251.31
281.662	273.31
281.894	250.31
282.125	281.31
282.356	301.31
282.588	338.31
282.819	346.31
283.051	304.31
283.282	275.31
283.513	292.31
283.745	285.31
283.976	295.31
284.207	305.31
284.439	296.31
284.67	283.31
284.901	288.31
285.132	283.31
285.364	280.31
285.595	280.31
285.826	277.31
286.057	271.31
286.288	280.31
286.52	281.31
286.751	270.31
286.982	287.31
287.213	282.31
287.444	290.31
287.675	276.31
287.906	292.31
288.138	295.31
288.369	303.31
288.6	312.31
288.831	311.31
289.062	321.31
289.293	301.31
289.524	308.31
289.755	307.31
289.986	299.31
290.217	291.31
290.448	287.31
290.679	291.31
290.91	294.31
291.141	306.31
291.371	289.31
291.602	292.31
291.833	292.31
292.064	280.31
292.295	286.31
292.526	283.31
292.757	290.31
292.987	280.31
293.218	287.31
293.449	280.31
293.68	280.31
293.91	301.31
294.141	304.31
294.372	302.31
294.603	289.31
294.833	291.31
295.064	300.31
295.295	292.31
295.525	299.31
295.756	306.31
295.987	313.31
296.217	332.31
296.448	355.31
296.679	329.31
296.909	299.31
297.14	291.31
297.37	298.31
297.601	288.31
297.831	310.31
298.062	321.31
298.292	312.31
298.523	300.31
298.753	301.31
298.984	296.31
299.214	307.31
299.445	284.31
299.675	307.31
299.905	313.31
300.136	307.31
300.366	282.31
300.597	318.31
300.827	308.31
301.057	340.31
301.288	308.31
301.518	332.31
301.748	331.31
301.979	324.31
302.209	343.31
302.439	330.31
302.669	325.31
302.9	315.31
303.13	325.31
303.36	324.31
303.59	342.31
303.82	333.31
304.051	335.31
304.281	337.31
304.511	336.31
304.741	321.31
304.971	312.31
305.201	339.31
305.431	330.31
305.661	338.31
305.891	336.31
306.121	321.31
306.352	321.31
306.582	333.31
306.812	339.31
307.042	338.31
307.272	341.31
307.502	342.31
307.731	332.31
307.961	341.31
308.191	337.31
308.421	327.31
308.651	330.31
308.881	351.31
309.111	345.31
309.341	357.31
309.571	367.31
309.8	357.31
310.03	396.31
310.26	399.31
310.49	409.31
310.72	415.31
310.949	429.31
311.179	433.31
311.409	406.31
311.639	402.31
311.868	404.31
312.098	417.31
312.328	390.31
312.557	429.31
312.787	446.31
313.017	425.31
313.246	417.31
313.476	392.31
313.706	401.31
313.935	405.31
314.165	415.31
314.394	417.31
314.624	429.31
314.853	415.31
315.083	401.31
315.312	379.31
315.542	403.31
315.771	368.31
316.001	396.31
316.23	393.31
316.46	382.31
316.689	373.31
316.919	401.31
317.148	410.31
317.377	428.31
317.607	418.31
317.836	408.31
318.065	391.31
318.295	390.31
318.524	388.31
318.753	377.31
318.983	389.31
319.212	405.31
319.441	391.31
319.67	408.31
319.9	401.31
320.129	398.31
320.358	393.31
320.587	412.31
320.816	407.31
321.046	435.31
321.275	424.31
321.504	412.31
321.733	416.31
321.962	446.31
322.191	445.31
322.42	474.31
322.649	480.31
322.878	501.31
323.108	524.31
323.337	543.31
323.566	569.31
323.795	625.31
324.024	684.31
324.253	868.31
324.482	1285.31
324.71	2026.31
324.939	3043.31
325.168	2637.31
325.397	1292.31
325.626	826.31
325.855	682.31
326.084	587.31
326.313	588.31
326.542	574.31
326.77	666.31
326.999	785.31
327.228	1144.31
327.457	1792.31
327.686	2297.31
327.914	1510.31
328.143	909.31
328.372	769.31
328.6	732.31
328.829	673.31
329.058	670.31
329.287	701.31
329.515	653.31
329.744	582.31
329.972	581.31
330.201	620.31
330.43	673.31
330.658	696.31
330.887	760.31
331.115	712.31
331.344	608.31
331.572	563.31
331.801	556.31
332.03	555.31
332.258	536.31
332.486	480.31
332.715	473.31
332.943	478.31
333.172	482.31
333.4	482.31
333.629	473.31
333.857	491.31
334.085	522.31
334.314	554.31
334.542	585.31
334.771	629.31
334.999	572.31
335.227	519.31
335.455	477.31
335.684	440.31
335.912	459.31
336.14	458.31
336.369	456.31
336.597	475.31
336.825	452.31
337.053	452.31
337.281	440.31
337.51	444.31
337.738	436.31
337.966	429.31
338.194	443.31
338.422	464.31
338.65	438.31
338.878	453.31
339.106	413.31
339.334	434.31
339.562	426.31
339.79	433.31
340.018	433.31
340.246	473.31
340.474	449.31
340.702	437.31
340.93	442.31
341.158	435.31
341.386	447.31
341.614	441.31
341.842	437.31
342.07	399.31
342.298	421.31
342.526	427.31
342.754	409.31
342.981	405.31
343.209	417.31
343.437	398.31
343.665	424.31
343.893	419.31
344.12	441.31
344.348	415.31
344.576	415.31
344.804	439.31
345.031	453.31
345.259	466.31
345.487	457.31
345.714	409.31
345.942	406.31
346.17	415.31
346.397	403.31
346.625	406.31
346.853	432.31
347.08	425.31
347.308	437.31
347.535	449.31
347.763	459.31
347.99	433.31
348.218	442.31
348.445	436.31
348.673	441.31
348.9	443.31
349.128	419.31
349.355	407.31
349.583	405.31
349.81	402.31
350.037	400.31
350.265	416.31
350.492	399.31
350.72	401.31
350.947	406.31
351.174	433.31
351.402	461.31
351.629	427.31
351.856	443.31
352.083	464.31
352.311	450.31
352.538	452.31
352.765	439.31
352.992	438.31
353.22	424.31
353.447	431.31
353.674	425.31
353.901	395.31
354.128	412.31
354.355	381.31
354.583	393.31
354.81	395.31
355.037	383.31
355.264	377.31
355.491	361.31
355.718	405.31
355.945	389.31
356.172	368.31
356.399	380.31
356.626	380.31
356.853	368.31
357.08	361.31
357.307	385.31
357.534	360.31
357.761	393.31
357.988	395.31
358.215	382.31
358.441	376.31
358.668	394.31
358.895	401.31
359.122	407.31
359.349	411.31
359.576	438.31
359.802	446.31
360.029	483.31
360.256	501.31
360.483	507.31
360.709	426.31
360.936	423.31
361.163	436.31
361.39	418.31
361.616	426.31
361.843	384.31
362.07	422.31
362.296	443.31
362.523	403.31
362.749	409.31
362.976	381.31
363.203	397.31
363.429	411.31
363.656	407.31
363.882	404.31
364.109	389.31
364.335	383.31
364.562	405.31
364.788	387.31
365.015	415.31
365.241	397.31
365.468	412.31
365.694	417.31
365.92	388.31
366.147	397.31
366.373	383.31
366.599	403.31
366.826	367.31
367.052	370.31
367.278	389.31
367.505	390.31
367.731	393.31
367.957	407.31
368.184	383.31
368.41	370.31
368.636	412.31
368.862	387.31
369.089	391.31
369.315	391.31
369.541	368.31
369.767	377.31
369.993	359.31
370.219	375.31
370.445	372.31
370.672	388.31
370.898	376.31
371.124	360.31
371.35	391.31
371.576	375.31
371.802	404.31
372.028	364.31
372.254	389.31
372.48	382.31
372.706	373.31
372.932	381.31
373.158	371.31
373.384	374.31
373.61	397.31
373.835	381.31
374.061	387.31
374.287	368.31
374.513	373.31
374.739	379.31
374.965	395.31
375.191	368.31
375.416	385.31
375.642	390.31
375.868	363.31
376.094	378.31
376.319	375.31
376.545	380.31
376.771	383.31
376.997	360.31
377.222	345.31
377.448	382.31
377.674	367.31
377.899	369.31
378.125	368.31
378.35	376.31
378.576	362.31
378.802	359.31
379.027	363.31
379.253	358.31
379.478	382.31
379.704	387.31
379.929	382.31
380.155	378.31
380.38	353.31
380.606	354.31
380.831	352.31
381.057	368.31
381.282	381.31
381.507	376.31
381.733	370.31
381.958	372.31
382.184	380.31
382.409	380.31
382.634	388.31
382.86	379.31
383.085	375.31
383.31	383.31
383.535	399.31
383.761	398.31
383.986	373.31
384.211	388.31
384.436	390.31
384.662	392.31
384.887	387.31
385.112	371.31
385.337	361.31
385.562	379.31
385.787	383.31
386.013	413.31
386.238	416.31
386.463	416.31
386.688	386.31
386.913	367.31
387.138	387.31
387.363	387.31
387.588	402.31
387.813	398.31
388.038	377.31
388.263	394.31
388.488	379.31
388.713	388.31
388.938	375.31
389.163	405.31
389.387	403.31
389.612	388.31
389.837	378.31
390.062	398.31
390.287	377.31
390.512	376.31
390.736	398.31
390.961	394.31
391.186	394.31
391.411	403.31
391.636	407.31
391.86	392.31
392.085	395.31
392.31	384.31
392.534	396.31
392.759	412.31
392.984	409.31
393.208	408.31
393.433	409.31
393.658	419.31
393.882	395.31
394.107	398.31
394.331	399.31
394.556	401.31
394.78	376.31
395.005	399.31
395.229	387.31
395.454	420.31
395.678	403.31
395.903	410.31
396.127	441.31
396.352	428.31
396.576	409.31
396.801	420.31
397.025	428.31
397.249	413.31
397.474	422.31
397.698	432.31
397.922	423.31
398.147	468.31
398.371	444.31
398.595	438.31
398.82	429.31
399.044	443.31
399.268	451.31
399.492	450.31
399.717	480.31
399.941	491.31
400.165	569.31
400.389	553.31
400.613	528.31
400.837	472.31
401.062	471.31
401.286	465.31
401.51	439.31
401.734	448.31
401.958	469.31
402.182	469.31
402.406	462.31
402.63	470.31
402.854	458.31
403.078	448.31
403.302	447.31
403.526	457.31
403.75	469.31
403.974	457.31
404.198	442.31
404.422	460.31
404.645	489.31
404.869	469.31
405.093	517.31
405.317	566.31
405.541	585.31
405.765	549.31
405.988	509.31
406.212	522.31
406.436	546.31
406.66	540.31
406.883	504.31
407.107	548.31
407.331	584.31
407.555	665.31
407.778	654.31
408.002	593.31
408.226	553.31
408.449	545.31
408.673	545.31
408.896	556.31
409.12	609.31
409.344	565.31
409.567	515.31
409.791	490.31
410.014	511.31
410.238	473.31
410.461	495.31
410.685	476.31
410.908	499.31
411.132	527.31
411.355	587.31
411.578	554.31
411.802	492.31
412.025	494.31
412.249	496.31
412.472	532.31
412.695	582.31
412.919	569.31
413.142	495.31
413.365	478.31
413.589	476.31
413.812	455.31
414.035	443.31
414.258	420.31
414.482	431.31
414.705	459.31
414.928	445.31
415.151	459.31
415.374	427.31
415.597	433.31
415.821	444.31
416.044	462.31
416.267	434.31
416.49	440.31
416.713	444.31
416.936	441.31
417.159	440.31
417.382	453.31
417.605	461.31
417.828	478.31
418.051	459.31
418.274	472.31
418.497	436.31
418.72	448.31
418.943	425.31
419.166	448.31
419.389	487.31
419.611	455.31
419.834	477.31
420.057	451.31
420.28	484.31
420.503	497.31
420.726	460.31
420.948	499.31
421.171	543.31
421.394	560.31
421.617	513.31
421.839	465.31
422.062	462.31
422.285	498.31
422.507	547.31
422.73	643.31
422.953	617.31
423.175	529.31
423.398	511.31
423.621	531.31
423.843	526.31
424.066	533.31
424.288	528.31
424.511	543.31
424.733	587.31
424.956	687.31
425.178	663.31
425.401	651.31
425.623	695.31
425.846	583.31
426.068	558.31
426.291	513.31
426.513	564.31
426.735	543.31
426.958	589.31
427.18	684.31
427.402	821.31
427.625	941.31
427.847	832.31
428.069	714.31
428.292	616.31
428.514	535.31
428.736	533.31
428.958	514.31
429.181	508.31
429.403	476.31
429.625	501.31
429.847	515.31
430.069	600.31
430.292	618.31
430.514	511.31
430.736	497.31
430.958	477.31
431.18	422.31
431.402	453.31
431.624	465.31
431.846	447.31
432.068	436.31
432.29	451.31
432.512	448.31
432.734	471.31
432.956	480.31
433.178	488.31
433.4	479.31
433.622	462.31
433.844	471.31
434.066	442.31
434.287	459.31
434.509	451.31
434.731	455.31
434.953	455.31
435.175	526.31
435.397	517.31
435.618	535.31
435.84	591.31
436.062	687.31
436.284	747.31
436.505	640.31
436.727	569.31
436.949	526.31
437.17	513.31
437.392	486.31
437.614	533.31
437.835	563.31
438.057	673.31
438.278	803.31
438.5	776.31
438.721	842.31
438.943	815.31
439.165	653.31
439.386	583.31
439.608	579.31
439.829	565.31
440.05	606.31
440.272	653.31
440.493	599.31
440.715	552.31
440.936	528.31
441.158	493.31
441.379	502.31
441.6	517.31
441.822	539.31
442.043	598.31
442.264	666.31
442.486	728.31
442.707	620.31
442.928	554.31
443.149	580.31
443.371	603.31
443.592	640.31
443.813	717.31
444.034	811.31
444.255	651.31
444.476	563.31
444.698	540.31
444.919	523.31
445.14	613.31
445.361	595.31
445.582	592.31
445.803	684.31
446.024	811.31
446.245	830.31
446.466	729.31
446.687	612.31
446.908	540.31
447.129	522.31
447.35	512.31
447.571	514.31
447.792	486.31
448.013	519.31
448.234	550.31
448.455	587.31
448.675	707.31
448.896	816.31
449.117	691.31
449.338	631.31
449.559	745.31
449.779	891.31
450	693.31
450.221	578.31
450.442	527.31
450.662	504.31
450.883	531.31
451.104	561.31
451.324	506.31
451.545	466.31
451.766	455.31
451.986	429.31
452.207	435.31
452.428	442.31
452.648	437.31
452.869	448.31
453.089	469.31
453.31	482.31
453.53	478.31
453.751	446.31
453.971	434.31
454.192	459.31
454.412	474.31
454.633	455.31
454.853	451.31
455.073	449.31
455.294	473.31
455.514	553.31
455.734	541.31
455.955	435.31
456.175	410.31
456.395	405.31
456.616	415.31
456.836	406.31
457.056	425.31
457.276	407.31
457.497	412.31
457.717	396.31
457.937	404.31
458.157	433.31
458.377	440.31
458.598	455.31
458.818	552.31
459.038	634.31
459.258	663.31
459.478	543.31
459.698	464.31
459.918	467.31
460.138	437.31
460.358	416.31
460.578	434.31
460.798	450.31
461.018	460.31
461.238	473.31
461.458	441.31
461.678	432.31
461.898	444.31
462.118	422.31
462.338	453.31
462.558	452.31
462.777	467.31
462.997	466.31
463.217	473.31
463.437	447.31
463.657	450.31
463.876	456.31
464.096	467.31
464.316	469.31
464.536	458.31
464.755	489.31
464.975	472.31
465.195	547.31
465.414	645.31
465.634	572.31
465.854	516.31
466.073	491.31
466.293	457.31
466.512	458.31
466.732	453.31
466.951	426.31
467.171	417.31
467.391	452.31
467.61	471.31
467.829	481.31
468.049	448.31
468.268	474.31
468.488	431.31
468.707	437.31
468.927	437.31
469.146	433.31
469.365	429.31
469.585	416.31
469.804	419.31
470.023	469.31
470.243	459.31
470.462	466.31
470.681	478.31
470.901	473.31
471.12	439.31
471.339	448.31
471.558	456.31
471.777	464.31
471.997	460.31
472.216	468.31
472.435	502.31
472.654	509.31
472.873	482.31
473.092	454.31
473.311	458.31
473.53	443.31
473.749	485.31
473.968	520.31
474.187	661.31
474.406	704.31
474.625	532.31
474.844	490.31
475.063	465.31
475.282	437.31
475.501	436.31
475.72	448.31
475.939	460.31
476.158	478.31
476.377	471.31
476.596	459.31
476.814	464.31
477.033	488.31
477.252	489.31
477.471	475.31
477.69	487.31
477.908	474.31
478.127	461.31
478.346	479.31
478.564	477.31
478.783	488.31
479.002	498.31
479.22	524.31
479.439	500.31
479.658	534.31
479.876	575.31
480.095	569.31
480.313	582.31
480.532	574.31
480.751	550.31
480.969	589.31
481.188	686.31
481.406	720.31
481.624	592.31
481.843	552.31
482.061	544.31
482.28	532.31
482.498	540.31
482.717	513.31
482.935	525.31
483.153	517.31
483.372	533.31
483.59	557.31
483.808	517.31
484.027	547.31
484.245	531.31
484.463	527.31
484.681	536.31
484.9	549.31
485.118	540.31
485.336	544.31
485.554	550.31
485.772	546.31
485.99	543.31
486.209	544.31
486.427	566.31
486.645	559.31
486.863	584.31
487.081	586.31
487.299	572.31
487.517	571.31
487.735	544.31
487.953	552.31
488.171	556.31
488.389	564.31
488.607	577.31
488.825	573.31
489.043	589.31
489.261	571.31
489.479	578.31
489.696	572.31
489.914	565.31
490.132	588.31
490.35	600.31
490.568	595.31
490.786	595.31
491.003	596.31
491.221	621.31
491.439	633.31
491.657	633.31
491.874	669.31
492.092	653.31
492.31	661.31
492.527	677.31
492.745	669.31
492.963	687.31
493.18	676.31
493.398	680.31
493.615	695.31
493.833	683.31
494.05	683.31
494.268	656.31
494.485	675.31
494.703	680.31
494.92	656.31
495.138	658.31
495.355	691.31
495.573	711.31
495.79	689.31
496.008	687.31
496.225	680.31
496.442	663.31
496.66	674.31
496.877	650.31
497.094	696.31
497.312	695.31
497.529	720.31
497.746	712.31
497.963	727.31
498.181	764.31
498.398	711.31
498.615	735.31
498.832	743.31
499.049	769.31
499.267	743.31
499.484	773.31
499.701	775.31
499.918	763.31
500.135	826.31
500.352	815.31
500.569	814.31
500.786	844.31
501.003	827.31
501.22	885.31
501.437	822.31
501.654	799.31
501.871	835.31
