Data from 1972.PennyLincolnUp.Lamp.En5.5.200Scan.071719.P1._HRD10591_15-27-55-843.txt Node
Date: Thu Jul 18 15:27:55 EDT 2019
User: cochatt
Spectrometer: HR+D1059
Trigger mode: 1
Integration Time (sec): 1.000000E-1
Scans to average: 1
Electric dark correction enabled: true
Nonlinearity correction enabled: false
Boxcar width: 0
XAxis mode: Wavelengths
Number of Pixels in Spectrum: 2048
>>>>>Begin Spectral Data<<<<<
223.165	-6.5
223.4	-6.5
223.635	-6.5
223.869	-29.5
224.104	-15.5
224.338	-9.5
224.573	-21.5
224.808	-13.5
225.042	-18.5
225.277	-16.5
225.511	-1.5
225.746	17.5
225.98	11.5
226.215	16.5
226.449	13.5
226.683	21.5
226.918	18.5
227.152	33.5
227.387	40.5
227.621	42.5
227.856	52.5
228.09	51.5
228.324	62.5
228.559	61.5
228.793	60.5
229.027	101.5
229.262	118.5
229.496	132.5
229.73	137.5
229.964	152.5
230.199	146.5
230.433	110.5
230.667	121.5
230.901	106.5
231.136	99.5
231.37	115.5
231.604	122.5
231.838	126.5
232.072	111.5
232.306	112.5
232.541	124.5
232.775	118.5
233.009	109.5
233.243	100.5
233.477	124.5
233.711	141.5
233.945	125.5
234.179	138.5
234.413	128.5
234.647	107.5
234.881	120.5
235.115	120.5
235.349	130.5
235.583	125.5
235.817	129.5
236.051	127.5
236.285	125.5
236.519	128.5
236.753	120.5
236.987	154.5
237.221	200.5
237.455	250.5
237.689	200.5
237.922	138.5
238.156	125.5
238.39	132.5
238.624	136.5
238.858	131.5
239.091	135.5
239.325	109.5
239.559	138.5
239.793	138.5
240.027	127.5
240.26	139.5
240.494	160.5
240.728	165.5
240.961	161.5
241.195	141.5
241.429	127.5
241.662	125.5
241.896	133.5
242.13	140.5
242.363	143.5
242.597	144.5
242.83	129.5
243.064	152.5
243.298	144.5
243.531	150.5
243.765	143.5
243.998	152.5
244.232	134.5
244.465	158.5
244.699	152.5
244.932	136.5
245.166	140.5
245.399	148.5
245.633	158.5
245.866	141.5
246.099	132.5
246.333	144.5
246.566	165.5
246.8	143.5
247.033	153.5
247.266	165.5
247.5	169.5
247.733	167.5
247.966	170.5
248.2	175.5
248.433	183.5
248.666	185.5
248.899	192.5
249.133	222.5
249.366	210.5
249.599	192.5
249.832	190.5
250.066	208.5
250.299	190.5
250.532	201.5
250.765	216.5
250.998	217.5
251.231	259.5
251.465	217.5
251.698	200.5
251.931	199.5
252.164	209.5
252.397	210.5
252.63	214.5
252.863	216.5
253.096	228.5
253.329	242.5
253.562	239.5
253.795	225.5
254.028	227.5
254.261	223.5
254.494	231.5
254.727	273.5
254.96	300.5
255.193	284.5
255.426	258.5
255.659	271.5
255.892	244.5
256.124	251.5
256.357	258.5
256.59	249.5
256.823	235.5
257.056	233.5
257.289	210.5
257.521	209.5
257.754	232.5
257.987	212.5
258.22	215.5
258.452	228.5
258.685	218.5
258.918	226.5
259.151	218.5
259.383	235.5
259.616	230.5
259.849	221.5
260.081	231.5
260.314	246.5
260.547	266.5
260.779	273.5
261.012	247.5
261.244	218.5
261.477	233.5
261.71	249.5
261.942	244.5
262.175	244.5
262.407	254.5
262.64	225.5
262.872	224.5
263.105	234.5
263.337	244.5
263.57	237.5
263.802	204.5
264.035	224.5
264.267	225.5
264.499	217.5
264.732	219.5
264.964	224.5
265.197	216.5
265.429	209.5
265.661	204.5
265.894	214.5
266.126	241.5
266.358	231.5
266.591	209.5
266.823	215.5
267.055	238.5
267.287	240.5
267.52	214.5
267.752	233.5
267.984	224.5
268.216	225.5
268.448	223.5
268.681	238.5
268.913	278.5
269.145	266.5
269.377	302.5
269.609	290.5
269.841	274.5
270.073	289.5
270.306	299.5
270.538	318.5
270.77	344.5
271.002	310.5
271.234	310.5
271.466	315.5
271.698	330.5
271.93	324.5
272.162	313.5
272.394	322.5
272.626	316.5
272.858	300.5
273.09	299.5
273.322	280.5
273.553	278.5
273.785	286.5
274.017	272.5
274.249	290.5
274.481	290.5
274.713	277.5
274.945	292.5
275.176	275.5
275.408	277.5
275.64	275.5
275.872	286.5
276.104	260.5
276.335	273.5
276.567	282.5
276.799	294.5
277.031	315.5
277.262	332.5
277.494	333.5
277.726	323.5
277.957	298.5
278.189	308.5
278.421	296.5
278.652	276.5
278.884	292.5
279.115	284.5
279.347	269.5
279.579	268.5
279.81	279.5
280.042	247.5
280.273	263.5
280.505	286.5
280.736	260.5
280.968	261.5
281.199	274.5
281.431	270.5
281.662	271.5
281.894	289.5
282.125	292.5
282.356	301.5
282.588	307.5
282.819	309.5
283.051	309.5
283.282	267.5
283.513	290.5
283.745	271.5
283.976	288.5
284.207	284.5
284.439	298.5
284.67	312.5
284.901	292.5
285.132	274.5
285.364	268.5
285.595	269.5
285.826	275.5
286.057	272.5
286.288	289.5
286.52	265.5
286.751	272.5
286.982	278.5
287.213	268.5
287.444	281.5
287.675	277.5
287.906	283.5
288.138	292.5
288.369	287.5
288.6	298.5
288.831	297.5
289.062	296.5
289.293	294.5
289.524	289.5
289.755	288.5
289.986	296.5
290.217	284.5
290.448	280.5
290.679	290.5
290.91	288.5
291.141	287.5
291.371	292.5
291.602	268.5
291.833	290.5
292.064	270.5
292.295	272.5
292.526	291.5
292.757	278.5
292.987	274.5
293.218	297.5
293.449	278.5
293.68	270.5
293.91	287.5
294.141	275.5
294.372	286.5
294.603	270.5
294.833	293.5
295.064	272.5
295.295	269.5
295.525	289.5
295.756	305.5
295.987	303.5
296.217	328.5
296.448	341.5
296.679	312.5
296.909	305.5
297.14	276.5
297.37	297.5
297.601	289.5
297.831	294.5
298.062	293.5
298.292	306.5
298.523	292.5
298.753	294.5
298.984	321.5
299.214	302.5
299.445	306.5
299.675	296.5
299.905	332.5
300.136	305.5
300.366	296.5
300.597	303.5
300.827	299.5
301.057	302.5
301.288	311.5
301.518	345.5
301.748	303.5
301.979	305.5
302.209	330.5
302.439	334.5
302.669	335.5
302.9	348.5
303.13	320.5
303.36	324.5
303.59	322.5
303.82	342.5
304.051	326.5
304.281	324.5
304.511	319.5
304.741	316.5
304.971	338.5
305.201	323.5
305.431	293.5
305.661	329.5
305.891	304.5
306.121	329.5
306.352	314.5
306.582	329.5
306.812	317.5
307.042	323.5
307.272	333.5
307.502	319.5
307.731	316.5
307.961	330.5
308.191	339.5
308.421	324.5
308.651	324.5
308.881	343.5
309.111	351.5
309.341	336.5
309.571	357.5
309.8	368.5
310.03	380.5
310.26	376.5
310.49	383.5
310.72	386.5
310.949	382.5
311.179	407.5
311.409	398.5
311.639	400.5
311.868	380.5
312.098	379.5
312.328	375.5
312.557	408.5
312.787	449.5
313.017	417.5
313.246	407.5
313.476	390.5
313.706	378.5
313.935	370.5
314.165	407.5
314.394	411.5
314.624	400.5
314.853	394.5
315.083	383.5
315.312	383.5
315.542	375.5
315.771	375.5
316.001	349.5
316.23	382.5
316.46	382.5
316.689	378.5
316.919	396.5
317.148	409.5
317.377	364.5
317.607	392.5
317.836	406.5
318.065	377.5
318.295	393.5
318.524	378.5
318.753	378.5
318.983	381.5
319.212	365.5
319.441	383.5
319.67	396.5
319.9	386.5
320.129	369.5
320.358	382.5
320.587	363.5
320.816	408.5
321.046	409.5
321.275	416.5
321.504	401.5
321.733	410.5
321.962	421.5
322.191	432.5
322.42	436.5
322.649	461.5
322.878	475.5
323.108	483.5
323.337	513.5
323.566	528.5
323.795	564.5
324.024	644.5
324.253	780.5
324.482	1147.5
324.71	1828.5
324.939	2669.5
325.168	2290.5
325.397	1191.5
325.626	756.5
325.855	625.5
326.084	589.5
326.313	545.5
326.542	570.5
326.77	590.5
326.999	738.5
327.228	1028.5
327.457	1554.5
327.686	1960.5
327.914	1336.5
328.143	836.5
328.372	713.5
328.6	652.5
328.829	614.5
329.058	654.5
329.287	680.5
329.515	585.5
329.744	534.5
329.972	536.5
330.201	576.5
330.43	614.5
330.658	641.5
330.887	688.5
331.115	656.5
331.344	558.5
331.572	497.5
331.801	493.5
332.03	503.5
332.258	484.5
332.486	478.5
332.715	438.5
332.943	453.5
333.172	456.5
333.4	462.5
333.629	455.5
333.857	488.5
334.085	485.5
334.314	502.5
334.542	554.5
334.771	587.5
334.999	505.5
335.227	474.5
335.455	476.5
335.684	438.5
335.912	452.5
336.14	415.5
336.369	444.5
336.597	447.5
336.825	468.5
337.053	441.5
337.281	430.5
337.51	438.5
337.738	448.5
337.966	443.5
338.194	431.5
338.422	438.5
338.65	426.5
338.878	414.5
339.106	417.5
339.334	418.5
339.562	415.5
339.79	413.5
340.018	427.5
340.246	426.5
340.474	453.5
340.702	431.5
340.93	413.5
341.158	414.5
341.386	416.5
341.614	415.5
341.842	428.5
342.07	428.5
342.298	432.5
342.526	394.5
342.754	404.5
342.981	402.5
343.209	390.5
343.437	398.5
343.665	413.5
343.893	410.5
344.12	412.5
344.348	433.5
344.576	410.5
344.804	439.5
345.031	454.5
345.259	475.5
345.487	430.5
345.714	420.5
345.942	418.5
346.17	400.5
346.397	413.5
346.625	410.5
346.853	411.5
347.08	406.5
347.308	432.5
347.535	433.5
347.763	429.5
347.99	431.5
348.218	442.5
348.445	428.5
348.673	415.5
348.9	402.5
349.128	412.5
349.355	408.5
349.583	398.5
349.81	396.5
350.037	395.5
350.265	386.5
350.492	386.5
350.72	383.5
350.947	404.5
351.174	416.5
351.402	420.5
351.629	417.5
351.856	420.5
352.083	438.5
352.311	444.5
352.538	437.5
352.765	446.5
352.992	426.5
353.22	421.5
353.447	424.5
353.674	407.5
353.901	393.5
354.128	402.5
354.355	385.5
354.583	399.5
354.81	380.5
355.037	379.5
355.264	377.5
355.491	356.5
355.718	367.5
355.945	357.5
356.172	362.5
356.399	356.5
356.626	361.5
356.853	356.5
357.08	364.5
357.307	366.5
357.534	361.5
357.761	382.5
357.988	379.5
358.215	369.5
358.441	363.5
358.668	369.5
358.895	360.5
359.122	390.5
359.349	397.5
359.576	401.5
359.802	431.5
360.029	460.5
360.256	472.5
360.483	460.5
360.709	435.5
360.936	426.5
361.163	420.5
361.39	416.5
361.616	410.5
361.843	413.5
362.07	417.5
362.296	422.5
362.523	402.5
362.749	401.5
362.976	392.5
363.203	386.5
363.429	398.5
363.656	384.5
363.882	392.5
364.109	377.5
364.335	379.5
364.562	386.5
364.788	368.5
365.015	377.5
365.241	378.5
365.468	396.5
365.694	405.5
365.92	405.5
366.147	390.5
366.373	388.5
366.599	391.5
366.826	369.5
367.052	372.5
367.278	384.5
367.505	366.5
367.731	384.5
367.957	384.5
368.184	372.5
368.41	391.5
368.636	421.5
368.862	390.5
369.089	385.5
369.315	385.5
369.541	361.5
369.767	382.5
369.993	385.5
370.219	384.5
370.445	394.5
370.672	382.5
370.898	376.5
371.124	372.5
371.35	370.5
371.576	361.5
371.802	369.5
372.028	364.5
372.254	358.5
372.48	375.5
372.706	376.5
372.932	372.5
373.158	372.5
373.384	361.5
373.61	382.5
373.835	374.5
374.061	355.5
374.287	389.5
374.513	372.5
374.739	381.5
374.965	360.5
375.191	374.5
375.416	380.5
375.642	377.5
375.868	358.5
376.094	354.5
376.319	376.5
376.545	376.5
376.771	358.5
376.997	353.5
377.222	357.5
377.448	365.5
377.674	362.5
377.899	355.5
378.125	346.5
378.35	341.5
378.576	349.5
378.802	367.5
379.027	351.5
379.253	351.5
379.478	369.5
379.704	365.5
379.929	358.5
380.155	362.5
380.38	352.5
380.606	377.5
380.831	365.5
381.057	372.5
381.282	369.5
381.507	382.5
381.733	373.5
381.958	355.5
382.184	347.5
382.409	366.5
382.634	350.5
382.86	370.5
383.085	368.5
383.31	380.5
383.535	360.5
383.761	369.5
383.986	381.5
384.211	372.5
384.436	386.5
384.662	381.5
384.887	381.5
385.112	369.5
385.337	392.5
385.562	366.5
385.787	394.5
386.013	388.5
386.238	377.5
386.463	409.5
386.688	392.5
386.913	392.5
387.138	392.5
387.363	410.5
387.588	364.5
387.813	369.5
388.038	384.5
388.263	384.5
388.488	403.5
388.713	378.5
388.938	395.5
389.163	401.5
389.387	392.5
389.612	396.5
389.837	382.5
390.062	379.5
390.287	372.5
390.512	374.5
390.736	405.5
390.961	410.5
391.186	398.5
391.411	401.5
391.636	372.5
391.86	380.5
392.085	413.5
392.31	395.5
392.534	408.5
392.759	389.5
392.984	387.5
393.208	404.5
393.433	399.5
393.658	391.5
393.882	395.5
394.107	383.5
394.331	371.5
394.556	390.5
394.78	390.5
395.005	401.5
395.229	381.5
395.454	402.5
395.678	409.5
395.903	422.5
396.127	437.5
396.352	413.5
396.576	397.5
396.801	412.5
397.025	421.5
397.249	437.5
397.474	412.5
397.698	424.5
397.922	432.5
398.147	436.5
398.371	436.5
398.595	419.5
398.82	426.5
399.044	440.5
399.268	437.5
399.492	470.5
399.717	471.5
399.941	525.5
400.165	531.5
400.389	569.5
400.613	505.5
400.837	483.5
401.062	466.5
401.286	448.5
401.51	442.5
401.734	424.5
401.958	437.5
402.182	444.5
402.406	461.5
402.63	455.5
402.854	456.5
403.078	468.5
403.302	450.5
403.526	457.5
403.75	472.5
403.974	459.5
404.198	446.5
404.422	475.5
404.645	477.5
404.869	476.5
405.093	508.5
405.317	558.5
405.541	593.5
405.765	516.5
405.988	518.5
406.212	493.5
406.436	517.5
406.66	538.5
406.883	512.5
407.107	537.5
407.331	564.5
407.555	634.5
407.778	639.5
408.002	548.5
408.226	536.5
408.449	522.5
408.673	511.5
408.896	551.5
409.12	597.5
409.344	561.5
409.567	499.5
409.791	473.5
410.014	470.5
410.238	482.5
410.461	468.5
410.685	454.5
410.908	500.5
411.132	531.5
411.355	589.5
411.578	552.5
411.802	483.5
412.025	448.5
412.249	494.5
412.472	487.5
412.695	539.5
412.919	558.5
413.142	487.5
413.365	466.5
413.589	489.5
413.812	458.5
414.035	439.5
414.258	413.5
414.482	421.5
414.705	421.5
414.928	432.5
415.151	425.5
415.374	429.5
415.597	433.5
415.821	416.5
416.044	442.5
416.267	454.5
416.49	433.5
416.713	427.5
416.936	415.5
417.159	449.5
417.382	441.5
417.605	458.5
417.828	467.5
418.051	458.5
418.274	480.5
418.497	426.5
418.72	440.5
418.943	421.5
419.166	436.5
419.389	489.5
419.611	471.5
419.834	451.5
420.057	481.5
420.28	468.5
420.503	457.5
420.726	462.5
420.948	478.5
421.171	527.5
421.394	570.5
421.617	480.5
421.839	479.5
422.062	465.5
422.285	484.5
422.507	542.5
422.73	604.5
422.953	602.5
423.175	512.5
423.398	475.5
423.621	492.5
423.843	513.5
424.066	507.5
424.288	513.5
424.511	526.5
424.733	583.5
424.956	675.5
425.178	644.5
425.401	659.5
425.623	664.5
425.846	572.5
426.068	525.5
426.291	513.5
426.513	511.5
426.735	531.5
426.958	583.5
427.18	666.5
427.402	762.5
427.625	870.5
427.847	793.5
428.069	686.5
428.292	568.5
428.514	551.5
428.736	491.5
428.958	501.5
429.181	467.5
429.403	460.5
429.625	505.5
429.847	516.5
430.069	578.5
430.292	588.5
430.514	520.5
430.736	476.5
430.958	454.5
431.18	446.5
431.402	427.5
431.624	433.5
431.846	444.5
432.068	446.5
432.29	443.5
432.512	452.5
432.734	451.5
432.956	448.5
433.178	447.5
433.4	473.5
433.622	473.5
433.844	446.5
434.066	422.5
434.287	440.5
434.509	453.5
434.731	442.5
434.953	445.5
435.175	478.5
435.397	503.5
435.618	551.5
435.84	566.5
436.062	634.5
436.284	723.5
436.505	597.5
436.727	554.5
436.949	528.5
437.17	471.5
437.392	483.5
437.614	495.5
437.835	538.5
438.057	641.5
438.278	729.5
438.5	740.5
438.721	808.5
438.943	758.5
439.165	595.5
439.386	574.5
439.608	562.5
439.829	522.5
440.05	569.5
440.272	638.5
440.493	577.5
440.715	522.5
440.936	517.5
441.158	479.5
441.379	484.5
441.6	504.5
441.822	528.5
442.043	581.5
442.264	685.5
442.486	707.5
442.707	587.5
442.928	549.5
443.149	557.5
443.371	560.5
443.592	597.5
443.813	708.5
444.034	776.5
444.255	644.5
444.476	528.5
444.698	518.5
444.919	533.5
445.14	591.5
445.361	577.5
445.582	594.5
445.803	644.5
446.024	769.5
446.245	787.5
446.466	684.5
446.687	592.5
446.908	525.5
447.129	507.5
447.35	501.5
447.571	492.5
447.792	465.5
448.013	489.5
448.234	512.5
448.455	559.5
448.675	673.5
448.896	794.5
449.117	682.5
449.338	650.5
449.559	737.5
449.779	862.5
450	680.5
450.221	573.5
450.442	528.5
450.662	490.5
450.883	470.5
451.104	503.5
451.324	504.5
451.545	456.5
451.766	460.5
451.986	443.5
452.207	428.5
452.428	421.5
452.648	425.5
452.869	429.5
453.089	440.5
453.31	458.5
453.53	442.5
453.751	442.5
453.971	422.5
454.192	470.5
454.412	441.5
454.633	447.5
454.853	420.5
455.073	420.5
455.294	466.5
455.514	545.5
455.734	540.5
455.955	427.5
456.175	430.5
456.395	391.5
456.616	401.5
456.836	397.5
457.056	392.5
457.276	402.5
457.497	420.5
457.717	391.5
457.937	391.5
458.157	412.5
458.377	412.5
458.598	441.5
458.818	509.5
459.038	592.5
459.258	635.5
459.478	518.5
459.698	460.5
459.918	439.5
460.138	442.5
460.358	430.5
460.578	438.5
460.798	456.5
461.018	460.5
461.238	457.5
461.458	424.5
461.678	426.5
461.898	439.5
462.118	441.5
462.338	447.5
462.558	456.5
462.777	438.5
462.997	472.5
463.217	467.5
463.437	469.5
463.657	457.5
463.876	466.5
464.096	459.5
464.316	447.5
464.536	470.5
464.755	484.5
464.975	477.5
465.195	542.5
465.414	624.5
465.634	536.5
465.854	486.5
466.073	469.5
466.293	442.5
466.512	430.5
466.732	425.5
466.951	429.5
467.171	445.5
467.391	452.5
467.61	449.5
467.829	446.5
468.049	450.5
468.268	442.5
468.488	437.5
468.707	399.5
468.927	400.5
469.146	411.5
469.365	432.5
469.585	404.5
469.804	428.5
470.023	436.5
470.243	413.5
470.462	438.5
470.681	462.5
470.901	460.5
471.12	459.5
471.339	445.5
471.558	439.5
471.777	431.5
471.997	442.5
472.216	440.5
472.435	502.5
472.654	481.5
472.873	445.5
473.092	425.5
473.311	441.5
473.53	421.5
473.749	455.5
473.968	510.5
474.187	610.5
474.406	650.5
474.625	520.5
474.844	476.5
475.063	444.5
475.282	428.5
475.501	425.5
475.72	459.5
475.939	449.5
476.158	431.5
476.377	442.5
476.596	433.5
476.814	454.5
477.033	448.5
477.252	460.5
477.471	467.5
477.69	492.5
477.908	462.5
478.127	446.5
478.346	491.5
478.564	477.5
478.783	507.5
479.002	482.5
479.22	501.5
479.439	510.5
479.658	528.5
479.876	527.5
480.095	533.5
480.313	572.5
480.532	551.5
480.751	550.5
480.969	563.5
481.188	613.5
481.406	687.5
481.624	597.5
481.843	549.5
482.061	518.5
482.28	526.5
482.498	530.5
482.717	516.5
482.935	515.5
483.153	508.5
483.372	506.5
483.59	510.5
483.808	518.5
484.027	508.5
484.245	534.5
484.463	520.5
484.681	533.5
484.9	536.5
485.118	535.5
485.336	521.5
485.554	531.5
485.772	524.5
485.99	532.5
486.209	568.5
486.427	542.5
486.645	564.5
486.863	596.5
487.081	588.5
487.299	564.5
487.517	550.5
487.735	560.5
487.953	550.5
488.171	571.5
488.389	549.5
488.607	567.5
488.825	573.5
489.043	562.5
489.261	552.5
489.479	559.5
489.696	556.5
489.914	558.5
490.132	571.5
490.35	576.5
490.568	570.5
490.786	585.5
491.003	615.5
491.221	633.5
491.439	636.5
491.657	647.5
491.874	646.5
492.092	653.5
492.31	669.5
492.527	639.5
492.745	626.5
492.963	656.5
493.18	638.5
493.398	653.5
493.615	667.5
493.833	653.5
494.05	645.5
494.268	650.5
494.485	658.5
494.703	670.5
494.92	689.5
495.138	673.5
495.355	672.5
495.573	641.5
495.79	651.5
496.008	662.5
496.225	649.5
496.442	664.5
496.66	685.5
496.877	639.5
497.094	671.5
497.312	679.5
497.529	668.5
497.746	680.5
497.963	689.5
498.181	696.5
498.398	685.5
498.615	699.5
498.832	745.5
499.049	734.5
499.267	731.5
499.484	721.5
499.701	763.5
499.918	769.5
500.135	802.5
500.352	827.5
500.569	806.5
500.786	819.5
501.003	849.5
501.22	807.5
501.437	809.5
501.654	801.5
501.871	799.5
502.088	803.5
502.305	743.5
502.522	730.5
502.739	724.5
502.956	711.5
503.172	681.5
503.389	690.5
503.606	680.5
503.823	692.5
504.04	684.5
504.256	694.5
504.473	676.5
504.69	643.5
504.907	646.5
505.123	666.5
505.34	650.5
505.557	636.5
505.773	672.5
505.99	656.5
506.207	649.5
506.423	624.5
506.64	642.5
506.856	641.5
507.073	629.5
507.289	655.5
507.506	638.5
507.722	669.5
507.939	666.5
508.155	652.5
508.372	648.5
508.588	635.5
508.805	632.5
509.021	621.5
509.238	644.5
509.454	645.5
509.67	618.5
509.887	638.5
510.103	621.5
510.319	637.5
510.536	764.5
510.752	1298.5
510.968	1057.5
511.184	671.5
511.401	620.5
511.617	616.5
511.833	602.5
512.049	611.5
512.265	587.5
512.481	584.5
512.698	603.5
512.914	592.5
513.13	592.5
513.346	600.5
513.562	595.5
513.778	592.5
513.994	602.5
514.21	604.5
514.426	633.5
514.642	684.5
514.858	722.5
515.074	779.5
515.29	952.5
515.506	1462.5
515.721	1199.5
515.937	766.5
516.153	680.5
516.369	649.5
516.585	607.5
516.801	619.5
517.016	608.5
517.232	600.5
517.448	589.5
517.664	590.5
517.879	590.5
518.095	589.5
518.311	588.5
518.527	577.5
518.742	565.5
518.958	598.5
519.173	583.5
519.389	602.5
519.605	568.5
519.82	590.5
