Data from 1972.PennyLincolnUp.Lamp.En5.5.200Scan.071719.P1._HRD10591_15-29-26-845.txt Node
Date: Thu Jul 18 15:29:26 EDT 2019
User: cochatt
Spectrometer: HR+D1059
Trigger mode: 1
Integration Time (sec): 1.000000E-1
Scans to average: 1
Electric dark correction enabled: true
Nonlinearity correction enabled: false
Boxcar width: 0
XAxis mode: Wavelengths
Number of Pixels in Spectrum: 2048
>>>>>Begin Spectral Data<<<<<
223.165	-25.56
223.4	-25.56
223.635	-25.56
223.869	-26.56
224.104	-4.56
224.338	-18.56
224.573	-22.56
224.808	-13.56
225.042	-13.56
225.277	-2.56
225.511	1.44
225.746	13.44
225.98	-6.56
226.215	18.44
226.449	11.44
226.683	33.44
226.918	19.44
227.152	36.44
227.387	22.44
227.621	43.44
227.856	38.44
228.09	49.44
228.324	43.44
228.559	61.44
228.793	67.44
229.027	89.44
229.262	112.44
229.496	126.44
229.73	133.44
229.964	152.44
230.199	150.44
230.433	123.44
230.667	127.44
230.901	121.44
231.136	120.44
231.37	122.44
231.604	108.44
231.838	109.44
232.072	119.44
232.306	117.44
232.541	122.44
232.775	117.44
233.009	105.44
233.243	110.44
233.477	139.44
233.711	133.44
233.945	129.44
234.179	124.44
234.413	113.44
234.647	125.44
234.881	111.44
235.115	115.44
235.349	129.44
235.583	127.44
235.817	119.44
236.051	133.44
236.285	141.44
236.519	116.44
236.753	135.44
236.987	158.44
237.221	200.44
237.455	261.44
237.689	199.44
237.922	148.44
238.156	152.44
238.39	134.44
238.624	140.44
238.858	109.44
239.091	125.44
239.325	129.44
239.559	126.44
239.793	129.44
240.027	124.44
240.26	163.44
240.494	175.44
240.728	153.44
240.961	154.44
241.195	147.44
241.429	152.44
241.662	139.44
241.896	145.44
242.13	147.44
242.363	132.44
242.597	133.44
242.83	140.44
243.064	134.44
243.298	137.44
243.531	132.44
243.765	140.44
243.998	149.44
244.232	150.44
244.465	162.44
244.699	138.44
244.932	145.44
245.166	143.44
245.399	156.44
245.633	152.44
245.866	142.44
246.099	157.44
246.333	143.44
246.566	147.44
246.8	158.44
247.033	157.44
247.266	164.44
247.5	164.44
247.733	169.44
247.966	174.44
248.2	187.44
248.433	187.44
248.666	170.44
248.899	189.44
249.133	224.44
249.366	220.44
249.599	197.44
249.832	188.44
250.066	192.44
250.299	199.44
250.532	200.44
250.765	233.44
250.998	241.44
251.231	245.44
251.465	221.44
251.698	213.44
251.931	198.44
252.164	200.44
252.397	204.44
252.63	215.44
252.863	218.44
253.096	234.44
253.329	234.44
253.562	225.44
253.795	222.44
254.028	243.44
254.261	225.44
254.494	252.44
254.727	282.44
254.96	303.44
255.193	288.44
255.426	266.44
255.659	255.44
255.892	246.44
256.124	266.44
256.357	268.44
256.59	242.44
256.823	241.44
257.056	226.44
257.289	221.44
257.521	223.44
257.754	204.44
257.987	224.44
258.22	207.44
258.452	224.44
258.685	225.44
258.918	226.44
259.151	223.44
259.383	237.44
259.616	233.44
259.849	213.44
260.081	245.44
260.314	263.44
260.547	273.44
260.779	261.44
261.012	232.44
261.244	243.44
261.477	230.44
261.71	245.44
261.942	225.44
262.175	255.44
262.407	251.44
262.64	229.44
262.872	209.44
263.105	235.44
263.337	230.44
263.57	220.44
263.802	203.44
264.035	228.44
264.267	207.44
264.499	209.44
264.732	215.44
264.964	227.44
265.197	223.44
265.429	221.44
265.661	218.44
265.894	221.44
266.126	238.44
266.358	208.44
266.591	218.44
266.823	225.44
267.055	225.44
267.287	233.44
267.52	219.44
267.752	226.44
267.984	223.44
268.216	237.44
268.448	236.44
268.681	237.44
268.913	259.44
269.145	239.44
269.377	287.44
269.609	292.44
269.841	280.44
270.073	269.44
270.306	318.44
270.538	338.44
270.77	342.44
271.002	334.44
271.234	326.44
271.466	335.44
271.698	331.44
271.93	332.44
272.162	348.44
272.394	331.44
272.626	353.44
272.858	323.44
273.09	302.44
273.322	290.44
273.553	308.44
273.785	275.44
274.017	275.44
274.249	296.44
274.481	270.44
274.713	281.44
274.945	282.44
275.176	292.44
275.408	274.44
275.64	266.44
275.872	276.44
276.104	287.44
276.335	279.44
276.567	280.44
276.799	313.44
277.031	332.44
277.262	346.44
277.494	354.44
277.726	321.44
277.957	301.44
278.189	286.44
278.421	285.44
278.652	279.44
278.884	289.44
279.115	256.44
279.347	264.44
279.579	274.44
279.81	273.44
280.042	275.44
280.273	295.44
280.505	269.44
280.736	263.44
280.968	242.44
281.199	261.44
281.431	266.44
281.662	270.44
281.894	270.44
282.125	280.44
282.356	273.44
282.588	318.44
282.819	323.44
283.051	286.44
283.282	271.44
283.513	287.44
283.745	284.44
283.976	274.44
284.207	282.44
284.439	295.44
284.67	282.44
284.901	296.44
285.132	274.44
285.364	274.44
285.595	281.44
285.826	291.44
286.057	278.44
286.288	269.44
286.52	282.44
286.751	293.44
286.982	278.44
287.213	286.44
287.444	280.44
287.675	271.44
287.906	280.44
288.138	301.44
288.369	299.44
288.6	311.44
288.831	285.44
289.062	281.44
289.293	298.44
289.524	294.44
289.755	290.44
289.986	295.44
290.217	288.44
290.448	293.44
290.679	309.44
290.91	285.44
291.141	283.44
291.371	302.44
291.602	283.44
291.833	272.44
292.064	277.44
292.295	287.44
292.526	283.44
292.757	279.44
292.987	271.44
293.218	284.44
293.449	283.44
293.68	290.44
293.91	285.44
294.141	279.44
294.372	279.44
294.603	285.44
294.833	293.44
295.064	293.44
295.295	282.44
295.525	297.44
295.756	277.44
295.987	301.44
296.217	334.44
296.448	345.44
296.679	311.44
296.909	306.44
297.14	291.44
297.37	296.44
297.601	290.44
297.831	302.44
298.062	293.44
298.292	307.44
298.523	305.44
298.753	299.44
298.984	309.44
299.214	323.44
299.445	297.44
299.675	297.44
299.905	314.44
300.136	311.44
300.366	294.44
300.597	313.44
300.827	314.44
301.057	323.44
301.288	339.44
301.518	344.44
301.748	325.44
301.979	316.44
302.209	321.44
302.439	302.44
302.669	333.44
302.9	322.44
303.13	302.44
303.36	338.44
303.59	328.44
303.82	330.44
304.051	316.44
304.281	328.44
304.511	329.44
304.741	308.44
304.971	306.44
305.201	311.44
305.431	320.44
305.661	348.44
305.891	329.44
306.121	325.44
306.352	335.44
306.582	341.44
306.812	337.44
307.042	344.44
307.272	333.44
307.502	321.44
307.731	318.44
307.961	347.44
308.191	344.44
308.421	342.44
308.651	326.44
308.881	341.44
309.111	344.44
309.341	319.44
309.571	351.44
309.8	361.44
310.03	373.44
310.26	389.44
310.49	372.44
310.72	419.44
310.949	412.44
311.179	414.44
311.409	394.44
311.639	380.44
311.868	392.44
312.098	401.44
312.328	392.44
312.557	419.44
312.787	418.44
313.017	429.44
313.246	413.44
313.476	374.44
313.706	358.44
313.935	408.44
314.165	401.44
314.394	419.44
314.624	416.44
314.853	398.44
315.083	388.44
315.312	364.44
315.542	373.44
315.771	363.44
316.001	375.44
316.23	363.44
316.46	381.44
316.689	389.44
316.919	378.44
317.148	383.44
317.377	408.44
317.607	391.44
317.836	371.44
318.065	383.44
318.295	377.44
318.524	360.44
318.753	390.44
318.983	383.44
319.212	370.44
319.441	404.44
319.67	408.44
319.9	383.44
320.129	384.44
320.358	406.44
320.587	388.44
320.816	397.44
321.046	397.44
321.275	411.44
321.504	425.44
321.733	420.44
321.962	447.44
322.191	430.44
322.42	446.44
322.649	499.44
322.878	493.44
323.108	506.44
323.337	533.44
323.566	560.44
323.795	587.44
324.024	677.44
324.253	835.44
324.482	1205.44
324.71	1898.44
324.939	2839.44
325.168	2467.44
325.397	1228.44
325.626	809.44
325.855	660.44
326.084	582.44
326.313	581.44
326.542	570.44
326.77	619.44
326.999	777.44
327.228	1095.44
327.457	1704.44
327.686	2092.44
327.914	1390.44
328.143	873.44
328.372	760.44
328.6	678.44
328.829	629.44
329.058	670.44
329.287	675.44
329.515	613.44
329.744	546.44
329.972	563.44
330.201	574.44
330.43	649.44
330.658	678.44
330.887	711.44
331.115	661.44
331.344	575.44
331.572	536.44
331.801	505.44
332.03	526.44
332.258	484.44
332.486	448.44
332.715	447.44
332.943	473.44
333.172	464.44
333.4	441.44
333.629	490.44
333.857	481.44
334.085	500.44
334.314	532.44
334.542	565.44
334.771	615.44
334.999	503.44
335.227	458.44
335.455	461.44
335.684	459.44
335.912	448.44
336.14	436.44
336.369	442.44
336.597	445.44
336.825	450.44
337.053	448.44
337.281	445.44
337.51	424.44
337.738	447.44
337.966	415.44
338.194	466.44
338.422	455.44
338.65	443.44
338.878	427.44
339.106	429.44
339.334	423.44
339.562	423.44
339.79	423.44
340.018	419.44
340.246	420.44
340.474	448.44
340.702	444.44
340.93	436.44
341.158	415.44
341.386	435.44
341.614	429.44
341.842	423.44
342.07	430.44
342.298	405.44
342.526	408.44
342.754	402.44
342.981	402.44
343.209	397.44
343.437	407.44
343.665	424.44
343.893	425.44
344.12	405.44
344.348	399.44
344.576	408.44
344.804	438.44
345.031	436.44
345.259	442.44
345.487	435.44
345.714	422.44
345.942	429.44
346.17	424.44
346.397	420.44
346.625	399.44
346.853	406.44
347.08	391.44
347.308	429.44
347.535	422.44
347.763	451.44
347.99	411.44
348.218	437.44
348.445	423.44
348.673	447.44
348.9	438.44
349.128	409.44
349.355	405.44
349.583	423.44
349.81	402.44
350.037	397.44
350.265	411.44
350.492	408.44
350.72	393.44
350.947	405.44
351.174	406.44
351.402	425.44
351.629	411.44
351.856	423.44
352.083	431.44
352.311	433.44
352.538	433.44
352.765	450.44
352.992	433.44
353.22	424.44
353.447	400.44
353.674	401.44
353.901	386.44
354.128	401.44
354.355	384.44
354.583	382.44
354.81	386.44
355.037	375.44
355.264	392.44
355.491	383.44
355.718	380.44
355.945	373.44
356.172	381.44
356.399	369.44
356.626	369.44
356.853	369.44
357.08	356.44
357.307	355.44
357.534	364.44
357.761	371.44
357.988	375.44
358.215	376.44
358.441	384.44
358.668	371.44
358.895	359.44
359.122	373.44
359.349	401.44
359.576	419.44
359.802	442.44
360.029	483.44
360.256	489.44
360.483	453.44
360.709	415.44
360.936	408.44
361.163	389.44
361.39	413.44
361.616	423.44
361.843	393.44
362.07	412.44
362.296	402.44
362.523	413.44
362.749	412.44
362.976	414.44
363.203	407.44
363.429	391.44
363.656	404.44
363.882	395.44
364.109	375.44
364.335	389.44
364.562	382.44
364.788	365.44
365.015	403.44
365.241	359.44
365.468	366.44
365.694	402.44
365.92	401.44
366.147	371.44
366.373	386.44
366.599	372.44
366.826	390.44
367.052	382.44
367.278	387.44
367.505	399.44
367.731	392.44
367.957	382.44
368.184	363.44
368.41	399.44
368.636	412.44
368.862	409.44
369.089	389.44
369.315	378.44
369.541	358.44
369.767	375.44
369.993	377.44
370.219	381.44
370.445	359.44
370.672	364.44
370.898	366.44
371.124	354.44
371.35	364.44
371.576	374.44
371.802	369.44
372.028	352.44
372.254	363.44
372.48	376.44
372.706	345.44
372.932	366.44
373.158	381.44
373.384	361.44
373.61	348.44
373.835	370.44
374.061	379.44
374.287	367.44
374.513	380.44
374.739	381.44
374.965	368.44
375.191	372.44
375.416	363.44
375.642	363.44
375.868	375.44
376.094	359.44
376.319	363.44
376.545	377.44
376.771	379.44
376.997	346.44
377.222	362.44
377.448	344.44
377.674	344.44
377.899	343.44
378.125	351.44
378.35	361.44
378.576	371.44
378.802	349.44
379.027	363.44
379.253	340.44
379.478	358.44
379.704	367.44
379.929	362.44
380.155	377.44
380.38	369.44
380.606	380.44
380.831	378.44
381.057	362.44
381.282	357.44
381.507	371.44
381.733	364.44
381.958	348.44
382.184	372.44
382.409	371.44
382.634	378.44
382.86	365.44
383.085	387.44
383.31	369.44
383.535	367.44
383.761	367.44
383.986	369.44
384.211	365.44
384.436	387.44
384.662	371.44
384.887	370.44
385.112	369.44
385.337	399.44
385.562	391.44
385.787	393.44
386.013	403.44
386.238	397.44
386.463	400.44
386.688	387.44
386.913	391.44
387.138	363.44
387.363	403.44
387.588	381.44
387.813	382.44
388.038	380.44
388.263	395.44
388.488	381.44
388.713	378.44
388.938	392.44
389.163	394.44
389.387	397.44
389.612	385.44
389.837	381.44
390.062	374.44
390.287	389.44
390.512	387.44
390.736	395.44
390.961	364.44
391.186	378.44
391.411	383.44
391.636	377.44
391.86	395.44
392.085	395.44
392.31	404.44
392.534	405.44
392.759	408.44
392.984	384.44
393.208	376.44
393.433	392.44
393.658	402.44
393.882	393.44
394.107	385.44
394.331	386.44
394.556	375.44
394.78	374.44
395.005	400.44
395.229	387.44
395.454	399.44
395.678	376.44
395.903	429.44
396.127	430.44
396.352	426.44
396.576	403.44
396.801	405.44
397.025	419.44
397.249	403.44
397.474	410.44
397.698	410.44
397.922	422.44
398.147	413.44
398.371	447.44
398.595	419.44
398.82	426.44
399.044	439.44
399.268	433.44
399.492	461.44
399.717	497.44
399.941	498.44
400.165	520.44
400.389	551.44
400.613	498.44
400.837	449.44
401.062	475.44
401.286	451.44
401.51	433.44
401.734	442.44
401.958	455.44
402.182	445.44
402.406	438.44
402.63	444.44
402.854	447.44
403.078	451.44
403.302	456.44
403.526	462.44
403.75	451.44
403.974	470.44
404.198	449.44
404.422	456.44
404.645	468.44
404.869	478.44
405.093	525.44
405.317	561.44
405.541	599.44
405.765	525.44
405.988	522.44
406.212	514.44
406.436	529.44
406.66	540.44
406.883	508.44
407.107	541.44
407.331	563.44
407.555	632.44
407.778	634.44
408.002	595.44
408.226	515.44
408.449	510.44
408.673	518.44
408.896	545.44
409.12	595.44
409.344	561.44
409.567	501.44
409.791	469.44
410.014	476.44
410.238	457.44
410.461	452.44
410.685	448.44
410.908	497.44
411.132	531.44
411.355	556.44
411.578	494.44
411.802	478.44
412.025	455.44
412.249	481.44
412.472	500.44
412.695	561.44
412.919	531.44
413.142	485.44
413.365	465.44
413.589	450.44
413.812	438.44
414.035	443.44
414.258	441.44
414.482	433.44
414.705	446.44
414.928	418.44
415.151	423.44
415.374	420.44
415.597	403.44
415.821	418.44
416.044	445.44
416.267	435.44
416.49	439.44
416.713	428.44
416.936	421.44
417.159	442.44
417.382	447.44
417.605	455.44
417.828	445.44
418.051	500.44
418.274	451.44
418.497	445.44
418.72	442.44
418.943	431.44
419.166	438.44
419.389	475.44
419.611	471.44
419.834	462.44
420.057	465.44
420.28	453.44
420.503	441.44
420.726	463.44
420.948	487.44
421.171	527.44
421.394	552.44
421.617	482.44
421.839	457.44
422.062	456.44
422.285	468.44
422.507	539.44
422.73	627.44
422.953	596.44
423.175	541.44
423.398	502.44
423.621	487.44
423.843	525.44
424.066	508.44
424.288	490.44
424.511	506.44
424.733	602.44
424.956	690.44
425.178	647.44
425.401	633.44
425.623	670.44
425.846	566.44
426.068	523.44
426.291	529.44
426.513	535.44
426.735	530.44
426.958	580.44
427.18	675.44
427.402	794.44
427.625	881.44
427.847	814.44
428.069	701.44
428.292	598.44
428.514	549.44
428.736	498.44
428.958	507.44
429.181	505.44
429.403	466.44
429.625	508.44
429.847	526.44
430.069	602.44
430.292	612.44
430.514	500.44
430.736	484.44
430.958	470.44
431.18	435.44
431.402	445.44
431.624	446.44
431.846	436.44
432.068	433.44
432.29	465.44
432.512	444.44
432.734	447.44
432.956	454.44
433.178	471.44
433.4	469.44
433.622	457.44
433.844	468.44
434.066	446.44
434.287	425.44
434.509	435.44
434.731	465.44
434.953	458.44
435.175	481.44
435.397	505.44
435.618	523.44
435.84	567.44
436.062	659.44
436.284	750.44
436.505	610.44
436.727	547.44
436.949	526.44
437.17	478.44
437.392	489.44
437.614	509.44
437.835	550.44
438.057	657.44
438.278	775.44
438.5	787.44
438.721	841.44
438.943	807.44
439.165	633.44
439.386	553.44
439.608	551.44
439.829	565.44
440.05	573.44
440.272	640.44
440.493	621.44
440.715	526.44
440.936	507.44
441.158	508.44
441.379	500.44
441.6	503.44
441.822	541.44
442.043	572.44
442.264	651.44
442.486	689.44
442.707	567.44
442.928	573.44
443.149	551.44
443.371	577.44
443.592	612.44
443.813	727.44
444.034	770.44
444.255	643.44
444.476	564.44
444.698	523.44
444.919	506.44
445.14	614.44
445.361	563.44
445.582	584.44
445.803	662.44
446.024	787.44
446.245	794.44
446.466	740.44
446.687	611.44
446.908	541.44
447.129	507.44
447.35	509.44
447.571	495.44
447.792	494.44
448.013	505.44
448.234	499.44
448.455	548.44
448.675	679.44
448.896	783.44
449.117	679.44
449.338	650.44
449.559	760.44
449.779	865.44
450	668.44
450.221	563.44
450.442	529.44
450.662	472.44
450.883	493.44
451.104	525.44
451.324	503.44
451.545	468.44
451.766	447.44
451.986	433.44
452.207	433.44
452.428	428.44
452.648	425.44
452.869	433.44
453.089	459.44
453.31	467.44
453.53	440.44
453.751	438.44
453.971	427.44
454.192	486.44
454.412	468.44
454.633	428.44
454.853	415.44
455.073	423.44
455.294	445.44
455.514	551.44
455.734	526.44
455.955	439.44
456.175	421.44
456.395	399.44
456.616	402.44
456.836	412.44
457.056	392.44
457.276	381.44
457.497	408.44
457.717	399.44
457.937	403.44
458.157	402.44
458.377	413.44
458.598	437.44
458.818	521.44
459.038	625.44
459.258	652.44
459.478	518.44
459.698	477.44
459.918	457.44
460.138	416.44
460.358	422.44
460.578	427.44
460.798	453.44
461.018	422.44
461.238	434.44
461.458	437.44
461.678	435.44
461.898	430.44
462.118	426.44
462.338	431.44
462.558	433.44
462.777	448.44
462.997	454.44
463.217	454.44
463.437	443.44
463.657	431.44
463.876	431.44
464.096	478.44
464.316	452.44
464.536	458.44
464.755	456.44
464.975	477.44
465.195	548.44
465.414	625.44
465.634	550.44
465.854	517.44
466.073	465.44
466.293	451.44
466.512	439.44
466.732	442.44
466.951	441.44
467.171	429.44
467.391	419.44
467.61	443.44
467.829	458.44
468.049	451.44
468.268	469.44
468.488	446.44
468.707	412.44
468.927	419.44
469.146	408.44
469.365	416.44
469.585	429.44
469.804	431.44
470.023	452.44
470.243	433.44
470.462	424.44
470.681	466.44
470.901	455.44
471.12	453.44
471.339	441.44
471.558	453.44
471.777	464.44
471.997	425.44
472.216	454.44
472.435	499.44
472.654	481.44
472.873	453.44
473.092	439.44
473.311	469.44
473.53	439.44
473.749	467.44
473.968	493.44
474.187	614.44
474.406	653.44
474.625	521.44
474.844	461.44
475.063	428.44
475.282	452.44
475.501	433.44
475.72	441.44
475.939	438.44
476.158	469.44
476.377	428.44
476.596	462.44
476.814	467.44
477.033	465.44
477.252	460.44
477.471	440.44
477.69	452.44
477.908	468.44
478.127	466.44
478.346	466.44
478.564	476.44
478.783	475.44
479.002	512.44
479.22	502.44
479.439	532.44
479.658	532.44
479.876	542.44
480.095	542.44
480.313	564.44
480.532	550.44
480.751	528.44
480.969	565.44
481.188	639.44
481.406	693.44
481.624	588.44
481.843	545.44
482.061	575.44
482.28	544.44
482.498	509.44
482.717	531.44
482.935	514.44
483.153	536.44
483.372	500.44
483.59	517.44
483.808	535.44
484.027	507.44
484.245	519.44
484.463	511.44
484.681	535.44
484.9	532.44
485.118	540.44
485.336	538.44
485.554	532.44
485.772	529.44
485.99	525.44
486.209	534.44
486.427	534.44
486.645	542.44
486.863	576.44
487.081	578.44
487.299	555.44
487.517	558.44
487.735	563.44
487.953	555.44
488.171	550.44
488.389	569.44
488.607	555.44
488.825	573.44
489.043	571.44
489.261	555.44
489.479	566.44
489.696	565.44
489.914	565.44
490.132	582.44
490.35	567.44
490.568	580.44
490.786	589.44
491.003	601.44
491.221	609.44
491.439	631.44
491.657	633.44
491.874	648.44
492.092	672.44
492.31	655.44
492.527	652.44
492.745	621.44
492.963	676.44
493.18	659.44
493.398	656.44
493.615	650.44
493.833	670.44
494.05	663.44
494.268	691.44
494.485	654.44
494.703	647.44
494.92	650.44
495.138	662.44
495.355	667.44
495.573	670.44
495.79	644.44
496.008	679.44
496.225	656.44
496.442	647.44
496.66	669.44
496.877	665.44
497.094	686.44
497.312	685.44
497.529	691.44
497.746	702.44
497.963	706.44
498.181	713.44
498.398	728.44
498.615	727.44
498.832	717.44
499.049	734.44
499.267	742.44
499.484	732.44
499.701	737.44
499.918	789.44
500.135	806.44
500.352	827.44
500.569	839.44
500.786	814.44
501.003	826.44
501.22	819.44
501.437	831.44
501.654	820.44
501.871	801.44
