Data from 1972.PennyLincolnUp.Lamp.En5.5.200Scan.071719.P1._HRD10591_15-28-47-844.txt Node
Date: Thu Jul 18 15:28:47 EDT 2019
User: cochatt
Spectrometer: HR+D1059
Trigger mode: 1
Integration Time (sec): 1.000000E-1
Scans to average: 1
Electric dark correction enabled: true
Nonlinearity correction enabled: false
Boxcar width: 0
XAxis mode: Wavelengths
Number of Pixels in Spectrum: 2048
>>>>>Begin Spectral Data<<<<<
223.165	-8.94
223.4	-8.94
223.635	-8.94
223.869	-4.94
224.104	-17.94
224.338	-9.94
224.573	-16.94
224.808	-13.94
225.042	-8.94
225.277	-2.94
225.511	-7.94
225.746	-11.94
225.98	7.06
226.215	11.06
226.449	7.06
226.683	22.06
226.918	21.06
227.152	36.06
227.387	18.06
227.621	31.06
227.856	54.06
228.09	38.06
228.324	42.06
228.559	66.06
228.793	67.06
229.027	98.06
229.262	116.06
229.496	102.06
229.73	141.06
229.964	175.06
230.199	143.06
230.433	113.06
230.667	105.06
230.901	114.06
231.136	105.06
231.37	127.06
231.604	118.06
231.838	110.06
232.072	114.06
232.306	118.06
232.541	117.06
232.775	107.06
233.009	110.06
233.243	115.06
233.477	109.06
233.711	111.06
233.945	118.06
234.179	124.06
234.413	112.06
234.647	116.06
234.881	108.06
235.115	107.06
235.349	120.06
235.583	118.06
235.817	136.06
236.051	139.06
236.285	130.06
236.519	124.06
236.753	129.06
236.987	143.06
237.221	199.06
237.455	266.06
237.689	189.06
237.922	154.06
238.156	137.06
238.39	139.06
238.624	129.06
238.858	131.06
239.091	128.06
239.325	134.06
239.559	141.06
239.793	111.06
240.027	137.06
240.26	139.06
240.494	152.06
240.728	168.06
240.961	150.06
241.195	151.06
241.429	143.06
241.662	138.06
241.896	134.06
242.13	123.06
242.363	135.06
242.597	133.06
242.83	153.06
243.064	127.06
243.298	149.06
243.531	147.06
243.765	149.06
243.998	146.06
244.232	134.06
244.465	159.06
244.699	136.06
244.932	135.06
245.166	156.06
245.399	136.06
245.633	154.06
245.866	158.06
246.099	148.06
246.333	150.06
246.566	158.06
246.8	172.06
247.033	145.06
247.266	166.06
247.5	163.06
247.733	153.06
247.966	160.06
248.2	180.06
248.433	165.06
248.666	170.06
248.899	186.06
249.133	199.06
249.366	226.06
249.599	207.06
249.832	184.06
250.066	190.06
250.299	181.06
250.532	187.06
250.765	208.06
250.998	205.06
251.231	231.06
251.465	216.06
251.698	204.06
251.931	203.06
252.164	195.06
252.397	201.06
252.63	212.06
252.863	217.06
253.096	219.06
253.329	245.06
253.562	218.06
253.795	224.06
254.028	233.06
254.261	222.06
254.494	232.06
254.727	270.06
254.96	298.06
255.193	285.06
255.426	263.06
255.659	239.06
255.892	247.06
256.124	245.06
256.357	244.06
256.59	254.06
256.823	233.06
257.056	225.06
257.289	210.06
257.521	231.06
257.754	216.06
257.987	211.06
258.22	207.06
258.452	204.06
258.685	206.06
258.918	210.06
259.151	195.06
259.383	215.06
259.616	220.06
259.849	221.06
260.081	224.06
260.314	251.06
260.547	272.06
260.779	257.06
261.012	234.06
261.244	248.06
261.477	228.06
261.71	213.06
261.942	223.06
262.175	247.06
262.407	235.06
262.64	200.06
262.872	217.06
263.105	216.06
263.337	215.06
263.57	224.06
263.802	215.06
264.035	205.06
264.267	203.06
264.499	206.06
264.732	217.06
264.964	197.06
265.197	198.06
265.429	213.06
265.661	211.06
265.894	211.06
266.126	215.06
266.358	215.06
266.591	218.06
266.823	233.06
267.055	233.06
267.287	236.06
267.52	211.06
267.752	219.06
267.984	223.06
268.216	199.06
268.448	222.06
268.681	231.06
268.913	235.06
269.145	250.06
269.377	268.06
269.609	260.06
269.841	279.06
270.073	281.06
270.306	292.06
270.538	318.06
270.77	332.06
271.002	326.06
271.234	301.06
271.466	300.06
271.698	332.06
271.93	332.06
272.162	340.06
272.394	323.06
272.626	287.06
272.858	290.06
273.09	275.06
273.322	291.06
273.553	271.06
273.785	278.06
274.017	260.06
274.249	253.06
274.481	266.06
274.713	283.06
274.945	270.06
275.176	247.06
275.408	279.06
275.64	271.06
275.872	255.06
276.104	280.06
276.335	270.06
276.567	301.06
276.799	297.06
277.031	310.06
277.262	316.06
277.494	304.06
277.726	299.06
277.957	312.06
278.189	280.06
278.421	262.06
278.652	286.06
278.884	268.06
279.115	258.06
279.347	258.06
279.579	273.06
279.81	261.06
280.042	258.06
280.273	258.06
280.505	275.06
280.736	262.06
280.968	258.06
281.199	261.06
281.431	252.06
281.662	266.06
281.894	268.06
282.125	270.06
282.356	270.06
282.588	317.06
282.819	312.06
283.051	278.06
283.282	260.06
283.513	262.06
283.745	263.06
283.976	273.06
284.207	262.06
284.439	264.06
284.67	268.06
284.901	263.06
285.132	270.06
285.364	279.06
285.595	270.06
285.826	266.06
286.057	256.06
286.288	264.06
286.52	239.06
286.751	268.06
286.982	268.06
287.213	272.06
287.444	272.06
287.675	268.06
287.906	276.06
288.138	278.06
288.369	293.06
288.6	302.06
288.831	281.06
289.062	277.06
289.293	266.06
289.524	266.06
289.755	248.06
289.986	274.06
290.217	271.06
290.448	251.06
290.679	277.06
290.91	277.06
291.141	261.06
291.371	270.06
291.602	283.06
291.833	274.06
292.064	269.06
292.295	258.06
292.526	263.06
292.757	278.06
292.987	270.06
293.218	284.06
293.449	272.06
293.68	267.06
293.91	271.06
294.141	273.06
294.372	275.06
294.603	283.06
294.833	279.06
295.064	269.06
295.295	277.06
295.525	275.06
295.756	300.06
295.987	302.06
296.217	336.06
296.448	326.06
296.679	291.06
296.909	271.06
297.14	278.06
297.37	279.06
297.601	296.06
297.831	280.06
298.062	299.06
298.292	271.06
298.523	298.06
298.753	276.06
298.984	280.06
299.214	277.06
299.445	276.06
299.675	283.06
299.905	297.06
300.136	288.06
300.366	299.06
300.597	289.06
300.827	306.06
301.057	312.06
301.288	324.06
301.518	286.06
301.748	303.06
301.979	306.06
302.209	304.06
302.439	313.06
302.669	310.06
302.9	311.06
303.13	310.06
303.36	310.06
303.59	298.06
303.82	321.06
304.051	321.06
304.281	308.06
304.511	310.06
304.741	295.06
304.971	296.06
305.201	311.06
305.431	312.06
305.661	302.06
305.891	288.06
306.121	302.06
306.352	323.06
306.582	337.06
306.812	309.06
307.042	315.06
307.272	303.06
307.502	314.06
307.731	328.06
307.961	321.06
308.191	331.06
308.421	310.06
308.651	324.06
308.881	310.06
309.111	326.06
309.341	307.06
309.571	340.06
309.8	361.06
310.03	347.06
310.26	355.06
310.49	366.06
310.72	370.06
310.949	404.06
311.179	389.06
311.409	374.06
311.639	359.06
311.868	353.06
312.098	363.06
312.328	359.06
312.557	399.06
312.787	410.06
313.017	406.06
313.246	410.06
313.476	378.06
313.706	371.06
313.935	374.06
314.165	402.06
314.394	404.06
314.624	374.06
314.853	372.06
315.083	380.06
315.312	359.06
315.542	374.06
315.771	354.06
316.001	345.06
316.23	363.06
316.46	357.06
316.689	350.06
316.919	381.06
317.148	380.06
317.377	373.06
317.607	384.06
317.836	384.06
318.065	351.06
318.295	371.06
318.524	351.06
318.753	359.06
318.983	383.06
319.212	356.06
319.441	370.06
319.67	363.06
319.9	374.06
320.129	361.06
320.358	372.06
320.587	374.06
320.816	353.06
321.046	384.06
321.275	388.06
321.504	387.06
321.733	406.06
321.962	402.06
322.191	419.06
322.42	429.06
322.649	432.06
322.878	462.06
323.108	476.06
323.337	496.06
323.566	557.06
323.795	576.06
324.024	628.06
324.253	800.06
324.482	1133.06
324.71	1814.06
324.939	2670.06
325.168	2311.06
325.397	1160.06
325.626	751.06
325.855	597.06
326.084	571.06
326.313	553.06
326.542	556.06
326.77	595.06
326.999	696.06
327.228	1029.06
327.457	1568.06
327.686	1930.06
327.914	1323.06
328.143	824.06
328.372	724.06
328.6	669.06
328.829	594.06
329.058	642.06
329.287	648.06
329.515	588.06
329.744	541.06
329.972	586.06
330.201	574.06
330.43	602.06
330.658	656.06
330.887	654.06
331.115	639.06
331.344	559.06
331.572	504.06
331.801	487.06
332.03	484.06
332.258	470.06
332.486	441.06
332.715	444.06
332.943	424.06
333.172	425.06
333.4	438.06
333.629	459.06
333.857	436.06
334.085	456.06
334.314	507.06
334.542	557.06
334.771	557.06
334.999	491.06
335.227	470.06
335.455	433.06
335.684	443.06
335.912	433.06
336.14	426.06
336.369	413.06
336.597	431.06
336.825	433.06
337.053	413.06
337.281	424.06
337.51	434.06
337.738	407.06
337.966	434.06
338.194	412.06
338.422	416.06
338.65	401.06
338.878	412.06
339.106	396.06
339.334	412.06
339.562	411.06
339.79	387.06
340.018	406.06
340.246	418.06
340.474	421.06
340.702	391.06
340.93	400.06
341.158	393.06
341.386	415.06
341.614	415.06
341.842	413.06
342.07	418.06
342.298	398.06
342.526	399.06
342.754	387.06
342.981	390.06
343.209	387.06
343.437	370.06
343.665	379.06
343.893	425.06
344.12	402.06
344.348	371.06
344.576	393.06
344.804	392.06
345.031	430.06
345.259	418.06
345.487	409.06
345.714	392.06
345.942	397.06
346.17	398.06
346.397	404.06
346.625	407.06
346.853	402.06
347.08	390.06
347.308	393.06
347.535	414.06
347.763	441.06
347.99	416.06
348.218	416.06
348.445	407.06
348.673	415.06
348.9	407.06
349.128	383.06
349.355	372.06
349.583	378.06
349.81	367.06
350.037	384.06
350.265	382.06
350.492	365.06
350.72	363.06
350.947	380.06
351.174	402.06
351.402	411.06
351.629	387.06
351.856	426.06
352.083	416.06
352.311	432.06
352.538	406.06
352.765	402.06
352.992	413.06
353.22	410.06
353.447	377.06
353.674	367.06
353.901	365.06
354.128	355.06
354.355	359.06
354.583	352.06
354.81	368.06
355.037	351.06
355.264	360.06
355.491	351.06
355.718	360.06
355.945	343.06
356.172	344.06
356.399	362.06
356.626	330.06
356.853	347.06
357.08	350.06
357.307	346.06
357.534	343.06
357.761	357.06
357.988	347.06
358.215	362.06
358.441	352.06
358.668	348.06
358.895	371.06
359.122	374.06
359.349	372.06
359.576	395.06
359.802	434.06
360.029	475.06
360.256	471.06
360.483	443.06
360.709	416.06
360.936	402.06
361.163	386.06
361.39	391.06
361.616	408.06
361.843	379.06
362.07	372.06
362.296	399.06
362.523	418.06
362.749	386.06
362.976	382.06
363.203	384.06
363.429	358.06
363.656	356.06
363.882	371.06
364.109	363.06
364.335	376.06
364.562	368.06
364.788	373.06
365.015	368.06
365.241	366.06
365.468	375.06
365.694	382.06
365.92	376.06
366.147	349.06
366.373	363.06
366.599	349.06
366.826	360.06
367.052	356.06
367.278	352.06
367.505	351.06
367.731	368.06
367.957	362.06
368.184	365.06
368.41	376.06
368.636	370.06
368.862	374.06
369.089	367.06
369.315	354.06
369.541	364.06
369.767	355.06
369.993	348.06
370.219	354.06
370.445	349.06
370.672	333.06
370.898	357.06
371.124	342.06
371.35	358.06
371.576	327.06
371.802	363.06
372.028	345.06
372.254	327.06
372.48	340.06
372.706	341.06
372.932	349.06
373.158	343.06
373.384	342.06
373.61	366.06
373.835	348.06
374.061	356.06
374.287	353.06
374.513	352.06
374.739	350.06
374.965	341.06
375.191	345.06
375.416	325.06
375.642	353.06
375.868	357.06
376.094	352.06
376.319	341.06
376.545	349.06
376.771	337.06
376.997	328.06
377.222	344.06
377.448	323.06
377.674	342.06
377.899	346.06
378.125	346.06
378.35	351.06
378.576	342.06
378.802	318.06
379.027	341.06
379.253	340.06
379.478	346.06
379.704	344.06
379.929	350.06
380.155	335.06
380.38	338.06
380.606	359.06
380.831	344.06
381.057	355.06
381.282	347.06
381.507	343.06
381.733	372.06
381.958	328.06
382.184	341.06
382.409	345.06
382.634	349.06
382.86	337.06
383.085	356.06
383.31	350.06
383.535	359.06
383.761	375.06
383.986	358.06
384.211	374.06
384.436	358.06
384.662	363.06
384.887	352.06
385.112	335.06
385.337	357.06
385.562	377.06
385.787	364.06
386.013	392.06
386.238	370.06
386.463	374.06
386.688	377.06
386.913	365.06
387.138	350.06
387.363	364.06
387.588	362.06
387.813	348.06
388.038	361.06
388.263	379.06
388.488	362.06
388.713	372.06
388.938	348.06
389.163	373.06
389.387	376.06
389.612	355.06
389.837	346.06
390.062	358.06
390.287	372.06
390.512	361.06
390.736	348.06
390.961	362.06
391.186	375.06
391.411	372.06
391.636	365.06
391.86	363.06
392.085	359.06
392.31	365.06
392.534	393.06
392.759	388.06
392.984	373.06
393.208	364.06
393.433	382.06
393.658	378.06
393.882	348.06
394.107	352.06
394.331	355.06
394.556	365.06
394.78	381.06
395.005	358.06
395.229	350.06
395.454	360.06
395.678	394.06
395.903	389.06
396.127	411.06
396.352	418.06
396.576	394.06
396.801	389.06
397.025	377.06
397.249	394.06
397.474	391.06
397.698	384.06
397.922	398.06
398.147	401.06
398.371	416.06
398.595	411.06
398.82	420.06
399.044	413.06
399.268	432.06
399.492	430.06
399.717	445.06
399.941	458.06
400.165	516.06
400.389	526.06
400.613	471.06
400.837	455.06
401.062	425.06
401.286	419.06
401.51	434.06
401.734	400.06
401.958	419.06
402.182	412.06
402.406	446.06
402.63	454.06
402.854	431.06
403.078	444.06
403.302	424.06
403.526	421.06
403.75	425.06
403.974	424.06
404.198	434.06
404.422	434.06
404.645	425.06
404.869	471.06
405.093	487.06
405.317	522.06
405.541	561.06
405.765	511.06
405.988	483.06
406.212	463.06
406.436	519.06
406.66	516.06
406.883	467.06
407.107	532.06
407.331	546.06
407.555	599.06
407.778	607.06
408.002	531.06
408.226	481.06
408.449	468.06
408.673	502.06
408.896	515.06
409.12	559.06
409.344	521.06
409.567	482.06
409.791	429.06
410.014	452.06
410.238	415.06
410.461	438.06
410.685	446.06
410.908	474.06
411.132	487.06
411.355	526.06
411.578	506.06
411.802	458.06
412.025	450.06
412.249	454.06
412.472	463.06
412.695	525.06
412.919	498.06
413.142	464.06
413.365	422.06
413.589	424.06
413.812	442.06
414.035	418.06
414.258	414.06
414.482	420.06
414.705	396.06
414.928	417.06
415.151	404.06
415.374	407.06
415.597	405.06
415.821	406.06
416.044	422.06
416.267	406.06
416.49	405.06
416.713	423.06
416.936	417.06
417.159	396.06
417.382	422.06
417.605	422.06
417.828	436.06
418.051	429.06
418.274	413.06
418.497	403.06
418.72	399.06
418.943	414.06
419.166	406.06
419.389	458.06
419.611	434.06
419.834	432.06
420.057	437.06
420.28	449.06
420.503	447.06
420.726	456.06
420.948	453.06
421.171	498.06
421.394	516.06
421.617	460.06
421.839	442.06
422.062	448.06
422.285	461.06
422.507	515.06
422.73	584.06
422.953	557.06
423.175	508.06
423.398	468.06
423.621	488.06
423.843	468.06
424.066	486.06
424.288	470.06
424.511	485.06
424.733	545.06
424.956	616.06
425.178	610.06
425.401	605.06
425.623	639.06
425.846	534.06
426.068	521.06
426.291	500.06
426.513	499.06
426.735	503.06
426.958	563.06
427.18	638.06
427.402	722.06
427.625	852.06
427.847	771.06
428.069	662.06
428.292	558.06
428.514	522.06
428.736	481.06
428.958	477.06
429.181	447.06
429.403	468.06
429.625	449.06
429.847	480.06
430.069	534.06
430.292	551.06
430.514	485.06
430.736	444.06
430.958	452.06
431.18	436.06
431.402	424.06
431.624	427.06
431.846	418.06
432.068	400.06
432.29	431.06
432.512	436.06
432.734	403.06
432.956	428.06
433.178	443.06
433.4	453.06
433.622	428.06
433.844	410.06
434.066	413.06
434.287	414.06
434.509	422.06
434.731	427.06
434.953	429.06
435.175	453.06
435.397	464.06
435.618	492.06
435.84	550.06
436.062	638.06
436.284	720.06
436.505	599.06
436.727	529.06
436.949	474.06
437.17	457.06
437.392	485.06
437.614	475.06
437.835	500.06
438.057	598.06
438.278	725.06
438.5	717.06
438.721	790.06
438.943	754.06
439.165	594.06
439.386	530.06
439.608	525.06
439.829	532.06
440.05	558.06
440.272	604.06
440.493	584.06
440.715	498.06
440.936	496.06
441.158	458.06
441.379	449.06
441.6	474.06
441.822	499.06
442.043	532.06
442.264	610.06
442.486	674.06
442.707	582.06
442.928	517.06
443.149	537.06
443.371	556.06
443.592	594.06
443.813	686.06
444.034	718.06
444.255	575.06
444.476	521.06
444.698	488.06
444.919	497.06
445.14	585.06
445.361	562.06
445.582	570.06
445.803	621.06
446.024	734.06
446.245	740.06
446.466	670.06
446.687	570.06
446.908	528.06
447.129	478.06
447.35	484.06
447.571	438.06
447.792	463.06
448.013	452.06
448.234	514.06
448.455	548.06
448.675	648.06
448.896	793.06
449.117	638.06
449.338	632.06
449.559	694.06
449.779	814.06
450	638.06
450.221	550.06
450.442	480.06
450.662	445.06
450.883	479.06
451.104	480.06
451.324	470.06
451.545	450.06
451.766	423.06
451.986	412.06
452.207	410.06
452.428	397.06
452.648	411.06
452.869	410.06
453.089	414.06
453.31	434.06
453.53	442.06
453.751	409.06
453.971	405.06
454.192	427.06
454.412	446.06
454.633	431.06
454.853	426.06
455.073	415.06
455.294	445.06
455.514	520.06
455.734	514.06
455.955	422.06
456.175	398.06
456.395	387.06
456.616	365.06
456.836	376.06
457.056	381.06
457.276	360.06
457.497	383.06
457.717	392.06
457.937	386.06
458.157	399.06
458.377	388.06
458.598	426.06
458.818	483.06
459.038	583.06
459.258	582.06
459.478	485.06
459.698	434.06
459.918	422.06
460.138	414.06
460.358	408.06
460.578	416.06
460.798	427.06
461.018	430.06
461.238	415.06
461.458	406.06
461.678	422.06
461.898	413.06
462.118	406.06
462.338	424.06
462.558	420.06
462.777	439.06
462.997	414.06
463.217	407.06
463.437	437.06
463.657	427.06
463.876	457.06
464.096	438.06
464.316	428.06
464.536	450.06
464.755	451.06
464.975	441.06
465.195	482.06
465.414	603.06
465.634	508.06
465.854	482.06
466.073	429.06
466.293	438.06
466.512	411.06
466.732	398.06
466.951	414.06
467.171	401.06
467.391	410.06
467.61	439.06
467.829	428.06
468.049	414.06
468.268	434.06
468.488	450.06
468.707	419.06
468.927	406.06
469.146	386.06
469.365	388.06
469.585	394.06
469.804	413.06
470.023	408.06
470.243	428.06
470.462	437.06
470.681	442.06
470.901	444.06
471.12	450.06
471.339	415.06
471.558	413.06
471.777	435.06
471.997	408.06
472.216	429.06
472.435	475.06
472.654	465.06
472.873	428.06
473.092	419.06
473.311	418.06
473.53	434.06
473.749	427.06
473.968	465.06
474.187	600.06
474.406	631.06
474.625	508.06
474.844	420.06
475.063	416.06
475.282	430.06
475.501	412.06
475.72	408.06
475.939	420.06
476.158	426.06
476.377	438.06
476.596	423.06
476.814	426.06
477.033	427.06
477.252	455.06
477.471	458.06
477.69	440.06
477.908	439.06
478.127	450.06
478.346	446.06
478.564	445.06
478.783	442.06
479.002	480.06
479.22	474.06
479.439	477.06
479.658	506.06
479.876	494.06
480.095	504.06
480.313	535.06
480.532	527.06
480.751	504.06
480.969	539.06
481.188	619.06
481.406	681.06
481.624	548.06
481.843	532.06
482.061	519.06
482.28	512.06
482.498	490.06
482.717	504.06
482.935	482.06
483.153	483.06
483.372	490.06
483.59	500.06
483.808	484.06
484.027	494.06
484.245	491.06
484.463	484.06
484.681	495.06
484.9	496.06
485.118	471.06
485.336	512.06
485.554	519.06
485.772	500.06
485.99	510.06
486.209	488.06
486.427	526.06
486.645	529.06
486.863	522.06
487.081	548.06
487.299	527.06
487.517	533.06
487.735	534.06
487.953	537.06
488.171	532.06
488.389	522.06
488.607	538.06
488.825	540.06
489.043	547.06
489.261	514.06
489.479	546.06
489.696	548.06
489.914	536.06
490.132	564.06
490.35	569.06
490.568	555.06
490.786	552.06
491.003	587.06
491.221	589.06
491.439	600.06
491.657	588.06
491.874	614.06
492.092	586.06
492.31	595.06
492.527	621.06
492.745	611.06
492.963	616.06
493.18	626.06
493.398	630.06
493.615	629.06
493.833	629.06
494.05	637.06
494.268	611.06
494.485	630.06
494.703	632.06
494.92	627.06
495.138	615.06
495.355	626.06
495.573	616.06
495.79	651.06
496.008	662.06
496.225	631.06
496.442	629.06
496.66	639.06
496.877	634.06
497.094	632.06
497.312	645.06
497.529	645.06
497.746	635.06
497.963	659.06
498.181	672.06
498.398	678.06
498.615	669.06
498.832	677.06
499.049	697.06
499.267	678.06
499.484	678.06
499.701	706.06
499.918	694.06
500.135	744.06
500.352	779.06
500.569	753.06
500.786	762.06
501.003	784.06
501.22	764.06
501.437	751.06
501.654	768.06
501.871	760.06
