Data from 1972.PennyLincolnUp.Lamp.En5.5.200Scan.071719.P1._HRD10591_15-28-54-844.txt Node
Date: Thu Jul 18 15:28:54 EDT 2019
User: cochatt
Spectrometer: HR+D1059
Trigger mode: 1
Integration Time (sec): 1.000000E-1
Scans to average: 1
Electric dark correction enabled: true
Nonlinearity correction enabled: false
Boxcar width: 0
XAxis mode: Wavelengths
Number of Pixels in Spectrum: 2048
>>>>>Begin Spectral Data<<<<<
223.165	-6.12
223.4	-6.12
223.635	-6.12
223.869	-21.12
224.104	-13.12
224.338	-29.12
224.573	-20.12
224.808	-17.12
225.042	-8.12
225.277	-5.12
225.511	-9.12
225.746	3.88
225.98	4.88
226.215	21.88
226.449	22.88
226.683	26.88
226.918	27.88
227.152	20.88
227.387	37.88
227.621	29.88
227.856	32.88
228.09	47.88
228.324	50.88
228.559	56.88
228.793	54.88
229.027	91.88
229.262	107.88
229.496	122.88
229.73	128.88
229.964	162.88
230.199	136.88
230.433	122.88
230.667	106.88
230.901	118.88
231.136	106.88
231.37	112.88
231.604	125.88
231.838	125.88
232.072	127.88
232.306	105.88
232.541	107.88
232.775	109.88
233.009	113.88
233.243	120.88
233.477	117.88
233.711	108.88
233.945	108.88
234.179	123.88
234.413	122.88
234.647	116.88
234.881	116.88
235.115	105.88
235.349	126.88
235.583	132.88
235.817	125.88
236.051	122.88
236.285	129.88
236.519	130.88
236.753	117.88
236.987	134.88
237.221	189.88
237.455	259.88
237.689	212.88
237.922	149.88
238.156	142.88
238.39	124.88
238.624	131.88
238.858	137.88
239.091	123.88
239.325	130.88
239.559	123.88
239.793	123.88
240.027	141.88
240.26	135.88
240.494	158.88
240.728	157.88
240.961	157.88
241.195	139.88
241.429	163.88
241.662	144.88
241.896	131.88
242.13	144.88
242.363	140.88
242.597	132.88
242.83	147.88
243.064	138.88
243.298	138.88
243.531	143.88
243.765	147.88
243.998	139.88
244.232	156.88
244.465	149.88
244.699	130.88
244.932	143.88
245.166	145.88
245.399	136.88
245.633	160.88
245.866	151.88
246.099	149.88
246.333	135.88
246.566	148.88
246.8	149.88
247.033	157.88
247.266	169.88
247.5	167.88
247.733	166.88
247.966	182.88
248.2	185.88
248.433	188.88
248.666	168.88
248.899	187.88
249.133	207.88
249.366	236.88
249.599	205.88
249.832	200.88
250.066	188.88
250.299	180.88
250.532	205.88
250.765	225.88
250.998	246.88
251.231	219.88
251.465	234.88
251.698	217.88
251.931	204.88
252.164	209.88
252.397	185.88
252.63	214.88
252.863	210.88
253.096	207.88
253.329	238.88
253.562	244.88
253.795	224.88
254.028	228.88
254.261	239.88
254.494	235.88
254.727	260.88
254.96	311.88
255.193	290.88
255.426	274.88
255.659	258.88
255.892	256.88
256.124	251.88
256.357	256.88
256.59	249.88
256.823	251.88
257.056	227.88
257.289	222.88
257.521	236.88
257.754	215.88
257.987	214.88
258.22	224.88
258.452	231.88
258.685	218.88
258.918	215.88
259.151	221.88
259.383	226.88
259.616	232.88
259.849	246.88
260.081	255.88
260.314	256.88
260.547	266.88
260.779	247.88
261.012	268.88
261.244	248.88
261.477	248.88
261.71	241.88
261.942	247.88
262.175	256.88
262.407	241.88
262.64	219.88
262.872	238.88
263.105	238.88
263.337	227.88
263.57	231.88
263.802	223.88
264.035	211.88
264.267	216.88
264.499	206.88
264.732	204.88
264.964	221.88
265.197	214.88
265.429	209.88
265.661	201.88
265.894	206.88
266.126	216.88
266.358	220.88
266.591	221.88
266.823	241.88
267.055	227.88
267.287	220.88
267.52	216.88
267.752	218.88
267.984	219.88
268.216	235.88
268.448	239.88
268.681	232.88
268.913	268.88
269.145	292.88
269.377	281.88
269.609	309.88
269.841	301.88
270.073	283.88
270.306	309.88
270.538	325.88
270.77	327.88
271.002	322.88
271.234	306.88
271.466	309.88
271.698	327.88
271.93	343.88
272.162	341.88
272.394	346.88
272.626	330.88
272.858	334.88
273.09	290.88
273.322	292.88
273.553	277.88
273.785	276.88
274.017	274.88
274.249	276.88
274.481	281.88
274.713	285.88
274.945	291.88
275.176	291.88
275.408	279.88
275.64	286.88
275.872	286.88
276.104	267.88
276.335	263.88
276.567	279.88
276.799	308.88
277.031	324.88
277.262	342.88
277.494	344.88
277.726	337.88
277.957	310.88
278.189	298.88
278.421	293.88
278.652	291.88
278.884	279.88
279.115	262.88
279.347	277.88
279.579	279.88
279.81	276.88
280.042	285.88
280.273	290.88
280.505	265.88
280.736	279.88
280.968	275.88
281.199	273.88
281.431	263.88
281.662	290.88
281.894	281.88
282.125	275.88
282.356	291.88
282.588	321.88
282.819	336.88
283.051	291.88
283.282	275.88
283.513	285.88
283.745	285.88
283.976	283.88
284.207	297.88
284.439	289.88
284.67	278.88
284.901	289.88
285.132	294.88
285.364	282.88
285.595	279.88
285.826	274.88
286.057	273.88
286.288	275.88
286.52	285.88
286.751	294.88
286.982	277.88
287.213	283.88
287.444	287.88
287.675	286.88
287.906	293.88
288.138	309.88
288.369	294.88
288.6	328.88
288.831	308.88
289.062	293.88
289.293	292.88
289.524	294.88
289.755	273.88
289.986	285.88
290.217	291.88
290.448	283.88
290.679	296.88
290.91	292.88
291.141	281.88
291.371	283.88
291.602	293.88
291.833	307.88
292.064	285.88
292.295	279.88
292.526	287.88
292.757	280.88
292.987	298.88
293.218	277.88
293.449	297.88
293.68	298.88
293.91	279.88
294.141	305.88
294.372	277.88
294.603	291.88
294.833	289.88
295.064	301.88
295.295	312.88
295.525	280.88
295.756	289.88
295.987	300.88
296.217	344.88
296.448	346.88
296.679	321.88
296.909	289.88
297.14	275.88
297.37	310.88
297.601	301.88
297.831	286.88
298.062	298.88
298.292	297.88
298.523	322.88
298.753	304.88
298.984	298.88
299.214	294.88
299.445	282.88
299.675	322.88
299.905	309.88
300.136	310.88
300.366	317.88
300.597	298.88
300.827	306.88
301.057	328.88
301.288	338.88
301.518	321.88
301.748	310.88
301.979	326.88
302.209	329.88
302.439	314.88
302.669	316.88
302.9	321.88
303.13	305.88
303.36	317.88
303.59	312.88
303.82	325.88
304.051	338.88
304.281	327.88
304.511	320.88
304.741	334.88
304.971	326.88
305.201	337.88
305.431	323.88
305.661	342.88
305.891	312.88
306.121	334.88
306.352	328.88
306.582	349.88
306.812	334.88
307.042	330.88
307.272	333.88
307.502	322.88
307.731	329.88
307.961	329.88
308.191	314.88
308.421	316.88
308.651	332.88
308.881	329.88
309.111	353.88
309.341	344.88
309.571	346.88
309.8	356.88
310.03	389.88
310.26	402.88
310.49	390.88
310.72	384.88
310.949	405.88
311.179	420.88
311.409	394.88
311.639	397.88
311.868	392.88
312.098	400.88
312.328	389.88
312.557	420.88
312.787	422.88
313.017	441.88
313.246	410.88
313.476	375.88
313.706	378.88
313.935	404.88
314.165	425.88
314.394	416.88
314.624	416.88
314.853	404.88
315.083	389.88
315.312	377.88
315.542	372.88
315.771	376.88
316.001	373.88
316.23	372.88
316.46	374.88
316.689	388.88
316.919	391.88
317.148	417.88
317.377	382.88
317.607	404.88
317.836	398.88
318.065	398.88
318.295	389.88
318.524	386.88
318.753	382.88
318.983	397.88
319.212	392.88
319.441	406.88
319.67	407.88
319.9	373.88
320.129	374.88
320.358	405.88
320.587	400.88
320.816	386.88
321.046	393.88
321.275	430.88
321.504	411.88
321.733	399.88
321.962	413.88
322.191	425.88
322.42	454.88
322.649	473.88
322.878	483.88
323.108	501.88
323.337	527.88
323.566	553.88
323.795	620.88
324.024	649.88
324.253	818.88
324.482	1223.88
324.71	1920.88
324.939	2848.88
325.168	2521.88
325.397	1257.88
325.626	814.88
325.855	636.88
326.084	587.88
326.313	568.88
326.542	579.88
326.77	623.88
326.999	769.88
327.228	1089.88
327.457	1702.88
327.686	2128.88
327.914	1432.88
328.143	899.88
328.372	762.88
328.6	683.88
328.829	672.88
329.058	672.88
329.287	701.88
329.515	640.88
329.744	582.88
329.972	573.88
330.201	576.88
330.43	678.88
330.658	688.88
330.887	710.88
331.115	676.88
331.344	573.88
331.572	519.88
331.801	540.88
332.03	518.88
332.258	496.88
332.486	457.88
332.715	471.88
332.943	466.88
333.172	470.88
333.4	455.88
333.629	450.88
333.857	495.88
334.085	516.88
334.314	520.88
334.542	565.88
334.771	589.88
334.999	537.88
335.227	485.88
335.455	480.88
335.684	456.88
335.912	456.88
336.14	424.88
336.369	451.88
336.597	463.88
336.825	442.88
337.053	438.88
337.281	417.88
337.51	436.88
337.738	444.88
337.966	432.88
338.194	450.88
338.422	443.88
338.65	434.88
338.878	425.88
339.106	425.88
339.334	422.88
339.562	412.88
339.79	431.88
340.018	416.88
340.246	445.88
340.474	442.88
340.702	432.88
340.93	438.88
341.158	420.88
341.386	417.88
341.614	427.88
341.842	437.88
342.07	427.88
342.298	414.88
342.526	402.88
342.754	406.88
342.981	399.88
343.209	394.88
343.437	414.88
343.665	418.88
343.893	410.88
344.12	409.88
344.348	417.88
344.576	417.88
344.804	440.88
345.031	452.88
345.259	442.88
345.487	439.88
345.714	433.88
345.942	414.88
346.17	425.88
346.397	426.88
346.625	412.88
346.853	426.88
347.08	419.88
347.308	416.88
347.535	443.88
347.763	434.88
347.99	436.88
348.218	406.88
348.445	455.88
348.673	440.88
348.9	422.88
349.128	394.88
349.355	395.88
349.583	392.88
349.81	396.88
350.037	399.88
350.265	389.88
350.492	385.88
350.72	389.88
350.947	411.88
351.174	428.88
351.402	433.88
351.629	434.88
351.856	423.88
352.083	412.88
352.311	444.88
352.538	461.88
352.765	465.88
352.992	425.88
353.22	425.88
353.447	408.88
353.674	384.88
353.901	401.88
354.128	395.88
354.355	371.88
354.583	395.88
354.81	384.88
355.037	372.88
355.264	387.88
355.491	373.88
355.718	388.88
355.945	359.88
356.172	358.88
356.399	372.88
356.626	376.88
356.853	379.88
357.08	353.88
357.307	364.88
357.534	365.88
357.761	376.88
357.988	396.88
358.215	373.88
358.441	391.88
358.668	373.88
358.895	380.88
359.122	395.88
359.349	403.88
359.576	432.88
359.802	448.88
360.029	470.88
360.256	476.88
360.483	451.88
360.709	420.88
360.936	421.88
361.163	423.88
361.39	402.88
361.616	423.88
361.843	414.88
362.07	404.88
362.296	410.88
362.523	406.88
362.749	413.88
362.976	408.88
363.203	393.88
363.429	384.88
363.656	392.88
363.882	389.88
364.109	380.88
364.335	401.88
364.562	385.88
364.788	385.88
365.015	389.88
365.241	397.88
365.468	391.88
365.694	400.88
365.92	414.88
366.147	379.88
366.373	364.88
366.599	371.88
366.826	370.88
367.052	353.88
367.278	380.88
367.505	370.88
367.731	376.88
367.957	387.88
368.184	373.88
368.41	369.88
368.636	403.88
368.862	397.88
369.089	398.88
369.315	377.88
369.541	408.88
369.767	367.88
369.993	397.88
370.219	374.88
370.445	363.88
370.672	384.88
370.898	351.88
371.124	376.88
371.35	371.88
371.576	361.88
371.802	368.88
372.028	340.88
372.254	390.88
372.48	358.88
372.706	365.88
372.932	373.88
373.158	376.88
373.384	373.88
373.61	376.88
373.835	369.88
374.061	375.88
374.287	376.88
374.513	367.88
374.739	376.88
374.965	365.88
375.191	383.88
375.416	386.88
375.642	385.88
375.868	381.88
376.094	384.88
376.319	385.88
376.545	363.88
376.771	363.88
376.997	379.88
377.222	361.88
377.448	373.88
377.674	353.88
377.899	380.88
378.125	360.88
378.35	377.88
378.576	354.88
378.802	373.88
379.027	358.88
379.253	356.88
379.478	349.88
379.704	355.88
379.929	374.88
380.155	374.88
380.38	375.88
380.606	387.88
380.831	368.88
381.057	376.88
381.282	363.88
381.507	365.88
381.733	378.88
381.958	365.88
382.184	368.88
382.409	368.88
382.634	369.88
382.86	353.88
383.085	373.88
383.31	357.88
383.535	372.88
383.761	370.88
383.986	360.88
384.211	386.88
384.436	380.88
384.662	396.88
384.887	371.88
385.112	385.88
385.337	385.88
385.562	384.88
385.787	378.88
386.013	405.88
386.238	392.88
386.463	394.88
386.688	388.88
386.913	377.88
387.138	391.88
387.363	370.88
387.588	399.88
387.813	391.88
388.038	389.88
388.263	385.88
388.488	397.88
388.713	387.88
388.938	381.88
389.163	379.88
389.387	372.88
389.612	358.88
389.837	378.88
390.062	388.88
390.287	392.88
390.512	377.88
390.736	380.88
390.961	394.88
391.186	387.88
391.411	412.88
391.636	396.88
391.86	393.88
392.085	390.88
392.31	392.88
392.534	404.88
392.759	390.88
392.984	379.88
393.208	386.88
393.433	411.88
393.658	399.88
393.882	377.88
394.107	392.88
394.331	409.88
394.556	397.88
394.78	395.88
395.005	394.88
395.229	398.88
395.454	381.88
395.678	386.88
395.903	403.88
396.127	444.88
396.352	454.88
396.576	416.88
396.801	386.88
397.025	412.88
397.249	398.88
397.474	422.88
397.698	405.88
397.922	433.88
398.147	443.88
398.371	444.88
398.595	429.88
398.82	432.88
399.044	447.88
399.268	439.88
399.492	477.88
399.717	475.88
399.941	519.88
400.165	538.88
400.389	584.88
400.613	496.88
400.837	465.88
401.062	455.88
401.286	448.88
401.51	444.88
401.734	426.88
401.958	453.88
402.182	457.88
402.406	472.88
402.63	482.88
402.854	433.88
403.078	439.88
403.302	445.88
403.526	455.88
403.75	461.88
403.974	458.88
404.198	452.88
404.422	456.88
404.645	482.88
404.869	491.88
405.093	540.88
405.317	553.88
405.541	600.88
405.765	568.88
405.988	505.88
406.212	513.88
406.436	530.88
406.66	537.88
406.883	534.88
407.107	531.88
407.331	565.88
407.555	641.88
407.778	646.88
408.002	566.88
408.226	523.88
408.449	489.88
408.673	514.88
408.896	567.88
409.12	587.88
409.344	555.88
409.567	491.88
409.791	515.88
410.014	476.88
410.238	467.88
410.461	467.88
410.685	461.88
410.908	497.88
411.132	529.88
411.355	578.88
411.578	521.88
411.802	459.88
412.025	460.88
412.249	473.88
412.472	492.88
412.695	566.88
412.919	560.88
413.142	499.88
413.365	488.88
413.589	454.88
413.812	439.88
414.035	428.88
414.258	442.88
414.482	452.88
414.705	446.88
414.928	459.88
415.151	441.88
415.374	440.88
415.597	440.88
415.821	437.88
416.044	456.88
416.267	434.88
416.49	440.88
416.713	436.88
416.936	429.88
417.159	448.88
417.382	443.88
417.605	463.88
417.828	461.88
418.051	486.88
418.274	438.88
418.497	458.88
418.72	456.88
418.943	432.88
419.166	424.88
419.389	448.88
419.611	482.88
419.834	464.88
420.057	478.88
420.28	485.88
420.503	481.88
420.726	484.88
420.948	486.88
421.171	544.88
421.394	561.88
421.617	498.88
421.839	478.88
422.062	458.88
422.285	479.88
422.507	565.88
422.73	626.88
422.953	590.88
423.175	522.88
423.398	492.88
423.621	513.88
423.843	525.88
424.066	501.88
424.288	515.88
424.511	535.88
424.733	601.88
424.956	688.88
425.178	652.88
425.401	672.88
425.623	685.88
425.846	582.88
426.068	536.88
426.291	505.88
426.513	521.88
426.735	538.88
426.958	584.88
427.18	659.88
427.402	816.88
427.625	902.88
427.847	811.88
428.069	702.88
428.292	601.88
428.514	544.88
428.736	525.88
428.958	499.88
429.181	476.88
429.403	486.88
429.625	487.88
429.847	530.88
430.069	621.88
430.292	600.88
430.514	527.88
430.736	495.88
430.958	475.88
431.18	454.88
431.402	446.88
431.624	430.88
431.846	427.88
432.068	430.88
432.29	437.88
432.512	443.88
432.734	466.88
432.956	459.88
433.178	490.88
433.4	476.88
433.622	437.88
433.844	445.88
434.066	461.88
434.287	454.88
434.509	456.88
434.731	462.88
434.953	468.88
435.175	485.88
435.397	523.88
435.618	543.88
435.84	567.88
436.062	648.88
436.284	743.88
436.505	618.88
436.727	561.88
436.949	515.88
437.17	506.88
437.392	484.88
437.614	514.88
437.835	555.88
438.057	665.88
438.278	786.88
438.5	778.88
438.721	825.88
438.943	789.88
439.165	622.88
439.386	544.88
439.608	551.88
439.829	549.88
440.05	574.88
440.272	650.88
440.493	614.88
440.715	532.88
440.936	492.88
441.158	493.88
441.379	508.88
441.6	504.88
441.822	511.88
442.043	564.88
442.264	661.88
442.486	712.88
442.707	584.88
442.928	533.88
443.149	549.88
443.371	579.88
443.592	643.88
443.813	723.88
444.034	788.88
444.255	610.88
444.476	550.88
444.698	535.88
444.919	522.88
445.14	609.88
445.361	604.88
445.582	610.88
445.803	679.88
446.024	798.88
446.245	764.88
446.466	714.88
446.687	594.88
446.908	545.88
447.129	503.88
447.35	510.88
447.571	509.88
447.792	473.88
448.013	498.88
448.234	534.88
448.455	562.88
448.675	702.88
448.896	817.88
449.117	708.88
449.338	649.88
449.559	753.88
449.779	850.88
450	728.88
450.221	551.88
450.442	538.88
450.662	496.88
450.883	486.88
451.104	520.88
451.324	502.88
451.545	473.88
451.766	453.88
451.986	458.88
452.207	438.88
452.428	391.88
452.648	444.88
452.869	417.88
453.089	470.88
453.31	448.88
453.53	456.88
453.751	435.88
453.971	436.88
454.192	478.88
454.412	461.88
454.633	429.88
454.853	452.88
455.073	436.88
455.294	468.88
455.514	543.88
455.734	542.88
455.955	446.88
456.175	418.88
456.395	408.88
456.616	428.88
456.836	403.88
457.056	395.88
457.276	391.88
457.497	419.88
457.717	402.88
457.937	417.88
458.157	412.88
458.377	414.88
458.598	467.88
458.818	534.88
459.038	641.88
459.258	660.88
459.478	528.88
459.698	483.88
459.918	442.88
460.138	419.88
460.358	420.88
460.578	430.88
460.798	436.88
461.018	438.88
461.238	434.88
461.458	425.88
461.678	444.88
461.898	457.88
462.118	432.88
462.338	430.88
462.558	451.88
462.777	458.88
462.997	455.88
463.217	456.88
463.437	451.88
463.657	460.88
463.876	466.88
464.096	472.88
464.316	468.88
464.536	465.88
464.755	472.88
464.975	480.88
465.195	538.88
465.414	624.88
465.634	557.88
465.854	520.88
466.073	475.88
466.293	458.88
466.512	435.88
466.732	430.88
466.951	442.88
467.171	442.88
467.391	434.88
467.61	454.88
467.829	457.88
468.049	455.88
468.268	440.88
468.488	441.88
468.707	425.88
468.927	406.88
469.146	413.88
469.365	411.88
469.585	429.88
469.804	436.88
470.023	452.88
470.243	447.88
470.462	467.88
470.681	442.88
470.901	456.88
471.12	457.88
471.339	447.88
471.558	470.88
471.777	457.88
471.997	444.88
472.216	453.88
472.435	522.88
472.654	485.88
472.873	448.88
473.092	462.88
473.311	438.88
473.53	444.88
473.749	444.88
473.968	514.88
474.187	604.88
474.406	627.88
474.625	524.88
474.844	492.88
475.063	481.88
475.282	450.88
475.501	448.88
475.72	459.88
475.939	449.88
476.158	461.88
476.377	459.88
476.596	445.88
476.814	469.88
477.033	487.88
477.252	462.88
477.471	461.88
477.69	446.88
477.908	476.88
478.127	481.88
478.346	471.88
478.564	474.88
478.783	498.88
479.002	469.88
479.22	506.88
479.439	503.88
479.658	548.88
479.876	537.88
480.095	549.88
480.313	549.88
480.532	554.88
480.751	539.88
480.969	542.88
481.188	640.88
481.406	708.88
481.624	616.88
481.843	593.88
482.061	524.88
482.28	518.88
482.498	533.88
482.717	528.88
482.935	517.88
483.153	548.88
483.372	515.88
483.59	540.88
483.808	513.88
484.027	516.88
484.245	526.88
484.463	530.88
484.681	533.88
484.9	519.88
485.118	515.88
485.336	539.88
485.554	524.88
485.772	550.88
485.99	537.88
486.209	545.88
486.427	550.88
486.645	553.88
486.863	566.88
487.081	563.88
487.299	600.88
487.517	566.88
487.735	558.88
487.953	576.88
488.171	570.88
488.389	568.88
488.607	549.88
488.825	532.88
489.043	550.88
489.261	557.88
489.479	576.88
489.696	546.88
489.914	574.88
490.132	608.88
490.35	584.88
490.568	595.88
490.786	605.88
491.003	612.88
491.221	614.88
491.439	622.88
491.657	639.88
491.874	667.88
492.092	654.88
492.31	649.88
492.527	638.88
492.745	665.88
492.963	660.88
493.18	634.88
493.398	641.88
493.615	685.88
493.833	673.88
494.05	666.88
494.268	676.88
494.485	656.88
494.703	661.88
494.92	664.88
495.138	672.88
495.355	686.88
495.573	679.88
495.79	671.88
496.008	667.88
496.225	659.88
496.442	648.88
496.66	658.88
496.877	664.88
497.094	692.88
497.312	674.88
497.529	676.88
497.746	685.88
497.963	701.88
498.181	712.88
498.398	708.88
498.615	709.88
498.832	772.88
499.049	724.88
499.267	732.88
499.484	768.88
499.701	744.88
499.918	760.88
500.135	817.88
500.352	812.88
500.569	845.88
500.786	832.88
501.003	833.88
501.22	809.88
501.437	787.88
501.654	811.88
501.871	820.88
