Data from 1972.PennyLincolnUp.Lamp.En5.5.200Scan.071719.P1._HRD10591_15-28-30-844.txt Node
Date: Thu Jul 18 15:28:30 EDT 2019
User: cochatt
Spectrometer: HR+D1059
Trigger mode: 1
Integration Time (sec): 1.000000E-1
Scans to average: 1
Electric dark correction enabled: true
Nonlinearity correction enabled: false
Boxcar width: 0
XAxis mode: Wavelengths
Number of Pixels in Spectrum: 2048
>>>>>Begin Spectral Data<<<<<
223.165	-12.88
223.4	-12.88
223.635	-12.88
223.869	-10.88
224.104	-30.88
224.338	-11.88
224.573	-6.88
224.808	-17.88
225.042	-1.88
225.277	-5.88
225.511	-0.88
225.746	2.12
225.98	11.12
226.215	27.12
226.449	6.12
226.683	7.12
226.918	23.12
227.152	23.12
227.387	30.12
227.621	34.12
227.856	53.12
228.09	38.12
228.324	33.12
228.559	50.12
228.793	64.12
229.027	92.12
229.262	115.12
229.496	113.12
229.73	152.12
229.964	179.12
230.199	140.12
230.433	100.12
230.667	117.12
230.901	111.12
231.136	109.12
231.37	108.12
231.604	120.12
231.838	120.12
232.072	113.12
232.306	109.12
232.541	111.12
232.775	106.12
233.009	115.12
233.243	121.12
233.477	108.12
233.711	103.12
233.945	108.12
234.179	122.12
234.413	127.12
234.647	115.12
234.881	113.12
235.115	128.12
235.349	133.12
235.583	126.12
235.817	131.12
236.051	138.12
236.285	131.12
236.519	134.12
236.753	136.12
236.987	145.12
237.221	203.12
237.455	266.12
237.689	207.12
237.922	142.12
238.156	139.12
238.39	133.12
238.624	144.12
238.858	133.12
239.091	106.12
239.325	129.12
239.559	139.12
239.793	140.12
240.027	133.12
240.26	137.12
240.494	159.12
240.728	165.12
240.961	142.12
241.195	143.12
241.429	133.12
241.662	137.12
241.896	119.12
242.13	141.12
242.363	131.12
242.597	135.12
242.83	138.12
243.064	135.12
243.298	128.12
243.531	147.12
243.765	143.12
243.998	139.12
244.232	136.12
244.465	150.12
244.699	145.12
244.932	143.12
245.166	148.12
245.399	157.12
245.633	137.12
245.866	160.12
246.099	144.12
246.333	141.12
246.566	155.12
246.8	151.12
247.033	146.12
247.266	157.12
247.5	158.12
247.733	166.12
247.966	183.12
248.2	171.12
248.433	168.12
248.666	174.12
248.899	198.12
249.133	200.12
249.366	215.12
249.599	196.12
249.832	178.12
250.066	188.12
250.299	187.12
250.532	202.12
250.765	220.12
250.998	234.12
251.231	257.12
251.465	232.12
251.698	209.12
251.931	198.12
252.164	203.12
252.397	206.12
252.63	200.12
252.863	203.12
253.096	229.12
253.329	240.12
253.562	229.12
253.795	227.12
254.028	229.12
254.261	226.12
254.494	229.12
254.727	259.12
254.96	290.12
255.193	279.12
255.426	270.12
255.659	251.12
255.892	250.12
256.124	263.12
256.357	234.12
256.59	244.12
256.823	215.12
257.056	209.12
257.289	209.12
257.521	219.12
257.754	217.12
257.987	215.12
258.22	244.12
258.452	199.12
258.685	217.12
258.918	230.12
259.151	227.12
259.383	220.12
259.616	234.12
259.849	246.12
260.081	235.12
260.314	253.12
260.547	277.12
260.779	263.12
261.012	269.12
261.244	257.12
261.477	239.12
261.71	250.12
261.942	262.12
262.175	263.12
262.407	246.12
262.64	235.12
262.872	220.12
263.105	214.12
263.337	207.12
263.57	210.12
263.802	214.12
264.035	212.12
264.267	215.12
264.499	212.12
264.732	229.12
264.964	222.12
265.197	229.12
265.429	213.12
265.661	205.12
265.894	217.12
266.126	222.12
266.358	227.12
266.591	223.12
266.823	223.12
267.055	216.12
267.287	246.12
267.52	239.12
267.752	217.12
267.984	235.12
268.216	232.12
268.448	249.12
268.681	236.12
268.913	249.12
269.145	269.12
269.377	297.12
269.609	291.12
269.841	265.12
270.073	278.12
270.306	297.12
270.538	322.12
270.77	325.12
271.002	308.12
271.234	298.12
271.466	305.12
271.698	344.12
271.93	349.12
272.162	321.12
272.394	324.12
272.626	319.12
272.858	308.12
273.09	307.12
273.322	274.12
273.553	278.12
273.785	269.12
274.017	293.12
274.249	279.12
274.481	283.12
274.713	288.12
274.945	265.12
275.176	259.12
275.408	277.12
275.64	264.12
275.872	271.12
276.104	282.12
276.335	282.12
276.567	275.12
276.799	298.12
277.031	325.12
277.262	341.12
277.494	347.12
277.726	313.12
277.957	300.12
278.189	293.12
278.421	278.12
278.652	279.12
278.884	257.12
279.115	258.12
279.347	282.12
279.579	270.12
279.81	262.12
280.042	277.12
280.273	285.12
280.505	270.12
280.736	256.12
280.968	272.12
281.199	253.12
281.431	278.12
281.662	260.12
281.894	269.12
282.125	282.12
282.356	295.12
282.588	307.12
282.819	313.12
283.051	291.12
283.282	290.12
283.513	271.12
283.745	269.12
283.976	286.12
284.207	269.12
284.439	268.12
284.67	273.12
284.901	276.12
285.132	302.12
285.364	277.12
285.595	266.12
285.826	286.12
286.057	276.12
286.288	281.12
286.52	265.12
286.751	278.12
286.982	276.12
287.213	270.12
287.444	287.12
287.675	289.12
287.906	297.12
288.138	287.12
288.369	297.12
288.6	299.12
288.831	291.12
289.062	291.12
289.293	277.12
289.524	274.12
289.755	281.12
289.986	287.12
290.217	283.12
290.448	285.12
290.679	282.12
290.91	263.12
291.141	303.12
291.371	275.12
291.602	279.12
291.833	290.12
292.064	279.12
292.295	284.12
292.526	281.12
292.757	268.12
292.987	287.12
293.218	289.12
293.449	280.12
293.68	282.12
293.91	271.12
294.141	271.12
294.372	269.12
294.603	266.12
294.833	294.12
295.064	277.12
295.295	283.12
295.525	286.12
295.756	270.12
295.987	290.12
296.217	332.12
296.448	323.12
296.679	327.12
296.909	312.12
297.14	307.12
297.37	298.12
297.601	301.12
297.831	321.12
298.062	270.12
298.292	289.12
298.523	287.12
298.753	296.12
298.984	303.12
299.214	298.12
299.445	298.12
299.675	315.12
299.905	317.12
300.136	308.12
300.366	301.12
300.597	313.12
300.827	296.12
301.057	316.12
301.288	338.12
301.518	321.12
301.748	309.12
301.979	296.12
302.209	308.12
302.439	326.12
302.669	322.12
302.9	302.12
303.13	323.12
303.36	310.12
303.59	311.12
303.82	343.12
304.051	331.12
304.281	310.12
304.511	323.12
304.741	306.12
304.971	319.12
305.201	309.12
305.431	303.12
305.661	313.12
305.891	347.12
306.121	310.12
306.352	345.12
306.582	326.12
306.812	365.12
307.042	326.12
307.272	317.12
307.502	310.12
307.731	340.12
307.961	319.12
308.191	309.12
308.421	334.12
308.651	334.12
308.881	340.12
309.111	349.12
309.341	356.12
309.571	355.12
309.8	359.12
310.03	383.12
310.26	385.12
310.49	382.12
310.72	413.12
310.949	412.12
311.179	455.12
311.409	392.12
311.639	385.12
311.868	391.12
312.098	389.12
312.328	402.12
312.557	407.12
312.787	445.12
313.017	424.12
313.246	398.12
313.476	384.12
313.706	387.12
313.935	381.12
314.165	405.12
314.394	385.12
314.624	396.12
314.853	373.12
315.083	383.12
315.312	393.12
315.542	365.12
315.771	353.12
316.001	344.12
316.23	378.12
316.46	381.12
316.689	396.12
316.919	381.12
317.148	385.12
317.377	401.12
317.607	391.12
317.836	395.12
318.065	383.12
318.295	393.12
318.524	374.12
318.753	373.12
318.983	378.12
319.212	379.12
319.441	387.12
319.67	389.12
319.9	380.12
320.129	400.12
320.358	382.12
320.587	384.12
320.816	415.12
321.046	425.12
321.275	393.12
321.504	404.12
321.733	404.12
321.962	408.12
322.191	437.12
322.42	442.12
322.649	469.12
322.878	494.12
323.108	493.12
323.337	521.12
323.566	555.12
323.795	591.12
324.024	650.12
324.253	811.12
324.482	1184.12
324.71	1849.12
324.939	2773.12
325.168	2428.12
325.397	1205.12
325.626	795.12
325.855	610.12
326.084	583.12
326.313	558.12
326.542	569.12
326.77	602.12
326.999	756.12
327.228	1035.12
327.457	1612.12
327.686	2080.12
327.914	1373.12
328.143	865.12
328.372	718.12
328.6	686.12
328.829	632.12
329.058	638.12
329.287	660.12
329.515	622.12
329.744	568.12
329.972	566.12
330.201	596.12
330.43	631.12
330.658	659.12
330.887	689.12
331.115	665.12
331.344	558.12
331.572	524.12
331.801	483.12
332.03	521.12
332.258	483.12
332.486	458.12
332.715	482.12
332.943	457.12
333.172	462.12
333.4	455.12
333.629	453.12
333.857	486.12
334.085	513.12
334.314	531.12
334.542	577.12
334.771	581.12
334.999	531.12
335.227	471.12
335.455	467.12
335.684	467.12
335.912	426.12
336.14	429.12
336.369	439.12
336.597	436.12
336.825	446.12
337.053	428.12
337.281	418.12
337.51	427.12
337.738	432.12
337.966	428.12
338.194	454.12
338.422	440.12
338.65	428.12
338.878	430.12
339.106	406.12
339.334	413.12
339.562	403.12
339.79	414.12
340.018	428.12
340.246	426.12
340.474	441.12
340.702	431.12
340.93	419.12
341.158	413.12
341.386	428.12
341.614	417.12
341.842	436.12
342.07	433.12
342.298	418.12
342.526	423.12
342.754	401.12
342.981	408.12
343.209	406.12
343.437	407.12
343.665	410.12
343.893	391.12
344.12	401.12
344.348	414.12
344.576	411.12
344.804	422.12
345.031	433.12
345.259	429.12
345.487	418.12
345.714	414.12
345.942	428.12
346.17	413.12
346.397	399.12
346.625	418.12
346.853	415.12
347.08	401.12
347.308	410.12
347.535	442.12
347.763	419.12
347.99	436.12
348.218	426.12
348.445	430.12
348.673	406.12
348.9	413.12
349.128	409.12
349.355	388.12
349.583	386.12
349.81	402.12
350.037	395.12
350.265	365.12
350.492	380.12
350.72	393.12
350.947	398.12
351.174	409.12
351.402	408.12
351.629	414.12
351.856	411.12
352.083	414.12
352.311	427.12
352.538	426.12
352.765	445.12
352.992	437.12
353.22	424.12
353.447	401.12
353.674	385.12
353.901	386.12
354.128	356.12
354.355	384.12
354.583	396.12
354.81	371.12
355.037	369.12
355.264	360.12
355.491	369.12
355.718	369.12
355.945	361.12
356.172	369.12
356.399	375.12
356.626	375.12
356.853	386.12
357.08	377.12
357.307	355.12
357.534	381.12
357.761	377.12
357.988	349.12
358.215	389.12
358.441	357.12
358.668	362.12
358.895	375.12
359.122	381.12
359.349	370.12
359.576	403.12
359.802	437.12
360.029	471.12
360.256	467.12
360.483	431.12
360.709	433.12
360.936	390.12
361.163	403.12
361.39	391.12
361.616	417.12
361.843	425.12
362.07	403.12
362.296	418.12
362.523	415.12
362.749	386.12
362.976	387.12
363.203	377.12
363.429	378.12
363.656	402.12
363.882	386.12
364.109	391.12
364.335	387.12
364.562	379.12
364.788	377.12
365.015	372.12
365.241	394.12
365.468	381.12
365.694	357.12
365.92	389.12
366.147	375.12
366.373	378.12
366.599	391.12
366.826	382.12
367.052	363.12
367.278	379.12
367.505	359.12
367.731	371.12
367.957	366.12
368.184	375.12
368.41	397.12
368.636	390.12
368.862	389.12
369.089	397.12
369.315	399.12
369.541	384.12
369.767	369.12
369.993	365.12
370.219	375.12
370.445	349.12
370.672	366.12
370.898	354.12
371.124	371.12
371.35	372.12
371.576	390.12
371.802	357.12
372.028	364.12
372.254	365.12
372.48	357.12
372.706	354.12
372.932	360.12
373.158	370.12
373.384	379.12
373.61	379.12
373.835	377.12
374.061	378.12
374.287	362.12
374.513	391.12
374.739	365.12
374.965	374.12
375.191	365.12
375.416	380.12
375.642	358.12
375.868	369.12
376.094	356.12
376.319	381.12
376.545	359.12
376.771	353.12
376.997	361.12
377.222	353.12
377.448	359.12
377.674	362.12
377.899	364.12
378.125	359.12
378.35	359.12
378.576	360.12
378.802	350.12
379.027	366.12
379.253	357.12
379.478	373.12
379.704	347.12
379.929	362.12
380.155	370.12
380.38	358.12
380.606	377.12
380.831	387.12
381.057	350.12
381.282	357.12
381.507	379.12
381.733	354.12
381.958	375.12
382.184	360.12
382.409	361.12
382.634	376.12
382.86	364.12
383.085	360.12
383.31	383.12
383.535	371.12
383.761	356.12
383.986	389.12
384.211	381.12
384.436	382.12
384.662	374.12
384.887	374.12
385.112	371.12
385.337	362.12
385.562	370.12
385.787	381.12
386.013	390.12
386.238	398.12
386.463	395.12
386.688	379.12
386.913	381.12
387.138	382.12
387.363	385.12
387.588	395.12
387.813	396.12
388.038	389.12
388.263	375.12
388.488	376.12
388.713	378.12
388.938	387.12
389.163	391.12
389.387	390.12
389.612	387.12
389.837	373.12
390.062	372.12
390.287	379.12
390.512	385.12
390.736	394.12
390.961	383.12
391.186	380.12
391.411	393.12
391.636	376.12
391.86	380.12
392.085	399.12
392.31	396.12
392.534	408.12
392.759	391.12
392.984	387.12
393.208	400.12
393.433	402.12
393.658	397.12
393.882	396.12
394.107	366.12
394.331	397.12
394.556	366.12
394.78	381.12
395.005	389.12
395.229	380.12
395.454	414.12
395.678	403.12
395.903	412.12
396.127	440.12
396.352	443.12
396.576	425.12
396.801	423.12
397.025	405.12
397.249	386.12
397.474	404.12
397.698	397.12
397.922	433.12
398.147	433.12
398.371	464.12
398.595	414.12
398.82	414.12
399.044	451.12
399.268	424.12
399.492	441.12
399.717	486.12
399.941	491.12
400.165	526.12
400.389	550.12
400.613	508.12
400.837	476.12
401.062	443.12
401.286	439.12
401.51	417.12
401.734	416.12
401.958	445.12
402.182	433.12
402.406	460.12
402.63	452.12
402.854	452.12
403.078	438.12
403.302	457.12
403.526	470.12
403.75	454.12
403.974	455.12
404.198	452.12
404.422	467.12
404.645	482.12
404.869	462.12
405.093	520.12
405.317	543.12
405.541	589.12
405.765	526.12
405.988	526.12
406.212	521.12
406.436	524.12
406.66	526.12
406.883	501.12
407.107	522.12
407.331	576.12
407.555	615.12
407.778	629.12
408.002	578.12
408.226	499.12
408.449	516.12
408.673	522.12
408.896	543.12
409.12	564.12
409.344	536.12
409.567	506.12
409.791	468.12
410.014	474.12
410.238	475.12
410.461	474.12
410.685	478.12
410.908	479.12
411.132	510.12
411.355	550.12
411.578	520.12
411.802	456.12
412.025	475.12
412.249	482.12
412.472	510.12
412.695	561.12
412.919	529.12
413.142	486.12
413.365	467.12
413.589	459.12
413.812	463.12
414.035	434.12
414.258	427.12
414.482	450.12
414.705	417.12
414.928	444.12
415.151	434.12
415.374	436.12
415.597	446.12
415.821	432.12
416.044	438.12
416.267	435.12
416.49	426.12
416.713	423.12
416.936	430.12
417.159	440.12
417.382	428.12
417.605	442.12
417.828	462.12
418.051	459.12
418.274	450.12
418.497	431.12
418.72	429.12
418.943	426.12
419.166	444.12
419.389	462.12
419.611	466.12
419.834	467.12
420.057	466.12
420.28	457.12
420.503	472.12
420.726	473.12
420.948	478.12
421.171	532.12
421.394	563.12
421.617	503.12
421.839	467.12
422.062	482.12
422.285	497.12
422.507	526.12
422.73	615.12
422.953	633.12
423.175	518.12
423.398	501.12
423.621	487.12
423.843	495.12
424.066	535.12
424.288	495.12
424.511	527.12
424.733	578.12
424.956	656.12
425.178	651.12
425.401	649.12
425.623	662.12
425.846	550.12
426.068	532.12
426.291	513.12
426.513	499.12
426.735	516.12
426.958	580.12
427.18	662.12
427.402	804.12
427.625	927.12
427.847	812.12
428.069	676.12
428.292	598.12
428.514	517.12
428.736	521.12
428.958	497.12
429.181	473.12
429.403	473.12
429.625	470.12
429.847	517.12
430.069	582.12
430.292	579.12
430.514	527.12
430.736	483.12
430.958	458.12
431.18	476.12
431.402	434.12
431.624	435.12
431.846	431.12
432.068	441.12
432.29	434.12
432.512	442.12
432.734	451.12
432.956	450.12
433.178	462.12
433.4	474.12
433.622	461.12
433.844	442.12
434.066	438.12
434.287	438.12
434.509	441.12
434.731	461.12
434.953	452.12
435.175	478.12
435.397	507.12
435.618	533.12
435.84	562.12
436.062	665.12
436.284	729.12
436.505	612.12
436.727	539.12
436.949	508.12
437.17	486.12
437.392	473.12
437.614	502.12
437.835	531.12
438.057	653.12
438.278	777.12
438.5	737.12
438.721	807.12
438.943	735.12
439.165	611.12
439.386	569.12
439.608	539.12
439.829	542.12
440.05	577.12
440.272	625.12
440.493	619.12
440.715	531.12
440.936	508.12
441.158	490.12
441.379	474.12
441.6	505.12
441.822	540.12
442.043	564.12
442.264	647.12
442.486	684.12
442.707	571.12
442.928	542.12
443.149	550.12
443.371	575.12
443.592	605.12
443.813	692.12
444.034	787.12
444.255	641.12
444.476	552.12
444.698	517.12
444.919	513.12
445.14	596.12
445.361	562.12
445.582	574.12
445.803	622.12
446.024	777.12
446.245	792.12
446.466	693.12
446.687	587.12
446.908	535.12
447.129	516.12
447.35	481.12
447.571	490.12
447.792	445.12
448.013	475.12
448.234	497.12
448.455	557.12
448.675	670.12
448.896	790.12
449.117	669.12
449.338	622.12
449.559	735.12
449.779	842.12
450	673.12
450.221	546.12
450.442	509.12
450.662	485.12
450.883	505.12
451.104	494.12
451.324	521.12
451.545	459.12
451.766	463.12
451.986	444.12
452.207	425.12
452.428	415.12
452.648	446.12
452.869	427.12
453.089	442.12
453.31	454.12
453.53	448.12
453.751	403.12
453.971	433.12
454.192	457.12
454.412	457.12
454.633	447.12
454.853	402.12
455.073	414.12
455.294	472.12
455.514	534.12
455.734	524.12
455.955	443.12
456.175	411.12
456.395	411.12
456.616	407.12
456.836	415.12
457.056	414.12
457.276	394.12
457.497	393.12
457.717	403.12
457.937	411.12
458.157	408.12
458.377	441.12
458.598	461.12
458.818	518.12
459.038	598.12
459.258	610.12
459.478	517.12
459.698	469.12
459.918	434.12
460.138	450.12
460.358	422.12
460.578	437.12
460.798	441.12
461.018	474.12
461.238	420.12
461.458	426.12
461.678	403.12
461.898	417.12
462.118	441.12
462.338	451.12
462.558	457.12
462.777	439.12
462.997	442.12
463.217	457.12
463.437	467.12
463.657	471.12
463.876	452.12
464.096	455.12
464.316	460.12
464.536	476.12
464.755	475.12
464.975	459.12
465.195	546.12
465.414	647.12
465.634	559.12
465.854	478.12
466.073	478.12
466.293	450.12
466.512	445.12
466.732	445.12
466.951	443.12
467.171	420.12
467.391	423.12
467.61	455.12
467.829	442.12
468.049	420.12
468.268	445.12
468.488	440.12
468.707	410.12
468.927	426.12
469.146	415.12
469.365	420.12
469.585	426.12
469.804	411.12
470.023	442.12
470.243	444.12
470.462	456.12
470.681	461.12
470.901	457.12
471.12	451.12
471.339	436.12
471.558	459.12
471.777	432.12
471.997	458.12
472.216	438.12
472.435	495.12
472.654	484.12
472.873	466.12
473.092	451.12
473.311	453.12
473.53	448.12
473.749	449.12
473.968	481.12
474.187	622.12
474.406	645.12
474.625	526.12
474.844	479.12
475.063	445.12
475.282	433.12
475.501	439.12
475.72	442.12
475.939	465.12
476.158	447.12
476.377	457.12
476.596	454.12
476.814	454.12
477.033	472.12
477.252	466.12
477.471	470.12
477.69	447.12
477.908	472.12
478.127	473.12
478.346	453.12
478.564	467.12
478.783	488.12
479.002	488.12
479.22	481.12
479.439	499.12
479.658	528.12
479.876	539.12
480.095	537.12
480.313	585.12
480.532	541.12
480.751	542.12
480.969	561.12
481.188	625.12
481.406	706.12
481.624	612.12
481.843	557.12
482.061	562.12
482.28	531.12
482.498	522.12
482.717	518.12
482.935	521.12
483.153	513.12
483.372	518.12
483.59	532.12
483.808	516.12
484.027	513.12
484.245	507.12
484.463	507.12
484.681	535.12
484.9	539.12
485.118	539.12
485.336	534.12
485.554	515.12
485.772	527.12
485.99	531.12
486.209	542.12
486.427	537.12
486.645	554.12
486.863	562.12
487.081	578.12
487.299	580.12
487.517	580.12
487.735	571.12
487.953	565.12
488.171	556.12
488.389	573.12
488.607	574.12
488.825	568.12
489.043	572.12
489.261	542.12
489.479	555.12
489.696	566.12
489.914	563.12
490.132	569.12
490.35	567.12
490.568	578.12
490.786	582.12
491.003	604.12
491.221	616.12
491.439	612.12
491.657	628.12
491.874	649.12
492.092	616.12
492.31	654.12
492.527	637.12
492.745	645.12
492.963	644.12
493.18	642.12
493.398	666.12
493.615	681.12
493.833	639.12
494.05	642.12
494.268	662.12
494.485	660.12
494.703	659.12
494.92	653.12
495.138	654.12
495.355	668.12
495.573	679.12
495.79	674.12
496.008	683.12
496.225	673.12
496.442	678.12
496.66	618.12
496.877	657.12
497.094	660.12
497.312	673.12
497.529	689.12
497.746	685.12
497.963	686.12
498.181	732.12
498.398	714.12
498.615	701.12
498.832	761.12
499.049	720.12
499.267	732.12
499.484	773.12
499.701	777.12
499.918	789.12
500.135	793.12
500.352	812.12
500.569	810.12
500.786	828.12
501.003	813.12
501.22	805.12
501.437	801.12
501.654	802.12
501.871	807.12
