Data from 1972.PennyLincolnUp.Lamp.En5.5.200Scan.071719.P1._HRD10591_15-27-50-843.txt Node
Date: Thu Jul 18 15:27:50 EDT 2019
User: cochatt
Spectrometer: HR+D1059
Trigger mode: 1
Integration Time (sec): 1.000000E-1
Scans to average: 1
Electric dark correction enabled: true
Nonlinearity correction enabled: false
Boxcar width: 0
XAxis mode: Wavelengths
Number of Pixels in Spectrum: 2048
>>>>>Begin Spectral Data<<<<<
223.165	-18.56
223.4	-18.56
223.635	-18.56
223.869	-4.56
224.104	-25.56
224.338	-5.56
224.573	-17.56
224.808	-7.56
225.042	-6.56
225.277	-7.56
225.511	0.44
225.746	1.44
225.98	2.44
226.215	4.44
226.449	15.44
226.683	15.44
226.918	33.44
227.152	20.44
227.387	26.44
227.621	32.44
227.856	35.44
228.09	40.44
228.324	50.44
228.559	58.44
228.793	58.44
229.027	95.44
229.262	105.44
229.496	115.44
229.73	140.44
229.964	163.44
230.199	139.44
230.433	114.44
230.667	116.44
230.901	123.44
231.136	116.44
231.37	113.44
231.604	112.44
231.838	115.44
232.072	114.44
232.306	107.44
232.541	92.44
232.775	113.44
233.009	107.44
233.243	117.44
233.477	105.44
233.711	104.44
233.945	112.44
234.179	108.44
234.413	114.44
234.647	110.44
234.881	110.44
235.115	112.44
235.349	106.44
235.583	115.44
235.817	126.44
236.051	114.44
236.285	115.44
236.519	126.44
236.753	127.44
236.987	158.44
237.221	185.44
237.455	231.44
237.689	178.44
237.922	150.44
238.156	143.44
238.39	140.44
238.624	118.44
238.858	113.44
239.091	118.44
239.325	111.44
239.559	134.44
239.793	115.44
240.027	137.44
240.26	138.44
240.494	161.44
240.728	151.44
240.961	146.44
241.195	136.44
241.429	120.44
241.662	146.44
241.896	130.44
242.13	130.44
242.363	137.44
242.597	140.44
242.83	122.44
243.064	144.44
243.298	127.44
243.531	126.44
243.765	130.44
243.998	137.44
244.232	148.44
244.465	145.44
244.699	134.44
244.932	140.44
245.166	138.44
245.399	128.44
245.633	146.44
245.866	139.44
246.099	138.44
246.333	159.44
246.566	144.44
246.8	141.44
247.033	154.44
247.266	146.44
247.5	181.44
247.733	178.44
247.966	171.44
248.2	174.44
248.433	150.44
248.666	170.44
248.899	209.44
249.133	208.44
249.366	211.44
249.599	208.44
249.832	179.44
250.066	179.44
250.299	197.44
250.532	183.44
250.765	210.44
250.998	221.44
251.231	246.44
251.465	218.44
251.698	200.44
251.931	208.44
252.164	179.44
252.397	205.44
252.63	207.44
252.863	188.44
253.096	210.44
253.329	234.44
253.562	248.44
253.795	225.44
254.028	214.44
254.261	223.44
254.494	227.44
254.727	276.44
254.96	275.44
255.193	273.44
255.426	266.44
255.659	258.44
255.892	241.44
256.124	242.44
256.357	247.44
256.59	231.44
256.823	200.44
257.056	212.44
257.289	211.44
257.521	214.44
257.754	207.44
257.987	215.44
258.22	202.44
258.452	214.44
258.685	209.44
258.918	203.44
259.151	198.44
259.383	207.44
259.616	222.44
259.849	228.44
260.081	248.44
260.314	245.44
260.547	248.44
260.779	250.44
261.012	247.44
261.244	238.44
261.477	248.44
261.71	208.44
261.942	218.44
262.175	259.44
262.407	241.44
262.64	229.44
262.872	230.44
263.105	212.44
263.337	211.44
263.57	219.44
263.802	210.44
264.035	212.44
264.267	208.44
264.499	221.44
264.732	202.44
264.964	206.44
265.197	223.44
265.429	220.44
265.661	217.44
265.894	218.44
266.126	234.44
266.358	209.44
266.591	208.44
266.823	219.44
267.055	212.44
267.287	224.44
267.52	223.44
267.752	220.44
267.984	217.44
268.216	225.44
268.448	231.44
268.681	233.44
268.913	240.44
269.145	254.44
269.377	285.44
269.609	273.44
269.841	263.44
270.073	280.44
270.306	298.44
270.538	317.44
270.77	313.44
271.002	320.44
271.234	300.44
271.466	315.44
271.698	313.44
271.93	316.44
272.162	328.44
272.394	335.44
272.626	308.44
272.858	288.44
273.09	299.44
273.322	268.44
273.553	263.44
273.785	259.44
274.017	264.44
274.249	242.44
274.481	257.44
274.713	282.44
274.945	263.44
275.176	271.44
275.408	267.44
275.64	267.44
275.872	255.44
276.104	288.44
276.335	265.44
276.567	259.44
276.799	282.44
277.031	316.44
277.262	297.44
277.494	322.44
277.726	292.44
277.957	275.44
278.189	297.44
278.421	271.44
278.652	286.44
278.884	266.44
279.115	281.44
279.347	258.44
279.579	273.44
279.81	271.44
280.042	261.44
280.273	286.44
280.505	256.44
280.736	263.44
280.968	282.44
281.199	255.44
281.431	262.44
281.662	258.44
281.894	266.44
282.125	259.44
282.356	281.44
282.588	312.44
282.819	312.44
283.051	283.44
283.282	268.44
283.513	262.44
283.745	268.44
283.976	250.44
284.207	274.44
284.439	293.44
284.67	263.44
284.901	266.44
285.132	253.44
285.364	247.44
285.595	262.44
285.826	273.44
286.057	257.44
286.288	283.44
286.52	242.44
286.751	254.44
286.982	289.44
287.213	276.44
287.444	246.44
287.675	269.44
287.906	296.44
288.138	292.44
288.369	284.44
288.6	297.44
288.831	303.44
289.062	294.44
289.293	291.44
289.524	300.44
289.755	288.44
289.986	289.44
290.217	282.44
290.448	266.44
290.679	274.44
290.91	281.44
291.141	255.44
291.371	288.44
291.602	275.44
291.833	265.44
292.064	282.44
292.295	264.44
292.526	297.44
292.757	282.44
292.987	273.44
293.218	290.44
293.449	287.44
293.68	289.44
293.91	258.44
294.141	273.44
294.372	276.44
294.603	270.44
294.833	266.44
295.064	270.44
295.295	272.44
295.525	279.44
295.756	294.44
295.987	284.44
296.217	316.44
296.448	325.44
296.679	304.44
296.909	285.44
297.14	296.44
297.37	280.44
297.601	290.44
297.831	271.44
298.062	265.44
298.292	300.44
298.523	303.44
298.753	280.44
298.984	293.44
299.214	294.44
299.445	283.44
299.675	292.44
299.905	299.44
300.136	295.44
300.366	314.44
300.597	262.44
300.827	303.44
301.057	298.44
301.288	326.44
301.518	304.44
301.748	318.44
301.979	320.44
302.209	307.44
302.439	319.44
302.669	307.44
302.9	325.44
303.13	290.44
303.36	318.44
303.59	321.44
303.82	335.44
304.051	322.44
304.281	330.44
304.511	304.44
304.741	298.44
304.971	306.44
305.201	310.44
305.431	310.44
305.661	333.44
305.891	295.44
306.121	321.44
306.352	316.44
306.582	333.44
306.812	312.44
307.042	322.44
307.272	304.44
307.502	312.44
307.731	318.44
307.961	326.44
308.191	326.44
308.421	333.44
308.651	327.44
308.881	314.44
309.111	318.44
309.341	330.44
309.571	346.44
309.8	331.44
310.03	366.44
310.26	374.44
310.49	383.44
310.72	385.44
310.949	392.44
311.179	397.44
311.409	358.44
311.639	386.44
311.868	367.44
312.098	370.44
312.328	390.44
312.557	410.44
312.787	402.44
313.017	411.44
313.246	407.44
313.476	382.44
313.706	375.44
313.935	361.44
314.165	382.44
314.394	390.44
314.624	393.44
314.853	387.44
315.083	379.44
315.312	354.44
315.542	376.44
315.771	370.44
316.001	380.44
316.23	379.44
316.46	363.44
316.689	366.44
316.919	378.44
317.148	374.44
317.377	382.44
317.607	394.44
317.836	375.44
318.065	380.44
318.295	374.44
318.524	361.44
318.753	376.44
318.983	343.44
319.212	348.44
319.441	382.44
319.67	402.44
319.9	368.44
320.129	370.44
320.358	361.44
320.587	378.44
320.816	377.44
321.046	380.44
321.275	391.44
321.504	400.44
321.733	406.44
321.962	423.44
322.191	414.44
322.42	416.44
322.649	447.44
322.878	471.44
323.108	478.44
323.337	497.44
323.566	548.44
323.795	587.44
324.024	644.44
324.253	776.44
324.482	1140.44
324.71	1694.44
324.939	2571.44
325.168	2278.44
325.397	1132.44
325.626	760.44
325.855	606.44
326.084	549.44
326.313	529.44
326.542	558.44
326.77	607.44
326.999	731.44
327.228	1002.44
327.457	1564.44
327.686	1924.44
327.914	1254.44
328.143	833.44
328.372	680.44
328.6	638.44
328.829	632.44
329.058	619.44
329.287	642.44
329.515	574.44
329.744	541.44
329.972	550.44
330.201	537.44
330.43	626.44
330.658	641.44
330.887	666.44
331.115	636.44
331.344	551.44
331.572	502.44
331.801	512.44
332.03	508.44
332.258	482.44
332.486	451.44
332.715	451.44
332.943	450.44
333.172	427.44
333.4	445.44
333.629	436.44
333.857	470.44
334.085	497.44
334.314	492.44
334.542	545.44
334.771	565.44
334.999	498.44
335.227	472.44
335.455	459.44
335.684	440.44
335.912	443.44
336.14	432.44
336.369	426.44
336.597	425.44
336.825	438.44
337.053	430.44
337.281	417.44
337.51	396.44
337.738	420.44
337.966	402.44
338.194	423.44
338.422	426.44
338.65	435.44
338.878	415.44
339.106	416.44
339.334	399.44
339.562	424.44
339.79	413.44
340.018	419.44
340.246	422.44
340.474	409.44
340.702	417.44
340.93	397.44
341.158	406.44
341.386	407.44
341.614	412.44
341.842	408.44
342.07	392.44
342.298	401.44
342.526	395.44
342.754	394.44
342.981	378.44
343.209	392.44
343.437	386.44
343.665	394.44
343.893	401.44
344.12	375.44
344.348	392.44
344.576	426.44
344.804	437.44
345.031	435.44
345.259	438.44
345.487	412.44
345.714	419.44
345.942	402.44
346.17	405.44
346.397	384.44
346.625	401.44
346.853	402.44
347.08	408.44
347.308	399.44
347.535	412.44
347.763	447.44
347.99	410.44
348.218	424.44
348.445	434.44
348.673	434.44
348.9	411.44
349.128	388.44
349.355	386.44
349.583	372.44
349.81	387.44
350.037	382.44
350.265	381.44
350.492	364.44
350.72	376.44
350.947	384.44
351.174	420.44
351.402	393.44
351.629	404.44
351.856	388.44
352.083	412.44
352.311	404.44
352.538	424.44
352.765	415.44
352.992	417.44
353.22	407.44
353.447	396.44
353.674	409.44
353.901	390.44
354.128	375.44
354.355	345.44
354.583	382.44
354.81	374.44
355.037	369.44
355.264	380.44
355.491	351.44
355.718	360.44
355.945	361.44
356.172	349.44
356.399	362.44
356.626	357.44
356.853	355.44
357.08	363.44
357.307	372.44
357.534	360.44
357.761	356.44
357.988	364.44
358.215	337.44
358.441	359.44
358.668	357.44
358.895	359.44
359.122	367.44
359.349	378.44
359.576	401.44
359.802	430.44
360.029	464.44
360.256	466.44
360.483	455.44
360.709	400.44
360.936	408.44
361.163	395.44
361.39	385.44
361.616	411.44
361.843	398.44
362.07	391.44
362.296	407.44
362.523	399.44
362.749	387.44
362.976	369.44
363.203	388.44
363.429	380.44
363.656	394.44
363.882	392.44
364.109	374.44
364.335	361.44
364.562	362.44
364.788	377.44
365.015	374.44
365.241	395.44
365.468	381.44
365.694	369.44
365.92	390.44
366.147	374.44
366.373	356.44
366.599	370.44
366.826	361.44
367.052	351.44
367.278	363.44
367.505	352.44
367.731	373.44
367.957	366.44
368.184	367.44
368.41	385.44
368.636	372.44
368.862	380.44
369.089	388.44
369.315	362.44
369.541	370.44
369.767	371.44
369.993	367.44
370.219	376.44
370.445	376.44
370.672	359.44
370.898	381.44
371.124	360.44
371.35	366.44
371.576	357.44
371.802	355.44
372.028	354.44
372.254	369.44
372.48	352.44
372.706	362.44
372.932	354.44
373.158	351.44
373.384	353.44
373.61	344.44
373.835	375.44
374.061	366.44
374.287	365.44
374.513	369.44
374.739	364.44
374.965	369.44
375.191	363.44
375.416	370.44
375.642	354.44
375.868	366.44
376.094	360.44
376.319	338.44
376.545	348.44
376.771	345.44
376.997	360.44
377.222	351.44
377.448	355.44
377.674	332.44
377.899	350.44
378.125	361.44
378.35	346.44
378.576	357.44
378.802	360.44
379.027	360.44
379.253	357.44
379.478	342.44
379.704	355.44
379.929	352.44
380.155	335.44
380.38	354.44
380.606	357.44
380.831	344.44
381.057	372.44
381.282	358.44
381.507	350.44
381.733	369.44
381.958	372.44
382.184	371.44
382.409	364.44
382.634	353.44
382.86	361.44
383.085	367.44
383.31	356.44
383.535	351.44
383.761	355.44
383.986	372.44
384.211	362.44
384.436	346.44
384.662	378.44
384.887	380.44
385.112	385.44
385.337	368.44
385.562	375.44
385.787	386.44
386.013	383.44
386.238	385.44
386.463	402.44
386.688	394.44
386.913	393.44
387.138	377.44
387.363	360.44
387.588	382.44
387.813	373.44
388.038	379.44
388.263	392.44
388.488	361.44
388.713	372.44
388.938	377.44
389.163	382.44
389.387	392.44
389.612	384.44
389.837	384.44
390.062	386.44
390.287	371.44
390.512	382.44
390.736	374.44
390.961	382.44
391.186	390.44
391.411	375.44
391.636	388.44
391.86	377.44
392.085	380.44
392.31	386.44
392.534	369.44
392.759	388.44
392.984	390.44
393.208	371.44
393.433	410.44
393.658	404.44
393.882	384.44
394.107	363.44
394.331	366.44
394.556	374.44
394.78	374.44
395.005	386.44
395.229	401.44
395.454	384.44
395.678	381.44
395.903	400.44
396.127	420.44
396.352	440.44
396.576	400.44
396.801	393.44
397.025	412.44
397.249	412.44
397.474	400.44
397.698	398.44
397.922	434.44
398.147	444.44
398.371	449.44
398.595	416.44
398.82	430.44
399.044	418.44
399.268	430.44
399.492	444.44
399.717	496.44
399.941	508.44
400.165	537.44
400.389	547.44
400.613	498.44
400.837	460.44
401.062	439.44
401.286	431.44
401.51	436.44
401.734	417.44
401.958	426.44
402.182	442.44
402.406	465.44
402.63	445.44
402.854	450.44
403.078	451.44
403.302	462.44
403.526	465.44
403.75	435.44
403.974	442.44
404.198	440.44
404.422	451.44
404.645	446.44
404.869	464.44
405.093	476.44
405.317	535.44
405.541	584.44
405.765	522.44
405.988	483.44
406.212	490.44
406.436	528.44
406.66	542.44
406.883	485.44
407.107	509.44
407.331	532.44
407.555	609.44
407.778	611.44
408.002	581.44
408.226	501.44
408.449	481.44
408.673	504.44
408.896	507.44
409.12	568.44
409.344	563.44
409.567	470.44
409.791	461.44
410.014	442.44
410.238	476.44
410.461	452.44
410.685	460.44
410.908	468.44
411.132	528.44
411.355	554.44
411.578	523.44
411.802	463.44
412.025	449.44
412.249	456.44
412.472	506.44
412.695	532.44
412.919	523.44
413.142	459.44
413.365	467.44
413.589	443.44
413.812	440.44
414.035	438.44
414.258	427.44
414.482	408.44
414.705	427.44
414.928	432.44
415.151	427.44
415.374	428.44
415.597	408.44
415.821	414.44
416.044	413.44
416.267	435.44
416.49	417.44
416.713	404.44
416.936	422.44
417.159	427.44
417.382	426.44
417.605	419.44
417.828	448.44
418.051	466.44
418.274	424.44
418.497	438.44
418.72	422.44
418.943	431.44
419.166	435.44
419.389	469.44
419.611	459.44
419.834	472.44
420.057	448.44
420.28	464.44
420.503	462.44
420.726	450.44
420.948	470.44
421.171	523.44
421.394	527.44
421.617	475.44
421.839	449.44
422.062	452.44
422.285	468.44
422.507	524.44
422.73	606.44
422.953	588.44
423.175	512.44
423.398	482.44
423.621	484.44
423.843	502.44
424.066	518.44
424.288	507.44
424.511	522.44
424.733	578.44
424.956	667.44
425.178	644.44
425.401	618.44
425.623	640.44
425.846	587.44
426.068	513.44
426.291	521.44
426.513	505.44
426.735	511.44
426.958	541.44
427.18	664.44
427.402	773.44
427.625	881.44
427.847	782.44
428.069	657.44
428.292	560.44
428.514	518.44
428.736	515.44
428.958	480.44
429.181	481.44
429.403	472.44
429.625	465.44
429.847	529.44
430.069	589.44
430.292	551.44
430.514	473.44
430.736	461.44
430.958	452.44
431.18	440.44
431.402	434.44
431.624	394.44
431.846	417.44
432.068	450.44
432.29	425.44
432.512	416.44
432.734	441.44
432.956	412.44
433.178	435.44
433.4	459.44
433.622	438.44
433.844	430.44
434.066	418.44
434.287	424.44
434.509	438.44
434.731	457.44
434.953	452.44
435.175	468.44
435.397	482.44
435.618	514.44
435.84	540.44
436.062	661.44
436.284	724.44
436.505	575.44
436.727	516.44
436.949	486.44
437.17	479.44
437.392	456.44
437.614	498.44
437.835	526.44
438.057	636.44
438.278	728.44
438.5	721.44
438.721	804.44
438.943	750.44
439.165	607.44
439.386	551.44
439.608	539.44
439.829	509.44
440.05	563.44
440.272	651.44
440.493	586.44
440.715	533.44
440.936	490.44
441.158	475.44
441.379	485.44
441.6	510.44
441.822	492.44
442.043	542.44
442.264	632.44
442.486	698.44
442.707	585.44
442.928	539.44
443.149	569.44
443.371	567.44
443.592	604.44
443.813	692.44
444.034	746.44
444.255	623.44
444.476	546.44
444.698	511.44
444.919	501.44
445.14	623.44
445.361	576.44
445.582	568.44
445.803	624.44
446.024	770.44
446.245	737.44
446.466	680.44
446.687	559.44
446.908	544.44
447.129	478.44
447.35	486.44
447.571	472.44
447.792	472.44
448.013	488.44
448.234	495.44
448.455	555.44
448.675	670.44
448.896	784.44
449.117	638.44
449.338	641.44
449.559	737.44
449.779	842.44
450	679.44
450.221	543.44
450.442	494.44
450.662	444.44
450.883	487.44
451.104	503.44
451.324	508.44
451.545	471.44
451.766	432.44
451.986	421.44
452.207	411.44
452.428	436.44
452.648	427.44
452.869	410.44
453.089	453.44
453.31	440.44
453.53	427.44
453.751	431.44
453.971	406.44
454.192	460.44
454.412	421.44
454.633	436.44
454.853	418.44
455.073	438.44
455.294	464.44
455.514	520.44
455.734	484.44
455.955	422.44
456.175	388.44
456.395	388.44
456.616	389.44
456.836	397.44
457.056	378.44
457.276	387.44
457.497	397.44
457.717	386.44
457.937	411.44
458.157	416.44
458.377	411.44
458.598	428.44
458.818	489.44
459.038	596.44
459.258	580.44
459.478	489.44
459.698	468.44
459.918	442.44
460.138	440.44
460.358	453.44
460.578	431.44
460.798	442.44
461.018	437.44
461.238	426.44
461.458	414.44
461.678	412.44
461.898	432.44
462.118	420.44
462.338	436.44
462.558	425.44
462.777	439.44
462.997	450.44
463.217	458.44
463.437	452.44
463.657	438.44
463.876	439.44
464.096	445.44
464.316	451.44
464.536	459.44
464.755	445.44
464.975	449.44
465.195	514.44
465.414	622.44
465.634	529.44
465.854	467.44
466.073	452.44
466.293	448.44
466.512	444.44
466.732	421.44
466.951	429.44
467.171	413.44
467.391	419.44
467.61	444.44
467.829	451.44
468.049	421.44
468.268	444.44
468.488	412.44
468.707	430.44
468.927	384.44
469.146	410.44
469.365	396.44
469.585	415.44
469.804	413.44
470.023	427.44
470.243	432.44
470.462	443.44
470.681	473.44
470.901	451.44
471.12	422.44
471.339	413.44
471.558	440.44
471.777	443.44
471.997	405.44
472.216	430.44
472.435	489.44
472.654	473.44
472.873	455.44
473.092	419.44
473.311	434.44
473.53	444.44
473.749	440.44
473.968	494.44
474.187	611.44
474.406	626.44
474.625	500.44
474.844	449.44
475.063	427.44
475.282	444.44
475.501	438.44
475.72	461.44
475.939	432.44
476.158	455.44
476.377	454.44
476.596	456.44
476.814	452.44
477.033	460.44
477.252	436.44
477.471	434.44
477.69	457.44
477.908	468.44
478.127	456.44
478.346	448.44
478.564	464.44
478.783	483.44
479.002	485.44
479.22	489.44
479.439	504.44
479.658	514.44
479.876	512.44
480.095	536.44
480.313	552.44
480.532	537.44
480.751	519.44
480.969	525.44
481.188	638.44
481.406	656.44
481.624	565.44
481.843	542.44
482.061	528.44
482.28	523.44
482.498	511.44
482.717	513.44
482.935	521.44
483.153	504.44
483.372	506.44
483.59	501.44
483.808	498.44
484.027	505.44
484.245	508.44
484.463	518.44
484.681	518.44
484.9	497.44
485.118	508.44
485.336	518.44
485.554	527.44
485.772	516.44
485.99	516.44
486.209	536.44
486.427	521.44
486.645	555.44
486.863	564.44
487.081	548.44
487.299	548.44
487.517	551.44
487.735	535.44
487.953	536.44
488.171	546.44
488.389	549.44
488.607	546.44
488.825	547.44
489.043	567.44
489.261	536.44
489.479	552.44
489.696	535.44
489.914	563.44
490.132	566.44
490.35	590.44
490.568	558.44
490.786	575.44
491.003	602.44
491.221	609.44
491.439	625.44
491.657	611.44
491.874	617.44
492.092	614.44
492.31	626.44
492.527	634.44
492.745	643.44
492.963	643.44
493.18	649.44
493.398	634.44
493.615	615.44
493.833	659.44
494.05	632.44
494.268	661.44
494.485	618.44
494.703	620.44
494.92	667.44
495.138	643.44
495.355	642.44
495.573	635.44
495.79	657.44
496.008	660.44
496.225	636.44
496.442	640.44
496.66	654.44
496.877	652.44
497.094	668.44
497.312	649.44
497.529	679.44
497.746	678.44
497.963	715.44
498.181	680.44
498.398	682.44
498.615	698.44
498.832	687.44
499.049	720.44
499.267	732.44
499.484	718.44
499.701	750.44
499.918	763.44
500.135	785.44
500.352	771.44
500.569	832.44
500.786	798.44
501.003	800.44
501.22	793.44
501.437	750.44
501.654	754.44
501.871	794.44
