Data from 1972.PennyLincolnUp.Lamp.En5.5.200Scan.071719.P1._HRD10591_15-28-35-845.txt Node
Date: Thu Jul 18 15:28:35 EDT 2019
User: cochatt
Spectrometer: HR+D1059
Trigger mode: 1
Integration Time (sec): 1.000000E-1
Scans to average: 1
Electric dark correction enabled: true
Nonlinearity correction enabled: false
Boxcar width: 0
XAxis mode: Wavelengths
Number of Pixels in Spectrum: 2048
>>>>>Begin Spectral Data<<<<<
223.165	-9.62
223.4	-9.62
223.635	-9.62
223.869	-9.62
224.104	-20.62
224.338	-9.62
224.573	-17.62
224.808	-13.62
225.042	-20.62
225.277	-10.62
225.511	7.38
225.746	-2.62
225.98	5.38
226.215	13.38
226.449	13.38
226.683	13.38
226.918	22.38
227.152	39.38
227.387	39.38
227.621	24.38
227.856	47.38
228.09	44.38
228.324	42.38
228.559	66.38
228.793	67.38
229.027	88.38
229.262	116.38
229.496	129.38
229.73	153.38
229.964	165.38
230.199	139.38
230.433	126.38
230.667	111.38
230.901	108.38
231.136	117.38
231.37	110.38
231.604	109.38
231.838	107.38
232.072	120.38
232.306	120.38
232.541	113.38
232.775	111.38
233.009	111.38
233.243	118.38
233.477	108.38
233.711	122.38
233.945	122.38
234.179	123.38
234.413	128.38
234.647	119.38
234.881	114.38
235.115	122.38
235.349	128.38
235.583	117.38
235.817	118.38
236.051	132.38
236.285	132.38
236.519	135.38
236.753	132.38
236.987	164.38
237.221	208.38
237.455	261.38
237.689	214.38
237.922	156.38
238.156	137.38
238.39	121.38
238.624	135.38
238.858	124.38
239.091	127.38
239.325	127.38
239.559	126.38
239.793	125.38
240.027	131.38
240.26	142.38
240.494	158.38
240.728	146.38
240.961	173.38
241.195	145.38
241.429	148.38
241.662	150.38
241.896	135.38
242.13	129.38
242.363	139.38
242.597	141.38
242.83	136.38
243.064	141.38
243.298	138.38
243.531	147.38
243.765	126.38
243.998	139.38
244.232	140.38
244.465	146.38
244.699	131.38
244.932	149.38
245.166	138.38
245.399	151.38
245.633	158.38
245.866	152.38
246.099	161.38
246.333	144.38
246.566	142.38
246.8	144.38
247.033	154.38
247.266	154.38
247.5	169.38
247.733	172.38
247.966	193.38
248.2	174.38
248.433	187.38
248.666	168.38
248.899	188.38
249.133	205.38
249.366	223.38
249.599	223.38
249.832	191.38
250.066	181.38
250.299	218.38
250.532	213.38
250.765	215.38
250.998	237.38
251.231	244.38
251.465	222.38
251.698	207.38
251.931	203.38
252.164	197.38
252.397	197.38
252.63	209.38
252.863	202.38
253.096	229.38
253.329	222.38
253.562	244.38
253.795	230.38
254.028	243.38
254.261	220.38
254.494	235.38
254.727	272.38
254.96	300.38
255.193	314.38
255.426	297.38
255.659	263.38
255.892	259.38
256.124	251.38
256.357	256.38
256.59	242.38
256.823	221.38
257.056	233.38
257.289	217.38
257.521	206.38
257.754	227.38
257.987	214.38
258.22	225.38
258.452	198.38
258.685	217.38
258.918	215.38
259.151	217.38
259.383	230.38
259.616	224.38
259.849	235.38
260.081	265.38
260.314	265.38
260.547	287.38
260.779	269.38
261.012	257.38
261.244	262.38
261.477	238.38
261.71	226.38
261.942	228.38
262.175	258.38
262.407	263.38
262.64	234.38
262.872	221.38
263.105	215.38
263.337	223.38
263.57	226.38
263.802	228.38
264.035	217.38
264.267	214.38
264.499	220.38
264.732	234.38
264.964	213.38
265.197	230.38
265.429	212.38
265.661	227.38
265.894	213.38
266.126	211.38
266.358	222.38
266.591	223.38
266.823	223.38
267.055	234.38
267.287	238.38
267.52	244.38
267.752	246.38
267.984	234.38
268.216	230.38
268.448	239.38
268.681	233.38
268.913	256.38
269.145	271.38
269.377	270.38
269.609	288.38
269.841	291.38
270.073	286.38
270.306	307.38
270.538	335.38
270.77	328.38
271.002	337.38
271.234	302.38
271.466	320.38
271.698	323.38
271.93	338.38
272.162	337.38
272.394	339.38
272.626	319.38
272.858	315.38
273.09	302.38
273.322	292.38
273.553	292.38
273.785	286.38
274.017	273.38
274.249	290.38
274.481	280.38
274.713	291.38
274.945	275.38
275.176	265.38
275.408	253.38
275.64	270.38
275.872	269.38
276.104	280.38
276.335	272.38
276.567	297.38
276.799	309.38
277.031	326.38
277.262	338.38
277.494	339.38
277.726	326.38
277.957	300.38
278.189	302.38
278.421	272.38
278.652	281.38
278.884	284.38
279.115	281.38
279.347	268.38
279.579	279.38
279.81	275.38
280.042	248.38
280.273	275.38
280.505	275.38
280.736	291.38
280.968	277.38
281.199	268.38
281.431	268.38
281.662	266.38
281.894	280.38
282.125	274.38
282.356	297.38
282.588	323.38
282.819	336.38
283.051	279.38
283.282	272.38
283.513	259.38
283.745	275.38
283.976	279.38
284.207	296.38
284.439	269.38
284.67	285.38
284.901	292.38
285.132	289.38
285.364	280.38
285.595	271.38
285.826	284.38
286.057	271.38
286.288	279.38
286.52	285.38
286.751	286.38
286.982	285.38
287.213	278.38
287.444	290.38
287.675	292.38
287.906	289.38
288.138	303.38
288.369	309.38
288.6	315.38
288.831	301.38
289.062	289.38
289.293	289.38
289.524	277.38
289.755	293.38
289.986	289.38
290.217	292.38
290.448	283.38
290.679	274.38
290.91	283.38
291.141	286.38
291.371	287.38
291.602	289.38
291.833	282.38
292.064	290.38
292.295	278.38
292.526	295.38
292.757	294.38
292.987	294.38
293.218	279.38
293.449	287.38
293.68	303.38
293.91	291.38
294.141	281.38
294.372	294.38
294.603	290.38
294.833	284.38
295.064	293.38
295.295	292.38
295.525	282.38
295.756	299.38
295.987	301.38
296.217	338.38
296.448	335.38
296.679	307.38
296.909	287.38
297.14	308.38
297.37	301.38
297.601	313.38
297.831	292.38
298.062	275.38
298.292	305.38
298.523	274.38
298.753	319.38
298.984	323.38
299.214	314.38
299.445	287.38
299.675	303.38
299.905	303.38
300.136	300.38
300.366	306.38
300.597	300.38
300.827	305.38
301.057	337.38
301.288	341.38
301.518	323.38
301.748	321.38
301.979	341.38
302.209	325.38
302.439	320.38
302.669	320.38
302.9	316.38
303.13	298.38
303.36	335.38
303.59	337.38
303.82	339.38
304.051	346.38
304.281	333.38
304.511	321.38
304.741	333.38
304.971	327.38
305.201	313.38
305.431	302.38
305.661	343.38
305.891	328.38
306.121	308.38
306.352	339.38
306.582	348.38
306.812	349.38
307.042	343.38
307.272	325.38
307.502	351.38
307.731	314.38
307.961	326.38
308.191	369.38
308.421	337.38
308.651	340.38
308.881	340.38
309.111	340.38
309.341	330.38
309.571	361.38
309.8	373.38
310.03	381.38
310.26	395.38
310.49	400.38
310.72	392.38
310.949	414.38
311.179	412.38
311.409	394.38
311.639	392.38
311.868	374.38
312.098	382.38
312.328	404.38
312.557	416.38
312.787	435.38
313.017	443.38
313.246	416.38
313.476	388.38
313.706	375.38
313.935	394.38
314.165	422.38
314.394	409.38
314.624	429.38
314.853	408.38
315.083	389.38
315.312	370.38
315.542	370.38
315.771	361.38
316.001	400.38
316.23	385.38
316.46	359.38
316.689	364.38
316.919	391.38
317.148	420.38
317.377	404.38
317.607	415.38
317.836	396.38
318.065	390.38
318.295	378.38
318.524	371.38
318.753	396.38
318.983	398.38
319.212	383.38
319.441	419.38
319.67	403.38
319.9	400.38
320.129	391.38
320.358	374.38
320.587	408.38
320.816	409.38
321.046	421.38
321.275	429.38
321.504	416.38
321.733	436.38
321.962	415.38
322.191	422.38
322.42	462.38
322.649	487.38
322.878	489.38
323.108	504.38
323.337	558.38
323.566	565.38
323.795	582.38
324.024	678.38
324.253	834.38
324.482	1221.38
324.71	1899.38
324.939	2837.38
325.168	2474.38
325.397	1248.38
325.626	776.38
325.855	644.38
326.084	583.38
326.313	557.38
326.542	561.38
326.77	605.38
326.999	743.38
327.228	1101.38
327.457	1679.38
327.686	2083.38
327.914	1405.38
328.143	890.38
328.372	741.38
328.6	697.38
328.829	635.38
329.058	646.38
329.287	649.38
329.515	605.38
329.744	558.38
329.972	575.38
330.201	617.38
330.43	638.38
330.658	691.38
330.887	716.38
331.115	673.38
331.344	567.38
331.572	537.38
331.801	547.38
332.03	529.38
332.258	484.38
332.486	492.38
332.715	462.38
332.943	470.38
333.172	465.38
333.4	465.38
333.629	473.38
333.857	499.38
334.085	513.38
334.314	556.38
334.542	573.38
334.771	614.38
334.999	533.38
335.227	479.38
335.455	469.38
335.684	466.38
335.912	462.38
336.14	446.38
336.369	441.38
336.597	459.38
336.825	462.38
337.053	459.38
337.281	447.38
337.51	423.38
337.738	442.38
337.966	433.38
338.194	439.38
338.422	444.38
338.65	446.38
338.878	447.38
339.106	419.38
339.334	413.38
339.562	409.38
339.79	411.38
340.018	427.38
340.246	424.38
340.474	451.38
340.702	429.38
340.93	419.38
341.158	430.38
341.386	414.38
341.614	423.38
341.842	419.38
342.07	413.38
342.298	438.38
342.526	405.38
342.754	421.38
342.981	398.38
343.209	394.38
343.437	401.38
343.665	409.38
343.893	417.38
344.12	434.38
344.348	441.38
344.576	439.38
344.804	434.38
345.031	449.38
345.259	446.38
345.487	446.38
345.714	450.38
345.942	449.38
346.17	419.38
346.397	423.38
346.625	446.38
346.853	418.38
347.08	422.38
347.308	414.38
347.535	422.38
347.763	429.38
347.99	437.38
348.218	431.38
348.445	437.38
348.673	435.38
348.9	436.38
349.128	427.38
349.355	388.38
349.583	424.38
349.81	419.38
350.037	415.38
350.265	400.38
350.492	391.38
350.72	387.38
350.947	398.38
351.174	425.38
351.402	427.38
351.629	410.38
351.856	419.38
352.083	406.38
352.311	453.38
352.538	428.38
352.765	429.38
352.992	445.38
353.22	456.38
353.447	396.38
353.674	409.38
353.901	399.38
354.128	409.38
354.355	383.38
354.583	381.38
354.81	384.38
355.037	378.38
355.264	366.38
355.491	361.38
355.718	370.38
355.945	363.38
356.172	363.38
356.399	360.38
356.626	362.38
356.853	363.38
357.08	381.38
357.307	361.38
357.534	395.38
357.761	393.38
357.988	357.38
358.215	375.38
358.441	366.38
358.668	399.38
358.895	391.38
359.122	408.38
359.349	412.38
359.576	419.38
359.802	443.38
360.029	495.38
360.256	473.38
360.483	475.38
360.709	430.38
360.936	413.38
361.163	427.38
361.39	411.38
361.616	423.38
361.843	401.38
362.07	411.38
362.296	401.38
362.523	405.38
362.749	395.38
362.976	406.38
363.203	417.38
363.429	391.38
363.656	382.38
363.882	394.38
364.109	389.38
364.335	389.38
364.562	385.38
364.788	390.38
365.015	385.38
365.241	389.38
365.468	400.38
365.694	395.38
365.92	394.38
366.147	391.38
366.373	379.38
366.599	391.38
366.826	374.38
367.052	371.38
367.278	364.38
367.505	375.38
367.731	379.38
367.957	372.38
368.184	388.38
368.41	381.38
368.636	371.38
368.862	399.38
369.089	398.38
369.315	380.38
369.541	364.38
369.767	377.38
369.993	369.38
370.219	390.38
370.445	382.38
370.672	375.38
370.898	392.38
371.124	390.38
371.35	377.38
371.576	372.38
371.802	362.38
372.028	369.38
372.254	372.38
372.48	354.38
372.706	369.38
372.932	378.38
373.158	384.38
373.384	375.38
373.61	369.38
373.835	381.38
374.061	375.38
374.287	366.38
374.513	387.38
374.739	389.38
374.965	387.38
375.191	375.38
375.416	383.38
375.642	356.38
375.868	396.38
376.094	379.38
376.319	379.38
376.545	382.38
376.771	371.38
376.997	366.38
377.222	377.38
377.448	359.38
377.674	358.38
377.899	372.38
378.125	361.38
378.35	357.38
378.576	357.38
378.802	359.38
379.027	364.38
379.253	361.38
379.478	364.38
379.704	357.38
379.929	371.38
380.155	382.38
380.38	380.38
380.606	387.38
380.831	375.38
381.057	378.38
381.282	391.38
381.507	357.38
381.733	369.38
381.958	369.38
382.184	385.38
382.409	388.38
382.634	381.38
382.86	359.38
383.085	370.38
383.31	394.38
383.535	378.38
383.761	387.38
383.986	389.38
384.211	389.38
384.436	382.38
384.662	376.38
384.887	378.38
385.112	378.38
385.337	395.38
385.562	393.38
385.787	397.38
386.013	414.38
386.238	391.38
386.463	392.38
386.688	385.38
386.913	381.38
387.138	370.38
387.363	380.38
387.588	383.38
387.813	390.38
388.038	398.38
388.263	392.38
388.488	388.38
388.713	383.38
388.938	400.38
389.163	387.38
389.387	396.38
389.612	400.38
389.837	381.38
390.062	370.38
390.287	389.38
390.512	385.38
390.736	380.38
390.961	380.38
391.186	399.38
391.411	384.38
391.636	389.38
391.86	403.38
392.085	392.38
392.31	400.38
392.534	406.38
392.759	399.38
392.984	410.38
393.208	381.38
393.433	393.38
393.658	384.38
393.882	393.38
394.107	394.38
394.331	386.38
394.556	396.38
394.78	389.38
395.005	393.38
395.229	400.38
395.454	400.38
395.678	422.38
395.903	423.38
396.127	448.38
396.352	449.38
396.576	410.38
396.801	400.38
397.025	423.38
397.249	419.38
397.474	423.38
397.698	415.38
397.922	424.38
398.147	446.38
398.371	449.38
398.595	445.38
398.82	429.38
399.044	433.38
399.268	441.38
399.492	447.38
399.717	487.38
399.941	504.38
400.165	558.38
400.389	560.38
400.613	507.38
400.837	478.38
401.062	461.38
401.286	463.38
401.51	464.38
401.734	461.38
401.958	454.38
402.182	474.38
402.406	458.38
402.63	475.38
402.854	467.38
403.078	465.38
403.302	461.38
403.526	463.38
403.75	497.38
403.974	466.38
404.198	448.38
404.422	465.38
404.645	476.38
404.869	462.38
405.093	504.38
405.317	563.38
405.541	605.38
405.765	554.38
405.988	495.38
406.212	511.38
406.436	542.38
406.66	555.38
406.883	528.38
407.107	553.38
407.331	594.38
407.555	626.38
407.778	642.38
408.002	588.38
408.226	547.38
408.449	523.38
408.673	548.38
408.896	542.38
409.12	621.38
409.344	552.38
409.567	519.38
409.791	508.38
410.014	488.38
410.238	457.38
410.461	462.38
410.685	467.38
410.908	490.38
411.132	556.38
411.355	565.38
411.578	527.38
411.802	493.38
412.025	471.38
412.249	468.38
412.472	525.38
412.695	583.38
412.919	554.38
413.142	482.38
413.365	476.38
413.589	467.38
413.812	452.38
414.035	445.38
414.258	431.38
414.482	443.38
414.705	458.38
414.928	451.38
415.151	408.38
415.374	430.38
415.597	439.38
415.821	419.38
416.044	441.38
416.267	441.38
416.49	440.38
416.713	449.38
416.936	448.38
417.159	430.38
417.382	455.38
417.605	455.38
417.828	445.38
418.051	483.38
418.274	489.38
418.497	431.38
418.72	433.38
418.943	445.38
419.166	449.38
419.389	467.38
419.611	465.38
419.834	467.38
420.057	477.38
420.28	471.38
420.503	463.38
420.726	476.38
420.948	486.38
421.171	537.38
421.394	558.38
421.617	485.38
421.839	486.38
422.062	487.38
422.285	511.38
422.507	560.38
422.73	637.38
422.953	635.38
423.175	538.38
423.398	503.38
423.621	483.38
423.843	509.38
424.066	537.38
424.288	495.38
424.511	528.38
424.733	605.38
424.956	663.38
425.178	658.38
425.401	649.38
425.623	695.38
425.846	570.38
426.068	546.38
426.291	526.38
426.513	533.38
426.735	535.38
426.958	586.38
427.18	690.38
427.402	813.38
427.625	903.38
427.847	813.38
428.069	677.38
428.292	607.38
428.514	535.38
428.736	534.38
428.958	492.38
429.181	497.38
429.403	483.38
429.625	497.38
429.847	543.38
430.069	613.38
430.292	606.38
430.514	503.38
430.736	506.38
430.958	510.38
431.18	451.38
431.402	467.38
431.624	427.38
431.846	452.38
432.068	450.38
432.29	447.38
432.512	438.38
432.734	461.38
432.956	463.38
433.178	463.38
433.4	469.38
433.622	457.38
433.844	455.38
434.066	440.38
434.287	455.38
434.509	453.38
434.731	470.38
434.953	466.38
435.175	483.38
435.397	509.38
435.618	539.38
435.84	593.38
436.062	676.38
436.284	754.38
436.505	624.38
436.727	541.38
436.949	529.38
437.17	495.38
437.392	502.38
437.614	515.38
437.835	550.38
438.057	648.38
438.278	756.38
438.5	742.38
438.721	841.38
438.943	776.38
439.165	645.38
439.386	551.38
439.608	561.38
439.829	538.38
440.05	597.38
440.272	633.38
440.493	602.38
440.715	537.38
440.936	503.38
441.158	509.38
441.379	483.38
441.6	509.38
441.822	514.38
442.043	582.38
442.264	651.38
442.486	723.38
442.707	620.38
442.928	547.38
443.149	549.38
443.371	567.38
443.592	634.38
443.813	703.38
444.034	781.38
444.255	631.38
444.476	563.38
444.698	536.38
444.919	532.38
445.14	601.38
445.361	577.38
445.582	590.38
445.803	655.38
446.024	801.38
446.245	791.38
446.466	739.38
446.687	609.38
446.908	541.38
447.129	521.38
447.35	517.38
447.571	503.38
447.792	486.38
448.013	474.38
448.234	519.38
448.455	594.38
448.675	681.38
448.896	811.38
449.117	715.38
449.338	653.38
449.559	759.38
449.779	857.38
450	697.38
450.221	573.38
450.442	516.38
450.662	473.38
450.883	507.38
451.104	537.38
451.324	495.38
451.545	482.38
451.766	477.38
451.986	433.38
452.207	449.38
452.428	443.38
452.648	445.38
452.869	439.38
453.089	437.38
453.31	473.38
453.53	436.38
453.751	433.38
453.971	451.38
454.192	475.38
454.412	453.38
454.633	431.38
454.853	436.38
455.073	444.38
455.294	463.38
455.514	556.38
455.734	529.38
455.955	445.38
456.175	417.38
456.395	407.38
456.616	396.38
456.836	415.38
457.056	389.38
457.276	382.38
457.497	417.38
457.717	398.38
457.937	424.38
458.157	426.38
458.377	416.38
458.598	452.38
458.818	514.38
459.038	605.38
459.258	653.38
459.478	524.38
459.698	475.38
459.918	448.38
460.138	463.38
460.358	465.38
460.578	444.38
460.798	438.38
461.018	444.38
461.238	439.38
461.458	429.38
461.678	443.38
461.898	453.38
462.118	424.38
462.338	451.38
462.558	451.38
462.777	474.38
462.997	465.38
463.217	452.38
463.437	482.38
463.657	457.38
463.876	470.38
464.096	452.38
464.316	479.38
464.536	485.38
464.755	486.38
464.975	481.38
465.195	545.38
465.414	637.38
465.634	545.38
465.854	487.38
466.073	472.38
466.293	456.38
466.512	462.38
466.732	441.38
466.951	453.38
467.171	431.38
467.391	452.38
467.61	471.38
467.829	479.38
468.049	459.38
468.268	433.38
468.488	452.38
468.707	431.38
468.927	426.38
469.146	430.38
469.365	439.38
469.585	413.38
469.804	446.38
470.023	449.38
470.243	466.38
470.462	455.38
470.681	468.38
470.901	466.38
471.12	458.38
471.339	455.38
471.558	455.38
471.777	442.38
471.997	445.38
472.216	448.38
472.435	496.38
472.654	495.38
472.873	456.38
473.092	439.38
473.311	433.38
473.53	470.38
473.749	477.38
473.968	500.38
474.187	636.38
474.406	679.38
474.625	531.38
474.844	475.38
475.063	459.38
475.282	466.38
475.501	483.38
475.72	464.38
475.939	458.38
476.158	458.38
476.377	472.38
476.596	461.38
476.814	477.38
477.033	485.38
477.252	479.38
477.471	454.38
477.69	485.38
477.908	493.38
478.127	485.38
478.346	473.38
478.564	480.38
478.783	507.38
479.002	467.38
479.22	490.38
479.439	510.38
479.658	543.38
479.876	546.38
480.095	533.38
480.313	565.38
480.532	548.38
480.751	534.38
480.969	565.38
481.188	658.38
481.406	713.38
481.624	617.38
481.843	547.38
482.061	546.38
482.28	543.38
482.498	537.38
482.717	519.38
482.935	528.38
483.153	534.38
483.372	524.38
483.59	527.38
483.808	531.38
484.027	523.38
484.245	523.38
484.463	523.38
484.681	521.38
484.9	514.38
485.118	535.38
485.336	543.38
485.554	512.38
485.772	534.38
485.99	534.38
486.209	542.38
486.427	575.38
486.645	557.38
486.863	572.38
487.081	603.38
487.299	574.38
487.517	562.38
487.735	563.38
487.953	555.38
488.171	567.38
488.389	571.38
488.607	573.38
488.825	555.38
489.043	561.38
489.261	582.38
489.479	580.38
489.696	581.38
489.914	599.38
490.132	594.38
490.35	593.38
490.568	581.38
490.786	622.38
491.003	609.38
491.221	631.38
491.439	643.38
491.657	646.38
491.874	656.38
492.092	634.38
492.31	656.38
492.527	662.38
492.745	647.38
492.963	674.38
493.18	667.38
493.398	667.38
493.615	663.38
493.833	673.38
494.05	646.38
494.268	704.38
494.485	687.38
494.703	671.38
494.92	661.38
495.138	673.38
495.355	689.38
495.573	672.38
495.79	689.38
496.008	654.38
496.225	667.38
496.442	660.38
496.66	665.38
496.877	663.38
497.094	697.38
497.312	663.38
497.529	692.38
497.746	696.38
497.963	703.38
498.181	733.38
498.398	724.38
498.615	730.38
498.832	730.38
499.049	731.38
499.267	754.38
499.484	744.38
499.701	791.38
499.918	803.38
500.135	802.38
500.352	823.38
500.569	818.38
500.786	843.38
501.003	839.38
501.22	852.38
501.437	848.38
501.654	843.38
501.871	843.38
