Data from 1972.PennyLincolnUp.Lamp.En5.5.200Scan.071719.P1._HRD10591_15-26-53-843.txt Node
Date: Thu Jul 18 15:26:53 EDT 2019
User: cochatt
Spectrometer: HR+D1059
Trigger mode: 1
Integration Time (sec): 1.000000E-1
Scans to average: 1
Electric dark correction enabled: true
Nonlinearity correction enabled: false
Boxcar width: 0
XAxis mode: Wavelengths
Number of Pixels in Spectrum: 2048
>>>>>Begin Spectral Data<<<<<
223.165	-15.56
223.4	-15.56
223.635	-15.56
223.869	-17.56
224.104	-14.56
224.338	-21.56
224.573	-9.56
224.808	-10.56
225.042	-12.56
225.277	-12.56
225.511	-11.56
225.746	10.44
225.98	10.44
226.215	11.44
226.449	14.44
226.683	25.44
226.918	29.44
227.152	24.44
227.387	29.44
227.621	30.44
227.856	50.44
228.09	47.44
228.324	63.44
228.559	52.44
228.793	62.44
229.027	96.44
229.262	104.44
229.496	100.44
229.73	112.44
229.964	130.44
230.199	104.44
230.433	100.44
230.667	110.44
230.901	113.44
231.136	114.44
231.37	117.44
231.604	112.44
231.838	107.44
232.072	110.44
232.306	101.44
232.541	89.44
232.775	105.44
233.009	108.44
233.243	106.44
233.477	106.44
233.711	114.44
233.945	119.44
234.179	107.44
234.413	111.44
234.647	119.44
234.881	105.44
235.115	109.44
235.349	110.44
235.583	111.44
235.817	114.44
236.051	124.44
236.285	99.44
236.519	113.44
236.753	127.44
236.987	125.44
237.221	134.44
237.455	214.44
237.689	157.44
237.922	126.44
238.156	107.44
238.39	103.44
238.624	118.44
238.858	122.44
239.091	123.44
239.325	105.44
239.559	108.44
239.793	122.44
240.027	114.44
240.26	132.44
240.494	139.44
240.728	138.44
240.961	132.44
241.195	136.44
241.429	124.44
241.662	128.44
241.896	114.44
242.13	128.44
242.363	107.44
242.597	123.44
242.83	134.44
243.064	119.44
243.298	121.44
243.531	119.44
243.765	118.44
243.998	135.44
244.232	134.44
244.465	123.44
244.699	133.44
244.932	129.44
245.166	134.44
245.399	139.44
245.633	129.44
245.866	133.44
246.099	138.44
246.333	127.44
246.566	136.44
246.8	137.44
247.033	147.44
247.266	132.44
247.5	143.44
247.733	152.44
247.966	152.44
248.2	144.44
248.433	152.44
248.666	155.44
248.899	144.44
249.133	173.44
249.366	163.44
249.599	177.44
249.832	171.44
250.066	169.44
250.299	162.44
250.532	164.44
250.765	174.44
250.998	177.44
251.231	180.44
251.465	177.44
251.698	186.44
251.931	166.44
252.164	158.44
252.397	163.44
252.63	170.44
252.863	176.44
253.096	194.44
253.329	184.44
253.562	185.44
253.795	179.44
254.028	203.44
254.261	193.44
254.494	216.44
254.727	219.44
254.96	228.44
255.193	216.44
255.426	215.44
255.659	199.44
255.892	188.44
256.124	196.44
256.357	197.44
256.59	204.44
256.823	194.44
257.056	180.44
257.289	186.44
257.521	174.44
257.754	184.44
257.987	169.44
258.22	186.44
258.452	184.44
258.685	185.44
258.918	186.44
259.151	179.44
259.383	209.44
259.616	193.44
259.849	183.44
260.081	192.44
260.314	217.44
260.547	220.44
260.779	202.44
261.012	209.44
261.244	201.44
261.477	198.44
261.71	175.44
261.942	206.44
262.175	211.44
262.407	173.44
262.64	186.44
262.872	174.44
263.105	178.44
263.337	183.44
263.57	204.44
263.802	185.44
264.035	172.44
264.267	180.44
264.499	169.44
264.732	175.44
264.964	186.44
265.197	184.44
265.429	166.44
265.661	173.44
265.894	179.44
266.126	203.44
266.358	185.44
266.591	191.44
266.823	199.44
267.055	193.44
267.287	183.44
267.52	187.44
267.752	174.44
267.984	186.44
268.216	201.44
268.448	209.44
268.681	203.44
268.913	202.44
269.145	199.44
269.377	232.44
269.609	205.44
269.841	227.44
270.073	219.44
270.306	239.44
270.538	234.44
270.77	262.44
271.002	228.44
271.234	227.44
271.466	247.44
271.698	236.44
271.93	251.44
272.162	254.44
272.394	249.44
272.626	241.44
272.858	225.44
273.09	232.44
273.322	213.44
273.553	217.44
273.785	209.44
274.017	217.44
274.249	208.44
274.481	214.44
274.713	231.44
274.945	210.44
275.176	217.44
275.408	227.44
275.64	206.44
275.872	227.44
276.104	216.44
276.335	211.44
276.567	216.44
276.799	225.44
277.031	238.44
277.262	257.44
277.494	246.44
277.726	234.44
277.957	232.44
278.189	221.44
278.421	226.44
278.652	209.44
278.884	218.44
279.115	211.44
279.347	202.44
279.579	232.44
279.81	210.44
280.042	199.44
280.273	220.44
280.505	225.44
280.736	225.44
280.968	222.44
281.199	203.44
281.431	212.44
281.662	192.44
281.894	192.44
282.125	227.44
282.356	218.44
282.588	224.44
282.819	230.44
283.051	224.44
283.282	218.44
283.513	216.44
283.745	219.44
283.976	231.44
284.207	211.44
284.439	231.44
284.67	222.44
284.901	228.44
285.132	218.44
285.364	223.44
285.595	198.44
285.826	230.44
286.057	238.44
286.288	217.44
286.52	216.44
286.751	225.44
286.982	238.44
287.213	221.44
287.444	231.44
287.675	230.44
287.906	237.44
288.138	228.44
288.369	248.44
288.6	231.44
288.831	253.44
289.062	245.44
289.293	240.44
289.524	238.44
289.755	232.44
289.986	234.44
290.217	214.44
290.448	227.44
290.679	243.44
290.91	226.44
291.141	221.44
291.371	232.44
291.602	241.44
291.833	225.44
292.064	236.44
292.295	234.44
292.526	222.44
292.757	238.44
292.987	212.44
293.218	223.44
293.449	224.44
293.68	233.44
293.91	232.44
294.141	236.44
294.372	238.44
294.603	228.44
294.833	226.44
295.064	229.44
295.295	235.44
295.525	222.44
295.756	241.44
295.987	255.44
296.217	260.44
296.448	250.44
296.679	243.44
296.909	222.44
297.14	248.44
297.37	233.44
297.601	240.44
297.831	230.44
298.062	238.44
298.292	241.44
298.523	242.44
298.753	228.44
298.984	241.44
299.214	246.44
299.445	240.44
299.675	248.44
299.905	223.44
300.136	244.44
300.366	249.44
300.597	233.44
300.827	252.44
301.057	250.44
301.288	254.44
301.518	271.44
301.748	259.44
301.979	259.44
302.209	263.44
302.439	261.44
302.669	255.44
302.9	266.44
303.13	267.44
303.36	262.44
303.59	261.44
303.82	271.44
304.051	258.44
304.281	273.44
304.511	256.44
304.741	242.44
304.971	258.44
305.201	264.44
305.431	262.44
305.661	266.44
305.891	269.44
306.121	259.44
306.352	253.44
306.582	252.44
306.812	240.44
307.042	264.44
307.272	250.44
307.502	256.44
307.731	258.44
307.961	255.44
308.191	278.44
308.421	282.44
308.651	256.44
308.881	264.44
309.111	255.44
309.341	276.44
309.571	288.44
309.8	282.44
310.03	303.44
310.26	294.44
310.49	278.44
310.72	305.44
310.949	299.44
311.179	294.44
311.409	282.44
311.639	279.44
311.868	282.44
312.098	289.44
312.328	283.44
312.557	318.44
312.787	303.44
313.017	298.44
313.246	305.44
313.476	303.44
313.706	299.44
313.935	287.44
314.165	307.44
314.394	288.44
314.624	324.44
314.853	313.44
315.083	307.44
315.312	296.44
315.542	282.44
315.771	274.44
316.001	305.44
316.23	318.44
316.46	301.44
316.689	294.44
316.919	290.44
317.148	295.44
317.377	300.44
317.607	288.44
317.836	283.44
318.065	278.44
318.295	299.44
318.524	287.44
318.753	294.44
318.983	299.44
319.212	311.44
319.441	299.44
319.67	312.44
319.9	296.44
320.129	297.44
320.358	300.44
320.587	292.44
320.816	312.44
321.046	310.44
321.275	301.44
321.504	315.44
321.733	325.44
321.962	303.44
322.191	308.44
322.42	328.44
322.649	330.44
322.878	346.44
323.108	358.44
323.337	374.44
323.566	362.44
323.795	365.44
324.024	421.44
324.253	495.44
324.482	671.44
324.71	1066.44
324.939	1579.44
325.168	1396.44
325.397	719.44
325.626	491.44
325.855	424.44
326.084	387.44
326.313	382.44
326.542	369.44
326.77	396.44
326.999	480.44
327.228	623.44
327.457	946.44
327.686	1169.44
327.914	812.44
328.143	543.44
328.372	454.44
328.6	444.44
328.829	412.44
329.058	431.44
329.287	432.44
329.515	424.44
329.744	390.44
329.972	378.44
330.201	400.44
330.43	410.44
330.658	433.44
330.887	431.44
331.115	431.44
331.344	404.44
331.572	366.44
331.801	363.44
332.03	367.44
332.258	346.44
332.486	327.44
332.715	331.44
332.943	347.44
333.172	335.44
333.4	350.44
333.629	343.44
333.857	375.44
334.085	377.44
334.314	363.44
334.542	367.44
334.771	390.44
334.999	340.44
335.227	346.44
335.455	367.44
335.684	337.44
335.912	319.44
336.14	331.44
336.369	330.44
336.597	351.44
336.825	346.44
337.053	346.44
337.281	323.44
337.51	331.44
337.738	324.44
337.966	314.44
338.194	336.44
338.422	335.44
338.65	333.44
338.878	319.44
339.106	338.44
339.334	328.44
339.562	347.44
339.79	316.44
340.018	326.44
340.246	334.44
340.474	319.44
340.702	303.44
340.93	326.44
341.158	340.44
341.386	334.44
341.614	334.44
341.842	319.44
342.07	327.44
342.298	324.44
342.526	326.44
342.754	314.44
342.981	295.44
343.209	318.44
343.437	334.44
343.665	309.44
343.893	312.44
344.12	317.44
344.348	302.44
344.576	334.44
344.804	322.44
345.031	339.44
345.259	339.44
345.487	337.44
345.714	319.44
345.942	328.44
346.17	329.44
346.397	330.44
346.625	322.44
346.853	301.44
347.08	323.44
347.308	321.44
347.535	315.44
347.763	317.44
347.99	324.44
348.218	318.44
348.445	334.44
348.673	345.44
348.9	303.44
349.128	323.44
349.355	318.44
349.583	307.44
349.81	301.44
350.037	308.44
350.265	313.44
350.492	300.44
350.72	291.44
350.947	301.44
351.174	327.44
351.402	311.44
351.629	299.44
351.856	327.44
352.083	325.44
352.311	334.44
352.538	326.44
352.765	316.44
352.992	329.44
353.22	311.44
353.447	313.44
353.674	303.44
353.901	297.44
354.128	296.44
354.355	313.44
354.583	304.44
354.81	293.44
355.037	294.44
355.264	294.44
355.491	283.44
355.718	276.44
355.945	303.44
356.172	304.44
356.399	283.44
356.626	304.44
356.853	297.44
357.08	286.44
357.307	302.44
357.534	303.44
357.761	306.44
357.988	294.44
358.215	305.44
358.441	296.44
358.668	298.44
358.895	300.44
359.122	308.44
359.349	324.44
359.576	306.44
359.802	330.44
360.029	329.44
360.256	343.44
360.483	329.44
360.709	310.44
360.936	310.44
361.163	303.44
361.39	312.44
361.616	302.44
361.843	303.44
362.07	301.44
362.296	313.44
362.523	320.44
362.749	312.44
362.976	325.44
363.203	314.44
363.429	294.44
363.656	312.44
363.882	314.44
364.109	290.44
364.335	308.44
364.562	295.44
364.788	308.44
365.015	306.44
365.241	326.44
365.468	298.44
365.694	314.44
365.92	323.44
366.147	314.44
366.373	304.44
366.599	314.44
366.826	316.44
367.052	296.44
367.278	303.44
367.505	301.44
367.731	294.44
367.957	296.44
368.184	299.44
368.41	327.44
368.636	340.44
368.862	323.44
369.089	322.44
369.315	319.44
369.541	310.44
369.767	311.44
369.993	313.44
370.219	297.44
370.445	301.44
370.672	316.44
370.898	322.44
371.124	300.44
371.35	306.44
371.576	287.44
371.802	310.44
372.028	313.44
372.254	308.44
372.48	317.44
372.706	285.44
372.932	300.44
373.158	298.44
373.384	299.44
373.61	319.44
373.835	327.44
374.061	296.44
374.287	313.44
374.513	318.44
374.739	311.44
374.965	292.44
375.191	318.44
375.416	333.44
375.642	322.44
375.868	318.44
376.094	307.44
376.319	326.44
376.545	311.44
376.771	307.44
376.997	305.44
377.222	308.44
377.448	298.44
377.674	304.44
377.899	296.44
378.125	299.44
378.35	296.44
378.576	290.44
378.802	308.44
379.027	302.44
379.253	308.44
379.478	308.44
379.704	291.44
379.929	310.44
380.155	298.44
380.38	315.44
380.606	292.44
380.831	320.44
381.057	305.44
381.282	306.44
381.507	319.44
381.733	310.44
381.958	299.44
382.184	300.44
382.409	315.44
382.634	314.44
382.86	316.44
383.085	301.44
383.31	335.44
383.535	326.44
383.761	305.44
383.986	316.44
384.211	316.44
384.436	310.44
384.662	314.44
384.887	328.44
385.112	319.44
385.337	332.44
385.562	335.44
385.787	320.44
386.013	337.44
386.238	331.44
386.463	337.44
386.688	334.44
386.913	320.44
387.138	342.44
387.363	322.44
387.588	339.44
387.813	328.44
388.038	333.44
388.263	330.44
388.488	345.44
388.713	336.44
388.938	323.44
389.163	316.44
389.387	332.44
389.612	343.44
389.837	326.44
390.062	318.44
390.287	324.44
390.512	334.44
390.736	328.44
390.961	332.44
391.186	337.44
391.411	337.44
391.636	324.44
391.86	325.44
392.085	322.44
392.31	337.44
392.534	328.44
392.759	352.44
392.984	330.44
393.208	337.44
393.433	354.44
393.658	379.44
393.882	324.44
394.107	322.44
394.331	333.44
394.556	320.44
394.78	323.44
395.005	313.44
395.229	339.44
395.454	335.44
395.678	345.44
395.903	351.44
396.127	347.44
396.352	360.44
396.576	347.44
396.801	349.44
397.025	358.44
397.249	343.44
397.474	353.44
397.698	337.44
397.922	354.44
398.147	355.44
398.371	365.44
398.595	346.44
398.82	368.44
399.044	371.44
399.268	358.44
399.492	384.44
399.717	412.44
399.941	443.44
400.165	449.44
400.389	456.44
400.613	412.44
400.837	398.44
401.062	402.44
401.286	395.44
401.51	382.44
401.734	363.44
401.958	378.44
402.182	368.44
402.406	366.44
402.63	375.44
402.854	374.44
403.078	367.44
403.302	358.44
403.526	378.44
403.75	378.44
403.974	384.44
404.198	367.44
404.422	386.44
404.645	389.44
404.869	380.44
405.093	391.44
405.317	416.44
405.541	450.44
405.765	418.44
405.988	398.44
406.212	408.44
406.436	419.44
406.66	422.44
406.883	405.44
407.107	416.44
407.331	446.44
407.555	488.44
407.778	502.44
408.002	468.44
408.226	418.44
408.449	424.44
408.673	419.44
408.896	434.44
409.12	463.44
409.344	457.44
409.567	408.44
409.791	399.44
410.014	372.44
410.238	383.44
410.461	396.44
410.685	378.44
410.908	395.44
411.132	431.44
411.355	443.44
411.578	419.44
411.802	400.44
412.025	386.44
412.249	396.44
412.472	414.44
412.695	438.44
412.919	406.44
413.142	403.44
413.365	372.44
413.589	372.44
413.812	374.44
414.035	335.44
414.258	367.44
414.482	350.44
414.705	365.44
414.928	365.44
415.151	367.44
415.374	352.44
415.597	364.44
415.821	361.44
416.044	361.44
416.267	354.44
416.49	355.44
416.713	349.44
416.936	361.44
417.159	354.44
417.382	363.44
417.605	345.44
417.828	368.44
418.051	382.44
418.274	376.44
418.497	356.44
418.72	360.44
418.943	349.44
419.166	366.44
419.389	388.44
419.611	388.44
419.834	357.44
420.057	390.44
420.28	379.44
420.503	368.44
420.726	374.44
420.948	382.44
421.171	404.44
421.394	457.44
421.617	385.44
421.839	365.44
422.062	379.44
422.285	398.44
422.507	437.44
422.73	516.44
422.953	457.44
423.175	396.44
423.398	386.44
423.621	400.44
423.843	401.44
424.066	411.44
424.288	392.44
424.511	415.44
424.733	455.44
424.956	520.44
425.178	495.44
425.401	504.44
425.623	520.44
425.846	433.44
426.068	425.44
426.291	407.44
426.513	400.44
426.735	407.44
426.958	441.44
427.18	486.44
427.402	611.44
427.625	664.44
427.847	578.44
428.069	500.44
428.292	429.44
428.514	419.44
428.736	394.44
428.958	384.44
429.181	373.44
429.403	406.44
429.625	376.44
429.847	411.44
430.069	464.44
430.292	464.44
430.514	407.44
430.736	376.44
430.958	374.44
431.18	346.44
431.402	350.44
431.624	346.44
431.846	377.44
432.068	354.44
432.29	336.44
432.512	335.44
432.734	374.44
432.956	342.44
433.178	374.44
433.4	382.44
433.622	380.44
433.844	363.44
434.066	341.44
434.287	363.44
434.509	366.44
434.731	360.44
434.953	387.44
435.175	379.44
435.397	416.44
435.618	430.44
435.84	431.44
436.062	516.44
436.284	585.44
436.505	475.44
436.727	440.44
436.949	379.44
437.17	402.44
437.392	390.44
437.614	407.44
437.835	396.44
438.057	499.44
438.278	563.44
438.5	563.44
438.721	605.44
438.943	606.44
439.165	465.44
439.386	414.44
439.608	426.44
439.829	408.44
440.05	447.44
440.272	476.44
440.493	435.44
440.715	403.44
440.936	411.44
441.158	402.44
441.379	382.44
441.6	389.44
441.822	412.44
442.043	434.44
442.264	518.44
442.486	538.44
442.707	459.44
442.928	440.44
443.149	402.44
443.371	453.44
443.592	476.44
443.813	546.44
444.034	598.44
444.255	517.44
444.476	446.44
444.698	420.44
444.919	395.44
445.14	499.44
445.361	448.44
445.582	448.44
445.803	499.44
446.024	586.44
446.245	583.44
446.466	540.44
446.687	450.44
446.908	423.44
447.129	389.44
447.35	394.44
447.571	386.44
447.792	394.44
448.013	376.44
448.234	395.44
448.455	455.44
448.675	530.44
448.896	615.44
449.117	518.44
449.338	504.44
449.559	604.44
449.779	650.44
450	528.44
450.221	435.44
450.442	376.44
450.662	383.44
450.883	365.44
451.104	386.44
451.324	378.44
451.545	383.44
451.766	349.44
451.986	342.44
452.207	330.44
452.428	323.44
452.648	356.44
452.869	339.44
453.089	342.44
453.31	363.44
453.53	327.44
453.751	338.44
453.971	339.44
454.192	360.44
454.412	361.44
454.633	350.44
454.853	335.44
455.073	338.44
455.294	370.44
455.514	412.44
455.734	390.44
455.955	351.44
456.175	348.44
456.395	323.44
456.616	331.44
456.836	322.44
457.056	344.44
457.276	321.44
457.497	332.44
457.717	326.44
457.937	322.44
458.157	331.44
458.377	340.44
458.598	349.44
458.818	386.44
459.038	432.44
459.258	474.44
459.478	396.44
459.698	369.44
459.918	340.44
460.138	338.44
460.358	351.44
460.578	359.44
460.798	351.44
461.018	354.44
461.238	362.44
461.458	367.44
461.678	345.44
461.898	359.44
462.118	355.44
462.338	364.44
462.558	365.44
462.777	368.44
462.997	391.44
463.217	376.44
463.437	396.44
463.657	362.44
463.876	390.44
464.096	380.44
464.316	377.44
464.536	398.44
464.755	377.44
464.975	395.44
465.195	402.44
465.414	464.44
465.634	406.44
465.854	397.44
466.073	375.44
466.293	355.44
466.512	359.44
466.732	345.44
466.951	366.44
467.171	347.44
467.391	339.44
467.61	348.44
467.829	369.44
468.049	358.44
468.268	346.44
468.488	351.44
468.707	351.44
468.927	332.44
469.146	346.44
469.365	352.44
469.585	329.44
469.804	346.44
470.023	355.44
470.243	345.44
470.462	348.44
470.681	358.44
470.901	370.44
471.12	372.44
471.339	365.44
471.558	365.44
471.777	359.44
471.997	331.44
472.216	370.44
472.435	377.44
472.654	372.44
472.873	360.44
473.092	354.44
473.311	350.44
473.53	356.44
473.749	357.44
473.968	382.44
474.187	465.44
474.406	511.44
474.625	412.44
474.844	391.44
475.063	354.44
475.282	365.44
475.501	369.44
475.72	360.44
475.939	363.44
476.158	376.44
476.377	372.44
476.596	374.44
476.814	367.44
477.033	388.44
477.252	392.44
477.471	388.44
477.69	376.44
477.908	395.44
478.127	380.44
478.346	380.44
478.564	392.44
478.783	399.44
479.002	388.44
479.22	402.44
479.439	384.44
479.658	426.44
479.876	416.44
480.095	414.44
480.313	444.44
480.532	452.44
480.751	433.44
480.969	433.44
481.188	473.44
481.406	494.44
481.624	467.44
481.843	450.44
482.061	440.44
482.28	408.44
482.498	431.44
482.717	410.44
482.935	416.44
483.153	440.44
483.372	408.44
483.59	418.44
483.808	407.44
484.027	421.44
484.245	419.44
484.463	432.44
484.681	410.44
484.9	414.44
485.118	424.44
485.336	426.44
485.554	433.44
485.772	438.44
485.99	410.44
486.209	426.44
486.427	434.44
486.645	447.44
486.863	437.44
487.081	451.44
487.299	442.44
487.517	448.44
487.735	462.44
487.953	432.44
488.171	472.44
488.389	458.44
488.607	457.44
488.825	451.44
489.043	454.44
489.261	471.44
489.479	464.44
489.696	444.44
489.914	442.44
490.132	479.44
490.35	471.44
490.568	455.44
490.786	471.44
491.003	488.44
491.221	491.44
491.439	492.44
491.657	520.44
491.874	504.44
492.092	505.44
492.31	512.44
492.527	514.44
492.745	487.44
492.963	499.44
493.18	518.44
493.398	505.44
493.615	524.44
493.833	516.44
494.05	503.44
494.268	515.44
494.485	520.44
494.703	514.44
494.92	510.44
495.138	539.44
495.355	533.44
495.573	527.44
495.79	532.44
496.008	547.44
496.225	517.44
496.442	554.44
496.66	534.44
496.877	503.44
497.094	552.44
497.312	537.44
497.529	540.44
497.746	531.44
497.963	548.44
498.181	579.44
498.398	561.44
498.615	582.44
498.832	580.44
499.049	587.44
499.267	602.44
499.484	604.44
499.701	635.44
499.918	637.44
500.135	658.44
500.352	671.44
500.569	682.44
500.786	672.44
501.003	703.44
501.22	622.44
501.437	662.44
501.654	635.44
501.871	659.44
