Data from 1972.PennyLincolnUp.Lamp.En5.5.200Scan.071719.P1._HRD10591_15-27-00-843.txt Node
Date: Thu Jul 18 15:27:00 EDT 2019
User: cochatt
Spectrometer: HR+D1059
Trigger mode: 1
Integration Time (sec): 1.000000E-1
Scans to average: 1
Electric dark correction enabled: true
Nonlinearity correction enabled: false
Boxcar width: 0
XAxis mode: Wavelengths
Number of Pixels in Spectrum: 2048
>>>>>Begin Spectral Data<<<<<
223.165	-16.88
223.4	-16.88
223.635	-16.88
223.869	-32.88
224.104	-9.88
224.338	-11.88
224.573	2.12
224.808	-25.88
225.042	0.12
225.277	-0.88
225.511	-15.88
225.746	1.12
225.98	9.12
226.215	11.12
226.449	19.12
226.683	15.12
226.918	21.12
227.152	35.12
227.387	28.12
227.621	54.12
227.856	33.12
228.09	32.12
228.324	49.12
228.559	52.12
228.793	71.12
229.027	92.12
229.262	96.12
229.496	109.12
229.73	117.12
229.964	128.12
230.199	94.12
230.433	120.12
230.667	108.12
230.901	103.12
231.136	90.12
231.37	103.12
231.604	102.12
231.838	97.12
232.072	106.12
232.306	90.12
232.541	94.12
232.775	108.12
233.009	105.12
233.243	108.12
233.477	110.12
233.711	109.12
233.945	102.12
234.179	105.12
234.413	108.12
234.647	102.12
234.881	96.12
235.115	108.12
235.349	108.12
235.583	114.12
235.817	130.12
236.051	120.12
236.285	120.12
236.519	119.12
236.753	120.12
236.987	128.12
237.221	160.12
237.455	193.12
237.689	160.12
237.922	138.12
238.156	114.12
238.39	112.12
238.624	106.12
238.858	118.12
239.091	115.12
239.325	132.12
239.559	130.12
239.793	119.12
240.027	129.12
240.26	139.12
240.494	136.12
240.728	134.12
240.961	139.12
241.195	128.12
241.429	130.12
241.662	119.12
241.896	102.12
242.13	123.12
242.363	120.12
242.597	138.12
242.83	124.12
243.064	122.12
243.298	125.12
243.531	132.12
243.765	130.12
243.998	133.12
244.232	129.12
244.465	134.12
244.699	114.12
244.932	136.12
245.166	132.12
245.399	126.12
245.633	132.12
245.866	136.12
246.099	146.12
246.333	123.12
246.566	123.12
246.8	148.12
247.033	142.12
247.266	139.12
247.5	141.12
247.733	150.12
247.966	156.12
248.2	153.12
248.433	144.12
248.666	156.12
248.899	155.12
249.133	168.12
249.366	187.12
249.599	178.12
249.832	169.12
250.066	165.12
250.299	146.12
250.532	168.12
250.765	162.12
250.998	185.12
251.231	204.12
251.465	188.12
251.698	186.12
251.931	184.12
252.164	185.12
252.397	187.12
252.63	185.12
252.863	192.12
253.096	178.12
253.329	191.12
253.562	195.12
253.795	197.12
254.028	178.12
254.261	197.12
254.494	202.12
254.727	222.12
254.96	244.12
255.193	235.12
255.426	210.12
255.659	193.12
255.892	197.12
256.124	208.12
256.357	229.12
256.59	196.12
256.823	198.12
257.056	188.12
257.289	177.12
257.521	190.12
257.754	195.12
257.987	184.12
258.22	179.12
258.452	173.12
258.685	200.12
258.918	181.12
259.151	179.12
259.383	188.12
259.616	193.12
259.849	203.12
260.081	202.12
260.314	223.12
260.547	225.12
260.779	209.12
261.012	202.12
261.244	184.12
261.477	210.12
261.71	189.12
261.942	197.12
262.175	208.12
262.407	218.12
262.64	198.12
262.872	169.12
263.105	182.12
263.337	206.12
263.57	192.12
263.802	198.12
264.035	180.12
264.267	188.12
264.499	196.12
264.732	203.12
264.964	193.12
265.197	192.12
265.429	199.12
265.661	201.12
265.894	192.12
266.126	196.12
266.358	198.12
266.591	211.12
266.823	192.12
267.055	191.12
267.287	195.12
267.52	180.12
267.752	200.12
267.984	213.12
268.216	204.12
268.448	217.12
268.681	219.12
268.913	198.12
269.145	233.12
269.377	247.12
269.609	235.12
269.841	236.12
270.073	240.12
270.306	237.12
270.538	272.12
270.77	262.12
271.002	271.12
271.234	249.12
271.466	242.12
271.698	256.12
271.93	261.12
272.162	248.12
272.394	254.12
272.626	261.12
272.858	232.12
273.09	247.12
273.322	231.12
273.553	235.12
273.785	253.12
274.017	245.12
274.249	251.12
274.481	236.12
274.713	220.12
274.945	220.12
275.176	240.12
275.408	231.12
275.64	206.12
275.872	220.12
276.104	244.12
276.335	228.12
276.567	256.12
276.799	235.12
277.031	263.12
277.262	252.12
277.494	269.12
277.726	246.12
277.957	252.12
278.189	243.12
278.421	244.12
278.652	229.12
278.884	228.12
279.115	234.12
279.347	252.12
279.579	237.12
279.81	211.12
280.042	218.12
280.273	229.12
280.505	221.12
280.736	239.12
280.968	221.12
281.199	250.12
281.431	231.12
281.662	225.12
281.894	246.12
282.125	242.12
282.356	232.12
282.588	243.12
282.819	247.12
283.051	242.12
283.282	233.12
283.513	218.12
283.745	224.12
283.976	233.12
284.207	242.12
284.439	246.12
284.67	257.12
284.901	245.12
285.132	225.12
285.364	217.12
285.595	221.12
285.826	247.12
286.057	229.12
286.288	220.12
286.52	230.12
286.751	235.12
286.982	255.12
287.213	223.12
287.444	250.12
287.675	244.12
287.906	250.12
288.138	254.12
288.369	249.12
288.6	256.12
288.831	268.12
289.062	245.12
289.293	249.12
289.524	256.12
289.755	237.12
289.986	244.12
290.217	240.12
290.448	250.12
290.679	236.12
290.91	237.12
291.141	240.12
291.371	244.12
291.602	246.12
291.833	245.12
292.064	227.12
292.295	241.12
292.526	242.12
292.757	247.12
292.987	226.12
293.218	227.12
293.449	250.12
293.68	256.12
293.91	254.12
294.141	256.12
294.372	248.12
294.603	238.12
294.833	234.12
295.064	261.12
295.295	256.12
295.525	264.12
295.756	239.12
295.987	261.12
296.217	268.12
296.448	287.12
296.679	248.12
296.909	251.12
297.14	254.12
297.37	259.12
297.601	244.12
297.831	256.12
298.062	259.12
298.292	254.12
298.523	261.12
298.753	271.12
298.984	262.12
299.214	265.12
299.445	258.12
299.675	268.12
299.905	257.12
300.136	266.12
300.366	252.12
300.597	265.12
300.827	276.12
301.057	270.12
301.288	294.12
301.518	258.12
301.748	271.12
301.979	258.12
302.209	284.12
302.439	268.12
302.669	265.12
302.9	275.12
303.13	288.12
303.36	273.12
303.59	270.12
303.82	268.12
304.051	294.12
304.281	268.12
304.511	255.12
304.741	274.12
304.971	274.12
305.201	282.12
305.431	254.12
305.661	277.12
305.891	280.12
306.121	277.12
306.352	292.12
306.582	271.12
306.812	282.12
307.042	294.12
307.272	269.12
307.502	295.12
307.731	288.12
307.961	280.12
308.191	269.12
308.421	277.12
308.651	274.12
308.881	271.12
309.111	288.12
309.341	271.12
309.571	304.12
309.8	302.12
310.03	297.12
310.26	337.12
310.49	299.12
310.72	325.12
310.949	336.12
311.179	331.12
311.409	317.12
311.639	317.12
311.868	316.12
312.098	323.12
312.328	328.12
312.557	339.12
312.787	338.12
313.017	320.12
313.246	315.12
313.476	305.12
313.706	328.12
313.935	310.12
314.165	326.12
314.394	329.12
314.624	352.12
314.853	338.12
315.083	305.12
315.312	323.12
315.542	308.12
315.771	312.12
316.001	312.12
316.23	291.12
316.46	314.12
316.689	328.12
316.919	347.12
317.148	331.12
317.377	313.12
317.607	314.12
317.836	311.12
318.065	330.12
318.295	326.12
318.524	329.12
318.753	297.12
318.983	335.12
319.212	311.12
319.441	311.12
319.67	331.12
319.9	321.12
320.129	338.12
320.358	316.12
320.587	314.12
320.816	317.12
321.046	346.12
321.275	347.12
321.504	339.12
321.733	327.12
321.962	341.12
322.191	341.12
322.42	369.12
322.649	364.12
322.878	365.12
323.108	376.12
323.337	406.12
323.566	414.12
323.795	461.12
324.024	477.12
324.253	584.12
324.482	816.12
324.71	1228.12
324.939	1830.12
325.168	1590.12
325.397	821.12
325.626	556.12
325.855	457.12
326.084	436.12
326.313	408.12
326.542	432.12
326.77	467.12
326.999	554.12
327.228	715.12
327.457	1076.12
327.686	1362.12
327.914	923.12
328.143	591.12
328.372	520.12
328.6	487.12
328.829	480.12
329.058	472.12
329.287	464.12
329.515	429.12
329.744	398.12
329.972	404.12
330.201	444.12
330.43	485.12
330.658	476.12
330.887	493.12
331.115	502.12
331.344	423.12
331.572	394.12
331.801	412.12
332.03	410.12
332.258	381.12
332.486	369.12
332.715	358.12
332.943	374.12
333.172	364.12
333.4	378.12
333.629	368.12
333.857	371.12
334.085	380.12
334.314	412.12
334.542	426.12
334.771	439.12
334.999	395.12
335.227	387.12
335.455	363.12
335.684	372.12
335.912	376.12
336.14	368.12
336.369	365.12
336.597	378.12
336.825	384.12
337.053	368.12
337.281	357.12
337.51	322.12
337.738	338.12
337.966	368.12
338.194	362.12
338.422	372.12
338.65	347.12
338.878	360.12
339.106	370.12
339.334	343.12
339.562	343.12
339.79	342.12
340.018	342.12
340.246	358.12
340.474	341.12
340.702	362.12
340.93	348.12
341.158	369.12
341.386	368.12
341.614	349.12
341.842	357.12
342.07	350.12
342.298	353.12
342.526	359.12
342.754	335.12
342.981	331.12
343.209	345.12
343.437	330.12
343.665	326.12
343.893	356.12
344.12	366.12
344.348	368.12
344.576	378.12
344.804	367.12
345.031	371.12
345.259	377.12
345.487	362.12
345.714	355.12
345.942	342.12
346.17	339.12
346.397	345.12
346.625	368.12
346.853	336.12
347.08	348.12
347.308	368.12
347.535	347.12
347.763	357.12
347.99	338.12
348.218	347.12
348.445	345.12
348.673	349.12
348.9	333.12
349.128	336.12
349.355	340.12
349.583	353.12
349.81	305.12
350.037	331.12
350.265	338.12
350.492	328.12
350.72	348.12
350.947	332.12
351.174	344.12
351.402	348.12
351.629	347.12
351.856	352.12
352.083	357.12
352.311	358.12
352.538	357.12
352.765	346.12
352.992	352.12
353.22	343.12
353.447	326.12
353.674	322.12
353.901	321.12
354.128	310.12
354.355	329.12
354.583	330.12
354.81	328.12
355.037	341.12
355.264	330.12
355.491	315.12
355.718	305.12
355.945	307.12
356.172	309.12
356.399	308.12
356.626	316.12
356.853	324.12
357.08	340.12
357.307	317.12
357.534	332.12
357.761	324.12
357.988	329.12
358.215	337.12
358.441	325.12
358.668	340.12
358.895	336.12
359.122	333.12
359.349	344.12
359.576	358.12
359.802	363.12
360.029	385.12
360.256	384.12
360.483	362.12
360.709	333.12
360.936	332.12
361.163	336.12
361.39	322.12
361.616	342.12
361.843	351.12
362.07	359.12
362.296	356.12
362.523	346.12
362.749	343.12
362.976	334.12
363.203	329.12
363.429	313.12
363.656	314.12
363.882	336.12
364.109	335.12
364.335	331.12
364.562	316.12
364.788	312.12
365.015	331.12
365.241	331.12
365.468	330.12
365.694	333.12
365.92	320.12
366.147	304.12
366.373	339.12
366.599	331.12
366.826	310.12
367.052	316.12
367.278	308.12
367.505	328.12
367.731	328.12
367.957	323.12
368.184	315.12
368.41	347.12
368.636	316.12
368.862	330.12
369.089	330.12
369.315	336.12
369.541	337.12
369.767	332.12
369.993	319.12
370.219	333.12
370.445	335.12
370.672	315.12
370.898	343.12
371.124	338.12
371.35	340.12
371.576	306.12
371.802	315.12
372.028	315.12
372.254	317.12
372.48	322.12
372.706	328.12
372.932	329.12
373.158	319.12
373.384	319.12
373.61	332.12
373.835	318.12
374.061	326.12
374.287	332.12
374.513	318.12
374.739	322.12
374.965	337.12
375.191	328.12
375.416	320.12
375.642	335.12
375.868	318.12
376.094	322.12
376.319	324.12
376.545	330.12
376.771	309.12
376.997	332.12
377.222	316.12
377.448	315.12
377.674	332.12
377.899	320.12
378.125	328.12
378.35	327.12
378.576	315.12
378.802	308.12
379.027	327.12
379.253	322.12
379.478	310.12
379.704	323.12
379.929	316.12
380.155	331.12
380.38	341.12
380.606	327.12
380.831	308.12
381.057	319.12
381.282	338.12
381.507	317.12
381.733	317.12
381.958	328.12
382.184	344.12
382.409	311.12
382.634	320.12
382.86	328.12
383.085	317.12
383.31	332.12
383.535	353.12
383.761	332.12
383.986	330.12
384.211	329.12
384.436	343.12
384.662	354.12
384.887	355.12
385.112	334.12
385.337	364.12
385.562	355.12
385.787	339.12
386.013	379.12
386.238	376.12
386.463	363.12
386.688	361.12
386.913	343.12
387.138	340.12
387.363	350.12
387.588	341.12
387.813	338.12
388.038	341.12
388.263	334.12
388.488	358.12
388.713	337.12
388.938	342.12
389.163	341.12
389.387	347.12
389.612	337.12
389.837	334.12
390.062	353.12
390.287	358.12
390.512	338.12
390.736	340.12
390.961	342.12
391.186	344.12
391.411	361.12
391.636	362.12
391.86	354.12
392.085	356.12
392.31	365.12
392.534	376.12
392.759	374.12
392.984	375.12
393.208	373.12
393.433	388.12
393.658	386.12
393.882	362.12
394.107	340.12
394.331	346.12
394.556	364.12
394.78	357.12
395.005	357.12
395.229	344.12
395.454	349.12
395.678	364.12
395.903	353.12
396.127	376.12
396.352	387.12
396.576	371.12
396.801	369.12
397.025	375.12
397.249	386.12
397.474	370.12
397.698	374.12
397.922	381.12
398.147	388.12
398.371	390.12
398.595	394.12
398.82	379.12
399.044	396.12
399.268	413.12
399.492	418.12
399.717	406.12
399.941	434.12
400.165	485.12
400.389	518.12
400.613	457.12
400.837	397.12
401.062	393.12
401.286	384.12
401.51	393.12
401.734	385.12
401.958	404.12
402.182	392.12
402.406	417.12
402.63	403.12
402.854	407.12
403.078	416.12
403.302	407.12
403.526	390.12
403.75	416.12
403.974	414.12
404.198	387.12
404.422	392.12
404.645	391.12
404.869	409.12
405.093	445.12
405.317	472.12
405.541	502.12
405.765	456.12
405.988	434.12
406.212	454.12
406.436	427.12
406.66	465.12
406.883	432.12
407.107	450.12
407.331	504.12
407.555	532.12
407.778	542.12
408.002	474.12
408.226	453.12
408.449	450.12
408.673	466.12
408.896	483.12
409.12	519.12
409.344	497.12
409.567	448.12
409.791	434.12
410.014	408.12
410.238	406.12
410.461	400.12
410.685	413.12
410.908	438.12
411.132	458.12
411.355	497.12
411.578	462.12
411.802	413.12
412.025	408.12
412.249	401.12
412.472	437.12
412.695	456.12
412.919	465.12
413.142	417.12
413.365	391.12
413.589	371.12
413.812	399.12
414.035	375.12
414.258	386.12
414.482	393.12
414.705	390.12
414.928	380.12
415.151	380.12
415.374	399.12
415.597	398.12
415.821	378.12
416.044	385.12
416.267	389.12
416.49	392.12
416.713	387.12
416.936	368.12
417.159	386.12
417.382	377.12
417.605	374.12
417.828	395.12
418.051	403.12
418.274	407.12
418.497	377.12
418.72	379.12
418.943	389.12
419.166	393.12
419.389	415.12
419.611	426.12
419.834	399.12
420.057	428.12
420.28	408.12
420.503	408.12
420.726	406.12
420.948	418.12
421.171	432.12
421.394	477.12
421.617	428.12
421.839	418.12
422.062	412.12
422.285	413.12
422.507	458.12
422.73	519.12
422.953	540.12
423.175	442.12
423.398	415.12
423.621	421.12
423.843	435.12
424.066	442.12
424.288	427.12
424.511	444.12
424.733	476.12
424.956	565.12
425.178	557.12
425.401	557.12
425.623	574.12
425.846	497.12
426.068	459.12
426.291	438.12
426.513	454.12
426.735	449.12
426.958	483.12
427.18	557.12
427.402	634.12
427.625	726.12
427.847	643.12
428.069	570.12
428.292	460.12
428.514	436.12
428.736	427.12
428.958	392.12
429.181	406.12
429.403	406.12
429.625	425.12
429.847	429.12
430.069	521.12
430.292	505.12
430.514	419.12
430.736	410.12
430.958	398.12
431.18	391.12
431.402	399.12
431.624	384.12
431.846	377.12
432.068	359.12
432.29	378.12
432.512	362.12
432.734	380.12
432.956	378.12
433.178	378.12
433.4	411.12
433.622	387.12
433.844	377.12
434.066	406.12
434.287	364.12
434.509	382.12
434.731	406.12
434.953	383.12
435.175	419.12
435.397	425.12
435.618	452.12
435.84	496.12
436.062	580.12
436.284	635.12
436.505	514.12
436.727	439.12
436.949	424.12
437.17	418.12
437.392	406.12
437.614	417.12
437.835	453.12
438.057	532.12
438.278	576.12
438.5	625.12
438.721	690.12
438.943	658.12
439.165	525.12
439.386	450.12
439.608	479.12
439.829	452.12
440.05	491.12
440.272	513.12
440.493	475.12
440.715	436.12
440.936	429.12
441.158	416.12
441.379	404.12
441.6	425.12
441.822	429.12
442.043	476.12
442.264	544.12
442.486	600.12
442.707	482.12
442.928	450.12
443.149	466.12
443.371	477.12
443.592	513.12
443.813	568.12
444.034	636.12
444.255	539.12
444.476	457.12
444.698	434.12
444.919	443.12
445.14	537.12
445.361	505.12
445.582	476.12
445.803	552.12
446.024	630.12
446.245	642.12
446.466	583.12
446.687	489.12
446.908	440.12
447.129	399.12
447.35	426.12
447.571	423.12
447.792	403.12
448.013	427.12
448.234	452.12
448.455	485.12
448.675	577.12
448.896	666.12
449.117	557.12
449.338	533.12
449.559	629.12
449.779	705.12
450	565.12
450.221	461.12
450.442	433.12
450.662	422.12
450.883	393.12
451.104	406.12
451.324	401.12
451.545	383.12
451.766	391.12
451.986	376.12
452.207	366.12
452.428	364.12
452.648	363.12
452.869	355.12
453.089	385.12
453.31	390.12
453.53	378.12
453.751	382.12
453.971	372.12
454.192	387.12
454.412	375.12
454.633	390.12
454.853	372.12
455.073	374.12
455.294	380.12
455.514	455.12
455.734	434.12
455.955	375.12
456.175	372.12
456.395	347.12
456.616	346.12
456.836	362.12
457.056	360.12
457.276	352.12
457.497	346.12
457.717	333.12
457.937	359.12
458.157	367.12
458.377	373.12
458.598	381.12
458.818	416.12
459.038	496.12
459.258	497.12
459.478	409.12
459.698	403.12
459.918	370.12
460.138	375.12
460.358	387.12
460.578	389.12
460.798	414.12
461.018	408.12
461.238	378.12
461.458	392.12
461.678	377.12
461.898	377.12
462.118	397.12
462.338	382.12
462.558	386.12
462.777	390.12
462.997	397.12
463.217	406.12
463.437	405.12
463.657	401.12
463.876	411.12
464.096	404.12
464.316	403.12
464.536	404.12
464.755	401.12
464.975	422.12
465.195	452.12
465.414	506.12
465.634	449.12
465.854	425.12
466.073	386.12
466.293	383.12
466.512	384.12
466.732	374.12
466.951	369.12
467.171	369.12
467.391	374.12
467.61	364.12
467.829	395.12
468.049	373.12
468.268	376.12
468.488	381.12
468.707	356.12
468.927	365.12
469.146	363.12
469.365	373.12
469.585	368.12
469.804	362.12
470.023	394.12
470.243	387.12
470.462	381.12
470.681	398.12
470.901	385.12
471.12	374.12
471.339	372.12
471.558	377.12
471.777	385.12
471.997	376.12
472.216	383.12
472.435	409.12
472.654	412.12
472.873	386.12
473.092	387.12
473.311	376.12
473.53	364.12
473.749	396.12
473.968	424.12
474.187	528.12
474.406	534.12
474.625	439.12
474.844	378.12
475.063	385.12
475.282	395.12
475.501	377.12
475.72	388.12
475.939	395.12
476.158	385.12
476.377	401.12
476.596	383.12
476.814	401.12
477.033	401.12
477.252	401.12
477.471	410.12
477.69	417.12
477.908	414.12
478.127	398.12
478.346	396.12
478.564	424.12
478.783	428.12
479.002	436.12
479.22	435.12
479.439	428.12
479.658	473.12
479.876	445.12
480.095	465.12
480.313	465.12
480.532	463.12
480.751	463.12
480.969	479.12
481.188	518.12
481.406	543.12
481.624	487.12
481.843	457.12
482.061	435.12
482.28	472.12
482.498	452.12
482.717	454.12
482.935	434.12
483.153	460.12
483.372	451.12
483.59	462.12
483.808	427.12
484.027	430.12
484.245	447.12
484.463	444.12
484.681	462.12
484.9	469.12
485.118	462.12
485.336	452.12
485.554	452.12
485.772	451.12
485.99	448.12
486.209	461.12
486.427	451.12
486.645	458.12
486.863	457.12
487.081	490.12
487.299	467.12
487.517	474.12
487.735	498.12
487.953	487.12
488.171	481.12
488.389	481.12
488.607	492.12
488.825	490.12
489.043	467.12
489.261	491.12
489.479	496.12
489.696	486.12
489.914	488.12
490.132	488.12
490.35	488.12
490.568	507.12
490.786	512.12
491.003	525.12
491.221	526.12
491.439	529.12
491.657	522.12
491.874	528.12
492.092	532.12
492.31	530.12
492.527	543.12
492.745	563.12
492.963	556.12
493.18	553.12
493.398	544.12
493.615	549.12
493.833	547.12
494.05	573.12
494.268	566.12
494.485	538.12
494.703	564.12
494.92	557.12
495.138	532.12
495.355	580.12
495.573	566.12
495.79	552.12
496.008	576.12
496.225	571.12
496.442	570.12
496.66	557.12
496.877	559.12
497.094	584.12
497.312	586.12
497.529	560.12
497.746	600.12
497.963	598.12
498.181	620.12
498.398	613.12
498.615	621.12
498.832	631.12
499.049	633.12
499.267	629.12
499.484	660.12
499.701	665.12
499.918	696.12
500.135	731.12
500.352	724.12
500.569	740.12
500.786	749.12
501.003	741.12
501.22	730.12
501.437	696.12
501.654	709.12
501.871	672.12
502.088	688.12
