Data from 1972.PennyLincolnUp.Lamp.En5.5.200Scan.071719.P1._HRD10591_15-27-11-843.txt Node
Date: Thu Jul 18 15:27:11 EDT 2019
User: cochatt
Spectrometer: HR+D1059
Trigger mode: 1
Integration Time (sec): 1.000000E-1
Scans to average: 1
Electric dark correction enabled: true
Nonlinearity correction enabled: false
Boxcar width: 0
XAxis mode: Wavelengths
Number of Pixels in Spectrum: 2048
>>>>>Begin Spectral Data<<<<<
223.165	-10.75
223.4	-10.75
223.635	-10.75
223.869	-13.75
224.104	-21.75
224.338	-16.75
224.573	-4.75
224.808	-13.75
225.042	-10.75
225.277	2.25
225.511	-10.75
225.746	7.25
225.98	5.25
226.215	1.25
226.449	10.25
226.683	25.25
226.918	20.25
227.152	31.25
227.387	41.25
227.621	39.25
227.856	39.25
228.09	38.25
228.324	72.25
228.559	65.25
228.793	70.25
229.027	101.25
229.262	100.25
229.496	94.25
229.73	114.25
229.964	164.25
230.199	116.25
230.433	95.25
230.667	102.25
230.901	105.25
231.136	113.25
231.37	92.25
231.604	119.25
231.838	104.25
232.072	102.25
232.306	114.25
232.541	109.25
232.775	109.25
233.009	90.25
233.243	103.25
233.477	107.25
233.711	114.25
233.945	102.25
234.179	125.25
234.413	122.25
234.647	108.25
234.881	106.25
235.115	113.25
235.349	122.25
235.583	105.25
235.817	117.25
236.051	97.25
236.285	116.25
236.519	132.25
236.753	129.25
236.987	122.25
237.221	182.25
237.455	214.25
237.689	161.25
237.922	128.25
238.156	139.25
238.39	121.25
238.624	122.25
238.858	135.25
239.091	117.25
239.325	123.25
239.559	127.25
239.793	118.25
240.027	110.25
240.26	119.25
240.494	163.25
240.728	151.25
240.961	132.25
241.195	132.25
241.429	127.25
241.662	126.25
241.896	120.25
242.13	116.25
242.363	125.25
242.597	134.25
242.83	121.25
243.064	123.25
243.298	113.25
243.531	136.25
243.765	119.25
243.998	132.25
244.232	138.25
244.465	141.25
244.699	138.25
244.932	145.25
245.166	142.25
245.399	139.25
245.633	138.25
245.866	129.25
246.099	148.25
246.333	145.25
246.566	137.25
246.8	131.25
247.033	132.25
247.266	135.25
247.5	141.25
247.733	151.25
247.966	152.25
248.2	162.25
248.433	164.25
248.666	184.25
248.899	162.25
249.133	171.25
249.366	188.25
249.599	187.25
249.832	170.25
250.066	154.25
250.299	147.25
250.532	161.25
250.765	175.25
250.998	195.25
251.231	216.25
251.465	190.25
251.698	185.25
251.931	180.25
252.164	179.25
252.397	181.25
252.63	185.25
252.863	181.25
253.096	196.25
253.329	205.25
253.562	189.25
253.795	197.25
254.028	203.25
254.261	199.25
254.494	219.25
254.727	240.25
254.96	231.25
255.193	250.25
255.426	240.25
255.659	225.25
255.892	220.25
256.124	211.25
256.357	216.25
256.59	208.25
256.823	195.25
257.056	196.25
257.289	185.25
257.521	187.25
257.754	190.25
257.987	188.25
258.22	197.25
258.452	194.25
258.685	185.25
258.918	185.25
259.151	190.25
259.383	209.25
259.616	212.25
259.849	198.25
260.081	200.25
260.314	219.25
260.547	229.25
260.779	231.25
261.012	218.25
261.244	211.25
261.477	206.25
261.71	214.25
261.942	212.25
262.175	214.25
262.407	200.25
262.64	203.25
262.872	204.25
263.105	192.25
263.337	187.25
263.57	191.25
263.802	182.25
264.035	171.25
264.267	191.25
264.499	186.25
264.732	191.25
264.964	181.25
265.197	186.25
265.429	186.25
265.661	192.25
265.894	188.25
266.126	194.25
266.358	196.25
266.591	197.25
266.823	199.25
267.055	214.25
267.287	215.25
267.52	216.25
267.752	182.25
267.984	177.25
268.216	201.25
268.448	215.25
268.681	221.25
268.913	208.25
269.145	206.25
269.377	250.25
269.609	241.25
269.841	242.25
270.073	247.25
270.306	267.25
270.538	261.25
270.77	280.25
271.002	277.25
271.234	262.25
271.466	264.25
271.698	252.25
271.93	286.25
272.162	273.25
272.394	286.25
272.626	281.25
272.858	244.25
273.09	256.25
273.322	267.25
273.553	230.25
273.785	241.25
274.017	243.25
274.249	226.25
274.481	238.25
274.713	226.25
274.945	235.25
275.176	241.25
275.408	232.25
275.64	240.25
275.872	226.25
276.104	243.25
276.335	233.25
276.567	235.25
276.799	249.25
277.031	268.25
277.262	283.25
277.494	280.25
277.726	259.25
277.957	250.25
278.189	252.25
278.421	248.25
278.652	228.25
278.884	236.25
279.115	242.25
279.347	237.25
279.579	237.25
279.81	226.25
280.042	234.25
280.273	239.25
280.505	228.25
280.736	226.25
280.968	236.25
281.199	230.25
281.431	231.25
281.662	223.25
281.894	226.25
282.125	225.25
282.356	255.25
282.588	262.25
282.819	263.25
283.051	240.25
283.282	241.25
283.513	226.25
283.745	244.25
283.976	234.25
284.207	234.25
284.439	243.25
284.67	256.25
284.901	234.25
285.132	237.25
285.364	237.25
285.595	256.25
285.826	248.25
286.057	251.25
286.288	236.25
286.52	237.25
286.751	249.25
286.982	246.25
287.213	227.25
287.444	263.25
287.675	257.25
287.906	233.25
288.138	270.25
288.369	246.25
288.6	231.25
288.831	256.25
289.062	245.25
289.293	250.25
289.524	248.25
289.755	244.25
289.986	253.25
290.217	240.25
290.448	228.25
290.679	246.25
290.91	245.25
291.141	256.25
291.371	260.25
291.602	257.25
291.833	234.25
292.064	240.25
292.295	256.25
292.526	267.25
292.757	262.25
292.987	245.25
293.218	253.25
293.449	258.25
293.68	250.25
293.91	242.25
294.141	251.25
294.372	240.25
294.603	249.25
294.833	229.25
295.064	246.25
295.295	252.25
295.525	263.25
295.756	269.25
295.987	260.25
296.217	291.25
296.448	272.25
296.679	264.25
296.909	253.25
297.14	250.25
297.37	252.25
297.601	233.25
297.831	257.25
298.062	247.25
298.292	249.25
298.523	269.25
298.753	250.25
298.984	259.25
299.214	280.25
299.445	262.25
299.675	264.25
299.905	253.25
300.136	260.25
300.366	269.25
300.597	258.25
300.827	274.25
301.057	296.25
301.288	288.25
301.518	308.25
301.748	260.25
301.979	258.25
302.209	269.25
302.439	266.25
302.669	265.25
302.9	265.25
303.13	262.25
303.36	259.25
303.59	275.25
303.82	293.25
304.051	288.25
304.281	287.25
304.511	265.25
304.741	279.25
304.971	269.25
305.201	275.25
305.431	262.25
305.661	284.25
305.891	267.25
306.121	293.25
306.352	289.25
306.582	286.25
306.812	289.25
307.042	291.25
307.272	284.25
307.502	285.25
307.731	294.25
307.961	288.25
308.191	272.25
308.421	288.25
308.651	294.25
308.881	309.25
309.111	293.25
309.341	278.25
309.571	316.25
309.8	307.25
310.03	304.25
310.26	341.25
310.49	324.25
310.72	327.25
310.949	330.25
311.179	344.25
311.409	324.25
311.639	335.25
311.868	323.25
312.098	324.25
312.328	326.25
312.557	334.25
312.787	354.25
313.017	363.25
313.246	326.25
313.476	334.25
313.706	330.25
313.935	326.25
314.165	352.25
314.394	350.25
314.624	353.25
314.853	322.25
315.083	325.25
315.312	334.25
315.542	318.25
315.771	306.25
316.001	315.25
316.23	323.25
316.46	333.25
316.689	316.25
316.919	325.25
317.148	342.25
317.377	333.25
317.607	331.25
317.836	317.25
318.065	326.25
318.295	315.25
318.524	324.25
318.753	325.25
318.983	324.25
319.212	307.25
319.441	350.25
319.67	343.25
319.9	348.25
320.129	331.25
320.358	332.25
320.587	339.25
320.816	345.25
321.046	345.25
321.275	329.25
321.504	360.25
321.733	350.25
321.962	332.25
322.191	381.25
322.42	383.25
322.649	384.25
322.878	393.25
323.108	397.25
323.337	437.25
323.566	444.25
323.795	468.25
324.024	501.25
324.253	604.25
324.482	867.25
324.71	1372.25
324.939	1978.25
325.168	1740.25
325.397	887.25
325.626	608.25
325.855	480.25
326.084	455.25
326.313	441.25
326.542	442.25
326.77	502.25
326.999	563.25
327.228	792.25
327.457	1204.25
327.686	1508.25
327.914	1010.25
328.143	626.25
328.372	563.25
328.6	516.25
328.829	486.25
329.058	493.25
329.287	525.25
329.515	470.25
329.744	429.25
329.972	444.25
330.201	460.25
330.43	484.25
330.658	525.25
330.887	516.25
331.115	524.25
331.344	439.25
331.572	442.25
331.801	413.25
332.03	405.25
332.258	395.25
332.486	383.25
332.715	362.25
332.943	372.25
333.172	396.25
333.4	383.25
333.629	381.25
333.857	389.25
334.085	411.25
334.314	418.25
334.542	432.25
334.771	455.25
334.999	416.25
335.227	397.25
335.455	380.25
335.684	391.25
335.912	376.25
336.14	387.25
336.369	352.25
336.597	358.25
336.825	381.25
337.053	363.25
337.281	365.25
337.51	353.25
337.738	364.25
337.966	355.25
338.194	364.25
338.422	364.25
338.65	374.25
338.878	344.25
339.106	343.25
339.334	357.25
339.562	345.25
339.79	352.25
340.018	362.25
340.246	351.25
340.474	344.25
340.702	368.25
340.93	348.25
341.158	346.25
341.386	368.25
341.614	377.25
341.842	362.25
342.07	359.25
342.298	350.25
342.526	358.25
342.754	343.25
342.981	356.25
343.209	328.25
343.437	337.25
343.665	359.25
343.893	370.25
344.12	342.25
344.348	376.25
344.576	359.25
344.804	358.25
345.031	370.25
345.259	368.25
345.487	357.25
345.714	374.25
345.942	355.25
346.17	344.25
346.397	334.25
346.625	359.25
346.853	340.25
347.08	358.25
347.308	357.25
347.535	356.25
347.763	349.25
347.99	349.25
348.218	358.25
348.445	370.25
348.673	356.25
348.9	363.25
349.128	380.25
349.355	345.25
349.583	324.25
349.81	336.25
350.037	335.25
350.265	340.25
350.492	339.25
350.72	328.25
350.947	343.25
351.174	343.25
351.402	374.25
351.629	368.25
351.856	338.25
352.083	354.25
352.311	375.25
352.538	371.25
352.765	365.25
352.992	367.25
353.22	352.25
353.447	344.25
353.674	350.25
353.901	341.25
354.128	335.25
354.355	337.25
354.583	343.25
354.81	340.25
355.037	341.25
355.264	330.25
355.491	314.25
355.718	329.25
355.945	344.25
356.172	321.25
356.399	323.25
356.626	343.25
356.853	320.25
357.08	334.25
357.307	333.25
357.534	315.25
357.761	314.25
357.988	342.25
358.215	330.25
358.441	330.25
358.668	313.25
358.895	299.25
359.122	330.25
359.349	338.25
359.576	340.25
359.802	359.25
360.029	383.25
360.256	400.25
360.483	379.25
360.709	370.25
360.936	339.25
361.163	345.25
361.39	365.25
361.616	348.25
361.843	357.25
362.07	350.25
362.296	336.25
362.523	345.25
362.749	359.25
362.976	343.25
363.203	338.25
363.429	326.25
363.656	343.25
363.882	329.25
364.109	332.25
364.335	326.25
364.562	344.25
364.788	331.25
365.015	322.25
365.241	331.25
365.468	326.25
365.694	335.25
365.92	343.25
366.147	347.25
366.373	320.25
366.599	325.25
366.826	327.25
367.052	318.25
367.278	334.25
367.505	323.25
367.731	350.25
367.957	312.25
368.184	342.25
368.41	333.25
368.636	357.25
368.862	370.25
369.089	353.25
369.315	318.25
369.541	329.25
369.767	337.25
369.993	338.25
370.219	309.25
370.445	333.25
370.672	341.25
370.898	310.25
371.124	324.25
371.35	331.25
371.576	338.25
371.802	324.25
372.028	329.25
372.254	333.25
372.48	312.25
372.706	321.25
372.932	317.25
373.158	320.25
373.384	324.25
373.61	347.25
373.835	317.25
374.061	324.25
374.287	328.25
374.513	332.25
374.739	321.25
374.965	344.25
375.191	333.25
375.416	323.25
375.642	330.25
375.868	320.25
376.094	326.25
376.319	326.25
376.545	331.25
376.771	316.25
376.997	327.25
377.222	319.25
377.448	308.25
377.674	311.25
377.899	314.25
378.125	305.25
378.35	329.25
378.576	319.25
378.802	319.25
379.027	332.25
379.253	315.25
379.478	327.25
379.704	328.25
379.929	336.25
380.155	331.25
380.38	332.25
380.606	337.25
380.831	346.25
381.057	353.25
381.282	337.25
381.507	353.25
381.733	321.25
381.958	313.25
382.184	350.25
382.409	346.25
382.634	324.25
382.86	323.25
383.085	344.25
383.31	332.25
383.535	331.25
383.761	337.25
383.986	316.25
384.211	335.25
384.436	327.25
384.662	343.25
384.887	350.25
385.112	348.25
385.337	345.25
385.562	333.25
385.787	345.25
386.013	358.25
386.238	363.25
386.463	358.25
386.688	323.25
386.913	341.25
387.138	338.25
387.363	339.25
387.588	359.25
387.813	352.25
388.038	342.25
388.263	331.25
388.488	334.25
388.713	333.25
388.938	348.25
389.163	357.25
389.387	342.25
389.612	334.25
389.837	338.25
390.062	342.25
390.287	349.25
390.512	341.25
390.736	361.25
390.961	340.25
391.186	360.25
391.411	367.25
391.636	345.25
391.86	358.25
392.085	356.25
392.31	354.25
392.534	362.25
392.759	357.25
392.984	372.25
393.208	363.25
393.433	361.25
393.658	376.25
393.882	354.25
394.107	351.25
394.331	353.25
394.556	346.25
394.78	352.25
395.005	344.25
395.229	341.25
395.454	353.25
395.678	365.25
395.903	355.25
396.127	374.25
396.352	383.25
396.576	358.25
396.801	348.25
397.025	378.25
397.249	363.25
397.474	363.25
397.698	375.25
397.922	379.25
398.147	380.25
398.371	404.25
398.595	400.25
398.82	377.25
399.044	404.25
399.268	390.25
399.492	418.25
399.717	425.25
399.941	437.25
400.165	479.25
400.389	450.25
400.613	433.25
400.837	416.25
401.062	400.25
401.286	386.25
401.51	380.25
401.734	374.25
401.958	388.25
402.182	405.25
402.406	392.25
402.63	388.25
402.854	377.25
403.078	374.25
403.302	402.25
403.526	399.25
403.75	412.25
403.974	393.25
404.198	403.25
404.422	418.25
404.645	403.25
404.869	441.25
405.093	427.25
405.317	462.25
405.541	504.25
405.765	444.25
405.988	426.25
406.212	427.25
406.436	459.25
406.66	456.25
406.883	443.25
407.107	459.25
407.331	468.25
407.555	522.25
407.778	560.25
408.002	508.25
408.226	468.25
408.449	458.25
408.673	456.25
408.896	471.25
409.12	526.25
409.344	458.25
409.567	424.25
409.791	436.25
410.014	406.25
410.238	412.25
410.461	402.25
410.685	410.25
410.908	425.25
411.132	453.25
411.355	478.25
411.578	477.25
411.802	424.25
412.025	413.25
412.249	422.25
412.472	437.25
412.695	474.25
412.919	456.25
413.142	410.25
413.365	394.25
413.589	405.25
413.812	402.25
414.035	389.25
414.258	386.25
414.482	396.25
414.705	377.25
414.928	372.25
415.151	396.25
415.374	359.25
415.597	396.25
415.821	396.25
416.044	384.25
416.267	376.25
416.49	359.25
416.713	382.25
416.936	394.25
417.159	396.25
417.382	363.25
417.605	391.25
417.828	388.25
418.051	416.25
418.274	414.25
418.497	383.25
418.72	390.25
418.943	368.25
419.166	399.25
419.389	435.25
419.611	421.25
419.834	420.25
420.057	404.25
420.28	417.25
420.503	397.25
420.726	403.25
420.948	410.25
421.171	459.25
421.394	481.25
421.617	421.25
421.839	436.25
422.062	416.25
422.285	438.25
422.507	489.25
422.73	538.25
422.953	513.25
423.175	456.25
423.398	438.25
423.621	424.25
423.843	447.25
424.066	436.25
424.288	430.25
424.511	448.25
424.733	492.25
424.956	580.25
425.178	549.25
425.401	552.25
425.623	566.25
425.846	474.25
426.068	457.25
426.291	460.25
426.513	435.25
426.735	446.25
426.958	490.25
427.18	525.25
427.402	670.25
427.625	755.25
427.847	642.25
428.069	552.25
428.292	505.25
428.514	440.25
428.736	440.25
428.958	418.25
429.181	410.25
429.403	414.25
429.625	402.25
429.847	448.25
430.069	526.25
430.292	510.25
430.514	441.25
430.736	426.25
430.958	408.25
431.18	399.25
431.402	397.25
431.624	383.25
431.846	388.25
432.068	405.25
432.29	396.25
432.512	387.25
432.734	407.25
432.956	384.25
433.178	394.25
433.4	405.25
433.622	402.25
433.844	398.25
434.066	377.25
434.287	384.25
434.509	376.25
434.731	392.25
434.953	415.25
435.175	413.25
435.397	433.25
435.618	420.25
435.84	489.25
436.062	577.25
436.284	621.25
436.505	508.25
436.727	457.25
436.949	434.25
437.17	415.25
437.392	427.25
437.614	422.25
437.835	469.25
438.057	547.25
438.278	647.25
438.5	628.25
438.721	701.25
438.943	668.25
439.165	518.25
439.386	482.25
439.608	471.25
439.829	460.25
440.05	491.25
440.272	527.25
440.493	509.25
440.715	461.25
440.936	420.25
441.158	416.25
441.379	396.25
441.6	436.25
441.822	449.25
442.043	483.25
442.264	570.25
442.486	586.25
442.707	494.25
442.928	461.25
443.149	484.25
443.371	483.25
443.592	523.25
443.813	605.25
444.034	664.25
444.255	526.25
444.476	463.25
444.698	437.25
444.919	455.25
445.14	536.25
445.361	518.25
445.582	501.25
445.803	540.25
446.024	638.25
446.245	672.25
446.466	575.25
446.687	506.25
446.908	444.25
447.129	433.25
447.35	436.25
447.571	448.25
447.792	428.25
448.013	430.25
448.234	437.25
448.455	497.25
448.675	577.25
448.896	662.25
449.117	599.25
449.338	546.25
449.559	639.25
449.779	734.25
450	591.25
450.221	466.25
450.442	427.25
450.662	405.25
450.883	430.25
451.104	422.25
451.324	413.25
451.545	404.25
451.766	402.25
451.986	387.25
452.207	376.25
452.428	361.25
452.648	366.25
452.869	397.25
453.089	386.25
453.31	379.25
453.53	374.25
453.751	392.25
453.971	360.25
454.192	392.25
454.412	388.25
454.633	385.25
454.853	384.25
455.073	373.25
455.294	380.25
455.514	480.25
455.734	456.25
455.955	372.25
456.175	354.25
456.395	349.25
456.616	342.25
456.836	352.25
457.056	354.25
457.276	354.25
457.497	356.25
457.717	334.25
457.937	355.25
458.157	361.25
458.377	360.25
458.598	362.25
458.818	419.25
459.038	521.25
459.258	501.25
459.478	436.25
459.698	368.25
459.918	388.25
460.138	395.25
460.358	393.25
460.578	382.25
460.798	387.25
461.018	391.25
461.238	378.25
461.458	391.25
461.678	369.25
461.898	395.25
462.118	388.25
462.338	393.25
462.558	402.25
462.777	380.25
462.997	397.25
463.217	406.25
463.437	398.25
463.657	388.25
463.876	395.25
464.096	425.25
464.316	394.25
464.536	423.25
464.755	423.25
464.975	403.25
465.195	457.25
465.414	500.25
465.634	477.25
465.854	420.25
466.073	381.25
466.293	376.25
466.512	390.25
466.732	395.25
466.951	365.25
467.171	374.25
467.391	388.25
467.61	387.25
467.829	410.25
468.049	405.25
468.268	386.25
468.488	363.25
468.707	365.25
468.927	373.25
469.146	366.25
469.365	382.25
469.585	376.25
469.804	377.25
470.023	365.25
470.243	400.25
470.462	407.25
470.681	405.25
470.901	417.25
471.12	409.25
471.339	381.25
471.558	375.25
471.777	378.25
471.997	369.25
472.216	397.25
472.435	414.25
472.654	434.25
472.873	400.25
473.092	391.25
473.311	387.25
473.53	392.25
473.749	373.25
473.968	424.25
474.187	499.25
474.406	552.25
474.625	438.25
474.844	406.25
475.063	409.25
475.282	382.25
475.501	389.25
475.72	391.25
475.939	408.25
476.158	405.25
476.377	397.25
476.596	372.25
476.814	402.25
477.033	414.25
477.252	406.25
477.471	420.25
477.69	402.25
477.908	413.25
478.127	427.25
478.346	408.25
478.564	429.25
478.783	416.25
479.002	418.25
479.22	444.25
479.439	455.25
479.658	431.25
479.876	450.25
480.095	448.25
480.313	473.25
480.532	457.25
480.751	471.25
480.969	488.25
481.188	546.25
481.406	581.25
481.624	498.25
481.843	472.25
482.061	468.25
482.28	465.25
482.498	469.25
482.717	438.25
482.935	449.25
483.153	438.25
483.372	441.25
483.59	439.25
483.808	449.25
484.027	454.25
484.245	451.25
484.463	449.25
484.681	469.25
484.9	466.25
485.118	452.25
485.336	456.25
485.554	470.25
485.772	454.25
485.99	450.25
486.209	460.25
486.427	488.25
486.645	487.25
486.863	473.25
487.081	494.25
487.299	487.25
487.517	477.25
487.735	492.25
487.953	495.25
488.171	481.25
488.389	465.25
488.607	497.25
488.825	476.25
489.043	493.25
489.261	478.25
489.479	499.25
489.696	478.25
489.914	475.25
490.132	498.25
490.35	507.25
490.568	499.25
490.786	523.25
491.003	516.25
491.221	519.25
491.439	539.25
491.657	521.25
491.874	538.25
492.092	540.25
492.31	558.25
492.527	553.25
492.745	542.25
492.963	557.25
493.18	556.25
493.398	551.25
493.615	582.25
493.833	553.25
494.05	541.25
494.268	572.25
494.485	581.25
494.703	548.25
494.92	534.25
495.138	556.25
495.355	560.25
495.573	587.25
495.79	587.25
496.008	566.25
496.225	564.25
496.442	532.25
496.66	600.25
496.877	570.25
497.094	591.25
497.312	586.25
497.529	580.25
497.746	588.25
497.963	605.25
498.181	613.25
498.398	621.25
498.615	611.25
498.832	610.25
499.049	621.25
499.267	645.25
499.484	671.25
499.701	666.25
499.918	685.25
500.135	708.25
500.352	726.25
500.569	731.25
500.786	713.25
501.003	716.25
501.22	727.25
501.437	704.25
501.654	694.25
501.871	704.25
502.088	684.25
