Data from 1972.PennyLincolnUp.Lamp.En5.5.200Scan.071719.P1._HRD10591_15-29-43-844.txt Node
Date: Thu Jul 18 15:29:43 EDT 2019
User: cochatt
Spectrometer: HR+D1059
Trigger mode: 1
Integration Time (sec): 1.000000E-1
Scans to average: 1
Electric dark correction enabled: true
Nonlinearity correction enabled: false
Boxcar width: 0
XAxis mode: Wavelengths
Number of Pixels in Spectrum: 2048
>>>>>Begin Spectral Data<<<<<
223.165	-1.5
223.4	-1.5
223.635	-1.5
223.869	-19.5
224.104	-16.5
224.338	-9.5
224.573	-11.5
224.808	-24.5
225.042	-0.5
225.277	-9.5
225.511	-6.5
225.746	-6.5
225.98	-6.5
226.215	24.5
226.449	7.5
226.683	33.5
226.918	25.5
227.152	21.5
227.387	33.5
227.621	29.5
227.856	49.5
228.09	44.5
228.324	46.5
228.559	60.5
228.793	79.5
229.027	119.5
229.262	116.5
229.496	118.5
229.73	135.5
229.964	170.5
230.199	144.5
230.433	129.5
230.667	129.5
230.901	114.5
231.136	109.5
231.37	105.5
231.604	115.5
231.838	123.5
232.072	108.5
232.306	123.5
232.541	108.5
232.775	123.5
233.009	113.5
233.243	114.5
233.477	113.5
233.711	115.5
233.945	118.5
234.179	118.5
234.413	119.5
234.647	117.5
234.881	122.5
235.115	136.5
235.349	117.5
235.583	129.5
235.817	129.5
236.051	132.5
236.285	125.5
236.519	122.5
236.753	131.5
236.987	142.5
237.221	197.5
237.455	277.5
237.689	206.5
237.922	158.5
238.156	160.5
238.39	149.5
238.624	124.5
238.858	135.5
239.091	133.5
239.325	131.5
239.559	131.5
239.793	125.5
240.027	127.5
240.26	141.5
240.494	170.5
240.728	159.5
240.961	155.5
241.195	159.5
241.429	136.5
241.662	138.5
241.896	129.5
242.13	142.5
242.363	139.5
242.597	121.5
242.83	131.5
243.064	147.5
243.298	138.5
243.531	138.5
243.765	127.5
243.998	144.5
244.232	139.5
244.465	146.5
244.699	147.5
244.932	150.5
245.166	140.5
245.399	148.5
245.633	146.5
245.866	149.5
246.099	150.5
246.333	170.5
246.566	161.5
246.8	158.5
247.033	155.5
247.266	172.5
247.5	149.5
247.733	161.5
247.966	194.5
248.2	174.5
248.433	161.5
248.666	189.5
248.899	209.5
249.133	198.5
249.366	248.5
249.599	215.5
249.832	195.5
250.066	193.5
250.299	209.5
250.532	213.5
250.765	229.5
250.998	237.5
251.231	242.5
251.465	228.5
251.698	228.5
251.931	212.5
252.164	204.5
252.397	200.5
252.63	219.5
252.863	233.5
253.096	233.5
253.329	250.5
253.562	239.5
253.795	237.5
254.028	236.5
254.261	251.5
254.494	237.5
254.727	277.5
254.96	321.5
255.193	306.5
255.426	275.5
255.659	255.5
255.892	274.5
256.124	263.5
256.357	239.5
256.59	249.5
256.823	239.5
257.056	234.5
257.289	216.5
257.521	232.5
257.754	229.5
257.987	215.5
258.22	216.5
258.452	227.5
258.685	226.5
258.918	235.5
259.151	217.5
259.383	233.5
259.616	228.5
259.849	223.5
260.081	254.5
260.314	253.5
260.547	289.5
260.779	275.5
261.012	257.5
261.244	244.5
261.477	221.5
261.71	247.5
261.942	243.5
262.175	271.5
262.407	252.5
262.64	234.5
262.872	236.5
263.105	232.5
263.337	237.5
263.57	220.5
263.802	214.5
264.035	217.5
264.267	235.5
264.499	242.5
264.732	230.5
264.964	222.5
265.197	218.5
265.429	225.5
265.661	230.5
265.894	246.5
266.126	227.5
266.358	220.5
266.591	231.5
266.823	223.5
267.055	244.5
267.287	241.5
267.52	236.5
267.752	250.5
267.984	236.5
268.216	227.5
268.448	243.5
268.681	245.5
268.913	245.5
269.145	289.5
269.377	302.5
269.609	306.5
269.841	281.5
270.073	294.5
270.306	324.5
270.538	334.5
270.77	352.5
271.002	321.5
271.234	338.5
271.466	316.5
271.698	326.5
271.93	342.5
272.162	339.5
272.394	330.5
272.626	351.5
272.858	310.5
273.09	321.5
273.322	301.5
273.553	273.5
273.785	284.5
274.017	263.5
274.249	287.5
274.481	297.5
274.713	294.5
274.945	293.5
275.176	294.5
275.408	275.5
275.64	286.5
275.872	265.5
276.104	270.5
276.335	278.5
276.567	306.5
276.799	314.5
277.031	331.5
277.262	340.5
277.494	334.5
277.726	328.5
277.957	300.5
278.189	301.5
278.421	298.5
278.652	295.5
278.884	267.5
279.115	280.5
279.347	264.5
279.579	271.5
279.81	276.5
280.042	264.5
280.273	275.5
280.505	283.5
280.736	276.5
280.968	275.5
281.199	282.5
281.431	289.5
281.662	282.5
281.894	277.5
282.125	286.5
282.356	302.5
282.588	360.5
282.819	334.5
283.051	298.5
283.282	298.5
283.513	277.5
283.745	301.5
283.976	284.5
284.207	288.5
284.439	290.5
284.67	286.5
284.901	281.5
285.132	289.5
285.364	279.5
285.595	290.5
285.826	281.5
286.057	295.5
286.288	297.5
286.52	278.5
286.751	281.5
286.982	280.5
287.213	281.5
287.444	305.5
287.675	284.5
287.906	305.5
288.138	333.5
288.369	324.5
288.6	322.5
288.831	301.5
289.062	300.5
289.293	300.5
289.524	294.5
289.755	297.5
289.986	297.5
290.217	292.5
290.448	294.5
290.679	310.5
290.91	297.5
291.141	285.5
291.371	313.5
291.602	290.5
291.833	271.5
292.064	280.5
292.295	289.5
292.526	294.5
292.757	291.5
292.987	279.5
293.218	302.5
293.449	286.5
293.68	278.5
293.91	295.5
294.141	311.5
294.372	284.5
294.603	301.5
294.833	293.5
295.064	286.5
295.295	303.5
295.525	308.5
295.756	296.5
295.987	304.5
296.217	341.5
296.448	347.5
296.679	309.5
296.909	277.5
297.14	299.5
297.37	293.5
297.601	302.5
297.831	298.5
298.062	296.5
298.292	302.5
298.523	316.5
298.753	316.5
298.984	300.5
299.214	291.5
299.445	309.5
299.675	314.5
299.905	311.5
300.136	330.5
300.366	315.5
300.597	308.5
300.827	318.5
301.057	334.5
301.288	335.5
301.518	347.5
301.748	333.5
301.979	327.5
302.209	330.5
302.439	345.5
302.669	327.5
302.9	333.5
303.13	326.5
303.36	336.5
303.59	330.5
303.82	353.5
304.051	332.5
304.281	342.5
304.511	340.5
304.741	343.5
304.971	286.5
305.201	320.5
305.431	319.5
305.661	312.5
305.891	338.5
306.121	340.5
306.352	333.5
306.582	343.5
306.812	347.5
307.042	331.5
307.272	321.5
307.502	343.5
307.731	330.5
307.961	327.5
308.191	337.5
308.421	318.5
308.651	344.5
308.881	345.5
309.111	352.5
309.341	367.5
309.571	382.5
309.8	391.5
310.03	391.5
310.26	369.5
310.49	391.5
310.72	388.5
310.949	423.5
311.179	430.5
311.409	392.5
311.639	398.5
311.868	390.5
312.098	402.5
312.328	406.5
312.557	424.5
312.787	420.5
313.017	432.5
313.246	414.5
313.476	388.5
313.706	405.5
313.935	390.5
314.165	425.5
314.394	437.5
314.624	439.5
314.853	399.5
315.083	411.5
315.312	394.5
315.542	392.5
315.771	388.5
316.001	393.5
316.23	391.5
316.46	381.5
316.689	382.5
316.919	394.5
317.148	411.5
317.377	410.5
317.607	418.5
317.836	403.5
318.065	395.5
318.295	382.5
318.524	389.5
318.753	390.5
318.983	393.5
319.212	381.5
319.441	404.5
319.67	427.5
319.9	403.5
320.129	382.5
320.358	389.5
320.587	418.5
320.816	403.5
321.046	428.5
321.275	418.5
321.504	419.5
321.733	435.5
321.962	437.5
322.191	444.5
322.42	474.5
322.649	472.5
322.878	502.5
323.108	504.5
323.337	562.5
323.566	586.5
323.795	598.5
324.024	687.5
324.253	858.5
324.482	1314.5
324.71	2041.5
324.939	2991.5
325.168	2630.5
325.397	1286.5
325.626	812.5
325.855	663.5
326.084	613.5
326.313	581.5
326.542	601.5
326.77	669.5
326.999	805.5
327.228	1152.5
327.457	1832.5
327.686	2241.5
327.914	1467.5
328.143	936.5
328.372	779.5
328.6	715.5
328.829	658.5
329.058	697.5
329.287	695.5
329.515	628.5
329.744	597.5
329.972	577.5
330.201	638.5
330.43	660.5
330.658	706.5
330.887	738.5
331.115	709.5
331.344	641.5
331.572	549.5
331.801	557.5
332.03	541.5
332.258	524.5
332.486	482.5
332.715	456.5
332.943	471.5
333.172	484.5
333.4	483.5
333.629	489.5
333.857	494.5
334.085	520.5
334.314	515.5
334.542	604.5
334.771	595.5
334.999	575.5
335.227	484.5
335.455	474.5
335.684	470.5
335.912	480.5
336.14	444.5
336.369	455.5
336.597	455.5
336.825	467.5
337.053	460.5
337.281	455.5
337.51	435.5
337.738	459.5
337.966	453.5
338.194	442.5
338.422	427.5
338.65	440.5
338.878	465.5
339.106	434.5
339.334	430.5
339.562	419.5
339.79	422.5
340.018	424.5
340.246	456.5
340.474	445.5
340.702	428.5
340.93	455.5
341.158	455.5
341.386	439.5
341.614	425.5
341.842	427.5
342.07	422.5
342.298	436.5
342.526	417.5
342.754	449.5
342.981	423.5
343.209	412.5
343.437	416.5
343.665	421.5
343.893	415.5
344.12	424.5
344.348	421.5
344.576	444.5
344.804	426.5
345.031	462.5
345.259	477.5
345.487	472.5
345.714	443.5
345.942	413.5
346.17	444.5
346.397	434.5
346.625	419.5
346.853	405.5
347.08	424.5
347.308	430.5
347.535	430.5
347.763	446.5
347.99	442.5
348.218	450.5
348.445	453.5
348.673	432.5
348.9	424.5
349.128	425.5
349.355	412.5
349.583	407.5
349.81	391.5
350.037	400.5
350.265	397.5
350.492	403.5
350.72	410.5
350.947	433.5
351.174	429.5
351.402	426.5
351.629	446.5
351.856	424.5
352.083	450.5
352.311	445.5
352.538	449.5
352.765	452.5
352.992	414.5
353.22	430.5
353.447	418.5
353.674	426.5
353.901	418.5
354.128	400.5
354.355	405.5
354.583	383.5
354.81	389.5
355.037	396.5
355.264	371.5
355.491	394.5
355.718	395.5
355.945	394.5
356.172	391.5
356.399	387.5
356.626	379.5
356.853	382.5
357.08	391.5
357.307	382.5
357.534	382.5
357.761	389.5
357.988	395.5
358.215	387.5
358.441	384.5
358.668	374.5
358.895	392.5
359.122	393.5
359.349	398.5
359.576	415.5
359.802	434.5
360.029	485.5
360.256	497.5
360.483	464.5
360.709	417.5
360.936	414.5
361.163	424.5
361.39	442.5
361.616	430.5
361.843	417.5
362.07	434.5
362.296	411.5
362.523	414.5
362.749	399.5
362.976	419.5
363.203	396.5
363.429	403.5
363.656	393.5
363.882	413.5
364.109	398.5
364.335	375.5
364.562	393.5
364.788	381.5
365.015	387.5
365.241	399.5
365.468	393.5
365.694	402.5
365.92	391.5
366.147	409.5
366.373	397.5
366.599	388.5
366.826	377.5
367.052	382.5
367.278	377.5
367.505	403.5
367.731	396.5
367.957	408.5
368.184	404.5
368.41	405.5
368.636	402.5
368.862	413.5
369.089	394.5
369.315	364.5
369.541	377.5
369.767	393.5
369.993	377.5
370.219	398.5
370.445	410.5
370.672	400.5
370.898	374.5
371.124	381.5
371.35	372.5
371.576	384.5
371.802	375.5
372.028	383.5
372.254	373.5
372.48	385.5
372.706	379.5
372.932	370.5
373.158	381.5
373.384	406.5
373.61	384.5
373.835	379.5
374.061	374.5
374.287	383.5
374.513	381.5
374.739	389.5
374.965	387.5
375.191	386.5
375.416	379.5
375.642	375.5
375.868	388.5
376.094	365.5
376.319	373.5
376.545	373.5
376.771	382.5
376.997	363.5
377.222	379.5
377.448	373.5
377.674	393.5
377.899	350.5
378.125	361.5
378.35	361.5
378.576	358.5
378.802	357.5
379.027	387.5
379.253	380.5
379.478	367.5
379.704	379.5
379.929	373.5
380.155	368.5
380.38	362.5
380.606	395.5
380.831	353.5
381.057	366.5
381.282	366.5
381.507	379.5
381.733	385.5
381.958	376.5
382.184	378.5
382.409	367.5
382.634	391.5
382.86	357.5
383.085	357.5
383.31	389.5
383.535	385.5
383.761	387.5
383.986	373.5
384.211	391.5
384.436	386.5
384.662	396.5
384.887	399.5
385.112	388.5
385.337	400.5
385.562	393.5
385.787	400.5
386.013	417.5
386.238	404.5
386.463	397.5
386.688	407.5
386.913	379.5
387.138	411.5
387.363	400.5
387.588	394.5
387.813	405.5
388.038	378.5
388.263	387.5
388.488	397.5
388.713	393.5
388.938	404.5
389.163	397.5
389.387	386.5
389.612	394.5
389.837	390.5
390.062	389.5
390.287	403.5
390.512	389.5
390.736	405.5
390.961	378.5
391.186	397.5
391.411	390.5
391.636	408.5
391.86	411.5
392.085	421.5
392.31	395.5
392.534	396.5
392.759	385.5
392.984	395.5
393.208	377.5
393.433	386.5
393.658	397.5
393.882	408.5
394.107	395.5
394.331	405.5
394.556	391.5
394.78	387.5
395.005	410.5
395.229	383.5
395.454	401.5
395.678	406.5
395.903	433.5
396.127	440.5
396.352	435.5
396.576	424.5
396.801	405.5
397.025	421.5
397.249	421.5
397.474	419.5
397.698	400.5
397.922	427.5
398.147	451.5
398.371	449.5
398.595	422.5
398.82	433.5
399.044	458.5
399.268	439.5
399.492	484.5
399.717	501.5
399.941	499.5
400.165	571.5
400.389	591.5
400.613	528.5
400.837	475.5
401.062	460.5
401.286	467.5
401.51	446.5
401.734	444.5
401.958	447.5
402.182	448.5
402.406	465.5
402.63	484.5
402.854	469.5
403.078	464.5
403.302	466.5
403.526	491.5
403.75	471.5
403.974	455.5
404.198	483.5
404.422	496.5
404.645	481.5
404.869	473.5
405.093	509.5
405.317	555.5
405.541	566.5
405.765	564.5
405.988	508.5
406.212	509.5
406.436	544.5
406.66	549.5
406.883	513.5
407.107	549.5
407.331	569.5
407.555	661.5
407.778	645.5
408.002	604.5
408.226	557.5
408.449	531.5
408.673	525.5
408.896	545.5
409.12	630.5
409.344	579.5
409.567	521.5
409.791	486.5
410.014	493.5
410.238	479.5
410.461	482.5
410.685	490.5
410.908	483.5
411.132	549.5
411.355	571.5
411.578	556.5
411.802	479.5
412.025	465.5
412.249	497.5
412.472	527.5
412.695	563.5
412.919	556.5
413.142	513.5
413.365	456.5
413.589	476.5
413.812	453.5
414.035	450.5
414.258	451.5
414.482	444.5
414.705	457.5
414.928	437.5
415.151	404.5
415.374	434.5
415.597	449.5
415.821	455.5
416.044	452.5
416.267	457.5
416.49	448.5
416.713	449.5
416.936	431.5
417.159	445.5
417.382	427.5
417.605	439.5
417.828	486.5
418.051	488.5
418.274	460.5
418.497	455.5
418.72	463.5
418.943	433.5
419.166	462.5
419.389	477.5
419.611	463.5
419.834	485.5
420.057	481.5
420.28	466.5
420.503	474.5
420.726	482.5
420.948	495.5
421.171	544.5
421.394	581.5
421.617	531.5
421.839	471.5
422.062	503.5
422.285	488.5
422.507	567.5
422.73	661.5
422.953	627.5
423.175	543.5
423.398	534.5
423.621	487.5
423.843	523.5
424.066	540.5
424.288	541.5
424.511	548.5
424.733	617.5
424.956	713.5
425.178	663.5
425.401	657.5
425.623	693.5
425.846	605.5
426.068	532.5
426.291	536.5
426.513	524.5
426.735	557.5
426.958	584.5
427.18	685.5
427.402	841.5
427.625	933.5
427.847	857.5
428.069	693.5
428.292	610.5
428.514	567.5
428.736	523.5
428.958	516.5
429.181	491.5
429.403	491.5
429.625	526.5
429.847	559.5
430.069	642.5
430.292	612.5
430.514	507.5
430.736	506.5
430.958	499.5
431.18	470.5
431.402	459.5
431.624	442.5
431.846	443.5
432.068	445.5
432.29	454.5
432.512	462.5
432.734	459.5
432.956	462.5
433.178	478.5
433.4	486.5
433.622	475.5
433.844	465.5
434.066	446.5
434.287	461.5
434.509	459.5
434.731	436.5
434.953	474.5
435.175	488.5
435.397	520.5
435.618	531.5
435.84	607.5
436.062	687.5
436.284	784.5
436.505	619.5
436.727	581.5
436.949	525.5
437.17	506.5
437.392	516.5
437.614	521.5
437.835	565.5
438.057	696.5
438.278	779.5
438.5	801.5
438.721	866.5
438.943	827.5
439.165	664.5
439.386	575.5
439.608	557.5
439.829	558.5
440.05	614.5
440.272	643.5
440.493	610.5
440.715	555.5
440.936	521.5
441.158	501.5
441.379	489.5
441.6	546.5
441.822	546.5
442.043	572.5
442.264	676.5
442.486	727.5
442.707	596.5
442.928	578.5
443.149	588.5
443.371	576.5
443.592	645.5
443.813	736.5
444.034	803.5
444.255	625.5
444.476	577.5
444.698	517.5
444.919	532.5
445.14	602.5
445.361	584.5
445.582	597.5
445.803	693.5
446.024	814.5
446.245	834.5
446.466	743.5
446.687	626.5
446.908	542.5
447.129	524.5
447.35	516.5
447.571	516.5
447.792	479.5
448.013	495.5
448.234	531.5
448.455	583.5
448.675	714.5
448.896	856.5
449.117	706.5
449.338	671.5
449.559	799.5
449.779	898.5
450	679.5
450.221	584.5
450.442	519.5
450.662	518.5
450.883	503.5
451.104	524.5
451.324	519.5
451.545	488.5
451.766	461.5
451.986	467.5
452.207	443.5
452.428	427.5
452.648	443.5
452.869	443.5
453.089	458.5
453.31	481.5
453.53	466.5
453.751	446.5
453.971	447.5
454.192	483.5
454.412	485.5
454.633	444.5
454.853	438.5
455.073	458.5
455.294	493.5
455.514	564.5
455.734	535.5
455.955	448.5
456.175	427.5
456.395	395.5
456.616	411.5
456.836	408.5
457.056	418.5
457.276	420.5
457.497	387.5
457.717	386.5
457.937	435.5
458.157	435.5
458.377	441.5
458.598	444.5
458.818	525.5
459.038	619.5
459.258	658.5
459.478	551.5
459.698	470.5
459.918	455.5
460.138	438.5
460.358	466.5
460.578	458.5
460.798	444.5
461.018	437.5
461.238	443.5
461.458	445.5
461.678	442.5
461.898	461.5
462.118	432.5
462.338	450.5
462.558	459.5
462.777	453.5
462.997	468.5
463.217	478.5
463.437	473.5
463.657	468.5
463.876	473.5
464.096	455.5
464.316	479.5
464.536	502.5
464.755	501.5
464.975	491.5
465.195	560.5
465.414	662.5
465.634	592.5
465.854	515.5
466.073	483.5
466.293	466.5
466.512	455.5
466.732	459.5
466.951	460.5
467.171	445.5
467.391	471.5
467.61	466.5
467.829	499.5
468.049	460.5
468.268	453.5
468.488	433.5
468.707	438.5
468.927	425.5
469.146	418.5
469.365	416.5
469.585	410.5
469.804	459.5
470.023	462.5
470.243	437.5
470.462	468.5
470.681	485.5
470.901	456.5
471.12	453.5
471.339	434.5
471.558	467.5
471.777	466.5
471.997	445.5
472.216	484.5
472.435	515.5
472.654	496.5
472.873	460.5
473.092	471.5
473.311	441.5
473.53	442.5
473.749	461.5
473.968	517.5
474.187	645.5
474.406	714.5
474.625	527.5
474.844	464.5
475.063	442.5
475.282	467.5
475.501	439.5
475.72	457.5
475.939	458.5
476.158	465.5
476.377	477.5
476.596	485.5
476.814	479.5
477.033	500.5
477.252	472.5
477.471	476.5
477.69	485.5
477.908	485.5
478.127	511.5
478.346	511.5
478.564	502.5
478.783	475.5
479.002	498.5
479.22	516.5
479.439	521.5
479.658	550.5
479.876	547.5
480.095	559.5
480.313	587.5
480.532	571.5
480.751	555.5
480.969	575.5
481.188	671.5
481.406	741.5
481.624	621.5
481.843	580.5
482.061	562.5
482.28	545.5
482.498	551.5
482.717	534.5
482.935	518.5
483.153	517.5
483.372	549.5
483.59	529.5
483.808	541.5
484.027	538.5
484.245	534.5
484.463	533.5
484.681	545.5
484.9	524.5
485.118	551.5
485.336	558.5
485.554	535.5
485.772	535.5
485.99	563.5
486.209	561.5
486.427	553.5
486.645	572.5
486.863	607.5
487.081	586.5
487.299	585.5
487.517	561.5
487.735	547.5
487.953	579.5
488.171	586.5
488.389	547.5
488.607	571.5
488.825	579.5
489.043	578.5
489.261	572.5
489.479	549.5
489.696	593.5
489.914	598.5
490.132	604.5
490.35	588.5
490.568	595.5
490.786	620.5
491.003	608.5
491.221	637.5
491.439	646.5
491.657	635.5
491.874	650.5
492.092	666.5
492.31	680.5
492.527	679.5
492.745	713.5
492.963	669.5
493.18	676.5
493.398	697.5
493.615	685.5
493.833	677.5
494.05	666.5
494.268	654.5
494.485	666.5
494.703	680.5
494.92	705.5
495.138	698.5
495.355	654.5
495.573	693.5
495.79	667.5
496.008	674.5
496.225	668.5
496.442	699.5
496.66	689.5
496.877	704.5
497.094	674.5
497.312	699.5
497.529	713.5
497.746	710.5
497.963	739.5
498.181	743.5
498.398	733.5
498.615	729.5
498.832	758.5
499.049	741.5
499.267	782.5
499.484	751.5
499.701	761.5
499.918	781.5
500.135	825.5
500.352	842.5
500.569	853.5
500.786	855.5
501.003	841.5
501.22	814.5
501.437	841.5
501.654	837.5
501.871	840.5
502.088	801.5
502.305	790.5
502.522	737.5
502.739	746.5
502.956	739.5
503.172	701.5
503.389	703.5
503.606	712.5
503.823	715.5
504.04	686.5
504.256	701.5
504.473	685.5
504.69	664.5
504.907	681.5
505.123	701.5
505.34	665.5
505.557	664.5
505.773	693.5
505.99	689.5
506.207	699.5
506.423	678.5
506.64	697.5
506.856	665.5
507.073	639.5
507.289	664.5
507.506	663.5
507.722	663.5
507.939	683.5
508.155	680.5
508.372	637.5
508.588	634.5
508.805	647.5
509.021	647.5
509.238	632.5
509.454	641.5
509.67	659.5
509.887	635.5
510.103	660.5
510.319	663.5
510.536	783.5
510.752	1420.5
510.968	1134.5
511.184	684.5
511.401	658.5
511.617	631.5
511.833	620.5
512.049	611.5
512.265	620.5
512.481	632.5
512.698	610.5
512.914	619.5
513.13	607.5
513.346	617.5
513.562	633.5
513.778	598.5
513.994	623.5
514.21	651.5
514.426	677.5
514.642	729.5
514.858	782.5
515.074	829.5
515.29	1011.5
515.506	1555.5
515.721	1280.5
515.937	810.5
516.153	726.5
516.369	661.5
516.585	634.5
516.801	645.5
517.016	637.5
517.232	610.5
517.448	619.5
517.664	590.5
517.879	615.5
518.095	604.5
518.311	618.5
518.527	611.5
518.742	604.5
518.958	611.5
519.173	612.5
519.389	603.5
519.605	614.5
519.82	627.5
