Data from 1972.PennyLincolnUp.Lamp.En5.5.200Scan.071719.P1._HRD10591_15-28-53-845.txt Node
Date: Thu Jul 18 15:28:53 EDT 2019
User: cochatt
Spectrometer: HR+D1059
Trigger mode: 1
Integration Time (sec): 1.000000E-1
Scans to average: 1
Electric dark correction enabled: true
Nonlinearity correction enabled: false
Boxcar width: 0
XAxis mode: Wavelengths
Number of Pixels in Spectrum: 2048
>>>>>Begin Spectral Data<<<<<
223.165	-14.81
223.4	-14.81
223.635	-14.81
223.869	-13.81
224.104	-24.81
224.338	-5.81
224.573	-17.81
224.808	-15.81
225.042	-13.81
225.277	-13.81
225.511	13.19
225.746	15.19
225.98	2.19
226.215	11.19
226.449	28.19
226.683	13.19
226.918	22.19
227.152	15.19
227.387	46.19
227.621	52.19
227.856	51.19
228.09	47.19
228.324	47.19
228.559	59.19
228.793	61.19
229.027	98.19
229.262	94.19
229.496	121.19
229.73	143.19
229.964	163.19
230.199	139.19
230.433	137.19
230.667	125.19
230.901	132.19
231.136	116.19
231.37	111.19
231.604	108.19
231.838	106.19
232.072	110.19
232.306	105.19
232.541	121.19
232.775	113.19
233.009	120.19
233.243	120.19
233.477	126.19
233.711	132.19
233.945	116.19
234.179	113.19
234.413	126.19
234.647	125.19
234.881	117.19
235.115	117.19
235.349	130.19
235.583	126.19
235.817	130.19
236.051	131.19
236.285	122.19
236.519	121.19
236.753	143.19
236.987	160.19
237.221	204.19
237.455	244.19
237.689	203.19
237.922	158.19
238.156	140.19
238.39	147.19
238.624	128.19
238.858	135.19
239.091	121.19
239.325	120.19
239.559	133.19
239.793	134.19
240.027	137.19
240.26	145.19
240.494	156.19
240.728	166.19
240.961	160.19
241.195	131.19
241.429	141.19
241.662	156.19
241.896	141.19
242.13	141.19
242.363	128.19
242.597	136.19
242.83	136.19
243.064	146.19
243.298	131.19
243.531	140.19
243.765	132.19
243.998	144.19
244.232	136.19
244.465	133.19
244.699	140.19
244.932	150.19
245.166	149.19
245.399	144.19
245.633	138.19
245.866	138.19
246.099	140.19
246.333	157.19
246.566	158.19
246.8	152.19
247.033	152.19
247.266	155.19
247.5	165.19
247.733	162.19
247.966	167.19
248.2	184.19
248.433	193.19
248.666	186.19
248.899	203.19
249.133	214.19
249.366	217.19
249.599	210.19
249.832	194.19
250.066	196.19
250.299	180.19
250.532	194.19
250.765	209.19
250.998	237.19
251.231	233.19
251.465	233.19
251.698	225.19
251.931	209.19
252.164	217.19
252.397	199.19
252.63	196.19
252.863	203.19
253.096	239.19
253.329	237.19
253.562	243.19
253.795	221.19
254.028	239.19
254.261	230.19
254.494	234.19
254.727	282.19
254.96	299.19
255.193	310.19
255.426	260.19
255.659	248.19
255.892	246.19
256.124	269.19
256.357	252.19
256.59	250.19
256.823	239.19
257.056	227.19
257.289	236.19
257.521	233.19
257.754	221.19
257.987	221.19
258.22	228.19
258.452	224.19
258.685	219.19
258.918	204.19
259.151	199.19
259.383	222.19
259.616	252.19
259.849	230.19
260.081	253.19
260.314	260.19
260.547	268.19
260.779	269.19
261.012	236.19
261.244	236.19
261.477	230.19
261.71	238.19
261.942	246.19
262.175	256.19
262.407	252.19
262.64	226.19
262.872	220.19
263.105	233.19
263.337	221.19
263.57	205.19
263.802	216.19
264.035	232.19
264.267	224.19
264.499	202.19
264.732	227.19
264.964	212.19
265.197	226.19
265.429	217.19
265.661	221.19
265.894	226.19
266.126	219.19
266.358	222.19
266.591	245.19
266.823	238.19
267.055	231.19
267.287	248.19
267.52	220.19
267.752	228.19
267.984	227.19
268.216	235.19
268.448	217.19
268.681	238.19
268.913	255.19
269.145	268.19
269.377	296.19
269.609	282.19
269.841	286.19
270.073	278.19
270.306	329.19
270.538	331.19
270.77	346.19
271.002	311.19
271.234	314.19
271.466	308.19
271.698	337.19
271.93	360.19
272.162	337.19
272.394	337.19
272.626	315.19
272.858	315.19
273.09	304.19
273.322	281.19
273.553	250.19
273.785	280.19
274.017	291.19
274.249	296.19
274.481	281.19
274.713	276.19
274.945	260.19
275.176	284.19
275.408	276.19
275.64	268.19
275.872	259.19
276.104	281.19
276.335	297.19
276.567	275.19
276.799	309.19
277.031	314.19
277.262	335.19
277.494	352.19
277.726	310.19
277.957	297.19
278.189	298.19
278.421	273.19
278.652	286.19
278.884	266.19
279.115	273.19
279.347	262.19
279.579	275.19
279.81	280.19
280.042	265.19
280.273	279.19
280.505	280.19
280.736	269.19
280.968	264.19
281.199	268.19
281.431	260.19
281.662	280.19
281.894	268.19
282.125	266.19
282.356	264.19
282.588	322.19
282.819	329.19
283.051	287.19
283.282	269.19
283.513	290.19
283.745	271.19
283.976	272.19
284.207	281.19
284.439	283.19
284.67	281.19
284.901	278.19
285.132	276.19
285.364	276.19
285.595	295.19
285.826	284.19
286.057	272.19
286.288	288.19
286.52	280.19
286.751	267.19
286.982	294.19
287.213	260.19
287.444	270.19
287.675	278.19
287.906	311.19
288.138	295.19
288.369	294.19
288.6	285.19
288.831	255.19
289.062	270.19
289.293	288.19
289.524	305.19
289.755	278.19
289.986	274.19
290.217	271.19
290.448	277.19
290.679	297.19
290.91	275.19
291.141	278.19
291.371	286.19
291.602	293.19
291.833	288.19
292.064	285.19
292.295	272.19
292.526	268.19
292.757	290.19
292.987	298.19
293.218	299.19
293.449	296.19
293.68	299.19
293.91	280.19
294.141	279.19
294.372	283.19
294.603	262.19
294.833	284.19
295.064	274.19
295.295	288.19
295.525	292.19
295.756	298.19
295.987	308.19
296.217	326.19
296.448	350.19
296.679	299.19
296.909	285.19
297.14	283.19
297.37	302.19
297.601	282.19
297.831	280.19
298.062	290.19
298.292	287.19
298.523	286.19
298.753	298.19
298.984	296.19
299.214	299.19
299.445	296.19
299.675	289.19
299.905	312.19
300.136	309.19
300.366	312.19
300.597	303.19
300.827	296.19
301.057	288.19
301.288	333.19
301.518	326.19
301.748	319.19
301.979	315.19
302.209	326.19
302.439	305.19
302.669	336.19
302.9	330.19
303.13	312.19
303.36	330.19
303.59	334.19
303.82	345.19
304.051	331.19
304.281	306.19
304.511	319.19
304.741	328.19
304.971	314.19
305.201	322.19
305.431	319.19
305.661	313.19
305.891	306.19
306.121	288.19
306.352	320.19
306.582	333.19
306.812	324.19
307.042	333.19
307.272	322.19
307.502	326.19
307.731	339.19
307.961	337.19
308.191	312.19
308.421	339.19
308.651	334.19
308.881	342.19
309.111	319.19
309.341	341.19
309.571	366.19
309.8	355.19
310.03	378.19
310.26	392.19
310.49	374.19
310.72	402.19
310.949	408.19
311.179	426.19
311.409	414.19
311.639	397.19
311.868	377.19
312.098	371.19
312.328	398.19
312.557	437.19
312.787	411.19
313.017	426.19
313.246	403.19
313.476	389.19
313.706	369.19
313.935	384.19
314.165	411.19
314.394	416.19
314.624	392.19
314.853	401.19
315.083	393.19
315.312	385.19
315.542	382.19
315.771	376.19
316.001	364.19
316.23	353.19
316.46	368.19
316.689	360.19
316.919	375.19
317.148	406.19
317.377	402.19
317.607	392.19
317.836	395.19
318.065	384.19
318.295	378.19
318.524	377.19
318.753	377.19
318.983	364.19
319.212	382.19
319.441	379.19
319.67	420.19
319.9	372.19
320.129	376.19
320.358	373.19
320.587	407.19
320.816	394.19
321.046	413.19
321.275	391.19
321.504	399.19
321.733	411.19
321.962	433.19
322.191	433.19
322.42	465.19
322.649	457.19
322.878	477.19
323.108	497.19
323.337	536.19
323.566	534.19
323.795	583.19
324.024	670.19
324.253	817.19
324.482	1213.19
324.71	1902.19
324.939	2822.19
325.168	2406.19
325.397	1240.19
325.626	807.19
325.855	638.19
326.084	578.19
326.313	556.19
326.542	552.19
326.77	600.19
326.999	750.19
327.228	1082.19
327.457	1678.19
327.686	2067.19
327.914	1375.19
328.143	869.19
328.372	753.19
328.6	697.19
328.829	634.19
329.058	669.19
329.287	673.19
329.515	619.19
329.744	550.19
329.972	577.19
330.201	595.19
330.43	645.19
330.658	659.19
330.887	719.19
331.115	658.19
331.344	566.19
331.572	534.19
331.801	524.19
332.03	516.19
332.258	489.19
332.486	466.19
332.715	451.19
332.943	462.19
333.172	467.19
333.4	453.19
333.629	455.19
333.857	481.19
334.085	507.19
334.314	529.19
334.542	593.19
334.771	570.19
334.999	558.19
335.227	482.19
335.455	446.19
335.684	463.19
335.912	451.19
336.14	442.19
336.369	438.19
336.597	452.19
336.825	461.19
337.053	461.19
337.281	423.19
337.51	432.19
337.738	445.19
337.966	421.19
338.194	442.19
338.422	444.19
338.65	425.19
338.878	424.19
339.106	419.19
339.334	408.19
339.562	407.19
339.79	419.19
340.018	431.19
340.246	417.19
340.474	409.19
340.702	430.19
340.93	414.19
341.158	393.19
341.386	410.19
341.614	405.19
341.842	420.19
342.07	400.19
342.298	404.19
342.526	414.19
342.754	387.19
342.981	389.19
343.209	399.19
343.437	404.19
343.665	383.19
343.893	388.19
344.12	400.19
344.348	402.19
344.576	425.19
344.804	421.19
345.031	440.19
345.259	464.19
345.487	445.19
345.714	432.19
345.942	401.19
346.17	388.19
346.397	418.19
346.625	393.19
346.853	428.19
347.08	416.19
347.308	406.19
347.535	414.19
347.763	442.19
347.99	422.19
348.218	422.19
348.445	428.19
348.673	429.19
348.9	408.19
349.128	406.19
349.355	382.19
349.583	401.19
349.81	390.19
350.037	402.19
350.265	396.19
350.492	405.19
350.72	401.19
350.947	410.19
351.174	401.19
351.402	413.19
351.629	420.19
351.856	412.19
352.083	424.19
352.311	427.19
352.538	433.19
352.765	422.19
352.992	420.19
353.22	407.19
353.447	391.19
353.674	391.19
353.901	390.19
354.128	391.19
354.355	369.19
354.583	375.19
354.81	380.19
355.037	388.19
355.264	365.19
355.491	346.19
355.718	380.19
355.945	364.19
356.172	340.19
356.399	361.19
356.626	367.19
356.853	357.19
357.08	362.19
357.307	372.19
357.534	362.19
357.761	388.19
357.988	360.19
358.215	380.19
358.441	374.19
358.668	385.19
358.895	361.19
359.122	391.19
359.349	381.19
359.576	406.19
359.802	451.19
360.029	464.19
360.256	480.19
360.483	461.19
360.709	400.19
360.936	399.19
361.163	415.19
361.39	408.19
361.616	409.19
361.843	418.19
362.07	413.19
362.296	402.19
362.523	386.19
362.749	408.19
362.976	384.19
363.203	398.19
363.429	395.19
363.656	380.19
363.882	387.19
364.109	379.19
364.335	388.19
364.562	386.19
364.788	381.19
365.015	382.19
365.241	389.19
365.468	399.19
365.694	416.19
365.92	398.19
366.147	367.19
366.373	384.19
366.599	380.19
366.826	377.19
367.052	353.19
367.278	368.19
367.505	365.19
367.731	369.19
367.957	378.19
368.184	386.19
368.41	387.19
368.636	401.19
368.862	398.19
369.089	380.19
369.315	391.19
369.541	380.19
369.767	368.19
369.993	372.19
370.219	382.19
370.445	393.19
370.672	364.19
370.898	354.19
371.124	366.19
371.35	348.19
371.576	360.19
371.802	356.19
372.028	371.19
372.254	344.19
372.48	363.19
372.706	359.19
372.932	374.19
373.158	362.19
373.384	386.19
373.61	360.19
373.835	376.19
374.061	366.19
374.287	366.19
374.513	363.19
374.739	364.19
374.965	356.19
375.191	377.19
375.416	357.19
375.642	360.19
375.868	352.19
376.094	369.19
376.319	357.19
376.545	361.19
376.771	361.19
376.997	359.19
377.222	367.19
377.448	369.19
377.674	328.19
377.899	365.19
378.125	350.19
378.35	346.19
378.576	358.19
378.802	357.19
379.027	341.19
379.253	367.19
379.478	361.19
379.704	359.19
379.929	344.19
380.155	364.19
380.38	352.19
380.606	353.19
380.831	373.19
381.057	380.19
381.282	353.19
381.507	365.19
381.733	362.19
381.958	350.19
382.184	365.19
382.409	349.19
382.634	365.19
382.86	372.19
383.085	368.19
383.31	365.19
383.535	363.19
383.761	357.19
383.986	372.19
384.211	377.19
384.436	353.19
384.662	367.19
384.887	374.19
385.112	377.19
385.337	374.19
385.562	377.19
385.787	357.19
386.013	387.19
386.238	394.19
386.463	389.19
386.688	388.19
386.913	370.19
387.138	379.19
387.363	376.19
387.588	384.19
387.813	379.19
388.038	383.19
388.263	375.19
388.488	380.19
388.713	375.19
388.938	388.19
389.163	421.19
389.387	397.19
389.612	359.19
389.837	388.19
390.062	388.19
390.287	367.19
390.512	389.19
390.736	386.19
390.961	384.19
391.186	381.19
391.411	383.19
391.636	412.19
391.86	394.19
392.085	395.19
392.31	379.19
392.534	402.19
392.759	381.19
392.984	382.19
393.208	380.19
393.433	396.19
393.658	382.19
393.882	402.19
394.107	363.19
394.331	384.19
394.556	370.19
394.78	375.19
395.005	388.19
395.229	375.19
395.454	383.19
395.678	383.19
395.903	413.19
396.127	433.19
396.352	417.19
396.576	397.19
396.801	400.19
397.025	400.19
397.249	408.19
397.474	369.19
397.698	420.19
397.922	419.19
398.147	421.19
398.371	445.19
398.595	422.19
398.82	435.19
399.044	440.19
399.268	458.19
399.492	447.19
399.717	463.19
399.941	489.19
400.165	497.19
400.389	511.19
400.613	478.19
400.837	448.19
401.062	433.19
401.286	426.19
401.51	417.19
401.734	451.19
401.958	465.19
402.182	437.19
402.406	433.19
402.63	457.19
402.854	438.19
403.078	431.19
403.302	449.19
403.526	455.19
403.75	452.19
403.974	460.19
404.198	450.19
404.422	453.19
404.645	459.19
404.869	476.19
405.093	488.19
405.317	538.19
405.541	586.19
405.765	543.19
405.988	489.19
406.212	507.19
406.436	519.19
406.66	541.19
406.883	502.19
407.107	544.19
407.331	554.19
407.555	607.19
407.778	631.19
408.002	543.19
408.226	504.19
408.449	491.19
408.673	494.19
408.896	529.19
409.12	577.19
409.344	551.19
409.567	474.19
409.791	474.19
410.014	452.19
410.238	441.19
410.461	454.19
410.685	470.19
410.908	474.19
411.132	496.19
411.355	550.19
411.578	530.19
411.802	455.19
412.025	471.19
412.249	475.19
412.472	497.19
412.695	541.19
412.919	537.19
413.142	486.19
413.365	450.19
413.589	454.19
413.812	429.19
414.035	433.19
414.258	411.19
414.482	423.19
414.705	427.19
414.928	427.19
415.151	433.19
415.374	442.19
415.597	425.19
415.821	399.19
416.044	429.19
416.267	429.19
416.49	431.19
416.713	436.19
416.936	416.19
417.159	430.19
417.382	439.19
417.605	434.19
417.828	429.19
418.051	465.19
418.274	455.19
418.497	455.19
418.72	442.19
418.943	420.19
419.166	449.19
419.389	475.19
419.611	453.19
419.834	455.19
420.057	459.19
420.28	474.19
420.503	451.19
420.726	451.19
420.948	467.19
421.171	519.19
421.394	544.19
421.617	476.19
421.839	445.19
422.062	445.19
422.285	480.19
422.507	560.19
422.73	609.19
422.953	599.19
423.175	529.19
423.398	493.19
423.621	490.19
423.843	502.19
424.066	504.19
424.288	505.19
424.511	527.19
424.733	600.19
424.956	672.19
425.178	642.19
425.401	655.19
425.623	655.19
425.846	537.19
426.068	514.19
426.291	507.19
426.513	522.19
426.735	512.19
426.958	556.19
427.18	632.19
427.402	781.19
427.625	906.19
427.847	792.19
428.069	676.19
428.292	597.19
428.514	566.19
428.736	478.19
428.958	491.19
429.181	457.19
429.403	454.19
429.625	491.19
429.847	522.19
430.069	577.19
430.292	589.19
430.514	511.19
430.736	481.19
430.958	447.19
431.18	429.19
431.402	446.19
431.624	441.19
431.846	407.19
432.068	439.19
432.29	439.19
432.512	433.19
432.734	455.19
432.956	466.19
433.178	454.19
433.4	465.19
433.622	437.19
433.844	432.19
434.066	425.19
434.287	431.19
434.509	426.19
434.731	424.19
434.953	427.19
435.175	463.19
435.397	502.19
435.618	516.19
435.84	565.19
436.062	660.19
436.284	729.19
436.505	601.19
436.727	565.19
436.949	508.19
437.17	493.19
437.392	478.19
437.614	507.19
437.835	531.19
438.057	658.19
438.278	750.19
438.5	725.19
438.721	794.19
438.943	765.19
439.165	614.19
439.386	568.19
439.608	550.19
439.829	539.19
440.05	563.19
440.272	623.19
440.493	601.19
440.715	523.19
440.936	493.19
441.158	484.19
441.379	465.19
441.6	487.19
441.822	502.19
442.043	556.19
442.264	643.19
442.486	706.19
442.707	567.19
442.928	557.19
443.149	543.19
443.371	576.19
443.592	621.19
443.813	686.19
444.034	738.19
444.255	606.19
444.476	542.19
444.698	518.19
444.919	506.19
445.14	591.19
445.361	595.19
445.582	574.19
445.803	628.19
446.024	784.19
446.245	778.19
446.466	708.19
446.687	578.19
446.908	530.19
447.129	506.19
447.35	500.19
447.571	487.19
447.792	478.19
448.013	485.19
448.234	513.19
448.455	548.19
448.675	681.19
448.896	774.19
449.117	684.19
449.338	634.19
449.559	732.19
449.779	808.19
450	671.19
450.221	577.19
450.442	498.19
450.662	475.19
450.883	495.19
451.104	512.19
451.324	490.19
451.545	461.19
451.766	451.19
451.986	437.19
452.207	415.19
452.428	415.19
452.648	428.19
452.869	428.19
453.089	462.19
453.31	457.19
453.53	442.19
453.751	430.19
453.971	457.19
454.192	458.19
454.412	439.19
454.633	418.19
454.853	416.19
455.073	422.19
455.294	456.19
455.514	504.19
455.734	530.19
455.955	476.19
456.175	405.19
456.395	398.19
456.616	413.19
456.836	377.19
457.056	376.19
457.276	398.19
457.497	396.19
457.717	386.19
457.937	393.19
458.157	401.19
458.377	419.19
458.598	428.19
458.818	535.19
459.038	625.19
459.258	623.19
459.478	488.19
459.698	452.19
459.918	437.19
460.138	433.19
460.358	415.19
460.578	418.19
460.798	441.19
461.018	418.19
461.238	420.19
461.458	428.19
461.678	453.19
461.898	418.19
462.118	401.19
462.338	442.19
462.558	453.19
462.777	448.19
462.997	452.19
463.217	465.19
463.437	446.19
463.657	445.19
463.876	450.19
464.096	459.19
464.316	438.19
464.536	464.19
464.755	453.19
464.975	469.19
465.195	539.19
465.414	613.19
465.634	554.19
465.854	482.19
466.073	455.19
466.293	452.19
466.512	429.19
466.732	416.19
466.951	439.19
467.171	421.19
467.391	427.19
467.61	447.19
467.829	461.19
468.049	443.19
468.268	444.19
468.488	442.19
468.707	410.19
468.927	429.19
469.146	401.19
469.365	399.19
469.585	405.19
469.804	425.19
470.023	432.19
470.243	438.19
470.462	438.19
470.681	469.19
470.901	470.19
471.12	473.19
471.339	428.19
471.558	439.19
471.777	443.19
471.997	437.19
472.216	452.19
472.435	487.19
472.654	481.19
472.873	445.19
473.092	452.19
473.311	424.19
473.53	459.19
473.749	446.19
473.968	488.19
474.187	596.19
474.406	639.19
474.625	505.19
474.844	450.19
475.063	442.19
475.282	437.19
475.501	446.19
475.72	436.19
475.939	425.19
476.158	442.19
476.377	446.19
476.596	460.19
476.814	453.19
477.033	449.19
477.252	457.19
477.471	466.19
477.69	463.19
477.908	483.19
478.127	485.19
478.346	461.19
478.564	486.19
478.783	479.19
479.002	486.19
479.22	482.19
479.439	524.19
479.658	537.19
479.876	534.19
480.095	538.19
480.313	555.19
480.532	571.19
480.751	543.19
480.969	562.19
481.188	641.19
481.406	704.19
481.624	574.19
481.843	525.19
482.061	546.19
482.28	518.19
482.498	522.19
482.717	520.19
482.935	516.19
483.153	506.19
483.372	503.19
483.59	502.19
483.808	501.19
484.027	514.19
484.245	516.19
484.463	517.19
484.681	517.19
484.9	519.19
485.118	520.19
485.336	513.19
485.554	509.19
485.772	519.19
485.99	518.19
486.209	536.19
486.427	525.19
486.645	535.19
486.863	561.19
487.081	540.19
487.299	535.19
487.517	553.19
487.735	543.19
487.953	568.19
488.171	531.19
488.389	538.19
488.607	544.19
488.825	548.19
489.043	568.19
489.261	556.19
489.479	564.19
489.696	561.19
489.914	551.19
490.132	569.19
490.35	586.19
490.568	605.19
490.786	591.19
491.003	585.19
491.221	620.19
491.439	635.19
491.657	628.19
491.874	611.19
492.092	618.19
492.31	630.19
492.527	630.19
492.745	648.19
492.963	630.19
493.18	636.19
493.398	655.19
493.615	646.19
493.833	636.19
494.05	638.19
494.268	638.19
494.485	639.19
494.703	639.19
494.92	679.19
495.138	657.19
495.355	641.19
495.573	666.19
495.79	659.19
496.008	658.19
496.225	666.19
496.442	663.19
496.66	642.19
496.877	649.19
497.094	658.19
497.312	638.19
497.529	674.19
497.746	665.19
497.963	690.19
498.181	700.19
498.398	679.19
498.615	712.19
498.832	694.19
499.049	700.19
499.267	684.19
499.484	724.19
499.701	730.19
499.918	766.19
500.135	770.19
500.352	796.19
500.569	805.19
500.786	789.19
501.003	784.19
501.22	791.19
501.437	780.19
501.654	796.19
501.871	804.19
