Data from 1972.PennyLincolnUp.Lamp.En5.5.200Scan.071719.P1._HRD10591_15-29-59-845.txt Node
Date: Thu Jul 18 15:29:59 EDT 2019
User: cochatt
Spectrometer: HR+D1059
Trigger mode: 1
Integration Time (sec): 1.000000E-1
Scans to average: 1
Electric dark correction enabled: true
Nonlinearity correction enabled: false
Boxcar width: 0
XAxis mode: Wavelengths
Number of Pixels in Spectrum: 2048
>>>>>Begin Spectral Data<<<<<
223.165	-29.06
223.4	-29.06
223.635	-29.06
223.869	-4.06
224.104	-23.06
224.338	-15.06
224.573	-20.06
224.808	-2.06
225.042	-2.06
225.277	-5.06
225.511	-4.06
225.746	8.94
225.98	10.94
226.215	-5.06
226.449	8.94
226.683	24.94
226.918	24.94
227.152	30.94
227.387	36.94
227.621	29.94
227.856	33.94
228.09	41.94
228.324	51.94
228.559	52.94
228.793	69.94
229.027	102.94
229.262	120.94
229.496	124.94
229.73	153.94
229.964	186.94
230.199	139.94
230.433	116.94
230.667	127.94
230.901	116.94
231.136	123.94
231.37	124.94
231.604	113.94
231.838	117.94
232.072	124.94
232.306	121.94
232.541	118.94
232.775	110.94
233.009	123.94
233.243	122.94
233.477	105.94
233.711	119.94
233.945	114.94
234.179	128.94
234.413	123.94
234.647	119.94
234.881	126.94
235.115	123.94
235.349	115.94
235.583	125.94
235.817	136.94
236.051	115.94
236.285	132.94
236.519	130.94
236.753	131.94
236.987	160.94
237.221	200.94
237.455	257.94
237.689	220.94
237.922	161.94
238.156	142.94
238.39	137.94
238.624	129.94
238.858	126.94
239.091	140.94
239.325	137.94
239.559	138.94
239.793	141.94
240.027	140.94
240.26	157.94
240.494	168.94
240.728	174.94
240.961	168.94
241.195	146.94
241.429	138.94
241.662	146.94
241.896	133.94
242.13	136.94
242.363	137.94
242.597	132.94
242.83	144.94
243.064	156.94
243.298	146.94
243.531	115.94
243.765	145.94
243.998	162.94
244.232	147.94
244.465	150.94
244.699	138.94
244.932	139.94
245.166	138.94
245.399	156.94
245.633	133.94
245.866	154.94
246.099	156.94
246.333	140.94
246.566	157.94
246.8	151.94
247.033	169.94
247.266	152.94
247.5	148.94
247.733	161.94
247.966	190.94
248.2	172.94
248.433	173.94
248.666	182.94
248.899	188.94
249.133	219.94
249.366	234.94
249.599	220.94
249.832	192.94
250.066	183.94
250.299	203.94
250.532	211.94
250.765	211.94
250.998	234.94
251.231	259.94
251.465	240.94
251.698	216.94
251.931	231.94
252.164	210.94
252.397	210.94
252.63	218.94
252.863	226.94
253.096	237.94
253.329	242.94
253.562	235.94
253.795	227.94
254.028	243.94
254.261	231.94
254.494	249.94
254.727	298.94
254.96	315.94
255.193	298.94
255.426	278.94
255.659	249.94
255.892	266.94
256.124	258.94
256.357	244.94
256.59	241.94
256.823	238.94
257.056	234.94
257.289	222.94
257.521	216.94
257.754	217.94
257.987	213.94
258.22	234.94
258.452	222.94
258.685	219.94
258.918	216.94
259.151	219.94
259.383	244.94
259.616	249.94
259.849	244.94
260.081	255.94
260.314	283.94
260.547	277.94
260.779	274.94
261.012	261.94
261.244	262.94
261.477	243.94
261.71	248.94
261.942	252.94
262.175	265.94
262.407	264.94
262.64	229.94
262.872	239.94
263.105	235.94
263.337	238.94
263.57	228.94
263.802	220.94
264.035	240.94
264.267	232.94
264.499	224.94
264.732	220.94
264.964	233.94
265.197	237.94
265.429	232.94
265.661	218.94
265.894	235.94
266.126	205.94
266.358	223.94
266.591	233.94
266.823	228.94
267.055	234.94
267.287	256.94
267.52	236.94
267.752	254.94
267.984	235.94
268.216	245.94
268.448	246.94
268.681	268.94
268.913	266.94
269.145	270.94
269.377	291.94
269.609	296.94
269.841	282.94
270.073	290.94
270.306	317.94
270.538	370.94
270.77	353.94
271.002	332.94
271.234	337.94
271.466	328.94
271.698	358.94
271.93	352.94
272.162	352.94
272.394	340.94
272.626	340.94
272.858	321.94
273.09	302.94
273.322	308.94
273.553	282.94
273.785	291.94
274.017	292.94
274.249	293.94
274.481	270.94
274.713	281.94
274.945	294.94
275.176	283.94
275.408	291.94
275.64	293.94
275.872	283.94
276.104	276.94
276.335	286.94
276.567	292.94
276.799	306.94
277.031	338.94
277.262	358.94
277.494	358.94
277.726	321.94
277.957	308.94
278.189	297.94
278.421	298.94
278.652	305.94
278.884	293.94
279.115	295.94
279.347	265.94
279.579	280.94
279.81	272.94
280.042	277.94
280.273	276.94
280.505	284.94
280.736	283.94
280.968	281.94
281.199	290.94
281.431	294.94
281.662	269.94
281.894	265.94
282.125	278.94
282.356	303.94
282.588	332.94
282.819	324.94
283.051	299.94
283.282	291.94
283.513	284.94
283.745	277.94
283.976	294.94
284.207	281.94
284.439	289.94
284.67	277.94
284.901	296.94
285.132	291.94
285.364	281.94
285.595	280.94
285.826	277.94
286.057	285.94
286.288	294.94
286.52	290.94
286.751	290.94
286.982	279.94
287.213	290.94
287.444	297.94
287.675	281.94
287.906	316.94
288.138	313.94
288.369	313.94
288.6	313.94
288.831	308.94
289.062	303.94
289.293	288.94
289.524	300.94
289.755	293.94
289.986	299.94
290.217	289.94
290.448	286.94
290.679	300.94
290.91	300.94
291.141	287.94
291.371	268.94
291.602	293.94
291.833	285.94
292.064	288.94
292.295	284.94
292.526	306.94
292.757	302.94
292.987	306.94
293.218	306.94
293.449	309.94
293.68	282.94
293.91	304.94
294.141	262.94
294.372	299.94
294.603	305.94
294.833	289.94
295.064	297.94
295.295	300.94
295.525	307.94
295.756	312.94
295.987	313.94
296.217	346.94
296.448	363.94
296.679	312.94
296.909	318.94
297.14	296.94
297.37	300.94
297.601	314.94
297.831	296.94
298.062	290.94
298.292	293.94
298.523	330.94
298.753	295.94
298.984	304.94
299.214	329.94
299.445	311.94
299.675	312.94
299.905	328.94
300.136	327.94
300.366	323.94
300.597	334.94
300.827	316.94
301.057	313.94
301.288	354.94
301.518	323.94
301.748	322.94
301.979	334.94
302.209	338.94
302.439	342.94
302.669	339.94
302.9	311.94
303.13	327.94
303.36	322.94
303.59	325.94
303.82	343.94
304.051	350.94
304.281	332.94
304.511	324.94
304.741	308.94
304.971	342.94
305.201	337.94
305.431	341.94
305.661	330.94
305.891	328.94
306.121	328.94
306.352	350.94
306.582	353.94
306.812	333.94
307.042	331.94
307.272	339.94
307.502	341.94
307.731	339.94
307.961	340.94
308.191	325.94
308.421	326.94
308.651	333.94
308.881	327.94
309.111	345.94
309.341	369.94
309.571	376.94
309.8	387.94
310.03	390.94
310.26	395.94
310.49	405.94
310.72	410.94
310.949	439.94
311.179	448.94
311.409	408.94
311.639	382.94
311.868	416.94
312.098	411.94
312.328	424.94
312.557	443.94
312.787	456.94
313.017	441.94
313.246	424.94
313.476	390.94
313.706	411.94
313.935	398.94
314.165	436.94
314.394	453.94
314.624	438.94
314.853	430.94
315.083	403.94
315.312	394.94
315.542	386.94
315.771	377.94
316.001	382.94
316.23	395.94
316.46	379.94
316.689	412.94
316.919	405.94
317.148	409.94
317.377	420.94
317.607	424.94
317.836	403.94
318.065	390.94
318.295	398.94
318.524	396.94
318.753	377.94
318.983	388.94
319.212	374.94
319.441	411.94
319.67	416.94
319.9	391.94
320.129	379.94
320.358	411.94
320.587	403.94
320.816	420.94
321.046	430.94
321.275	448.94
321.504	421.94
321.733	439.94
321.962	448.94
322.191	454.94
322.42	490.94
322.649	484.94
322.878	514.94
323.108	530.94
323.337	551.94
323.566	610.94
323.795	610.94
324.024	693.94
324.253	900.94
324.482	1293.94
324.71	2082.94
324.939	3051.94
325.168	2614.94
325.397	1323.94
325.626	822.94
325.855	672.94
326.084	616.94
326.313	582.94
326.542	587.94
326.77	665.94
326.999	821.94
327.228	1158.94
327.457	1802.94
327.686	2258.94
327.914	1488.94
328.143	924.94
328.372	802.94
328.6	718.94
328.829	693.94
329.058	697.94
329.287	729.94
329.515	660.94
329.744	606.94
329.972	594.94
330.201	621.94
330.43	688.94
330.658	733.94
330.887	739.94
331.115	737.94
331.344	618.94
331.572	535.94
331.801	535.94
332.03	542.94
332.258	508.94
332.486	487.94
332.715	476.94
332.943	464.94
333.172	495.94
333.4	488.94
333.629	493.94
333.857	511.94
334.085	544.94
334.314	559.94
334.542	601.94
334.771	625.94
334.999	561.94
335.227	499.94
335.455	489.94
335.684	468.94
335.912	442.94
336.14	458.94
336.369	463.94
336.597	462.94
336.825	492.94
337.053	460.94
337.281	443.94
337.51	466.94
337.738	458.94
337.966	459.94
338.194	475.94
338.422	463.94
338.65	441.94
338.878	442.94
339.106	445.94
339.334	427.94
339.562	429.94
339.79	425.94
340.018	445.94
340.246	462.94
340.474	462.94
340.702	451.94
340.93	458.94
341.158	420.94
341.386	428.94
341.614	451.94
341.842	450.94
342.07	448.94
342.298	443.94
342.526	438.94
342.754	401.94
342.981	416.94
343.209	399.94
343.437	426.94
343.665	423.94
343.893	423.94
344.12	420.94
344.348	430.94
344.576	452.94
344.804	452.94
345.031	455.94
345.259	473.94
345.487	459.94
345.714	440.94
345.942	454.94
346.17	434.94
346.397	470.94
346.625	429.94
346.853	445.94
347.08	438.94
347.308	445.94
347.535	454.94
347.763	449.94
347.99	446.94
348.218	448.94
348.445	473.94
348.673	446.94
348.9	455.94
349.128	429.94
349.355	417.94
349.583	419.94
349.81	413.94
350.037	404.94
350.265	404.94
350.492	411.94
350.72	406.94
350.947	411.94
351.174	422.94
351.402	434.94
351.629	448.94
351.856	448.94
352.083	453.94
352.311	454.94
352.538	450.94
352.765	458.94
352.992	442.94
353.22	448.94
353.447	434.94
353.674	419.94
353.901	408.94
354.128	412.94
354.355	389.94
354.583	385.94
354.81	401.94
355.037	399.94
355.264	390.94
355.491	393.94
355.718	382.94
355.945	365.94
356.172	382.94
356.399	390.94
356.626	401.94
356.853	371.94
357.08	355.94
357.307	364.94
357.534	357.94
357.761	384.94
357.988	392.94
358.215	376.94
358.441	403.94
358.668	398.94
358.895	397.94
359.122	391.94
359.349	401.94
359.576	404.94
359.802	457.94
360.029	510.94
360.256	510.94
360.483	493.94
360.709	435.94
360.936	426.94
361.163	426.94
361.39	419.94
361.616	430.94
361.843	411.94
362.07	418.94
362.296	435.94
362.523	426.94
362.749	432.94
362.976	419.94
363.203	399.94
363.429	406.94
363.656	396.94
363.882	406.94
364.109	394.94
364.335	397.94
364.562	383.94
364.788	403.94
365.015	422.94
365.241	405.94
365.468	403.94
365.694	402.94
365.92	399.94
366.147	422.94
366.373	419.94
366.599	382.94
366.826	383.94
367.052	386.94
367.278	393.94
367.505	377.94
367.731	387.94
367.957	371.94
368.184	397.94
368.41	399.94
368.636	418.94
368.862	432.94
369.089	428.94
369.315	386.94
369.541	385.94
369.767	388.94
369.993	390.94
370.219	386.94
370.445	380.94
370.672	372.94
370.898	382.94
371.124	388.94
371.35	386.94
371.576	400.94
371.802	363.94
372.028	386.94
372.254	358.94
372.48	362.94
372.706	361.94
372.932	379.94
373.158	386.94
373.384	392.94
373.61	368.94
373.835	386.94
374.061	399.94
374.287	384.94
374.513	388.94
374.739	382.94
374.965	383.94
375.191	380.94
375.416	393.94
375.642	379.94
375.868	390.94
376.094	365.94
376.319	394.94
376.545	392.94
376.771	370.94
376.997	375.94
377.222	375.94
377.448	388.94
377.674	401.94
377.899	370.94
378.125	352.94
378.35	357.94
378.576	370.94
378.802	363.94
379.027	348.94
379.253	372.94
379.478	376.94
379.704	373.94
379.929	355.94
380.155	397.94
380.38	377.94
380.606	384.94
380.831	368.94
381.057	364.94
381.282	370.94
381.507	376.94
381.733	375.94
381.958	361.94
382.184	378.94
382.409	394.94
382.634	369.94
382.86	381.94
383.085	395.94
383.31	382.94
383.535	411.94
383.761	368.94
383.986	387.94
384.211	395.94
384.436	387.94
384.662	392.94
384.887	400.94
385.112	385.94
385.337	401.94
385.562	398.94
385.787	422.94
386.013	399.94
386.238	404.94
386.463	425.94
386.688	398.94
386.913	397.94
387.138	400.94
387.363	401.94
387.588	389.94
387.813	407.94
388.038	398.94
388.263	409.94
388.488	397.94
388.713	390.94
388.938	405.94
389.163	412.94
389.387	411.94
389.612	413.94
389.837	398.94
390.062	383.94
390.287	391.94
390.512	388.94
390.736	378.94
390.961	399.94
391.186	396.94
391.411	391.94
391.636	393.94
391.86	418.94
392.085	394.94
392.31	411.94
392.534	425.94
392.759	401.94
392.984	387.94
393.208	416.94
393.433	411.94
393.658	399.94
393.882	417.94
394.107	401.94
394.331	387.94
394.556	410.94
394.78	411.94
395.005	402.94
395.229	419.94
395.454	409.94
395.678	424.94
395.903	437.94
396.127	441.94
396.352	450.94
396.576	426.94
396.801	410.94
397.025	405.94
397.249	411.94
397.474	407.94
397.698	425.94
397.922	450.94
398.147	453.94
398.371	450.94
398.595	441.94
398.82	450.94
399.044	458.94
399.268	466.94
399.492	470.94
399.717	512.94
399.941	538.94
400.165	555.94
400.389	568.94
400.613	527.94
400.837	489.94
401.062	473.94
401.286	458.94
401.51	464.94
401.734	425.94
401.958	441.94
402.182	450.94
402.406	470.94
402.63	477.94
402.854	482.94
403.078	462.94
403.302	453.94
403.526	475.94
403.75	477.94
403.974	484.94
404.198	448.94
404.422	475.94
404.645	501.94
404.869	496.94
405.093	530.94
405.317	575.94
405.541	617.94
405.765	553.94
405.988	516.94
406.212	523.94
406.436	562.94
406.66	567.94
406.883	522.94
407.107	555.94
407.331	581.94
407.555	662.94
407.778	642.94
408.002	577.94
408.226	547.94
408.449	535.94
408.673	542.94
408.896	548.94
409.12	616.94
409.344	596.94
409.567	520.94
409.791	520.94
410.014	483.94
410.238	462.94
410.461	482.94
410.685	499.94
410.908	503.94
411.132	552.94
411.355	576.94
411.578	569.94
411.802	494.94
412.025	481.94
412.249	503.94
412.472	540.94
412.695	571.94
412.919	571.94
413.142	498.94
413.365	497.94
413.589	488.94
413.812	454.94
414.035	471.94
414.258	442.94
414.482	453.94
414.705	436.94
414.928	454.94
415.151	441.94
415.374	436.94
415.597	446.94
415.821	436.94
416.044	434.94
416.267	462.94
416.49	448.94
416.713	444.94
416.936	452.94
417.159	438.94
417.382	457.94
417.605	459.94
417.828	458.94
418.051	475.94
418.274	471.94
418.497	464.94
418.72	457.94
418.943	464.94
419.166	453.94
419.389	511.94
419.611	486.94
419.834	492.94
420.057	478.94
420.28	504.94
420.503	491.94
420.726	500.94
420.948	487.94
421.171	557.94
421.394	587.94
421.617	510.94
421.839	487.94
422.062	484.94
422.285	492.94
422.507	593.94
422.73	655.94
422.953	628.94
423.175	549.94
423.398	520.94
423.621	487.94
423.843	514.94
424.066	542.94
424.288	526.94
424.511	533.94
424.733	622.94
424.956	711.94
425.178	654.94
425.401	684.94
425.623	685.94
425.846	605.94
426.068	569.94
426.291	549.94
426.513	556.94
426.735	538.94
426.958	595.94
427.18	701.94
427.402	840.94
427.625	941.94
427.847	832.94
428.069	750.94
428.292	636.94
428.514	572.94
428.736	538.94
428.958	527.94
429.181	508.94
429.403	499.94
429.625	511.94
429.847	556.94
430.069	622.94
430.292	637.94
430.514	525.94
430.736	505.94
430.958	473.94
431.18	471.94
431.402	461.94
431.624	462.94
431.846	472.94
432.068	456.94
432.29	449.94
432.512	462.94
432.734	456.94
432.956	469.94
433.178	485.94
433.4	473.94
433.622	463.94
433.844	437.94
434.066	448.94
434.287	460.94
434.509	436.94
434.731	473.94
434.953	492.94
435.175	503.94
435.397	532.94
435.618	538.94
435.84	594.94
436.062	705.94
436.284	768.94
436.505	652.94
436.727	585.94
436.949	545.94
437.17	509.94
437.392	508.94
437.614	512.94
437.835	572.94
438.057	680.94
438.278	789.94
438.5	798.94
438.721	888.94
438.943	820.94
439.165	651.94
439.386	576.94
439.608	548.94
439.829	582.94
440.05	608.94
440.272	663.94
440.493	636.94
440.715	554.94
440.936	524.94
441.158	502.94
441.379	500.94
441.6	526.94
441.822	542.94
442.043	599.94
442.264	673.94
442.486	718.94
442.707	612.94
442.928	549.94
443.149	560.94
443.371	609.94
443.592	661.94
443.813	734.94
444.034	846.94
444.255	655.94
444.476	591.94
444.698	549.94
444.919	547.94
445.14	614.94
445.361	596.94
445.582	608.94
445.803	700.94
446.024	843.94
446.245	820.94
446.466	759.94
446.687	611.94
446.908	552.94
447.129	553.94
447.35	509.94
447.571	509.94
447.792	497.94
448.013	512.94
448.234	537.94
448.455	604.94
448.675	731.94
448.896	859.94
449.117	720.94
449.338	662.94
449.559	797.94
449.779	906.94
450	722.94
450.221	582.94
450.442	540.94
450.662	516.94
450.883	539.94
451.104	531.94
451.324	552.94
451.545	477.94
451.766	458.94
451.986	448.94
452.207	438.94
452.428	439.94
452.648	434.94
452.869	447.94
453.089	459.94
453.31	480.94
453.53	448.94
453.751	457.94
453.971	464.94
454.192	481.94
454.412	483.94
454.633	469.94
454.853	445.94
455.073	442.94
455.294	475.94
455.514	574.94
455.734	581.94
455.955	459.94
456.175	427.94
456.395	416.94
456.616	392.94
456.836	413.94
457.056	410.94
457.276	406.94
457.497	414.94
457.717	421.94
457.937	423.94
458.157	436.94
458.377	434.94
458.598	459.94
458.818	546.94
459.038	649.94
459.258	660.94
459.478	542.94
459.698	491.94
459.918	466.94
460.138	466.94
460.358	436.94
460.578	452.94
460.798	478.94
461.018	439.94
461.238	451.94
461.458	453.94
461.678	455.94
461.898	450.94
462.118	428.94
462.338	441.94
462.558	471.94
462.777	456.94
462.997	460.94
463.217	457.94
463.437	482.94
463.657	479.94
463.876	457.94
464.096	483.94
464.316	488.94
464.536	507.94
464.755	505.94
464.975	488.94
465.195	566.94
465.414	677.94
465.634	594.94
465.854	520.94
466.073	474.94
466.293	480.94
466.512	459.94
466.732	461.94
466.951	442.94
467.171	445.94
467.391	453.94
467.61	470.94
467.829	488.94
468.049	475.94
468.268	480.94
468.488	463.94
468.707	442.94
468.927	453.94
469.146	452.94
469.365	423.94
469.585	440.94
469.804	436.94
470.023	453.94
470.243	459.94
470.462	458.94
470.681	481.94
470.901	499.94
471.12	453.94
471.339	476.94
471.558	465.94
471.777	471.94
471.997	434.94
472.216	479.94
472.435	539.94
472.654	509.94
472.873	460.94
473.092	443.94
473.311	456.94
473.53	457.94
473.749	480.94
473.968	544.94
474.187	662.94
474.406	699.94
474.625	537.94
474.844	500.94
475.063	466.94
475.282	468.94
475.501	453.94
475.72	478.94
475.939	468.94
476.158	467.94
476.377	472.94
476.596	461.94
476.814	499.94
477.033	497.94
477.252	488.94
477.471	474.94
477.69	486.94
477.908	483.94
478.127	486.94
478.346	477.94
478.564	489.94
478.783	472.94
479.002	510.94
479.22	520.94
479.439	525.94
479.658	548.94
479.876	557.94
480.095	556.94
480.313	597.94
480.532	559.94
480.751	537.94
480.969	590.94
481.188	685.94
481.406	733.94
481.624	635.94
481.843	602.94
482.061	576.94
482.28	539.94
482.498	536.94
482.717	542.94
482.935	549.94
483.153	530.94
483.372	553.94
483.59	550.94
483.808	542.94
484.027	526.94
484.245	540.94
484.463	549.94
484.681	532.94
484.9	552.94
485.118	548.94
485.336	535.94
485.554	536.94
485.772	560.94
485.99	554.94
486.209	561.94
486.427	573.94
486.645	581.94
486.863	595.94
487.081	603.94
487.299	576.94
487.517	560.94
487.735	598.94
487.953	582.94
488.171	574.94
488.389	560.94
488.607	584.94
488.825	586.94
489.043	606.94
489.261	593.94
489.479	590.94
489.696	603.94
489.914	579.94
490.132	599.94
490.35	589.94
490.568	631.94
490.786	618.94
491.003	620.94
491.221	632.94
491.439	650.94
491.657	677.94
491.874	671.94
492.092	658.94
492.31	692.94
492.527	685.94
492.745	692.94
492.963	678.94
493.18	682.94
493.398	678.94
493.615	681.94
493.833	685.94
494.05	694.94
494.268	682.94
494.485	684.94
494.703	680.94
494.92	711.94
495.138	688.94
495.355	693.94
495.573	709.94
495.79	692.94
496.008	699.94
496.225	707.94
496.442	703.94
496.66	675.94
496.877	689.94
497.094	698.94
497.312	713.94
497.529	698.94
497.746	693.94
497.963	712.94
498.181	732.94
498.398	759.94
498.615	752.94
498.832	741.94
499.049	756.94
499.267	776.94
499.484	782.94
499.701	791.94
499.918	802.94
500.135	850.94
500.352	830.94
500.569	859.94
500.786	886.94
501.003	860.94
501.22	856.94
501.437	835.94
501.654	824.94
501.871	818.94
