Data from 1972.PennyLincolnUp.Lamp.En5.5.200Scan.071719.P1._HRD10591_15-27-59-843.txt Node
Date: Thu Jul 18 15:27:59 EDT 2019
User: cochatt
Spectrometer: HR+D1059
Trigger mode: 1
Integration Time (sec): 1.000000E-1
Scans to average: 1
Electric dark correction enabled: true
Nonlinearity correction enabled: false
Boxcar width: 0
XAxis mode: Wavelengths
Number of Pixels in Spectrum: 2048
>>>>>Begin Spectral Data<<<<<
223.165	-1.12
223.4	-1.12
223.635	-1.12
223.869	-12.12
224.104	-16.12
224.338	-17.12
224.573	-5.12
224.808	-20.12
225.042	-9.12
225.277	-6.12
225.511	-2.12
225.746	12.88
225.98	-11.12
226.215	7.88
226.449	4.88
226.683	24.88
226.918	18.88
227.152	30.88
227.387	30.88
227.621	24.88
227.856	44.88
228.09	70.88
228.324	61.88
228.559	71.88
228.793	80.88
229.027	112.88
229.262	114.88
229.496	120.88
229.73	148.88
229.964	158.88
230.199	137.88
230.433	117.88
230.667	140.88
230.901	110.88
231.136	99.88
231.37	106.88
231.604	124.88
231.838	113.88
232.072	111.88
232.306	124.88
232.541	127.88
232.775	130.88
233.009	116.88
233.243	120.88
233.477	119.88
233.711	109.88
233.945	116.88
234.179	110.88
234.413	122.88
234.647	125.88
234.881	124.88
235.115	125.88
235.349	105.88
235.583	126.88
235.817	106.88
236.051	130.88
236.285	132.88
236.519	138.88
236.753	120.88
236.987	144.88
237.221	199.88
237.455	270.88
237.689	202.88
237.922	145.88
238.156	132.88
238.39	128.88
238.624	132.88
238.858	147.88
239.091	138.88
239.325	123.88
239.559	134.88
239.793	136.88
240.027	116.88
240.26	142.88
240.494	164.88
240.728	147.88
240.961	157.88
241.195	146.88
241.429	124.88
241.662	140.88
241.896	138.88
242.13	138.88
242.363	126.88
242.597	135.88
242.83	145.88
243.064	134.88
243.298	151.88
243.531	151.88
243.765	147.88
243.998	132.88
244.232	151.88
244.465	143.88
244.699	136.88
244.932	150.88
245.166	148.88
245.399	149.88
245.633	128.88
245.866	128.88
246.099	154.88
246.333	148.88
246.566	143.88
246.8	149.88
247.033	154.88
247.266	162.88
247.5	162.88
247.733	183.88
247.966	181.88
248.2	180.88
248.433	170.88
248.666	176.88
248.899	176.88
249.133	197.88
249.366	214.88
249.599	228.88
249.832	196.88
250.066	184.88
250.299	183.88
250.532	190.88
250.765	202.88
250.998	224.88
251.231	237.88
251.465	234.88
251.698	221.88
251.931	206.88
252.164	204.88
252.397	203.88
252.63	206.88
252.863	199.88
253.096	206.88
253.329	231.88
253.562	229.88
253.795	215.88
254.028	223.88
254.261	220.88
254.494	231.88
254.727	264.88
254.96	305.88
255.193	254.88
255.426	255.88
255.659	250.88
255.892	258.88
256.124	254.88
256.357	253.88
256.59	234.88
256.823	231.88
257.056	220.88
257.289	225.88
257.521	223.88
257.754	230.88
257.987	216.88
258.22	214.88
258.452	222.88
258.685	218.88
258.918	202.88
259.151	214.88
259.383	236.88
259.616	244.88
259.849	245.88
260.081	258.88
260.314	261.88
260.547	263.88
260.779	257.88
261.012	260.88
261.244	230.88
261.477	230.88
261.71	231.88
261.942	217.88
262.175	258.88
262.407	248.88
262.64	230.88
262.872	230.88
263.105	212.88
263.337	220.88
263.57	227.88
263.802	215.88
264.035	226.88
264.267	232.88
264.499	209.88
264.732	206.88
264.964	215.88
265.197	220.88
265.429	221.88
265.661	213.88
265.894	217.88
266.126	221.88
266.358	218.88
266.591	235.88
266.823	216.88
267.055	234.88
267.287	225.88
267.52	235.88
267.752	235.88
267.984	238.88
268.216	234.88
268.448	235.88
268.681	247.88
268.913	245.88
269.145	272.88
269.377	296.88
269.609	286.88
269.841	270.88
270.073	260.88
270.306	297.88
270.538	331.88
270.77	334.88
271.002	322.88
271.234	300.88
271.466	313.88
271.698	339.88
271.93	330.88
272.162	328.88
272.394	333.88
272.626	313.88
272.858	317.88
273.09	293.88
273.322	292.88
273.553	261.88
273.785	279.88
274.017	274.88
274.249	270.88
274.481	277.88
274.713	268.88
274.945	279.88
275.176	270.88
275.408	274.88
275.64	260.88
275.872	270.88
276.104	257.88
276.335	271.88
276.567	283.88
276.799	295.88
277.031	326.88
277.262	342.88
277.494	315.88
277.726	310.88
277.957	306.88
278.189	291.88
278.421	292.88
278.652	262.88
278.884	281.88
279.115	258.88
279.347	272.88
279.579	253.88
279.81	260.88
280.042	276.88
280.273	275.88
280.505	268.88
280.736	278.88
280.968	268.88
281.199	271.88
281.431	259.88
281.662	280.88
281.894	270.88
282.125	274.88
282.356	292.88
282.588	318.88
282.819	321.88
283.051	293.88
283.282	281.88
283.513	307.88
283.745	288.88
283.976	269.88
284.207	290.88
284.439	284.88
284.67	283.88
284.901	282.88
285.132	281.88
285.364	281.88
285.595	270.88
285.826	290.88
286.057	275.88
286.288	284.88
286.52	274.88
286.751	287.88
286.982	275.88
287.213	296.88
287.444	274.88
287.675	287.88
287.906	303.88
288.138	291.88
288.369	304.88
288.6	304.88
288.831	294.88
289.062	290.88
289.293	276.88
289.524	284.88
289.755	291.88
289.986	284.88
290.217	291.88
290.448	309.88
290.679	282.88
290.91	293.88
291.141	311.88
291.371	298.88
291.602	286.88
291.833	284.88
292.064	282.88
292.295	289.88
292.526	287.88
292.757	292.88
292.987	271.88
293.218	277.88
293.449	284.88
293.68	299.88
293.91	285.88
294.141	277.88
294.372	285.88
294.603	277.88
294.833	297.88
295.064	303.88
295.295	268.88
295.525	288.88
295.756	273.88
295.987	301.88
296.217	330.88
296.448	321.88
296.679	320.88
296.909	285.88
297.14	277.88
297.37	275.88
297.601	299.88
297.831	291.88
298.062	298.88
298.292	291.88
298.523	303.88
298.753	294.88
298.984	317.88
299.214	303.88
299.445	280.88
299.675	280.88
299.905	295.88
300.136	286.88
300.366	310.88
300.597	293.88
300.827	300.88
301.057	319.88
301.288	336.88
301.518	319.88
301.748	307.88
301.979	314.88
302.209	321.88
302.439	308.88
302.669	323.88
302.9	303.88
303.13	318.88
303.36	322.88
303.59	318.88
303.82	334.88
304.051	334.88
304.281	352.88
304.511	314.88
304.741	310.88
304.971	313.88
305.201	317.88
305.431	300.88
305.661	330.88
305.891	341.88
306.121	334.88
306.352	343.88
306.582	318.88
306.812	321.88
307.042	328.88
307.272	333.88
307.502	325.88
307.731	315.88
307.961	327.88
308.191	329.88
308.421	322.88
308.651	331.88
308.881	319.88
309.111	334.88
309.341	358.88
309.571	357.88
309.8	367.88
310.03	379.88
310.26	398.88
310.49	375.88
310.72	398.88
310.949	399.88
311.179	407.88
311.409	410.88
311.639	364.88
311.868	389.88
312.098	378.88
312.328	402.88
312.557	421.88
312.787	413.88
313.017	429.88
313.246	396.88
313.476	374.88
313.706	373.88
313.935	394.88
314.165	411.88
314.394	414.88
314.624	389.88
314.853	407.88
315.083	398.88
315.312	383.88
315.542	383.88
315.771	360.88
316.001	360.88
316.23	355.88
316.46	386.88
316.689	366.88
316.919	392.88
317.148	406.88
317.377	395.88
317.607	379.88
317.836	365.88
318.065	386.88
318.295	387.88
318.524	370.88
318.753	380.88
318.983	364.88
319.212	383.88
319.441	378.88
319.67	385.88
319.9	375.88
320.129	382.88
320.358	368.88
320.587	376.88
320.816	376.88
321.046	422.88
321.275	416.88
321.504	399.88
321.733	401.88
321.962	406.88
322.191	428.88
322.42	444.88
322.649	471.88
322.878	467.88
323.108	461.88
323.337	539.88
323.566	543.88
323.795	599.88
324.024	661.88
324.253	792.88
324.482	1166.88
324.71	1842.88
324.939	2714.88
325.168	2379.88
325.397	1162.88
325.626	768.88
325.855	629.88
326.084	577.88
326.313	547.88
326.542	562.88
326.77	614.88
326.999	719.88
327.228	1026.88
327.457	1598.88
327.686	2056.88
327.914	1340.88
328.143	868.88
328.372	719.88
328.6	653.88
328.829	613.88
329.058	632.88
329.287	648.88
329.515	600.88
329.744	546.88
329.972	568.88
330.201	571.88
330.43	633.88
330.658	667.88
330.887	684.88
331.115	676.88
331.344	569.88
331.572	534.88
331.801	540.88
332.03	518.88
332.258	471.88
332.486	486.88
332.715	434.88
332.943	455.88
333.172	478.88
333.4	427.88
333.629	448.88
333.857	471.88
334.085	498.88
334.314	525.88
334.542	554.88
334.771	568.88
334.999	538.88
335.227	491.88
335.455	460.88
335.684	445.88
335.912	436.88
336.14	394.88
336.369	440.88
336.597	454.88
336.825	468.88
337.053	436.88
337.281	422.88
337.51	403.88
337.738	438.88
337.966	446.88
338.194	424.88
338.422	437.88
338.65	454.88
338.878	426.88
339.106	429.88
339.334	420.88
339.562	406.88
339.79	412.88
340.018	434.88
340.246	401.88
340.474	411.88
340.702	423.88
340.93	427.88
341.158	421.88
341.386	428.88
341.614	420.88
341.842	429.88
342.07	408.88
342.298	424.88
342.526	406.88
342.754	394.88
342.981	410.88
343.209	401.88
343.437	391.88
343.665	376.88
343.893	394.88
344.12	418.88
344.348	409.88
344.576	428.88
344.804	429.88
345.031	435.88
345.259	440.88
345.487	444.88
345.714	438.88
345.942	403.88
346.17	408.88
346.397	416.88
346.625	388.88
346.853	410.88
347.08	412.88
347.308	410.88
347.535	415.88
347.763	425.88
347.99	420.88
348.218	429.88
348.445	429.88
348.673	443.88
348.9	413.88
349.128	404.88
349.355	373.88
349.583	389.88
349.81	395.88
350.037	383.88
350.265	382.88
350.492	388.88
350.72	407.88
350.947	412.88
351.174	418.88
351.402	432.88
351.629	415.88
351.856	412.88
352.083	425.88
352.311	428.88
352.538	431.88
352.765	437.88
352.992	419.88
353.22	438.88
353.447	401.88
353.674	393.88
353.901	406.88
354.128	380.88
354.355	363.88
354.583	372.88
354.81	379.88
355.037	365.88
355.264	365.88
355.491	368.88
355.718	363.88
355.945	367.88
356.172	365.88
356.399	328.88
356.626	363.88
356.853	358.88
357.08	366.88
357.307	370.88
357.534	358.88
357.761	362.88
357.988	375.88
358.215	366.88
358.441	367.88
358.668	364.88
358.895	373.88
359.122	378.88
359.349	393.88
359.576	400.88
359.802	450.88
360.029	475.88
360.256	474.88
360.483	467.88
360.709	420.88
360.936	419.88
361.163	395.88
361.39	421.88
361.616	404.88
361.843	405.88
362.07	396.88
362.296	411.88
362.523	397.88
362.749	391.88
362.976	408.88
363.203	384.88
363.429	378.88
363.656	383.88
363.882	384.88
364.109	387.88
364.335	375.88
364.562	378.88
364.788	366.88
365.015	380.88
365.241	379.88
365.468	381.88
365.694	402.88
365.92	386.88
366.147	391.88
366.373	390.88
366.599	392.88
366.826	382.88
367.052	380.88
367.278	366.88
367.505	358.88
367.731	379.88
367.957	367.88
368.184	373.88
368.41	377.88
368.636	389.88
368.862	386.88
369.089	382.88
369.315	378.88
369.541	366.88
369.767	366.88
369.993	365.88
370.219	381.88
370.445	367.88
370.672	376.88
370.898	386.88
371.124	350.88
371.35	375.88
371.576	364.88
371.802	368.88
372.028	371.88
372.254	354.88
372.48	363.88
372.706	372.88
372.932	366.88
373.158	374.88
373.384	374.88
373.61	381.88
373.835	351.88
374.061	351.88
374.287	363.88
374.513	355.88
374.739	379.88
374.965	356.88
375.191	361.88
375.416	360.88
375.642	373.88
375.868	374.88
376.094	363.88
376.319	382.88
376.545	366.88
376.771	384.88
376.997	376.88
377.222	351.88
377.448	351.88
377.674	371.88
377.899	358.88
378.125	354.88
378.35	352.88
378.576	360.88
378.802	375.88
379.027	359.88
379.253	352.88
379.478	358.88
379.704	363.88
379.929	369.88
380.155	351.88
380.38	358.88
380.606	362.88
380.831	378.88
381.057	359.88
381.282	356.88
381.507	370.88
381.733	386.88
381.958	354.88
382.184	378.88
382.409	366.88
382.634	370.88
382.86	363.88
383.085	371.88
383.31	369.88
383.535	368.88
383.761	383.88
383.986	392.88
384.211	375.88
384.436	372.88
384.662	377.88
384.887	390.88
385.112	372.88
385.337	370.88
385.562	373.88
385.787	414.88
386.013	410.88
386.238	396.88
386.463	406.88
386.688	396.88
386.913	407.88
387.138	386.88
387.363	372.88
387.588	372.88
387.813	389.88
388.038	380.88
388.263	398.88
388.488	378.88
388.713	379.88
388.938	389.88
389.163	391.88
389.387	395.88
389.612	405.88
389.837	396.88
390.062	390.88
390.287	390.88
390.512	380.88
390.736	387.88
390.961	399.88
391.186	383.88
391.411	399.88
391.636	403.88
391.86	380.88
392.085	373.88
392.31	392.88
392.534	400.88
392.759	423.88
392.984	386.88
393.208	381.88
393.433	400.88
393.658	411.88
393.882	408.88
394.107	393.88
394.331	396.88
394.556	393.88
394.78	375.88
395.005	371.88
395.229	390.88
395.454	378.88
395.678	396.88
395.903	432.88
396.127	422.88
396.352	427.88
396.576	397.88
396.801	406.88
397.025	396.88
397.249	417.88
397.474	420.88
397.698	428.88
397.922	429.88
398.147	446.88
398.371	447.88
398.595	420.88
398.82	430.88
399.044	445.88
399.268	443.88
399.492	464.88
399.717	473.88
399.941	504.88
400.165	542.88
400.389	549.88
400.613	476.88
400.837	470.88
401.062	447.88
401.286	455.88
401.51	443.88
401.734	441.88
401.958	458.88
402.182	440.88
402.406	442.88
402.63	449.88
402.854	458.88
403.078	441.88
403.302	440.88
403.526	439.88
403.75	450.88
403.974	468.88
404.198	428.88
404.422	472.88
404.645	459.88
404.869	459.88
405.093	512.88
405.317	537.88
405.541	577.88
405.765	521.88
405.988	535.88
406.212	505.88
406.436	518.88
406.66	540.88
406.883	511.88
407.107	527.88
407.331	574.88
407.555	634.88
407.778	639.88
408.002	558.88
408.226	547.88
408.449	516.88
408.673	513.88
408.896	558.88
409.12	586.88
409.344	546.88
409.567	485.88
409.791	486.88
410.014	455.88
410.238	462.88
410.461	496.88
410.685	478.88
410.908	489.88
411.132	526.88
411.355	559.88
411.578	538.88
411.802	484.88
412.025	468.88
412.249	454.88
412.472	496.88
412.695	540.88
412.919	546.88
413.142	487.88
413.365	460.88
413.589	465.88
413.812	466.88
414.035	443.88
414.258	442.88
414.482	420.88
414.705	439.88
414.928	435.88
415.151	423.88
415.374	415.88
415.597	436.88
415.821	430.88
416.044	441.88
416.267	431.88
416.49	430.88
416.713	427.88
416.936	445.88
417.159	429.88
417.382	442.88
417.605	457.88
417.828	467.88
418.051	452.88
418.274	453.88
418.497	443.88
418.72	440.88
418.943	424.88
419.166	458.88
419.389	461.88
419.611	457.88
419.834	452.88
420.057	443.88
420.28	467.88
420.503	455.88
420.726	461.88
420.948	484.88
421.171	548.88
421.394	555.88
421.617	489.88
421.839	452.88
422.062	447.88
422.285	497.88
422.507	543.88
422.73	622.88
422.953	606.88
423.175	502.88
423.398	490.88
423.621	478.88
423.843	509.88
424.066	519.88
424.288	498.88
424.511	510.88
424.733	607.88
424.956	653.88
425.178	635.88
425.401	668.88
425.623	649.88
425.846	574.88
426.068	510.88
426.291	518.88
426.513	525.88
426.735	530.88
426.958	564.88
427.18	659.88
427.402	794.88
427.625	918.88
427.847	785.88
428.069	683.88
428.292	591.88
428.514	521.88
428.736	508.88
428.958	496.88
429.181	492.88
429.403	462.88
429.625	481.88
429.847	506.88
430.069	616.88
430.292	597.88
430.514	491.88
430.736	468.88
430.958	475.88
431.18	463.88
431.402	460.88
431.624	444.88
431.846	427.88
432.068	431.88
432.29	441.88
432.512	456.88
432.734	428.88
432.956	439.88
433.178	452.88
433.4	466.88
433.622	458.88
433.844	421.88
434.066	434.88
434.287	431.88
434.509	420.88
434.731	449.88
434.953	458.88
435.175	463.88
435.397	514.88
435.618	484.88
435.84	554.88
436.062	664.88
436.284	731.88
436.505	613.88
436.727	549.88
436.949	475.88
437.17	501.88
437.392	466.88
437.614	486.88
437.835	534.88
438.057	631.88
438.278	751.88
438.5	737.88
438.721	796.88
438.943	782.88
439.165	636.88
439.386	562.88
439.608	552.88
439.829	513.88
440.05	576.88
440.272	614.88
440.493	579.88
440.715	518.88
440.936	479.88
441.158	486.88
441.379	493.88
441.6	499.88
441.822	500.88
442.043	573.88
442.264	652.88
442.486	712.88
442.707	575.88
442.928	549.88
443.149	552.88
443.371	554.88
443.592	599.88
443.813	676.88
444.034	771.88
444.255	635.88
444.476	546.88
444.698	502.88
444.919	513.88
445.14	612.88
445.361	554.88
445.582	588.88
445.803	638.88
446.024	766.88
446.245	740.88
446.466	698.88
446.687	570.88
446.908	543.88
447.129	507.88
447.35	502.88
447.571	479.88
447.792	478.88
448.013	461.88
448.234	498.88
448.455	550.88
448.675	697.88
448.896	835.88
449.117	655.88
449.338	651.88
449.559	748.88
449.779	853.88
450	674.88
450.221	535.88
450.442	500.88
450.662	486.88
450.883	485.88
451.104	506.88
451.324	506.88
451.545	498.88
451.766	446.88
451.986	439.88
452.207	432.88
452.428	427.88
452.648	425.88
452.869	414.88
453.089	443.88
453.31	462.88
453.53	438.88
453.751	438.88
453.971	413.88
454.192	475.88
454.412	463.88
454.633	431.88
454.853	440.88
455.073	444.88
455.294	453.88
455.514	538.88
455.734	534.88
455.955	450.88
456.175	420.88
456.395	395.88
456.616	376.88
456.836	390.88
457.056	398.88
457.276	396.88
457.497	379.88
457.717	393.88
457.937	403.88
458.157	414.88
458.377	418.88
458.598	442.88
458.818	510.88
459.038	621.88
459.258	648.88
459.478	505.88
459.698	459.88
459.918	427.88
460.138	434.88
460.358	418.88
460.578	431.88
460.798	434.88
461.018	431.88
461.238	444.88
461.458	421.88
461.678	426.88
461.898	439.88
462.118	424.88
462.338	450.88
462.558	464.88
462.777	444.88
462.997	446.88
463.217	447.88
463.437	467.88
463.657	453.88
463.876	486.88
464.096	457.88
464.316	487.88
464.536	456.88
464.755	462.88
464.975	488.88
465.195	528.88
465.414	616.88
465.634	548.88
465.854	483.88
466.073	468.88
466.293	431.88
466.512	434.88
466.732	420.88
466.951	421.88
467.171	409.88
467.391	441.88
467.61	442.88
467.829	453.88
468.049	465.88
468.268	453.88
468.488	405.88
468.707	435.88
468.927	417.88
469.146	410.88
469.365	418.88
469.585	429.88
469.804	429.88
470.023	456.88
470.243	430.88
470.462	455.88
470.681	454.88
470.901	445.88
471.12	425.88
471.339	426.88
471.558	443.88
471.777	437.88
471.997	446.88
472.216	438.88
472.435	493.88
472.654	490.88
472.873	457.88
473.092	430.88
473.311	436.88
473.53	424.88
473.749	460.88
473.968	506.88
474.187	627.88
474.406	641.88
474.625	532.88
474.844	477.88
475.063	446.88
475.282	462.88
475.501	427.88
475.72	450.88
475.939	470.88
476.158	444.88
476.377	450.88
476.596	430.88
476.814	453.88
477.033	453.88
477.252	464.88
477.471	463.88
477.69	470.88
477.908	483.88
478.127	486.88
478.346	470.88
478.564	468.88
478.783	460.88
479.002	481.88
479.22	505.88
479.439	524.88
479.658	492.88
479.876	522.88
480.095	514.88
480.313	560.88
480.532	525.88
480.751	547.88
480.969	546.88
481.188	631.88
481.406	674.88
481.624	580.88
481.843	551.88
482.061	518.88
482.28	546.88
482.498	535.88
482.717	514.88
482.935	507.88
483.153	503.88
483.372	508.88
483.59	528.88
483.808	513.88
484.027	520.88
484.245	498.88
484.463	519.88
484.681	506.88
484.9	545.88
485.118	546.88
485.336	531.88
485.554	515.88
485.772	538.88
485.99	541.88
486.209	546.88
486.427	542.88
486.645	555.88
486.863	580.88
487.081	558.88
487.299	543.88
487.517	563.88
487.735	563.88
487.953	563.88
488.171	552.88
488.389	547.88
488.607	543.88
488.825	559.88
489.043	553.88
489.261	566.88
489.479	552.88
489.696	563.88
489.914	554.88
490.132	568.88
490.35	572.88
490.568	560.88
490.786	574.88
491.003	571.88
491.221	611.88
491.439	610.88
491.657	638.88
491.874	646.88
492.092	649.88
492.31	608.88
492.527	621.88
492.745	638.88
492.963	643.88
493.18	656.88
493.398	651.88
493.615	671.88
493.833	641.88
494.05	679.88
494.268	638.88
494.485	672.88
494.703	654.88
494.92	635.88
495.138	646.88
495.355	658.88
495.573	644.88
495.79	681.88
496.008	674.88
496.225	640.88
496.442	657.88
496.66	668.88
496.877	649.88
497.094	654.88
497.312	667.88
497.529	672.88
497.746	694.88
497.963	680.88
498.181	669.88
498.398	724.88
498.615	712.88
498.832	740.88
499.049	700.88
499.267	742.88
499.484	741.88
499.701	756.88
499.918	766.88
500.135	830.88
500.352	799.88
500.569	815.88
500.786	836.88
501.003	836.88
501.22	818.88
501.437	840.88
501.654	794.88
501.871	810.88
