Data from 1972.PennyLincolnUp.Lamp.En5.5.200Scan.071719.P1._HRD10591_15-29-01-844.txt Node
Date: Thu Jul 18 15:29:01 EDT 2019
User: cochatt
Spectrometer: HR+D1059
Trigger mode: 1
Integration Time (sec): 1.000000E-1
Scans to average: 1
Electric dark correction enabled: true
Nonlinearity correction enabled: false
Boxcar width: 0
XAxis mode: Wavelengths
Number of Pixels in Spectrum: 2048
>>>>>Begin Spectral Data<<<<<
223.165	-12.06
223.4	-12.06
223.635	-12.06
223.869	-25.06
224.104	-14.06
224.338	-14.06
224.573	-24.06
224.808	-17.06
225.042	-5.06
225.277	-2.06
225.511	-4.06
225.746	13.94
225.98	-12.06
226.215	13.94
226.449	25.94
226.683	23.94
226.918	28.94
227.152	22.94
227.387	37.94
227.621	28.94
227.856	44.94
228.09	53.94
228.324	47.94
228.559	51.94
228.793	75.94
229.027	108.94
229.262	113.94
229.496	120.94
229.73	136.94
229.964	170.94
230.199	130.94
230.433	124.94
230.667	109.94
230.901	121.94
231.136	110.94
231.37	113.94
231.604	101.94
231.838	99.94
232.072	125.94
232.306	117.94
232.541	121.94
232.775	120.94
233.009	107.94
233.243	110.94
233.477	113.94
233.711	105.94
233.945	119.94
234.179	115.94
234.413	123.94
234.647	109.94
234.881	110.94
235.115	118.94
235.349	133.94
235.583	124.94
235.817	116.94
236.051	131.94
236.285	118.94
236.519	138.94
236.753	149.94
236.987	171.94
237.221	209.94
237.455	254.94
237.689	199.94
237.922	134.94
238.156	149.94
238.39	143.94
238.624	133.94
238.858	133.94
239.091	116.94
239.325	118.94
239.559	130.94
239.793	131.94
240.027	142.94
240.26	148.94
240.494	166.94
240.728	148.94
240.961	152.94
241.195	164.94
241.429	147.94
241.662	145.94
241.896	150.94
242.13	125.94
242.363	125.94
242.597	130.94
242.83	129.94
243.064	139.94
243.298	139.94
243.531	141.94
243.765	166.94
243.998	131.94
244.232	123.94
244.465	141.94
244.699	160.94
244.932	148.94
245.166	153.94
245.399	158.94
245.633	141.94
245.866	150.94
246.099	141.94
246.333	163.94
246.566	143.94
246.8	153.94
247.033	143.94
247.266	162.94
247.5	157.94
247.733	182.94
247.966	171.94
248.2	173.94
248.433	176.94
248.666	177.94
248.899	185.94
249.133	210.94
249.366	216.94
249.599	233.94
249.832	211.94
250.066	204.94
250.299	186.94
250.532	196.94
250.765	203.94
250.998	233.94
251.231	244.94
251.465	223.94
251.698	204.94
251.931	210.94
252.164	212.94
252.397	221.94
252.63	222.94
252.863	205.94
253.096	229.94
253.329	245.94
253.562	237.94
253.795	245.94
254.028	241.94
254.261	233.94
254.494	248.94
254.727	261.94
254.96	291.94
255.193	286.94
255.426	283.94
255.659	262.94
255.892	244.94
256.124	230.94
256.357	263.94
256.59	238.94
256.823	230.94
257.056	232.94
257.289	235.94
257.521	221.94
257.754	222.94
257.987	203.94
258.22	226.94
258.452	215.94
258.685	217.94
258.918	236.94
259.151	210.94
259.383	237.94
259.616	230.94
259.849	238.94
260.081	230.94
260.314	269.94
260.547	296.94
260.779	267.94
261.012	247.94
261.244	248.94
261.477	242.94
261.71	234.94
261.942	241.94
262.175	258.94
262.407	261.94
262.64	222.94
262.872	229.94
263.105	222.94
263.337	211.94
263.57	222.94
263.802	224.94
264.035	215.94
264.267	217.94
264.499	201.94
264.732	227.94
264.964	218.94
265.197	211.94
265.429	224.94
265.661	210.94
265.894	218.94
266.126	222.94
266.358	211.94
266.591	230.94
266.823	242.94
267.055	243.94
267.287	237.94
267.52	218.94
267.752	241.94
267.984	231.94
268.216	219.94
268.448	220.94
268.681	239.94
268.913	264.94
269.145	281.94
269.377	294.94
269.609	279.94
269.841	284.94
270.073	284.94
270.306	312.94
270.538	332.94
270.77	324.94
271.002	307.94
271.234	321.94
271.466	313.94
271.698	338.94
271.93	330.94
272.162	342.94
272.394	323.94
272.626	328.94
272.858	295.94
273.09	298.94
273.322	285.94
273.553	287.94
273.785	269.94
274.017	266.94
274.249	255.94
274.481	295.94
274.713	281.94
274.945	281.94
275.176	269.94
275.408	277.94
275.64	289.94
275.872	266.94
276.104	261.94
276.335	276.94
276.567	272.94
276.799	300.94
277.031	316.94
277.262	338.94
277.494	343.94
277.726	321.94
277.957	297.94
278.189	307.94
278.421	296.94
278.652	289.94
278.884	279.94
279.115	287.94
279.347	262.94
279.579	271.94
279.81	254.94
280.042	253.94
280.273	263.94
280.505	262.94
280.736	282.94
280.968	269.94
281.199	255.94
281.431	270.94
281.662	277.94
281.894	271.94
282.125	282.94
282.356	292.94
282.588	313.94
282.819	309.94
283.051	287.94
283.282	266.94
283.513	265.94
283.745	287.94
283.976	277.94
284.207	284.94
284.439	279.94
284.67	272.94
284.901	308.94
285.132	277.94
285.364	272.94
285.595	286.94
285.826	262.94
286.057	257.94
286.288	263.94
286.52	283.94
286.751	277.94
286.982	279.94
287.213	279.94
287.444	295.94
287.675	309.94
287.906	293.94
288.138	292.94
288.369	295.94
288.6	292.94
288.831	305.94
289.062	293.94
289.293	291.94
289.524	295.94
289.755	292.94
289.986	265.94
290.217	287.94
290.448	295.94
290.679	263.94
290.91	299.94
291.141	274.94
291.371	274.94
291.602	287.94
291.833	291.94
292.064	281.94
292.295	294.94
292.526	297.94
292.757	285.94
292.987	305.94
293.218	273.94
293.449	289.94
293.68	284.94
293.91	279.94
294.141	265.94
294.372	284.94
294.603	278.94
294.833	293.94
295.064	279.94
295.295	288.94
295.525	292.94
295.756	306.94
295.987	305.94
296.217	325.94
296.448	319.94
296.679	306.94
296.909	302.94
297.14	288.94
297.37	277.94
297.601	302.94
297.831	294.94
298.062	275.94
298.292	300.94
298.523	287.94
298.753	294.94
298.984	296.94
299.214	311.94
299.445	293.94
299.675	301.94
299.905	310.94
300.136	317.94
300.366	299.94
300.597	309.94
300.827	300.94
301.057	307.94
301.288	317.94
301.518	314.94
301.748	305.94
301.979	312.94
302.209	324.94
302.439	331.94
302.669	332.94
302.9	319.94
303.13	324.94
303.36	331.94
303.59	334.94
303.82	339.94
304.051	350.94
304.281	307.94
304.511	335.94
304.741	331.94
304.971	318.94
305.201	295.94
305.431	311.94
305.661	329.94
305.891	317.94
306.121	328.94
306.352	334.94
306.582	333.94
306.812	301.94
307.042	328.94
307.272	316.94
307.502	322.94
307.731	327.94
307.961	323.94
308.191	337.94
308.421	324.94
308.651	331.94
308.881	335.94
309.111	349.94
309.341	329.94
309.571	354.94
309.8	365.94
310.03	373.94
310.26	377.94
310.49	376.94
310.72	405.94
310.949	408.94
311.179	420.94
311.409	406.94
311.639	370.94
311.868	360.94
312.098	399.94
312.328	403.94
312.557	403.94
312.787	439.94
313.017	434.94
313.246	408.94
313.476	387.94
313.706	372.94
313.935	378.94
314.165	392.94
314.394	429.94
314.624	404.94
314.853	399.94
315.083	389.94
315.312	384.94
315.542	378.94
315.771	368.94
316.001	387.94
316.23	368.94
316.46	374.94
316.689	367.94
316.919	389.94
317.148	385.94
317.377	388.94
317.607	394.94
317.836	389.94
318.065	393.94
318.295	354.94
318.524	379.94
318.753	381.94
318.983	359.94
319.212	353.94
319.441	394.94
319.67	379.94
319.9	383.94
320.129	373.94
320.358	406.94
320.587	405.94
320.816	392.94
321.046	401.94
321.275	426.94
321.504	404.94
321.733	421.94
321.962	444.94
322.191	435.94
322.42	453.94
322.649	474.94
322.878	475.94
323.108	514.94
323.337	553.94
323.566	560.94
323.795	618.94
324.024	687.94
324.253	801.94
324.482	1233.94
324.71	1912.94
324.939	2844.94
325.168	2511.94
325.397	1290.94
325.626	797.94
325.855	641.94
326.084	604.94
326.313	559.94
326.542	571.94
326.77	603.94
326.999	797.94
327.228	1109.94
327.457	1682.94
327.686	2094.94
327.914	1389.94
328.143	885.94
328.372	735.94
328.6	707.94
328.829	655.94
329.058	649.94
329.287	679.94
329.515	622.94
329.744	576.94
329.972	579.94
330.201	602.94
330.43	619.94
330.658	711.94
330.887	695.94
331.115	711.94
331.344	586.94
331.572	537.94
331.801	517.94
332.03	525.94
332.258	481.94
332.486	462.94
332.715	452.94
332.943	448.94
333.172	451.94
333.4	478.94
333.629	474.94
333.857	490.94
334.085	499.94
334.314	505.94
334.542	558.94
334.771	589.94
334.999	543.94
335.227	467.94
335.455	450.94
335.684	457.94
335.912	470.94
336.14	414.94
336.369	439.94
336.597	446.94
336.825	440.94
337.053	438.94
337.281	430.94
337.51	444.94
337.738	438.94
337.966	426.94
338.194	438.94
338.422	448.94
338.65	425.94
338.878	445.94
339.106	430.94
339.334	391.94
339.562	425.94
339.79	405.94
340.018	420.94
340.246	439.94
340.474	419.94
340.702	418.94
340.93	409.94
341.158	413.94
341.386	420.94
341.614	428.94
341.842	414.94
342.07	436.94
342.298	409.94
342.526	385.94
342.754	416.94
342.981	389.94
343.209	402.94
343.437	411.94
343.665	417.94
343.893	405.94
344.12	410.94
344.348	406.94
344.576	413.94
344.804	410.94
345.031	431.94
345.259	461.94
345.487	453.94
345.714	437.94
345.942	412.94
346.17	409.94
346.397	412.94
346.625	407.94
346.853	421.94
347.08	419.94
347.308	422.94
347.535	432.94
347.763	417.94
347.99	422.94
348.218	435.94
348.445	410.94
348.673	450.94
348.9	419.94
349.128	400.94
349.355	395.94
349.583	393.94
349.81	390.94
350.037	418.94
350.265	395.94
350.492	406.94
350.72	398.94
350.947	403.94
351.174	396.94
351.402	417.94
351.629	401.94
351.856	403.94
352.083	444.94
352.311	426.94
352.538	439.94
352.765	441.94
352.992	429.94
353.22	438.94
353.447	433.94
353.674	407.94
353.901	389.94
354.128	383.94
354.355	385.94
354.583	381.94
354.81	371.94
355.037	402.94
355.264	369.94
355.491	379.94
355.718	346.94
355.945	351.94
356.172	364.94
356.399	351.94
356.626	340.94
356.853	367.94
357.08	374.94
357.307	369.94
357.534	364.94
357.761	389.94
357.988	382.94
358.215	363.94
358.441	389.94
358.668	365.94
358.895	381.94
359.122	379.94
359.349	401.94
359.576	410.94
359.802	451.94
360.029	473.94
360.256	479.94
360.483	450.94
360.709	415.94
360.936	399.94
361.163	406.94
361.39	395.94
361.616	421.94
361.843	414.94
362.07	400.94
362.296	406.94
362.523	404.94
362.749	391.94
362.976	391.94
363.203	409.94
363.429	382.94
363.656	369.94
363.882	356.94
364.109	381.94
364.335	379.94
364.562	379.94
364.788	381.94
365.015	377.94
365.241	361.94
365.468	391.94
365.694	393.94
365.92	394.94
366.147	396.94
366.373	382.94
366.599	367.94
366.826	362.94
367.052	389.94
367.278	375.94
367.505	371.94
367.731	374.94
367.957	387.94
368.184	378.94
368.41	394.94
368.636	383.94
368.862	387.94
369.089	396.94
369.315	381.94
369.541	376.94
369.767	372.94
369.993	381.94
370.219	378.94
370.445	364.94
370.672	382.94
370.898	395.94
371.124	396.94
371.35	373.94
371.576	371.94
371.802	354.94
372.028	349.94
372.254	370.94
372.48	349.94
372.706	359.94
372.932	352.94
373.158	367.94
373.384	361.94
373.61	370.94
373.835	357.94
374.061	371.94
374.287	377.94
374.513	381.94
374.739	364.94
374.965	351.94
375.191	371.94
375.416	362.94
375.642	356.94
375.868	366.94
376.094	384.94
376.319	358.94
376.545	363.94
376.771	353.94
376.997	349.94
377.222	350.94
377.448	365.94
377.674	346.94
377.899	347.94
378.125	353.94
378.35	366.94
378.576	353.94
378.802	373.94
379.027	375.94
379.253	369.94
379.478	349.94
379.704	352.94
379.929	361.94
380.155	366.94
380.38	357.94
380.606	379.94
380.831	350.94
381.057	367.94
381.282	348.94
381.507	355.94
381.733	373.94
381.958	371.94
382.184	364.94
382.409	369.94
382.634	360.94
382.86	379.94
383.085	350.94
383.31	385.94
383.535	373.94
383.761	366.94
383.986	374.94
384.211	364.94
384.436	376.94
384.662	402.94
384.887	360.94
385.112	375.94
385.337	374.94
385.562	378.94
385.787	385.94
386.013	389.94
386.238	405.94
386.463	390.94
386.688	381.94
386.913	389.94
387.138	379.94
387.363	373.94
387.588	390.94
387.813	387.94
388.038	379.94
388.263	394.94
388.488	390.94
388.713	379.94
388.938	393.94
389.163	390.94
389.387	408.94
389.612	395.94
389.837	375.94
390.062	369.94
390.287	379.94
390.512	374.94
390.736	383.94
390.961	374.94
391.186	390.94
391.411	381.94
391.636	397.94
391.86	377.94
392.085	384.94
392.31	399.94
392.534	365.94
392.759	396.94
392.984	383.94
393.208	362.94
393.433	399.94
393.658	394.94
393.882	372.94
394.107	378.94
394.331	405.94
394.556	390.94
394.78	383.94
395.005	385.94
395.229	373.94
395.454	405.94
395.678	397.94
395.903	413.94
396.127	421.94
396.352	422.94
396.576	383.94
396.801	405.94
397.025	409.94
397.249	398.94
397.474	392.94
397.698	410.94
397.922	428.94
398.147	424.94
398.371	457.94
398.595	418.94
398.82	422.94
399.044	438.94
399.268	442.94
399.492	445.94
399.717	468.94
399.941	481.94
400.165	540.94
400.389	524.94
400.613	503.94
400.837	461.94
401.062	433.94
401.286	438.94
401.51	426.94
401.734	433.94
401.958	434.94
402.182	437.94
402.406	471.94
402.63	451.94
402.854	450.94
403.078	450.94
403.302	463.94
403.526	467.94
403.75	477.94
403.974	470.94
404.198	443.94
404.422	456.94
404.645	475.94
404.869	494.94
405.093	499.94
405.317	553.94
405.541	577.94
405.765	527.94
405.988	487.94
406.212	512.94
406.436	524.94
406.66	561.94
406.883	519.94
407.107	553.94
407.331	566.94
407.555	607.94
407.778	645.94
408.002	569.94
408.226	531.94
408.449	515.94
408.673	497.94
408.896	557.94
409.12	602.94
409.344	542.94
409.567	513.94
409.791	475.94
410.014	473.94
410.238	452.94
410.461	454.94
410.685	461.94
410.908	492.94
411.132	527.94
411.355	557.94
411.578	552.94
411.802	458.94
412.025	475.94
412.249	475.94
412.472	515.94
412.695	547.94
412.919	521.94
413.142	488.94
413.365	457.94
413.589	445.94
413.812	433.94
414.035	440.94
414.258	421.94
414.482	422.94
414.705	430.94
414.928	406.94
415.151	425.94
415.374	427.94
415.597	446.94
415.821	415.94
416.044	438.94
416.267	438.94
416.49	423.94
416.713	415.94
416.936	434.94
417.159	435.94
417.382	435.94
417.605	458.94
417.828	450.94
418.051	437.94
418.274	443.94
418.497	450.94
418.72	438.94
418.943	422.94
419.166	438.94
419.389	468.94
419.611	464.94
419.834	439.94
420.057	472.94
420.28	497.94
420.503	462.94
420.726	454.94
420.948	466.94
421.171	521.94
421.394	551.94
421.617	498.94
421.839	459.94
422.062	450.94
422.285	470.94
422.507	551.94
422.73	620.94
422.953	589.94
423.175	500.94
423.398	489.94
423.621	491.94
423.843	510.94
424.066	521.94
424.288	500.94
424.511	512.94
424.733	573.94
424.956	677.94
425.178	643.94
425.401	640.94
425.623	657.94
425.846	567.94
426.068	518.94
426.291	509.94
426.513	511.94
426.735	532.94
426.958	586.94
427.18	642.94
427.402	819.94
427.625	907.94
427.847	807.94
428.069	691.94
428.292	593.94
428.514	546.94
428.736	517.94
428.958	494.94
429.181	494.94
429.403	485.94
429.625	501.94
429.847	549.94
430.069	602.94
430.292	600.94
430.514	503.94
430.736	480.94
430.958	474.94
431.18	460.94
431.402	434.94
431.624	409.94
431.846	423.94
432.068	433.94
432.29	439.94
432.512	414.94
432.734	446.94
432.956	415.94
433.178	475.94
433.4	477.94
433.622	445.94
433.844	422.94
434.066	420.94
434.287	426.94
434.509	442.94
434.731	453.94
434.953	427.94
435.175	457.94
435.397	490.94
435.618	531.94
435.84	574.94
436.062	673.94
436.284	722.94
436.505	612.94
436.727	527.94
436.949	517.94
437.17	495.94
437.392	490.94
437.614	503.94
437.835	547.94
438.057	644.94
438.278	771.94
438.5	751.94
438.721	791.94
438.943	782.94
439.165	607.94
439.386	556.94
439.608	557.94
439.829	550.94
440.05	590.94
440.272	645.94
440.493	588.94
440.715	504.94
440.936	477.94
441.158	486.94
441.379	480.94
441.6	501.94
441.822	509.94
442.043	595.94
442.264	676.94
442.486	708.94
442.707	611.94
442.928	540.94
443.149	535.94
443.371	575.94
443.592	594.94
443.813	693.94
444.034	746.94
444.255	623.94
444.476	523.94
444.698	515.94
444.919	494.94
445.14	625.94
445.361	569.94
445.582	569.94
445.803	653.94
446.024	781.94
446.245	804.94
446.466	731.94
446.687	598.94
446.908	525.94
447.129	519.94
447.35	483.94
447.571	490.94
447.792	492.94
448.013	481.94
448.234	518.94
448.455	556.94
448.675	682.94
448.896	771.94
449.117	675.94
449.338	637.94
449.559	763.94
449.779	854.94
450	661.94
450.221	575.94
450.442	497.94
450.662	485.94
450.883	490.94
451.104	499.94
451.324	502.94
451.545	470.94
451.766	441.94
451.986	423.94
452.207	418.94
452.428	420.94
452.648	424.94
452.869	427.94
453.089	443.94
453.31	447.94
453.53	439.94
453.751	428.94
453.971	438.94
454.192	464.94
454.412	450.94
454.633	444.94
454.853	439.94
455.073	443.94
455.294	450.94
455.514	551.94
455.734	549.94
455.955	444.94
456.175	409.94
456.395	406.94
456.616	405.94
456.836	384.94
457.056	417.94
457.276	387.94
457.497	388.94
457.717	404.94
457.937	393.94
458.157	425.94
458.377	431.94
458.598	436.94
458.818	489.94
459.038	621.94
459.258	648.94
459.478	521.94
459.698	454.94
459.918	450.94
460.138	430.94
460.358	440.94
460.578	429.94
460.798	443.94
461.018	422.94
461.238	443.94
461.458	425.94
461.678	450.94
461.898	431.94
462.118	439.94
462.338	431.94
462.558	435.94
462.777	445.94
462.997	449.94
463.217	434.94
463.437	473.94
463.657	459.94
463.876	450.94
464.096	455.94
464.316	457.94
464.536	463.94
464.755	468.94
464.975	463.94
465.195	536.94
465.414	639.94
465.634	561.94
465.854	488.94
466.073	463.94
466.293	458.94
466.512	455.94
466.732	430.94
466.951	443.94
467.171	420.94
467.391	445.94
467.61	433.94
467.829	451.94
468.049	449.94
468.268	446.94
468.488	451.94
468.707	422.94
468.927	439.94
469.146	419.94
469.365	408.94
469.585	394.94
469.804	442.94
470.023	434.94
470.243	455.94
470.462	439.94
470.681	454.94
470.901	463.94
471.12	440.94
471.339	425.94
471.558	451.94
471.777	445.94
471.997	433.94
472.216	463.94
472.435	500.94
472.654	475.94
472.873	441.94
473.092	435.94
473.311	450.94
473.53	453.94
473.749	452.94
473.968	484.94
474.187	613.94
474.406	645.94
474.625	513.94
474.844	466.94
475.063	443.94
475.282	443.94
475.501	420.94
475.72	477.94
475.939	462.94
476.158	469.94
476.377	439.94
476.596	435.94
476.814	468.94
477.033	453.94
477.252	477.94
477.471	461.94
477.69	475.94
477.908	487.94
478.127	483.94
478.346	482.94
478.564	479.94
478.783	464.94
479.002	498.94
479.22	481.94
479.439	492.94
479.658	534.94
479.876	539.94
480.095	547.94
480.313	564.94
480.532	539.94
480.751	546.94
480.969	565.94
481.188	643.94
481.406	702.94
481.624	595.94
481.843	550.94
482.061	529.94
482.28	523.94
482.498	514.94
482.717	497.94
482.935	525.94
483.153	514.94
483.372	512.94
483.59	514.94
483.808	516.94
484.027	516.94
484.245	523.94
484.463	501.94
484.681	511.94
484.9	541.94
485.118	540.94
485.336	545.94
485.554	509.94
485.772	549.94
485.99	524.94
486.209	538.94
486.427	545.94
486.645	562.94
486.863	574.94
487.081	559.94
487.299	557.94
487.517	539.94
487.735	539.94
487.953	533.94
488.171	561.94
488.389	556.94
488.607	553.94
488.825	553.94
489.043	545.94
489.261	579.94
489.479	544.94
489.696	563.94
489.914	568.94
490.132	540.94
490.35	561.94
490.568	569.94
490.786	572.94
491.003	591.94
491.221	597.94
491.439	638.94
491.657	602.94
491.874	641.94
492.092	629.94
492.31	654.94
492.527	641.94
492.745	645.94
492.963	661.94
493.18	641.94
493.398	656.94
493.615	651.94
493.833	676.94
494.05	663.94
494.268	650.94
494.485	639.94
494.703	657.94
494.92	673.94
495.138	662.94
495.355	662.94
495.573	653.94
495.79	647.94
496.008	671.94
496.225	642.94
496.442	645.94
496.66	659.94
496.877	676.94
497.094	674.94
497.312	676.94
497.529	684.94
497.746	677.94
497.963	693.94
498.181	691.94
498.398	704.94
498.615	720.94
498.832	714.94
499.049	699.94
499.267	723.94
499.484	726.94
499.701	757.94
499.918	775.94
500.135	796.94
500.352	823.94
500.569	809.94
500.786	817.94
501.003	804.94
501.22	807.94
501.437	773.94
501.654	801.94
501.871	805.94
