Data from 1972.PennyLincolnUp.Lamp.En5.5.200Scan.071719.P1._HRD10591_15-28-04-844.txt Node
Date: Thu Jul 18 15:28:04 EDT 2019
User: cochatt
Spectrometer: HR+D1059
Trigger mode: 1
Integration Time (sec): 1.000000E-1
Scans to average: 1
Electric dark correction enabled: true
Nonlinearity correction enabled: false
Boxcar width: 0
XAxis mode: Wavelengths
Number of Pixels in Spectrum: 2048
>>>>>Begin Spectral Data<<<<<
223.165	-7.56
223.4	-7.56
223.635	-7.56
223.869	-23.56
224.104	-24.56
224.338	-8.56
224.573	-11.56
224.808	-13.56
225.042	-19.56
225.277	-2.56
225.511	-6.56
225.746	5.44
225.98	12.44
226.215	20.44
226.449	6.44
226.683	12.44
226.918	25.44
227.152	35.44
227.387	32.44
227.621	39.44
227.856	45.44
228.09	52.44
228.324	45.44
228.559	46.44
228.793	72.44
229.027	99.44
229.262	101.44
229.496	107.44
229.73	132.44
229.964	174.44
230.199	135.44
230.433	128.44
230.667	119.44
230.901	113.44
231.136	113.44
231.37	113.44
231.604	112.44
231.838	96.44
232.072	99.44
232.306	123.44
232.541	119.44
232.775	102.44
233.009	122.44
233.243	126.44
233.477	104.44
233.711	102.44
233.945	132.44
234.179	114.44
234.413	118.44
234.647	119.44
234.881	112.44
235.115	119.44
235.349	134.44
235.583	117.44
235.817	120.44
236.051	140.44
236.285	125.44
236.519	114.44
236.753	133.44
236.987	147.44
237.221	192.44
237.455	258.44
237.689	203.44
237.922	143.44
238.156	141.44
238.39	140.44
238.624	130.44
238.858	123.44
239.091	134.44
239.325	124.44
239.559	114.44
239.793	132.44
240.027	127.44
240.26	142.44
240.494	168.44
240.728	156.44
240.961	142.44
241.195	137.44
241.429	137.44
241.662	137.44
241.896	132.44
242.13	141.44
242.363	134.44
242.597	123.44
242.83	138.44
243.064	137.44
243.298	130.44
243.531	133.44
243.765	148.44
243.998	160.44
244.232	139.44
244.465	137.44
244.699	143.44
244.932	153.44
245.166	150.44
245.399	148.44
245.633	152.44
245.866	132.44
246.099	141.44
246.333	156.44
246.566	138.44
246.8	140.44
247.033	147.44
247.266	160.44
247.5	159.44
247.733	164.44
247.966	179.44
248.2	173.44
248.433	161.44
248.666	175.44
248.899	183.44
249.133	211.44
249.366	203.44
249.599	209.44
249.832	196.44
250.066	169.44
250.299	205.44
250.532	206.44
250.765	213.44
250.998	228.44
251.231	237.44
251.465	219.44
251.698	211.44
251.931	191.44
252.164	199.44
252.397	194.44
252.63	205.44
252.863	205.44
253.096	228.44
253.329	220.44
253.562	213.44
253.795	216.44
254.028	226.44
254.261	211.44
254.494	237.44
254.727	279.44
254.96	270.44
255.193	274.44
255.426	252.44
255.659	244.44
255.892	233.44
256.124	253.44
256.357	256.44
256.59	219.44
256.823	221.44
257.056	226.44
257.289	211.44
257.521	213.44
257.754	208.44
257.987	198.44
258.22	212.44
258.452	206.44
258.685	227.44
258.918	201.44
259.151	201.44
259.383	215.44
259.616	220.44
259.849	217.44
260.081	229.44
260.314	249.44
260.547	266.44
260.779	262.44
261.012	261.44
261.244	218.44
261.477	240.44
261.71	224.44
261.942	234.44
262.175	258.44
262.407	254.44
262.64	214.44
262.872	214.44
263.105	226.44
263.337	223.44
263.57	229.44
263.802	234.44
264.035	213.44
264.267	213.44
264.499	207.44
264.732	200.44
264.964	201.44
265.197	209.44
265.429	219.44
265.661	216.44
265.894	201.44
266.126	221.44
266.358	225.44
266.591	206.44
266.823	216.44
267.055	225.44
267.287	235.44
267.52	226.44
267.752	234.44
267.984	233.44
268.216	210.44
268.448	229.44
268.681	221.44
268.913	231.44
269.145	244.44
269.377	272.44
269.609	277.44
269.841	279.44
270.073	282.44
270.306	304.44
270.538	323.44
270.77	338.44
271.002	322.44
271.234	288.44
271.466	299.44
271.698	310.44
271.93	309.44
272.162	332.44
272.394	328.44
272.626	333.44
272.858	317.44
273.09	282.44
273.322	276.44
273.553	260.44
273.785	265.44
274.017	274.44
274.249	269.44
274.481	266.44
274.713	270.44
274.945	286.44
275.176	278.44
275.408	270.44
275.64	256.44
275.872	263.44
276.104	245.44
276.335	267.44
276.567	270.44
276.799	280.44
277.031	302.44
277.262	326.44
277.494	314.44
277.726	320.44
277.957	296.44
278.189	281.44
278.421	266.44
278.652	287.44
278.884	265.44
279.115	256.44
279.347	247.44
279.579	252.44
279.81	261.44
280.042	276.44
280.273	260.44
280.505	276.44
280.736	265.44
280.968	264.44
281.199	258.44
281.431	267.44
281.662	272.44
281.894	254.44
282.125	269.44
282.356	293.44
282.588	319.44
282.819	322.44
283.051	254.44
283.282	274.44
283.513	288.44
283.745	265.44
283.976	275.44
284.207	283.44
284.439	267.44
284.67	292.44
284.901	260.44
285.132	264.44
285.364	267.44
285.595	263.44
285.826	269.44
286.057	269.44
286.288	278.44
286.52	266.44
286.751	264.44
286.982	267.44
287.213	269.44
287.444	284.44
287.675	280.44
287.906	284.44
288.138	290.44
288.369	293.44
288.6	300.44
288.831	294.44
289.062	288.44
289.293	294.44
289.524	274.44
289.755	277.44
289.986	268.44
290.217	274.44
290.448	285.44
290.679	298.44
290.91	278.44
291.141	277.44
291.371	289.44
291.602	285.44
291.833	284.44
292.064	259.44
292.295	262.44
292.526	277.44
292.757	262.44
292.987	270.44
293.218	264.44
293.449	276.44
293.68	278.44
293.91	284.44
294.141	278.44
294.372	290.44
294.603	274.44
294.833	272.44
295.064	285.44
295.295	298.44
295.525	274.44
295.756	294.44
295.987	293.44
296.217	322.44
296.448	338.44
296.679	304.44
296.909	290.44
297.14	284.44
297.37	292.44
297.601	277.44
297.831	285.44
298.062	292.44
298.292	275.44
298.523	288.44
298.753	270.44
298.984	316.44
299.214	296.44
299.445	309.44
299.675	305.44
299.905	301.44
300.136	284.44
300.366	290.44
300.597	292.44
300.827	316.44
301.057	323.44
301.288	320.44
301.518	325.44
301.748	309.44
301.979	322.44
302.209	310.44
302.439	312.44
302.669	312.44
302.9	310.44
303.13	300.44
303.36	302.44
303.59	306.44
303.82	322.44
304.051	312.44
304.281	318.44
304.511	292.44
304.741	306.44
304.971	313.44
305.201	321.44
305.431	305.44
305.661	321.44
305.891	305.44
306.121	322.44
306.352	309.44
306.582	334.44
306.812	326.44
307.042	311.44
307.272	305.44
307.502	334.44
307.731	303.44
307.961	331.44
308.191	319.44
308.421	310.44
308.651	333.44
308.881	334.44
309.111	321.44
309.341	335.44
309.571	347.44
309.8	352.44
310.03	379.44
310.26	365.44
310.49	392.44
310.72	390.44
310.949	433.44
311.179	397.44
311.409	371.44
311.639	376.44
311.868	373.44
312.098	379.44
312.328	374.44
312.557	418.44
312.787	430.44
313.017	406.44
313.246	381.44
313.476	392.44
313.706	386.44
313.935	389.44
314.165	404.44
314.394	409.44
314.624	393.44
314.853	364.44
315.083	380.44
315.312	378.44
315.542	370.44
315.771	351.44
316.001	354.44
316.23	373.44
316.46	364.44
316.689	370.44
316.919	376.44
317.148	385.44
317.377	367.44
317.607	380.44
317.836	368.44
318.065	377.44
318.295	380.44
318.524	354.44
318.753	361.44
318.983	365.44
319.212	388.44
319.441	380.44
319.67	385.44
319.9	358.44
320.129	371.44
320.358	368.44
320.587	379.44
320.816	382.44
321.046	400.44
321.275	402.44
321.504	411.44
321.733	384.44
321.962	406.44
322.191	430.44
322.42	440.44
322.649	474.44
322.878	464.44
323.108	485.44
323.337	521.44
323.566	524.44
323.795	569.44
324.024	624.44
324.253	797.44
324.482	1114.44
324.71	1788.44
324.939	2676.44
325.168	2332.44
325.397	1171.44
325.626	757.44
325.855	594.44
326.084	547.44
326.313	572.44
326.542	558.44
326.77	613.44
326.999	731.44
327.228	1024.44
327.457	1600.44
327.686	2002.44
327.914	1330.44
328.143	849.44
328.372	701.44
328.6	654.44
328.829	613.44
329.058	621.44
329.287	660.44
329.515	607.44
329.744	547.44
329.972	561.44
330.201	562.44
330.43	611.44
330.658	650.44
330.887	684.44
331.115	652.44
331.344	529.44
331.572	506.44
331.801	527.44
332.03	507.44
332.258	492.44
332.486	444.44
332.715	447.44
332.943	449.44
333.172	436.44
333.4	460.44
333.629	444.44
333.857	462.44
334.085	483.44
334.314	499.44
334.542	547.44
334.771	564.44
334.999	492.44
335.227	469.44
335.455	442.44
335.684	451.44
335.912	420.44
336.14	413.44
336.369	426.44
336.597	438.44
336.825	430.44
337.053	430.44
337.281	421.44
337.51	400.44
337.738	426.44
337.966	396.44
338.194	417.44
338.422	429.44
338.65	416.44
338.878	386.44
339.106	406.44
339.334	420.44
339.562	385.44
339.79	399.44
340.018	423.44
340.246	395.44
340.474	413.44
340.702	410.44
340.93	429.44
341.158	422.44
341.386	411.44
341.614	420.44
341.842	412.44
342.07	387.44
342.298	398.44
342.526	400.44
342.754	381.44
342.981	374.44
343.209	390.44
343.437	390.44
343.665	379.44
343.893	396.44
344.12	406.44
344.348	407.44
344.576	421.44
344.804	401.44
345.031	417.44
345.259	445.44
345.487	425.44
345.714	429.44
345.942	407.44
346.17	396.44
346.397	400.44
346.625	385.44
346.853	395.44
347.08	409.44
347.308	409.44
347.535	406.44
347.763	442.44
347.99	421.44
348.218	435.44
348.445	432.44
348.673	409.44
348.9	419.44
349.128	390.44
349.355	380.44
349.583	379.44
349.81	380.44
350.037	376.44
350.265	392.44
350.492	392.44
350.72	385.44
350.947	405.44
351.174	385.44
351.402	407.44
351.629	417.44
351.856	417.44
352.083	417.44
352.311	437.44
352.538	424.44
352.765	442.44
352.992	429.44
353.22	412.44
353.447	389.44
353.674	397.44
353.901	385.44
354.128	384.44
354.355	361.44
354.583	372.44
354.81	376.44
355.037	363.44
355.264	365.44
355.491	354.44
355.718	354.44
355.945	354.44
356.172	386.44
356.399	361.44
356.626	362.44
356.853	363.44
357.08	360.44
357.307	354.44
357.534	366.44
357.761	361.44
357.988	338.44
358.215	375.44
358.441	375.44
358.668	360.44
358.895	364.44
359.122	373.44
359.349	388.44
359.576	390.44
359.802	413.44
360.029	469.44
360.256	475.44
360.483	453.44
360.709	408.44
360.936	396.44
361.163	394.44
361.39	412.44
361.616	403.44
361.843	396.44
362.07	391.44
362.296	391.44
362.523	403.44
362.749	399.44
362.976	403.44
363.203	385.44
363.429	375.44
363.656	385.44
363.882	381.44
364.109	370.44
364.335	355.44
364.562	373.44
364.788	362.44
365.015	386.44
365.241	362.44
365.468	377.44
365.694	358.44
365.92	381.44
366.147	382.44
366.373	389.44
366.599	363.44
366.826	384.44
367.052	371.44
367.278	368.44
367.505	382.44
367.731	397.44
367.957	380.44
368.184	358.44
368.41	375.44
368.636	388.44
368.862	381.44
369.089	383.44
369.315	394.44
369.541	394.44
369.767	360.44
369.993	378.44
370.219	372.44
370.445	377.44
370.672	354.44
370.898	378.44
371.124	368.44
371.35	354.44
371.576	373.44
371.802	358.44
372.028	355.44
372.254	365.44
372.48	355.44
372.706	359.44
372.932	331.44
373.158	349.44
373.384	355.44
373.61	372.44
373.835	362.44
374.061	361.44
374.287	358.44
374.513	359.44
374.739	376.44
374.965	358.44
375.191	350.44
375.416	371.44
375.642	351.44
375.868	372.44
376.094	344.44
376.319	357.44
376.545	350.44
376.771	348.44
376.997	353.44
377.222	358.44
377.448	370.44
377.674	373.44
377.899	356.44
378.125	365.44
378.35	354.44
378.576	359.44
378.802	342.44
379.027	349.44
379.253	354.44
379.478	352.44
379.704	362.44
379.929	337.44
380.155	365.44
380.38	374.44
380.606	374.44
380.831	337.44
381.057	354.44
381.282	357.44
381.507	353.44
381.733	358.44
381.958	357.44
382.184	354.44
382.409	363.44
382.634	371.44
382.86	362.44
383.085	359.44
383.31	364.44
383.535	345.44
383.761	359.44
383.986	372.44
384.211	370.44
384.436	368.44
384.662	380.44
384.887	373.44
385.112	361.44
385.337	386.44
385.562	379.44
385.787	378.44
386.013	397.44
386.238	379.44
386.463	409.44
386.688	363.44
386.913	360.44
387.138	358.44
387.363	381.44
387.588	403.44
387.813	375.44
388.038	384.44
388.263	378.44
388.488	391.44
388.713	358.44
388.938	366.44
389.163	388.44
389.387	379.44
389.612	377.44
389.837	368.44
390.062	375.44
390.287	389.44
390.512	378.44
390.736	369.44
390.961	367.44
391.186	373.44
391.411	380.44
391.636	373.44
391.86	382.44
392.085	363.44
392.31	386.44
392.534	394.44
392.759	381.44
392.984	368.44
393.208	374.44
393.433	390.44
393.658	396.44
393.882	392.44
394.107	384.44
394.331	383.44
394.556	386.44
394.78	381.44
395.005	412.44
395.229	373.44
395.454	388.44
395.678	386.44
395.903	407.44
396.127	411.44
396.352	445.44
396.576	392.44
396.801	399.44
397.025	405.44
397.249	398.44
397.474	406.44
397.698	403.44
397.922	412.44
398.147	419.44
398.371	454.44
398.595	422.44
398.82	424.44
399.044	449.44
399.268	426.44
399.492	455.44
399.717	483.44
399.941	496.44
400.165	510.44
400.389	521.44
400.613	490.44
400.837	456.44
401.062	459.44
401.286	428.44
401.51	422.44
401.734	431.44
401.958	424.44
402.182	451.44
402.406	467.44
402.63	461.44
402.854	435.44
403.078	433.44
403.302	454.44
403.526	454.44
403.75	448.44
403.974	423.44
404.198	463.44
404.422	448.44
404.645	448.44
404.869	464.44
405.093	500.44
405.317	530.44
405.541	567.44
405.765	542.44
405.988	475.44
406.212	501.44
406.436	517.44
406.66	507.44
406.883	515.44
407.107	526.44
407.331	542.44
407.555	621.44
407.778	586.44
408.002	554.44
408.226	533.44
408.449	493.44
408.673	511.44
408.896	529.44
409.12	576.44
409.344	548.44
409.567	478.44
409.791	501.44
410.014	469.44
410.238	453.44
410.461	464.44
410.685	460.44
410.908	493.44
411.132	527.44
411.355	540.44
411.578	515.44
411.802	448.44
412.025	443.44
412.249	437.44
412.472	494.44
412.695	531.44
412.919	532.44
413.142	471.44
413.365	454.44
413.589	424.44
413.812	421.44
414.035	434.44
414.258	428.44
414.482	424.44
414.705	428.44
414.928	408.44
415.151	411.44
415.374	421.44
415.597	418.44
415.821	421.44
416.044	412.44
416.267	434.44
416.49	428.44
416.713	416.44
416.936	440.44
417.159	414.44
417.382	441.44
417.605	444.44
417.828	445.44
418.051	476.44
418.274	440.44
418.497	416.44
418.72	414.44
418.943	420.44
419.166	453.44
419.389	442.44
419.611	442.44
419.834	438.44
420.057	442.44
420.28	454.44
420.503	430.44
420.726	463.44
420.948	447.44
421.171	509.44
421.394	555.44
421.617	482.44
421.839	473.44
422.062	458.44
422.285	449.44
422.507	509.44
422.73	625.44
422.953	587.44
423.175	517.44
423.398	478.44
423.621	476.44
423.843	503.44
424.066	477.44
424.288	485.44
424.511	523.44
424.733	571.44
424.956	660.44
425.178	650.44
425.401	644.44
425.623	644.44
425.846	563.44
426.068	530.44
426.291	504.44
426.513	475.44
426.735	530.44
426.958	546.44
427.18	653.44
427.402	757.44
427.625	878.44
427.847	788.44
428.069	677.44
428.292	557.44
428.514	525.44
428.736	487.44
428.958	461.44
429.181	461.44
429.403	467.44
429.625	488.44
429.847	506.44
430.069	602.44
430.292	593.44
430.514	509.44
430.736	471.44
430.958	452.44
431.18	413.44
431.402	428.44
431.624	436.44
431.846	430.44
432.068	439.44
432.29	422.44
432.512	444.44
432.734	440.44
432.956	438.44
433.178	438.44
433.4	451.44
433.622	426.44
433.844	433.44
434.066	418.44
434.287	414.44
434.509	449.44
434.731	451.44
434.953	443.44
435.175	452.44
435.397	485.44
435.618	501.44
435.84	548.44
436.062	631.44
436.284	704.44
436.505	597.44
436.727	507.44
436.949	482.44
437.17	499.44
437.392	474.44
437.614	490.44
437.835	542.44
438.057	620.44
438.278	732.44
438.5	734.44
438.721	788.44
438.943	747.44
439.165	592.44
439.386	575.44
439.608	551.44
439.829	526.44
440.05	541.44
440.272	615.44
440.493	583.44
440.715	513.44
440.936	502.44
441.158	462.44
441.379	478.44
441.6	501.44
441.822	497.44
442.043	564.44
442.264	638.44
442.486	683.44
442.707	574.44
442.928	534.44
443.149	537.44
443.371	558.44
443.592	594.44
443.813	674.44
444.034	772.44
444.255	626.44
444.476	524.44
444.698	500.44
444.919	484.44
445.14	595.44
445.361	546.44
445.582	549.44
445.803	631.44
446.024	747.44
446.245	745.44
446.466	700.44
446.687	573.44
446.908	514.44
447.129	489.44
447.35	484.44
447.571	493.44
447.792	465.44
448.013	482.44
448.234	484.44
448.455	552.44
448.675	671.44
448.896	777.44
449.117	654.44
449.338	630.44
449.559	718.44
449.779	837.44
450	649.44
450.221	538.44
450.442	505.44
450.662	462.44
450.883	492.44
451.104	502.44
451.324	465.44
451.545	447.44
451.766	452.44
451.986	414.44
452.207	408.44
452.428	392.44
452.648	418.44
452.869	422.44
453.089	442.44
453.31	441.44
453.53	437.44
453.751	421.44
453.971	428.44
454.192	448.44
454.412	444.44
454.633	430.44
454.853	415.44
455.073	424.44
455.294	437.44
455.514	533.44
455.734	526.44
455.955	425.44
456.175	408.44
456.395	401.44
456.616	397.44
456.836	394.44
457.056	398.44
457.276	385.44
457.497	389.44
457.717	390.44
457.937	408.44
458.157	386.44
458.377	411.44
458.598	425.44
458.818	501.44
459.038	588.44
459.258	617.44
459.478	501.44
459.698	463.44
459.918	433.44
460.138	422.44
460.358	416.44
460.578	425.44
460.798	416.44
461.018	432.44
461.238	413.44
461.458	434.44
461.678	429.44
461.898	420.44
462.118	406.44
462.338	428.44
462.558	440.44
462.777	440.44
462.997	445.44
463.217	452.44
463.437	447.44
463.657	445.44
463.876	440.44
464.096	425.44
464.316	459.44
464.536	438.44
464.755	456.44
464.975	473.44
465.195	526.44
465.414	606.44
465.634	536.44
465.854	475.44
466.073	468.44
466.293	441.44
466.512	444.44
466.732	413.44
466.951	416.44
467.171	419.44
467.391	425.44
467.61	430.44
467.829	436.44
468.049	434.44
468.268	435.44
468.488	425.44
468.707	445.44
468.927	432.44
469.146	420.44
469.365	412.44
469.585	392.44
469.804	414.44
470.023	406.44
470.243	427.44
470.462	435.44
470.681	444.44
470.901	454.44
471.12	433.44
471.339	440.44
471.558	398.44
471.777	434.44
471.997	417.44
472.216	432.44
472.435	500.44
472.654	478.44
472.873	426.44
473.092	445.44
473.311	420.44
473.53	438.44
473.749	446.44
473.968	481.44
474.187	632.44
474.406	640.44
474.625	499.44
474.844	458.44
475.063	457.44
475.282	443.44
475.501	434.44
475.72	441.44
475.939	432.44
476.158	454.44
476.377	445.44
476.596	424.44
476.814	446.44
477.033	454.44
477.252	456.44
477.471	469.44
477.69	474.44
477.908	451.44
478.127	450.44
478.346	455.44
478.564	467.44
478.783	472.44
479.002	492.44
479.22	471.44
479.439	503.44
479.658	514.44
479.876	517.44
480.095	509.44
480.313	569.44
480.532	539.44
480.751	522.44
480.969	524.44
481.188	631.44
481.406	690.44
481.624	576.44
481.843	545.44
482.061	522.44
482.28	501.44
482.498	489.44
482.717	498.44
482.935	484.44
483.153	501.44
483.372	512.44
483.59	465.44
483.808	514.44
484.027	519.44
484.245	509.44
484.463	494.44
484.681	514.44
484.9	497.44
485.118	531.44
485.336	514.44
485.554	496.44
485.772	526.44
485.99	518.44
486.209	499.44
486.427	530.44
486.645	557.44
486.863	571.44
487.081	553.44
487.299	540.44
487.517	532.44
487.735	520.44
487.953	521.44
488.171	542.44
488.389	544.44
488.607	541.44
488.825	525.44
489.043	538.44
489.261	567.44
489.479	541.44
489.696	570.44
489.914	569.44
490.132	556.44
490.35	586.44
490.568	574.44
490.786	597.44
491.003	585.44
491.221	585.44
491.439	604.44
491.657	610.44
491.874	619.44
492.092	603.44
492.31	628.44
492.527	626.44
492.745	613.44
492.963	629.44
493.18	631.44
493.398	627.44
493.615	650.44
493.833	664.44
494.05	653.44
494.268	654.44
494.485	602.44
494.703	633.44
494.92	644.44
495.138	658.44
495.355	644.44
495.573	647.44
495.79	648.44
496.008	648.44
496.225	649.44
496.442	647.44
496.66	651.44
496.877	636.44
497.094	649.44
497.312	634.44
497.529	667.44
497.746	658.44
497.963	680.44
498.181	690.44
498.398	682.44
498.615	685.44
498.832	708.44
499.049	716.44
499.267	737.44
499.484	743.44
499.701	751.44
499.918	749.44
500.135	774.44
500.352	804.44
500.569	803.44
500.786	802.44
501.003	826.44
501.22	812.44
501.437	794.44
501.654	750.44
501.871	781.44
