Data from 1972.PennyLincolnUp.Lamp.En5.5.200Scan.071719.P1._HRD10591_15-28-32-843.txt Node
Date: Thu Jul 18 15:28:32 EDT 2019
User: cochatt
Spectrometer: HR+D1059
Trigger mode: 1
Integration Time (sec): 1.000000E-1
Scans to average: 1
Electric dark correction enabled: true
Nonlinearity correction enabled: false
Boxcar width: 0
XAxis mode: Wavelengths
Number of Pixels in Spectrum: 2048
>>>>>Begin Spectral Data<<<<<
223.165	-12.75
223.4	-12.75
223.635	-12.75
223.869	-0.75
224.104	-23.75
224.338	-19.75
224.573	-19.75
224.808	-7.75
225.042	-12.75
225.277	-5.75
225.511	3.25
225.746	5.25
225.98	-0.75
226.215	22.25
226.449	3.25
226.683	19.25
226.918	13.25
227.152	37.25
227.387	25.25
227.621	37.25
227.856	40.25
228.09	40.25
228.324	38.25
228.559	61.25
228.793	73.25
229.027	102.25
229.262	107.25
229.496	115.25
229.73	135.25
229.964	162.25
230.199	141.25
230.433	117.25
230.667	118.25
230.901	123.25
231.136	113.25
231.37	118.25
231.604	116.25
231.838	110.25
232.072	114.25
232.306	110.25
232.541	104.25
232.775	105.25
233.009	90.25
233.243	125.25
233.477	117.25
233.711	116.25
233.945	123.25
234.179	112.25
234.413	130.25
234.647	104.25
234.881	124.25
235.115	115.25
235.349	114.25
235.583	134.25
235.817	124.25
236.051	121.25
236.285	114.25
236.519	125.25
236.753	126.25
236.987	162.25
237.221	197.25
237.455	251.25
237.689	203.25
237.922	163.25
238.156	134.25
238.39	127.25
238.624	129.25
238.858	135.25
239.091	139.25
239.325	128.25
239.559	129.25
239.793	128.25
240.027	136.25
240.26	132.25
240.494	161.25
240.728	157.25
240.961	151.25
241.195	152.25
241.429	139.25
241.662	134.25
241.896	123.25
242.13	137.25
242.363	140.25
242.597	152.25
242.83	143.25
243.064	140.25
243.298	124.25
243.531	134.25
243.765	142.25
243.998	134.25
244.232	134.25
244.465	139.25
244.699	140.25
244.932	147.25
245.166	155.25
245.399	141.25
245.633	141.25
245.866	129.25
246.099	139.25
246.333	143.25
246.566	150.25
246.8	129.25
247.033	152.25
247.266	155.25
247.5	165.25
247.733	171.25
247.966	159.25
248.2	160.25
248.433	169.25
248.666	168.25
248.899	169.25
249.133	200.25
249.366	214.25
249.599	216.25
249.832	179.25
250.066	190.25
250.299	180.25
250.532	174.25
250.765	200.25
250.998	226.25
251.231	243.25
251.465	211.25
251.698	209.25
251.931	201.25
252.164	192.25
252.397	199.25
252.63	201.25
252.863	198.25
253.096	234.25
253.329	231.25
253.562	224.25
253.795	218.25
254.028	226.25
254.261	221.25
254.494	225.25
254.727	277.25
254.96	290.25
255.193	280.25
255.426	265.25
255.659	242.25
255.892	254.25
256.124	249.25
256.357	237.25
256.59	241.25
256.823	232.25
257.056	214.25
257.289	216.25
257.521	220.25
257.754	235.25
257.987	213.25
258.22	222.25
258.452	219.25
258.685	200.25
258.918	214.25
259.151	213.25
259.383	231.25
259.616	209.25
259.849	232.25
260.081	250.25
260.314	260.25
260.547	250.25
260.779	275.25
261.012	244.25
261.244	228.25
261.477	211.25
261.71	225.25
261.942	226.25
262.175	219.25
262.407	222.25
262.64	223.25
262.872	223.25
263.105	219.25
263.337	201.25
263.57	205.25
263.802	216.25
264.035	217.25
264.267	202.25
264.499	221.25
264.732	216.25
264.964	206.25
265.197	226.25
265.429	229.25
265.661	222.25
265.894	215.25
266.126	208.25
266.358	217.25
266.591	226.25
266.823	212.25
267.055	226.25
267.287	233.25
267.52	227.25
267.752	251.25
267.984	214.25
268.216	220.25
268.448	234.25
268.681	235.25
268.913	252.25
269.145	266.25
269.377	277.25
269.609	275.25
269.841	267.25
270.073	281.25
270.306	295.25
270.538	323.25
270.77	335.25
271.002	311.25
271.234	307.25
271.466	323.25
271.698	308.25
271.93	328.25
272.162	323.25
272.394	314.25
272.626	305.25
272.858	287.25
273.09	284.25
273.322	272.25
273.553	266.25
273.785	273.25
274.017	283.25
274.249	273.25
274.481	265.25
274.713	266.25
274.945	282.25
275.176	268.25
275.408	265.25
275.64	253.25
275.872	264.25
276.104	281.25
276.335	278.25
276.567	283.25
276.799	284.25
277.031	308.25
277.262	303.25
277.494	327.25
277.726	316.25
277.957	301.25
278.189	272.25
278.421	263.25
278.652	275.25
278.884	282.25
279.115	282.25
279.347	259.25
279.579	273.25
279.81	258.25
280.042	251.25
280.273	274.25
280.505	262.25
280.736	259.25
280.968	269.25
281.199	273.25
281.431	277.25
281.662	279.25
281.894	275.25
282.125	268.25
282.356	280.25
282.588	308.25
282.819	310.25
283.051	271.25
283.282	272.25
283.513	262.25
283.745	270.25
283.976	271.25
284.207	276.25
284.439	263.25
284.67	281.25
284.901	264.25
285.132	267.25
285.364	270.25
285.595	263.25
285.826	277.25
286.057	251.25
286.288	260.25
286.52	249.25
286.751	280.25
286.982	270.25
287.213	275.25
287.444	281.25
287.675	284.25
287.906	289.25
288.138	275.25
288.369	275.25
288.6	296.25
288.831	299.25
289.062	286.25
289.293	292.25
289.524	281.25
289.755	277.25
289.986	282.25
290.217	251.25
290.448	284.25
290.679	265.25
290.91	265.25
291.141	271.25
291.371	269.25
291.602	283.25
291.833	291.25
292.064	279.25
292.295	291.25
292.526	272.25
292.757	296.25
292.987	270.25
293.218	246.25
293.449	275.25
293.68	290.25
293.91	275.25
294.141	269.25
294.372	270.25
294.603	284.25
294.833	294.25
295.064	281.25
295.295	265.25
295.525	280.25
295.756	279.25
295.987	295.25
296.217	324.25
296.448	317.25
296.679	302.25
296.909	277.25
297.14	290.25
297.37	275.25
297.601	283.25
297.831	267.25
298.062	305.25
298.292	309.25
298.523	296.25
298.753	278.25
298.984	297.25
299.214	296.25
299.445	289.25
299.675	308.25
299.905	288.25
300.136	288.25
300.366	289.25
300.597	296.25
300.827	320.25
301.057	300.25
301.288	307.25
301.518	313.25
301.748	308.25
301.979	299.25
302.209	313.25
302.439	327.25
302.669	325.25
302.9	302.25
303.13	312.25
303.36	321.25
303.59	304.25
303.82	323.25
304.051	338.25
304.281	325.25
304.511	309.25
304.741	299.25
304.971	306.25
305.201	286.25
305.431	301.25
305.661	314.25
305.891	314.25
306.121	323.25
306.352	314.25
306.582	329.25
306.812	336.25
307.042	302.25
307.272	309.25
307.502	324.25
307.731	313.25
307.961	298.25
308.191	323.25
308.421	313.25
308.651	322.25
308.881	330.25
309.111	321.25
309.341	343.25
309.571	336.25
309.8	358.25
310.03	376.25
310.26	389.25
310.49	361.25
310.72	369.25
310.949	385.25
311.179	422.25
311.409	389.25
311.639	395.25
311.868	379.25
312.098	385.25
312.328	379.25
312.557	414.25
312.787	426.25
313.017	434.25
313.246	405.25
313.476	361.25
313.706	373.25
313.935	375.25
314.165	402.25
314.394	405.25
314.624	388.25
314.853	400.25
315.083	395.25
315.312	384.25
315.542	373.25
315.771	373.25
316.001	353.25
316.23	350.25
316.46	379.25
316.689	361.25
316.919	377.25
317.148	376.25
317.377	402.25
317.607	394.25
317.836	372.25
318.065	362.25
318.295	370.25
318.524	371.25
318.753	367.25
318.983	359.25
319.212	388.25
319.441	361.25
319.67	389.25
319.9	373.25
320.129	377.25
320.358	360.25
320.587	369.25
320.816	379.25
321.046	398.25
321.275	396.25
321.504	403.25
321.733	389.25
321.962	428.25
322.191	426.25
322.42	422.25
322.649	462.25
322.878	463.25
323.108	484.25
323.337	532.25
323.566	561.25
323.795	595.25
324.024	635.25
324.253	798.25
324.482	1150.25
324.71	1863.25
324.939	2658.25
325.168	2364.25
325.397	1180.25
325.626	774.25
325.855	617.25
326.084	565.25
326.313	562.25
326.542	569.25
326.77	591.25
326.999	708.25
327.228	985.25
327.457	1596.25
327.686	1975.25
327.914	1344.25
328.143	829.25
328.372	741.25
328.6	671.25
328.829	623.25
329.058	659.25
329.287	646.25
329.515	570.25
329.744	539.25
329.972	551.25
330.201	585.25
330.43	633.25
330.658	657.25
330.887	680.25
331.115	653.25
331.344	551.25
331.572	508.25
331.801	526.25
332.03	522.25
332.258	477.25
332.486	461.25
332.715	481.25
332.943	436.25
333.172	451.25
333.4	454.25
333.629	434.25
333.857	459.25
334.085	482.25
334.314	507.25
334.542	549.25
334.771	547.25
334.999	531.25
335.227	471.25
335.455	438.25
335.684	410.25
335.912	430.25
336.14	412.25
336.369	438.25
336.597	433.25
336.825	451.25
337.053	425.25
337.281	426.25
337.51	417.25
337.738	420.25
337.966	431.25
338.194	425.25
338.422	423.25
338.65	409.25
338.878	415.25
339.106	414.25
339.334	416.25
339.562	397.25
339.79	401.25
340.018	418.25
340.246	415.25
340.474	418.25
340.702	435.25
340.93	425.25
341.158	398.25
341.386	409.25
341.614	416.25
341.842	404.25
342.07	404.25
342.298	403.25
342.526	386.25
342.754	410.25
342.981	386.25
343.209	383.25
343.437	382.25
343.665	394.25
343.893	392.25
344.12	398.25
344.348	410.25
344.576	392.25
344.804	401.25
345.031	431.25
345.259	446.25
345.487	429.25
345.714	422.25
345.942	418.25
346.17	395.25
346.397	399.25
346.625	406.25
346.853	387.25
347.08	414.25
347.308	387.25
347.535	435.25
347.763	425.25
347.99	405.25
348.218	410.25
348.445	441.25
348.673	417.25
348.9	394.25
349.128	411.25
349.355	403.25
349.583	392.25
349.81	387.25
350.037	387.25
350.265	385.25
350.492	378.25
350.72	398.25
350.947	380.25
351.174	407.25
351.402	423.25
351.629	407.25
351.856	424.25
352.083	426.25
352.311	414.25
352.538	426.25
352.765	407.25
352.992	412.25
353.22	403.25
353.447	414.25
353.674	388.25
353.901	390.25
354.128	392.25
354.355	382.25
354.583	383.25
354.81	369.25
355.037	353.25
355.264	354.25
355.491	359.25
355.718	369.25
355.945	359.25
356.172	347.25
356.399	372.25
356.626	360.25
356.853	371.25
357.08	365.25
357.307	366.25
357.534	375.25
357.761	366.25
357.988	359.25
358.215	368.25
358.441	347.25
358.668	382.25
358.895	369.25
359.122	361.25
359.349	373.25
359.576	403.25
359.802	411.25
360.029	453.25
360.256	462.25
360.483	436.25
360.709	415.25
360.936	397.25
361.163	399.25
361.39	407.25
361.616	402.25
361.843	406.25
362.07	402.25
362.296	413.25
362.523	406.25
362.749	400.25
362.976	393.25
363.203	376.25
363.429	378.25
363.656	371.25
363.882	383.25
364.109	367.25
364.335	364.25
364.562	381.25
364.788	372.25
365.015	380.25
365.241	375.25
365.468	392.25
365.694	395.25
365.92	388.25
366.147	383.25
366.373	370.25
366.599	382.25
366.826	346.25
367.052	369.25
367.278	345.25
367.505	373.25
367.731	369.25
367.957	375.25
368.184	351.25
368.41	381.25
368.636	361.25
368.862	381.25
369.089	379.25
369.315	379.25
369.541	366.25
369.767	339.25
369.993	379.25
370.219	367.25
370.445	377.25
370.672	356.25
370.898	369.25
371.124	365.25
371.35	371.25
371.576	373.25
371.802	372.25
372.028	354.25
372.254	356.25
372.48	364.25
372.706	352.25
372.932	355.25
373.158	370.25
373.384	365.25
373.61	351.25
373.835	362.25
374.061	367.25
374.287	371.25
374.513	357.25
374.739	365.25
374.965	371.25
375.191	375.25
375.416	359.25
375.642	361.25
375.868	386.25
376.094	376.25
376.319	370.25
376.545	351.25
376.771	333.25
376.997	355.25
377.222	366.25
377.448	350.25
377.674	353.25
377.899	348.25
378.125	338.25
378.35	339.25
378.576	360.25
378.802	379.25
379.027	354.25
379.253	350.25
379.478	347.25
379.704	350.25
379.929	370.25
380.155	352.25
380.38	355.25
380.606	348.25
380.831	343.25
381.057	349.25
381.282	346.25
381.507	373.25
381.733	361.25
381.958	346.25
382.184	362.25
382.409	363.25
382.634	365.25
382.86	332.25
383.085	374.25
383.31	349.25
383.535	361.25
383.761	366.25
383.986	360.25
384.211	358.25
384.436	357.25
384.662	354.25
384.887	345.25
385.112	358.25
385.337	366.25
385.562	363.25
385.787	361.25
386.013	397.25
386.238	387.25
386.463	381.25
386.688	387.25
386.913	388.25
387.138	388.25
387.363	373.25
387.588	375.25
387.813	379.25
388.038	378.25
388.263	390.25
388.488	377.25
388.713	375.25
388.938	390.25
389.163	392.25
389.387	367.25
389.612	387.25
389.837	403.25
390.062	362.25
390.287	384.25
390.512	385.25
390.736	374.25
390.961	351.25
391.186	379.25
391.411	363.25
391.636	371.25
391.86	371.25
392.085	387.25
392.31	388.25
392.534	385.25
392.759	395.25
392.984	405.25
393.208	391.25
393.433	377.25
393.658	389.25
393.882	386.25
394.107	378.25
394.331	389.25
394.556	382.25
394.78	385.25
395.005	378.25
395.229	365.25
395.454	372.25
395.678	396.25
395.903	409.25
396.127	405.25
396.352	420.25
396.576	393.25
396.801	394.25
397.025	405.25
397.249	415.25
397.474	403.25
397.698	393.25
397.922	404.25
398.147	436.25
398.371	415.25
398.595	417.25
398.82	421.25
399.044	417.25
399.268	439.25
399.492	463.25
399.717	467.25
399.941	469.25
400.165	505.25
400.389	503.25
400.613	501.25
400.837	446.25
401.062	453.25
401.286	437.25
401.51	442.25
401.734	434.25
401.958	409.25
402.182	423.25
402.406	447.25
402.63	473.25
402.854	447.25
403.078	433.25
403.302	453.25
403.526	428.25
403.75	450.25
403.974	441.25
404.198	438.25
404.422	458.25
404.645	465.25
404.869	460.25
405.093	505.25
405.317	539.25
405.541	580.25
405.765	491.25
405.988	490.25
406.212	487.25
406.436	520.25
406.66	523.25
406.883	517.25
407.107	514.25
407.331	533.25
407.555	616.25
407.778	619.25
408.002	555.25
408.226	524.25
408.449	500.25
408.673	489.25
408.896	538.25
409.12	557.25
409.344	549.25
409.567	482.25
409.791	446.25
410.014	451.25
410.238	436.25
410.461	433.25
410.685	431.25
410.908	466.25
411.132	519.25
411.355	567.25
411.578	509.25
411.802	481.25
412.025	449.25
412.249	454.25
412.472	491.25
412.695	532.25
412.919	537.25
413.142	459.25
413.365	444.25
413.589	453.25
413.812	441.25
414.035	426.25
414.258	436.25
414.482	433.25
414.705	436.25
414.928	419.25
415.151	413.25
415.374	422.25
415.597	423.25
415.821	417.25
416.044	422.25
416.267	426.25
416.49	427.25
416.713	415.25
416.936	417.25
417.159	436.25
417.382	424.25
417.605	434.25
417.828	439.25
418.051	446.25
418.274	452.25
418.497	427.25
418.72	442.25
418.943	433.25
419.166	431.25
419.389	440.25
419.611	449.25
419.834	439.25
420.057	415.25
420.28	441.25
420.503	464.25
420.726	461.25
420.948	470.25
421.171	503.25
421.394	535.25
421.617	479.25
421.839	450.25
422.062	460.25
422.285	456.25
422.507	521.25
422.73	616.25
422.953	586.25
423.175	519.25
423.398	465.25
423.621	454.25
423.843	485.25
424.066	495.25
424.288	508.25
424.511	531.25
424.733	576.25
424.956	657.25
425.178	641.25
425.401	636.25
425.623	658.25
425.846	538.25
426.068	495.25
426.291	476.25
426.513	500.25
426.735	505.25
426.958	538.25
427.18	620.25
427.402	771.25
427.625	877.25
427.847	768.25
428.069	662.25
428.292	548.25
428.514	507.25
428.736	475.25
428.958	479.25
429.181	470.25
429.403	449.25
429.625	483.25
429.847	494.25
430.069	571.25
430.292	601.25
430.514	522.25
430.736	459.25
430.958	460.25
431.18	441.25
431.402	430.25
431.624	445.25
431.846	425.25
432.068	425.25
432.29	435.25
432.512	406.25
432.734	457.25
432.956	434.25
433.178	465.25
433.4	432.25
433.622	444.25
433.844	417.25
434.066	422.25
434.287	407.25
434.509	429.25
434.731	441.25
434.953	438.25
435.175	460.25
435.397	478.25
435.618	502.25
435.84	582.25
436.062	656.25
436.284	709.25
436.505	591.25
436.727	529.25
436.949	493.25
437.17	475.25
437.392	465.25
437.614	481.25
437.835	518.25
438.057	645.25
438.278	734.25
438.5	724.25
438.721	796.25
438.943	757.25
439.165	580.25
439.386	549.25
439.608	548.25
439.829	548.25
440.05	551.25
440.272	630.25
440.493	569.25
440.715	531.25
440.936	503.25
441.158	496.25
441.379	458.25
441.6	489.25
441.822	516.25
442.043	559.25
442.264	635.25
442.486	675.25
442.707	579.25
442.928	533.25
443.149	515.25
443.371	554.25
443.592	587.25
443.813	681.25
444.034	746.25
444.255	606.25
444.476	561.25
444.698	525.25
444.919	499.25
445.14	584.25
445.361	568.25
445.582	580.25
445.803	638.25
446.024	713.25
446.245	753.25
446.466	696.25
446.687	568.25
446.908	516.25
447.129	514.25
447.35	501.25
447.571	446.25
447.792	481.25
448.013	480.25
448.234	517.25
448.455	551.25
448.675	668.25
448.896	777.25
449.117	658.25
449.338	605.25
449.559	710.25
449.779	811.25
450	651.25
450.221	545.25
450.442	524.25
450.662	452.25
450.883	483.25
451.104	500.25
451.324	480.25
451.545	449.25
451.766	448.25
451.986	423.25
452.207	441.25
452.428	417.25
452.648	411.25
452.869	435.25
453.089	442.25
453.31	448.25
453.53	459.25
453.751	428.25
453.971	422.25
454.192	447.25
454.412	455.25
454.633	419.25
454.853	422.25
455.073	418.25
455.294	437.25
455.514	526.25
455.734	503.25
455.955	405.25
456.175	395.25
456.395	379.25
456.616	380.25
456.836	406.25
457.056	380.25
457.276	381.25
457.497	388.25
457.717	385.25
457.937	390.25
458.157	413.25
458.377	415.25
458.598	437.25
458.818	525.25
459.038	595.25
459.258	606.25
459.478	517.25
459.698	451.25
459.918	437.25
460.138	412.25
460.358	442.25
460.578	451.25
460.798	442.25
461.018	441.25
461.238	405.25
461.458	409.25
461.678	410.25
461.898	436.25
462.118	413.25
462.338	407.25
462.558	430.25
462.777	445.25
462.997	467.25
463.217	450.25
463.437	453.25
463.657	447.25
463.876	426.25
464.096	445.25
464.316	450.25
464.536	467.25
464.755	451.25
464.975	473.25
465.195	527.25
465.414	600.25
465.634	542.25
465.854	463.25
466.073	467.25
466.293	452.25
466.512	423.25
466.732	401.25
466.951	409.25
467.171	425.25
467.391	410.25
467.61	436.25
467.829	439.25
468.049	444.25
468.268	441.25
468.488	439.25
468.707	415.25
468.927	423.25
469.146	400.25
469.365	438.25
469.585	415.25
469.804	413.25
470.023	418.25
470.243	422.25
470.462	436.25
470.681	458.25
470.901	430.25
471.12	406.25
471.339	412.25
471.558	437.25
471.777	444.25
471.997	434.25
472.216	431.25
472.435	513.25
472.654	475.25
472.873	458.25
473.092	427.25
473.311	442.25
473.53	415.25
473.749	444.25
473.968	495.25
474.187	607.25
474.406	636.25
474.625	484.25
474.844	454.25
475.063	433.25
475.282	443.25
475.501	422.25
475.72	438.25
475.939	436.25
476.158	422.25
476.377	426.25
476.596	445.25
476.814	462.25
477.033	434.25
477.252	434.25
477.471	474.25
477.69	454.25
477.908	472.25
478.127	454.25
478.346	445.25
478.564	472.25
478.783	475.25
479.002	449.25
479.22	477.25
479.439	491.25
479.658	504.25
479.876	515.25
480.095	525.25
480.313	557.25
480.532	520.25
480.751	503.25
480.969	539.25
481.188	630.25
481.406	690.25
481.624	580.25
481.843	525.25
482.061	517.25
482.28	516.25
482.498	487.25
482.717	506.25
482.935	512.25
483.153	488.25
483.372	513.25
483.59	502.25
483.808	483.25
484.027	489.25
484.245	483.25
484.463	501.25
484.681	492.25
484.9	511.25
485.118	533.25
485.336	515.25
485.554	510.25
485.772	497.25
485.99	499.25
486.209	523.25
486.427	526.25
486.645	528.25
486.863	559.25
487.081	554.25
487.299	566.25
487.517	542.25
487.735	551.25
487.953	532.25
488.171	545.25
488.389	523.25
488.607	534.25
488.825	539.25
489.043	539.25
489.261	551.25
489.479	526.25
489.696	524.25
489.914	565.25
490.132	553.25
490.35	580.25
490.568	570.25
490.786	563.25
491.003	594.25
491.221	589.25
491.439	620.25
491.657	590.25
491.874	630.25
492.092	607.25
492.31	621.25
492.527	641.25
492.745	619.25
492.963	625.25
493.18	621.25
493.398	627.25
493.615	639.25
493.833	651.25
494.05	627.25
494.268	634.25
494.485	654.25
494.703	639.25
494.92	635.25
495.138	661.25
495.355	637.25
495.573	636.25
495.79	637.25
496.008	641.25
496.225	637.25
496.442	663.25
496.66	617.25
496.877	637.25
497.094	647.25
497.312	639.25
497.529	675.25
497.746	655.25
497.963	670.25
498.181	724.25
498.398	713.25
498.615	713.25
498.832	696.25
499.049	687.25
499.267	686.25
499.484	725.25
499.701	741.25
499.918	749.25
500.135	769.25
500.352	769.25
500.569	761.25
500.786	773.25
501.003	793.25
501.22	793.25
501.437	790.25
501.654	776.25
501.871	774.25
