Data from 1973.PennyLincolnUp.Lamp.En5.5.200Scan.071719.P1.Changed Mount._HRD10591_15-44-53-852.txt Node
Date: Thu Jul 18 15:44:53 EDT 2019
User: cochatt
Spectrometer: HR+D1059
Trigger mode: 1
Integration Time (sec): 1.000000E-1
Scans to average: 1
Electric dark correction enabled: true
Nonlinearity correction enabled: false
Boxcar width: 0
XAxis mode: Wavelengths
Number of Pixels in Spectrum: 2048
>>>>>Begin Spectral Data<<<<<
223.165	-9.88
223.4	-9.88
223.635	-9.88
223.869	-18.88
224.104	-19.88
224.338	-24.88
224.573	-4.88
224.808	-7.88
225.042	3.12
225.277	-1.88
225.511	-12.88
225.746	2.12
225.98	14.12
226.215	11.12
226.449	14.12
226.683	13.12
226.918	21.12
227.152	22.12
227.387	34.12
227.621	35.12
227.856	40.12
228.09	39.12
228.324	45.12
228.559	51.12
228.793	68.12
229.027	86.12
229.262	113.12
229.496	121.12
229.73	119.12
229.964	131.12
230.199	128.12
230.433	132.12
230.667	115.12
230.901	103.12
231.136	116.12
231.37	114.12
231.604	119.12
231.838	117.12
232.072	106.12
232.306	112.12
232.541	108.12
232.775	114.12
233.009	121.12
233.243	109.12
233.477	130.12
233.711	120.12
233.945	124.12
234.179	121.12
234.413	128.12
234.647	120.12
234.881	118.12
235.115	119.12
235.349	118.12
235.583	126.12
235.817	127.12
236.051	129.12
236.285	121.12
236.519	113.12
236.753	147.12
236.987	160.12
237.221	179.12
237.455	225.12
237.689	179.12
237.922	144.12
238.156	157.12
238.39	132.12
238.624	115.12
238.858	130.12
239.091	126.12
239.325	146.12
239.559	139.12
239.793	143.12
240.027	130.12
240.26	153.12
240.494	136.12
240.728	159.12
240.961	154.12
241.195	159.12
241.429	147.12
241.662	140.12
241.896	145.12
242.13	135.12
242.363	136.12
242.597	146.12
242.83	148.12
243.064	145.12
243.298	161.12
243.531	143.12
243.765	152.12
243.998	162.12
244.232	134.12
244.465	152.12
244.699	166.12
244.932	146.12
245.166	154.12
245.399	154.12
245.633	150.12
245.866	149.12
246.099	156.12
246.333	167.12
246.566	171.12
246.8	167.12
247.033	152.12
247.266	156.12
247.5	161.12
247.733	149.12
247.966	173.12
248.2	171.12
248.433	168.12
248.666	179.12
248.899	232.12
249.133	202.12
249.366	209.12
249.599	203.12
249.832	193.12
250.066	181.12
250.299	183.12
250.532	195.12
250.765	212.12
250.998	240.12
251.231	232.12
251.465	206.12
251.698	230.12
251.931	211.12
252.164	206.12
252.397	198.12
252.63	188.12
252.863	206.12
253.096	215.12
253.329	223.12
253.562	216.12
253.795	216.12
254.028	231.12
254.261	218.12
254.494	237.12
254.727	241.12
254.96	263.12
255.193	271.12
255.426	249.12
255.659	209.12
255.892	251.12
256.124	242.12
256.357	241.12
256.59	228.12
256.823	217.12
257.056	222.12
257.289	195.12
257.521	218.12
257.754	215.12
257.987	231.12
258.22	240.12
258.452	212.12
258.685	203.12
258.918	218.12
259.151	214.12
259.383	226.12
259.616	226.12
259.849	255.12
260.081	259.12
260.314	264.12
260.547	274.12
260.779	256.12
261.012	238.12
261.244	222.12
261.477	232.12
261.71	227.12
261.942	245.12
262.175	256.12
262.407	231.12
262.64	229.12
262.872	243.12
263.105	227.12
263.337	206.12
263.57	217.12
263.802	216.12
264.035	224.12
264.267	240.12
264.499	226.12
264.732	233.12
264.964	228.12
265.197	230.12
265.429	241.12
265.661	227.12
265.894	220.12
266.126	232.12
266.358	242.12
266.591	241.12
266.823	241.12
267.055	240.12
267.287	230.12
267.52	242.12
267.752	260.12
267.984	241.12
268.216	246.12
268.448	258.12
268.681	240.12
268.913	237.12
269.145	290.12
269.377	303.12
269.609	286.12
269.841	278.12
270.073	293.12
270.306	302.12
270.538	329.12
270.77	326.12
271.002	318.12
271.234	315.12
271.466	313.12
271.698	322.12
271.93	340.12
272.162	329.12
272.394	330.12
272.626	309.12
272.858	289.12
273.09	299.12
273.322	298.12
273.553	298.12
273.785	295.12
274.017	277.12
274.249	291.12
274.481	291.12
274.713	283.12
274.945	294.12
275.176	296.12
275.408	275.12
275.64	282.12
275.872	293.12
276.104	308.12
276.335	302.12
276.567	308.12
276.799	283.12
277.031	338.12
277.262	357.12
277.494	350.12
277.726	316.12
277.957	318.12
278.189	305.12
278.421	307.12
278.652	291.12
278.884	305.12
279.115	299.12
279.347	289.12
279.579	296.12
279.81	289.12
280.042	292.12
280.273	301.12
280.505	292.12
280.736	301.12
280.968	283.12
281.199	301.12
281.431	312.12
281.662	290.12
281.894	308.12
282.125	292.12
282.356	322.12
282.588	336.12
282.819	328.12
283.051	321.12
283.282	295.12
283.513	311.12
283.745	326.12
283.976	310.12
284.207	321.12
284.439	316.12
284.67	306.12
284.901	305.12
285.132	301.12
285.364	317.12
285.595	317.12
285.826	339.12
286.057	338.12
286.288	307.12
286.52	328.12
286.751	314.12
286.982	311.12
287.213	301.12
287.444	308.12
287.675	335.12
287.906	333.12
288.138	335.12
288.369	342.12
288.6	352.12
288.831	336.12
289.062	329.12
289.293	347.12
289.524	325.12
289.755	344.12
289.986	323.12
290.217	328.12
290.448	317.12
290.679	337.12
290.91	318.12
291.141	341.12
291.371	333.12
291.602	330.12
291.833	322.12
292.064	326.12
292.295	305.12
292.526	331.12
292.757	344.12
292.987	327.12
293.218	319.12
293.449	327.12
293.68	344.12
293.91	332.12
294.141	332.12
294.372	329.12
294.603	331.12
294.833	340.12
295.064	338.12
295.295	342.12
295.525	344.12
295.756	355.12
295.987	340.12
296.217	363.12
296.448	360.12
296.679	344.12
296.909	346.12
297.14	320.12
297.37	349.12
297.601	352.12
297.831	328.12
298.062	361.12
298.292	340.12
298.523	338.12
298.753	357.12
298.984	345.12
299.214	355.12
299.445	352.12
299.675	354.12
299.905	373.12
300.136	378.12
300.366	352.12
300.597	375.12
300.827	350.12
301.057	373.12
301.288	375.12
301.518	358.12
301.748	370.12
301.979	373.12
302.209	381.12
302.439	368.12
302.669	357.12
302.9	350.12
303.13	357.12
303.36	380.12
303.59	372.12
303.82	383.12
304.051	378.12
304.281	389.12
304.511	377.12
304.741	382.12
304.971	369.12
305.201	385.12
305.431	371.12
305.661	374.12
305.891	365.12
306.121	388.12
306.352	378.12
306.582	383.12
306.812	384.12
307.042	374.12
307.272	370.12
307.502	373.12
307.731	378.12
307.961	386.12
308.191	381.12
308.421	377.12
308.651	381.12
308.881	385.12
309.111	396.12
309.341	384.12
309.571	376.12
309.8	387.12
310.03	386.12
310.26	396.12
310.49	387.12
310.72	425.12
310.949	420.12
311.179	421.12
311.409	407.12
311.639	406.12
311.868	383.12
312.098	412.12
312.328	422.12
312.557	429.12
312.787	446.12
313.017	446.12
313.246	410.12
313.476	400.12
313.706	398.12
313.935	443.12
314.165	442.12
314.394	436.12
314.624	421.12
314.853	432.12
315.083	422.12
315.312	423.12
315.542	417.12
315.771	402.12
316.001	406.12
316.23	411.12
316.46	405.12
316.689	381.12
316.919	412.12
317.148	401.12
317.377	424.12
317.607	410.12
317.836	425.12
318.065	426.12
318.295	419.12
318.524	414.12
318.753	432.12
318.983	401.12
319.212	408.12
319.441	417.12
319.67	420.12
319.9	413.12
320.129	414.12
320.358	435.12
320.587	429.12
320.816	414.12
321.046	428.12
321.275	415.12
321.504	425.12
321.733	423.12
321.962	450.12
322.191	436.12
322.42	446.12
322.649	444.12
322.878	479.12
323.108	476.12
323.337	513.12
323.566	479.12
323.795	531.12
324.024	571.12
324.253	648.12
324.482	876.12
324.71	1274.12
324.939	1781.12
325.168	1578.12
325.397	873.12
325.626	626.12
325.855	533.12
326.084	515.12
326.313	489.12
326.542	526.12
326.77	538.12
326.999	605.12
327.228	838.12
327.457	1138.12
327.686	1361.12
327.914	970.12
328.143	662.12
328.372	600.12
328.6	570.12
328.829	552.12
329.058	557.12
329.287	580.12
329.515	542.12
329.744	516.12
329.972	515.12
330.201	535.12
330.43	556.12
330.658	581.12
330.887	593.12
331.115	572.12
331.344	534.12
331.572	508.12
331.801	539.12
332.03	515.12
332.258	521.12
332.486	525.12
332.715	491.12
332.943	531.12
333.172	505.12
333.4	530.12
333.629	537.12
333.857	555.12
334.085	573.12
334.314	568.12
334.542	603.12
334.771	576.12
334.999	574.12
335.227	548.12
335.455	521.12
335.684	501.12
335.912	501.12
336.14	499.12
336.369	488.12
336.597	516.12
336.825	502.12
337.053	481.12
337.281	486.12
337.51	493.12
337.738	498.12
337.966	499.12
338.194	485.12
338.422	504.12
338.65	488.12
338.878	483.12
339.106	477.12
339.334	489.12
339.562	469.12
339.79	475.12
340.018	466.12
340.246	469.12
340.474	480.12
340.702	474.12
340.93	458.12
341.158	469.12
341.386	452.12
341.614	490.12
341.842	470.12
342.07	469.12
342.298	435.12
342.526	452.12
342.754	445.12
342.981	435.12
343.209	476.12
343.437	474.12
343.665	463.12
343.893	512.12
344.12	522.12
344.348	520.12
344.576	498.12
344.804	482.12
345.031	499.12
345.259	474.12
345.487	441.12
345.714	455.12
345.942	456.12
346.17	446.12
346.397	437.12
346.625	460.12
346.853	432.12
347.08	445.12
347.308	441.12
347.535	461.12
347.763	461.12
347.99	457.12
348.218	475.12
348.445	460.12
348.673	467.12
348.9	465.12
349.128	447.12
349.355	440.12
349.583	442.12
349.81	470.12
350.037	456.12
350.265	445.12
350.492	424.12
350.72	431.12
350.947	455.12
351.174	448.12
351.402	452.12
351.629	447.12
351.856	458.12
352.083	448.12
352.311	455.12
352.538	439.12
352.765	458.12
352.992	444.12
353.22	435.12
353.447	439.12
353.674	436.12
353.901	437.12
354.128	413.12
354.355	422.12
354.583	422.12
354.81	418.12
355.037	432.12
355.264	422.12
355.491	426.12
355.718	406.12
355.945	439.12
356.172	424.12
356.399	412.12
356.626	426.12
356.853	442.12
357.08	433.12
357.307	396.12
357.534	408.12
357.761	437.12
357.988	432.12
358.215	422.12
358.441	417.12
358.668	433.12
358.895	439.12
359.122	428.12
359.349	438.12
359.576	423.12
359.802	450.12
360.029	472.12
360.256	488.12
360.483	470.12
360.709	453.12
360.936	459.12
361.163	451.12
361.39	446.12
361.616	453.12
361.843	445.12
362.07	448.12
362.296	451.12
362.523	427.12
362.749	446.12
362.976	420.12
363.203	440.12
363.429	427.12
363.656	427.12
363.882	437.12
364.109	420.12
364.335	428.12
364.562	426.12
364.788	420.12
365.015	432.12
365.241	434.12
365.468	443.12
365.694	438.12
365.92	435.12
366.147	424.12
366.373	439.12
366.599	449.12
366.826	444.12
367.052	420.12
367.278	434.12
367.505	435.12
367.731	437.12
367.957	420.12
368.184	459.12
368.41	447.12
368.636	427.12
368.862	449.12
369.089	423.12
369.315	447.12
369.541	450.12
369.767	423.12
369.993	422.12
370.219	445.12
370.445	423.12
370.672	440.12
370.898	416.12
371.124	428.12
371.35	445.12
371.576	434.12
371.802	428.12
372.028	441.12
372.254	426.12
372.48	435.12
372.706	440.12
372.932	429.12
373.158	456.12
373.384	434.12
373.61	437.12
373.835	442.12
374.061	441.12
374.287	467.12
374.513	444.12
374.739	446.12
374.965	448.12
375.191	459.12
375.416	442.12
375.642	454.12
375.868	466.12
376.094	457.12
376.319	444.12
376.545	449.12
376.771	422.12
376.997	438.12
377.222	427.12
377.448	424.12
377.674	434.12
377.899	441.12
378.125	442.12
378.35	440.12
378.576	423.12
378.802	414.12
379.027	426.12
379.253	429.12
379.478	447.12
379.704	418.12
379.929	429.12
380.155	428.12
380.38	432.12
380.606	436.12
380.831	460.12
381.057	445.12
381.282	420.12
381.507	422.12
381.733	442.12
381.958	440.12
382.184	430.12
382.409	416.12
382.634	459.12
382.86	440.12
383.085	455.12
383.31	452.12
383.535	456.12
383.761	467.12
383.986	478.12
384.211	462.12
384.436	465.12
384.662	456.12
384.887	469.12
385.112	479.12
385.337	472.12
385.562	486.12
385.787	480.12
386.013	498.12
386.238	497.12
386.463	503.12
386.688	498.12
386.913	486.12
387.138	476.12
387.363	503.12
387.588	493.12
387.813	493.12
388.038	467.12
388.263	478.12
388.488	467.12
388.713	473.12
388.938	498.12
389.163	480.12
389.387	472.12
389.612	477.12
389.837	479.12
390.062	491.12
390.287	481.12
390.512	485.12
390.736	498.12
390.961	485.12
391.186	485.12
391.411	476.12
391.636	509.12
391.86	535.12
392.085	530.12
392.31	502.12
392.534	497.12
392.759	500.12
392.984	491.12
393.208	471.12
393.433	474.12
393.658	498.12
393.882	477.12
394.107	481.12
394.331	486.12
394.556	502.12
394.78	487.12
395.005	516.12
395.229	487.12
395.454	505.12
395.678	530.12
395.903	563.12
396.127	547.12
396.352	566.12
396.576	518.12
396.801	508.12
397.025	504.12
397.249	506.12
397.474	529.12
397.698	525.12
397.922	547.12
398.147	569.12
398.371	589.12
398.595	549.12
398.82	577.12
399.044	592.12
399.268	619.12
399.492	681.12
399.717	731.12
399.941	747.12
400.165	746.12
400.389	729.12
400.613	638.12
400.837	626.12
401.062	564.12
401.286	586.12
401.51	581.12
401.734	580.12
401.958	580.12
402.182	591.12
402.406	595.12
402.63	590.12
402.854	587.12
403.078	601.12
403.302	614.12
403.526	590.12
403.75	633.12
403.974	621.12
404.198	594.12
404.422	642.12
404.645	634.12
404.869	621.12
405.093	643.12
405.317	679.12
405.541	694.12
405.765	663.12
405.988	629.12
406.212	630.12
406.436	674.12
406.66	668.12
406.883	642.12
407.107	653.12
407.331	716.12
407.555	789.12
407.778	797.12
408.002	709.12
408.226	669.12
408.449	672.12
408.673	666.12
408.896	677.12
409.12	688.12
409.344	645.12
409.567	626.12
409.791	597.12
410.014	637.12
410.238	605.12
410.461	602.12
410.685	599.12
410.908	617.12
411.132	624.12
411.355	660.12
411.578	617.12
411.802	607.12
412.025	598.12
412.249	608.12
412.472	634.12
412.695	662.12
412.919	657.12
413.142	585.12
413.365	588.12
413.589	571.12
413.812	568.12
414.035	562.12
414.258	575.12
414.482	557.12
414.705	574.12
414.928	571.12
415.151	580.12
415.374	565.12
415.597	565.12
415.821	560.12
416.044	575.12
416.267	547.12
416.49	544.12
416.713	570.12
416.936	570.12
417.159	579.12
417.382	560.12
417.605	576.12
417.828	606.12
418.051	589.12
418.274	579.12
418.497	558.12
418.72	576.12
418.943	567.12
419.166	611.12
419.389	620.12
419.611	624.12
419.834	599.12
420.057	582.12
420.28	588.12
420.503	562.12
420.726	581.12
420.948	587.12
421.171	621.12
421.394	650.12
421.617	601.12
421.839	583.12
422.062	579.12
422.285	592.12
422.507	642.12
422.73	730.12
422.953	694.12
423.175	635.12
423.398	618.12
423.621	611.12
423.843	619.12
424.066	612.12
424.288	637.12
424.511	621.12
424.733	679.12
424.956	751.12
425.178	734.12
425.401	703.12
425.623	711.12
425.846	629.12
426.068	621.12
426.291	627.12
426.513	595.12
426.735	626.12
426.958	617.12
427.18	699.12
427.402	808.12
427.625	898.12
427.847	788.12
428.069	698.12
428.292	621.12
428.514	592.12
428.736	581.12
428.958	554.12
429.181	564.12
429.403	560.12
429.625	532.12
429.847	587.12
430.069	652.12
430.292	629.12
430.514	592.12
430.736	562.12
430.958	559.12
431.18	536.12
431.402	533.12
431.624	524.12
431.846	521.12
432.068	524.12
432.29	541.12
432.512	551.12
432.734	536.12
432.956	541.12
433.178	555.12
433.4	536.12
433.622	530.12
433.844	533.12
434.066	535.12
434.287	538.12
434.509	554.12
434.731	556.12
434.953	551.12
435.175	570.12
435.397	609.12
435.618	617.12
435.84	647.12
436.062	697.12
436.284	769.12
436.505	655.12
436.727	577.12
436.949	569.12
437.17	546.12
437.392	527.12
437.614	571.12
437.835	594.12
438.057	655.12
438.278	768.12
438.5	768.12
438.721	828.12
438.943	810.12
439.165	647.12
439.386	606.12
439.608	586.12
439.829	588.12
440.05	610.12
440.272	652.12
440.493	618.12
440.715	582.12
440.936	572.12
441.158	588.12
441.379	568.12
441.6	585.12
441.822	613.12
442.043	633.12
442.264	721.12
442.486	744.12
442.707	671.12
442.928	612.12
443.149	618.12
443.371	664.12
443.592	690.12
443.813	774.12
444.034	818.12
444.255	695.12
444.476	644.12
444.698	653.12
444.919	643.12
445.14	728.12
445.361	682.12
445.582	645.12
445.803	699.12
446.024	776.12
446.245	795.12
446.466	716.12
446.687	614.12
446.908	596.12
447.129	558.12
447.35	567.12
447.571	536.12
447.792	535.12
448.013	546.12
448.234	538.12
448.455	584.12
448.675	696.12
448.896	806.12
449.117	678.12
449.338	643.12
449.559	759.12
449.779	854.12
450	686.12
450.221	589.12
450.442	561.12
450.662	521.12
450.883	544.12
451.104	554.12
451.324	538.12
451.545	524.12
451.766	507.12
451.986	463.12
452.207	497.12
452.428	488.12
452.648	503.12
452.869	480.12
453.089	489.12
453.31	501.12
453.53	510.12
453.751	490.12
453.971	496.12
454.192	502.12
454.412	489.12
454.633	478.12
454.853	477.12
455.073	495.12
455.294	505.12
455.514	553.12
455.734	570.12
455.955	496.12
456.175	472.12
456.395	453.12
456.616	468.12
456.836	470.12
457.056	441.12
457.276	445.12
457.497	461.12
457.717	458.12
457.937	475.12
458.157	498.12
458.377	486.12
458.598	514.12
458.818	536.12
459.038	613.12
459.258	653.12
459.478	579.12
459.698	526.12
459.918	558.12
460.138	548.12
460.358	567.12
460.578	552.12
460.798	555.12
461.018	588.12
461.238	565.12
461.458	577.12
461.678	543.12
461.898	566.12
462.118	558.12
462.338	615.12
462.558	607.12
462.777	625.12
462.997	642.12
463.217	657.12
463.437	672.12
463.657	632.12
463.876	599.12
464.096	644.12
464.316	614.12
464.536	628.12
464.755	602.12
464.975	624.12
465.195	652.12
465.414	657.12
465.634	606.12
465.854	555.12
466.073	545.12
466.293	527.12
466.512	517.12
466.732	517.12
466.951	517.12
467.171	504.12
467.391	496.12
467.61	497.12
467.829	523.12
468.049	541.12
468.268	519.12
468.488	501.12
468.707	490.12
468.927	490.12
469.146	477.12
469.365	456.12
469.585	484.12
469.804	490.12
470.023	516.12
470.243	520.12
470.462	534.12
470.681	537.12
470.901	536.12
471.12	519.12
471.339	505.12
471.558	497.12
471.777	488.12
471.997	516.12
472.216	497.12
472.435	560.12
472.654	525.12
472.873	496.12
473.092	517.12
473.311	484.12
473.53	505.12
473.749	514.12
473.968	555.12
474.187	629.12
474.406	666.12
474.625	546.12
474.844	524.12
475.063	495.12
475.282	501.12
475.501	515.12
475.72	525.12
475.939	519.12
476.158	533.12
476.377	526.12
476.596	523.12
476.814	540.12
477.033	563.12
477.252	534.12
477.471	546.12
477.69	555.12
477.908	562.12
478.127	590.12
478.346	567.12
478.564	569.12
478.783	594.12
479.002	582.12
479.22	573.12
479.439	622.12
479.658	614.12
479.876	608.12
480.095	609.12
480.313	670.12
480.532	625.12
480.751	634.12
480.969	649.12
481.188	675.12
481.406	697.12
481.624	624.12
481.843	601.12
482.061	612.12
482.28	602.12
482.498	599.12
482.717	589.12
482.935	589.12
483.153	588.12
483.372	598.12
483.59	590.12
483.808	576.12
484.027	577.12
484.245	588.12
484.463	585.12
484.681	613.12
484.9	608.12
485.118	605.12
485.336	608.12
485.554	632.12
485.772	586.12
485.99	605.12
486.209	603.12
486.427	619.12
486.645	625.12
486.863	654.12
487.081	630.12
487.299	634.12
487.517	612.12
487.735	630.12
487.953	625.12
488.171	635.12
488.389	601.12
488.607	636.12
488.825	637.12
489.043	624.12
489.261	645.12
489.479	641.12
489.696	654.12
489.914	625.12
490.132	641.12
490.35	644.12
490.568	657.12
490.786	672.12
491.003	670.12
491.221	701.12
491.439	684.12
491.657	685.12
491.874	732.12
492.092	716.12
492.31	717.12
492.527	731.12
492.745	713.12
492.963	729.12
493.18	722.12
493.398	713.12
493.615	765.12
493.833	745.12
494.05	754.12
494.268	703.12
494.485	727.12
494.703	752.12
494.92	731.12
495.138	723.12
495.355	740.12
495.573	740.12
495.79	738.12
496.008	737.12
496.225	739.12
496.442	745.12
496.66	747.12
496.877	764.12
497.094	743.12
497.312	748.12
497.529	774.12
497.746	786.12
497.963	808.12
498.181	836.12
498.398	832.12
498.615	880.12
498.832	894.12
499.049	944.12
499.267	942.12
499.484	977.12
499.701	1060.12
499.918	1137.12
500.135	1188.12
500.352	1295.12
500.569	1282.12
500.786	1290.12
501.003	1240.12
501.22	1230.12
501.437	1170.12
501.654	1065.12
