Data from 1973.PennyLincolnUp.Lamp.En5.5.200Scan.071719.P1.Changed Mount._HRD10591_15-45-33-853.txt Node
Date: Thu Jul 18 15:45:33 EDT 2019
User: cochatt
Spectrometer: HR+D1059
Trigger mode: 1
Integration Time (sec): 1.000000E-1
Scans to average: 1
Electric dark correction enabled: true
Nonlinearity correction enabled: false
Boxcar width: 0
XAxis mode: Wavelengths
Number of Pixels in Spectrum: 2048
>>>>>Begin Spectral Data<<<<<
223.165	-27.75
223.4	-27.75
223.635	-27.75
223.869	-34.75
224.104	-5.75
224.338	-12.75
224.573	-13.75
224.808	-13.75
225.042	-6.75
225.277	-0.75
225.511	2.25
225.746	5.25
225.98	19.25
226.215	4.25
226.449	6.25
226.683	25.25
226.918	27.25
227.152	26.25
227.387	37.25
227.621	31.25
227.856	41.25
228.09	47.25
228.324	47.25
228.559	66.25
228.793	69.25
229.027	86.25
229.262	108.25
229.496	115.25
229.73	123.25
229.964	151.25
230.199	108.25
230.433	111.25
230.667	130.25
230.901	107.25
231.136	125.25
231.37	114.25
231.604	116.25
231.838	114.25
232.072	102.25
232.306	114.25
232.541	128.25
232.775	123.25
233.009	118.25
233.243	120.25
233.477	116.25
233.711	111.25
233.945	101.25
234.179	102.25
234.413	117.25
234.647	138.25
234.881	126.25
235.115	118.25
235.349	125.25
235.583	117.25
235.817	122.25
236.051	124.25
236.285	123.25
236.519	141.25
236.753	131.25
236.987	154.25
237.221	183.25
237.455	213.25
237.689	186.25
237.922	127.25
238.156	139.25
238.39	123.25
238.624	120.25
238.858	138.25
239.091	140.25
239.325	134.25
239.559	116.25
239.793	133.25
240.027	138.25
240.26	142.25
240.494	152.25
240.728	149.25
240.961	145.25
241.195	154.25
241.429	148.25
241.662	152.25
241.896	137.25
242.13	129.25
242.363	144.25
242.597	139.25
242.83	132.25
243.064	146.25
243.298	148.25
243.531	139.25
243.765	150.25
243.998	135.25
244.232	140.25
244.465	143.25
244.699	155.25
244.932	132.25
245.166	154.25
245.399	150.25
245.633	162.25
245.866	159.25
246.099	158.25
246.333	158.25
246.566	165.25
246.8	154.25
247.033	170.25
247.266	170.25
247.5	178.25
247.733	167.25
247.966	168.25
248.2	194.25
248.433	179.25
248.666	170.25
248.899	184.25
249.133	188.25
249.366	200.25
249.599	196.25
249.832	190.25
250.066	185.25
250.299	174.25
250.532	186.25
250.765	222.25
250.998	231.25
251.231	232.25
251.465	211.25
251.698	201.25
251.931	194.25
252.164	188.25
252.397	204.25
252.63	211.25
252.863	206.25
253.096	225.25
253.329	229.25
253.562	234.25
253.795	212.25
254.028	225.25
254.261	207.25
254.494	229.25
254.727	246.25
254.96	265.25
255.193	266.25
255.426	257.25
255.659	234.25
255.892	229.25
256.124	228.25
256.357	232.25
256.59	233.25
256.823	221.25
257.056	208.25
257.289	229.25
257.521	218.25
257.754	226.25
257.987	220.25
258.22	212.25
258.452	200.25
258.685	221.25
258.918	213.25
259.151	222.25
259.383	213.25
259.616	202.25
259.849	226.25
260.081	240.25
260.314	245.25
260.547	262.25
260.779	236.25
261.012	222.25
261.244	226.25
261.477	231.25
261.71	215.25
261.942	213.25
262.175	249.25
262.407	226.25
262.64	228.25
262.872	234.25
263.105	216.25
263.337	227.25
263.57	210.25
263.802	235.25
264.035	227.25
264.267	216.25
264.499	232.25
264.732	219.25
264.964	221.25
265.197	234.25
265.429	226.25
265.661	247.25
265.894	233.25
266.126	222.25
266.358	240.25
266.591	235.25
266.823	246.25
267.055	256.25
267.287	236.25
267.52	238.25
267.752	230.25
267.984	247.25
268.216	230.25
268.448	242.25
268.681	254.25
268.913	276.25
269.145	270.25
269.377	296.25
269.609	287.25
269.841	272.25
270.073	274.25
270.306	303.25
270.538	326.25
270.77	343.25
271.002	329.25
271.234	298.25
271.466	328.25
271.698	327.25
271.93	301.25
272.162	322.25
272.394	316.25
272.626	322.25
272.858	312.25
273.09	298.25
273.322	284.25
273.553	283.25
273.785	283.25
274.017	313.25
274.249	275.25
274.481	262.25
274.713	262.25
274.945	286.25
275.176	269.25
275.408	290.25
275.64	274.25
275.872	275.25
276.104	275.25
276.335	284.25
276.567	295.25
276.799	295.25
277.031	316.25
277.262	335.25
277.494	323.25
277.726	317.25
277.957	312.25
278.189	286.25
278.421	281.25
278.652	299.25
278.884	279.25
279.115	268.25
279.347	316.25
279.579	292.25
279.81	282.25
280.042	291.25
280.273	283.25
280.505	285.25
280.736	286.25
280.968	281.25
281.199	306.25
281.431	311.25
281.662	293.25
281.894	281.25
282.125	296.25
282.356	315.25
282.588	323.25
282.819	339.25
283.051	307.25
283.282	283.25
283.513	303.25
283.745	315.25
283.976	297.25
284.207	321.25
284.439	327.25
284.67	288.25
284.901	299.25
285.132	298.25
285.364	302.25
285.595	297.25
285.826	307.25
286.057	314.25
286.288	310.25
286.52	313.25
286.751	313.25
286.982	343.25
287.213	304.25
287.444	332.25
287.675	318.25
287.906	326.25
288.138	334.25
288.369	347.25
288.6	346.25
288.831	329.25
289.062	345.25
289.293	314.25
289.524	315.25
289.755	330.25
289.986	334.25
290.217	317.25
290.448	321.25
290.679	325.25
290.91	330.25
291.141	341.25
291.371	319.25
291.602	331.25
291.833	308.25
292.064	333.25
292.295	322.25
292.526	330.25
292.757	299.25
292.987	316.25
293.218	328.25
293.449	319.25
293.68	326.25
293.91	335.25
294.141	326.25
294.372	324.25
294.603	336.25
294.833	321.25
295.064	334.25
295.295	336.25
295.525	341.25
295.756	342.25
295.987	350.25
296.217	349.25
296.448	346.25
296.679	334.25
296.909	362.25
297.14	340.25
297.37	341.25
297.601	344.25
297.831	341.25
298.062	344.25
298.292	346.25
298.523	355.25
298.753	368.25
298.984	341.25
299.214	335.25
299.445	354.25
299.675	338.25
299.905	370.25
300.136	356.25
300.366	341.25
300.597	358.25
300.827	382.25
301.057	357.25
301.288	350.25
301.518	346.25
301.748	359.25
301.979	358.25
302.209	379.25
302.439	372.25
302.669	371.25
302.9	353.25
303.13	351.25
303.36	372.25
303.59	372.25
303.82	385.25
304.051	368.25
304.281	373.25
304.511	376.25
304.741	359.25
304.971	356.25
305.201	368.25
305.431	370.25
305.661	376.25
305.891	361.25
306.121	372.25
306.352	380.25
306.582	380.25
306.812	363.25
307.042	364.25
307.272	357.25
307.502	372.25
307.731	372.25
307.961	394.25
308.191	348.25
308.421	376.25
308.651	358.25
308.881	358.25
309.111	376.25
309.341	376.25
309.571	394.25
309.8	386.25
310.03	406.25
310.26	407.25
310.49	399.25
310.72	406.25
310.949	420.25
311.179	416.25
311.409	392.25
311.639	388.25
311.868	409.25
312.098	403.25
312.328	405.25
312.557	438.25
312.787	423.25
313.017	422.25
313.246	410.25
313.476	411.25
313.706	413.25
313.935	414.25
314.165	427.25
314.394	398.25
314.624	429.25
314.853	435.25
315.083	435.25
315.312	407.25
315.542	407.25
315.771	398.25
316.001	393.25
316.23	423.25
316.46	401.25
316.689	404.25
316.919	406.25
317.148	425.25
317.377	414.25
317.607	418.25
317.836	408.25
318.065	414.25
318.295	386.25
318.524	420.25
318.753	391.25
318.983	403.25
319.212	392.25
319.441	425.25
319.67	412.25
319.9	418.25
320.129	381.25
320.358	420.25
320.587	401.25
320.816	431.25
321.046	427.25
321.275	423.25
321.504	437.25
321.733	438.25
321.962	424.25
322.191	420.25
322.42	437.25
322.649	448.25
322.878	452.25
323.108	458.25
323.337	489.25
323.566	498.25
323.795	505.25
324.024	519.25
324.253	598.25
324.482	788.25
324.71	1095.25
324.939	1565.25
325.168	1406.25
325.397	779.25
325.626	600.25
325.855	539.25
326.084	487.25
326.313	485.25
326.542	487.25
326.77	525.25
326.999	585.25
327.228	738.25
327.457	1010.25
327.686	1224.25
327.914	847.25
328.143	620.25
328.372	566.25
328.6	545.25
328.829	530.25
329.058	521.25
329.287	560.25
329.515	533.25
329.744	521.25
329.972	508.25
330.201	517.25
330.43	546.25
330.658	560.25
330.887	547.25
331.115	550.25
331.344	528.25
331.572	504.25
331.801	527.25
332.03	503.25
332.258	507.25
332.486	512.25
332.715	504.25
332.943	508.25
333.172	506.25
333.4	518.25
333.629	548.25
333.857	541.25
334.085	550.25
334.314	549.25
334.542	568.25
334.771	572.25
334.999	557.25
335.227	507.25
335.455	501.25
335.684	523.25
335.912	486.25
336.14	487.25
336.369	479.25
336.597	484.25
336.825	494.25
337.053	505.25
337.281	515.25
337.51	477.25
337.738	483.25
337.966	472.25
338.194	488.25
338.422	482.25
338.65	448.25
338.878	464.25
339.106	469.25
339.334	479.25
339.562	471.25
339.79	454.25
340.018	475.25
340.246	464.25
340.474	471.25
340.702	438.25
340.93	478.25
341.158	468.25
341.386	472.25
341.614	478.25
341.842	430.25
342.07	454.25
342.298	449.25
342.526	440.25
342.754	453.25
342.981	448.25
343.209	455.25
343.437	461.25
343.665	470.25
343.893	492.25
344.12	509.25
344.348	490.25
344.576	514.25
344.804	487.25
345.031	476.25
345.259	494.25
345.487	476.25
345.714	448.25
345.942	448.25
346.17	448.25
346.397	438.25
346.625	445.25
346.853	436.25
347.08	464.25
347.308	447.25
347.535	440.25
347.763	455.25
347.99	446.25
348.218	445.25
348.445	463.25
348.673	430.25
348.9	413.25
349.128	415.25
349.355	418.25
349.583	432.25
349.81	443.25
350.037	421.25
350.265	446.25
350.492	448.25
350.72	429.25
350.947	421.25
351.174	444.25
351.402	454.25
351.629	422.25
351.856	422.25
352.083	445.25
352.311	446.25
352.538	437.25
352.765	447.25
352.992	444.25
353.22	430.25
353.447	423.25
353.674	422.25
353.901	421.25
354.128	442.25
354.355	422.25
354.583	406.25
354.81	416.25
355.037	422.25
355.264	444.25
355.491	417.25
355.718	414.25
355.945	428.25
356.172	434.25
356.399	427.25
356.626	411.25
356.853	411.25
357.08	419.25
357.307	399.25
357.534	418.25
357.761	422.25
357.988	413.25
358.215	413.25
358.441	438.25
358.668	419.25
358.895	424.25
359.122	425.25
359.349	440.25
359.576	420.25
359.802	442.25
360.029	458.25
360.256	471.25
360.483	466.25
360.709	454.25
360.936	428.25
361.163	417.25
361.39	441.25
361.616	420.25
361.843	426.25
362.07	439.25
362.296	428.25
362.523	450.25
362.749	434.25
362.976	439.25
363.203	438.25
363.429	402.25
363.656	436.25
363.882	426.25
364.109	434.25
364.335	442.25
364.562	421.25
364.788	422.25
365.015	428.25
365.241	423.25
365.468	412.25
365.694	428.25
365.92	434.25
366.147	423.25
366.373	429.25
366.599	418.25
366.826	420.25
367.052	419.25
367.278	400.25
367.505	423.25
367.731	426.25
367.957	430.25
368.184	409.25
368.41	415.25
368.636	430.25
368.862	465.25
369.089	439.25
369.315	452.25
369.541	438.25
369.767	439.25
369.993	433.25
370.219	431.25
370.445	430.25
370.672	423.25
370.898	423.25
371.124	434.25
371.35	441.25
371.576	427.25
371.802	425.25
372.028	435.25
372.254	421.25
372.48	441.25
372.706	443.25
372.932	449.25
373.158	458.25
373.384	439.25
373.61	422.25
373.835	424.25
374.061	423.25
374.287	418.25
374.513	436.25
374.739	430.25
374.965	440.25
375.191	467.25
375.416	469.25
375.642	447.25
375.868	454.25
376.094	445.25
376.319	420.25
376.545	418.25
376.771	417.25
376.997	422.25
377.222	440.25
377.448	419.25
377.674	430.25
377.899	431.25
378.125	422.25
378.35	434.25
378.576	422.25
378.802	437.25
379.027	429.25
379.253	415.25
379.478	447.25
379.704	425.25
379.929	447.25
380.155	419.25
380.38	422.25
380.606	426.25
380.831	436.25
381.057	431.25
381.282	430.25
381.507	416.25
381.733	438.25
381.958	424.25
382.184	458.25
382.409	451.25
382.634	453.25
382.86	434.25
383.085	440.25
383.31	457.25
383.535	452.25
383.761	460.25
383.986	463.25
384.211	479.25
384.436	461.25
384.662	464.25
384.887	465.25
385.112	476.25
385.337	464.25
385.562	471.25
385.787	482.25
386.013	476.25
386.238	498.25
386.463	491.25
386.688	467.25
386.913	480.25
387.138	469.25
387.363	494.25
387.588	477.25
387.813	489.25
388.038	477.25
388.263	486.25
388.488	508.25
388.713	497.25
388.938	491.25
389.163	491.25
389.387	499.25
389.612	492.25
389.837	480.25
390.062	467.25
390.287	471.25
390.512	484.25
390.736	469.25
390.961	483.25
391.186	498.25
391.411	499.25
391.636	515.25
391.86	511.25
392.085	508.25
392.31	520.25
392.534	504.25
392.759	529.25
392.984	499.25
393.208	498.25
393.433	485.25
393.658	496.25
393.882	493.25
394.107	507.25
394.331	508.25
394.556	478.25
394.78	495.25
395.005	511.25
395.229	511.25
395.454	516.25
395.678	538.25
395.903	521.25
396.127	557.25
396.352	527.25
396.576	509.25
396.801	514.25
397.025	520.25
397.249	514.25
397.474	550.25
397.698	524.25
397.922	533.25
398.147	548.25
398.371	581.25
398.595	550.25
398.82	564.25
399.044	575.25
399.268	619.25
399.492	658.25
399.717	726.25
399.941	761.25
400.165	730.25
400.389	696.25
400.613	646.25
400.837	611.25
401.062	574.25
401.286	578.25
401.51	585.25
401.734	583.25
401.958	581.25
402.182	590.25
402.406	594.25
402.63	596.25
402.854	604.25
403.078	591.25
403.302	596.25
403.526	604.25
403.75	623.25
403.974	607.25
404.198	606.25
404.422	580.25
404.645	598.25
404.869	594.25
405.093	636.25
405.317	662.25
405.541	702.25
405.765	645.25
405.988	626.25
406.212	624.25
406.436	646.25
406.66	620.25
406.883	650.25
407.107	677.25
407.331	718.25
407.555	776.25
407.778	773.25
408.002	701.25
408.226	678.25
408.449	672.25
408.673	644.25
408.896	674.25
409.12	702.25
409.344	664.25
409.567	624.25
409.791	605.25
410.014	596.25
410.238	587.25
410.461	595.25
410.685	600.25
410.908	609.25
411.132	615.25
411.355	663.25
411.578	629.25
411.802	581.25
412.025	584.25
412.249	605.25
412.472	626.25
412.695	646.25
412.919	637.25
413.142	581.25
413.365	572.25
413.589	584.25
413.812	574.25
414.035	550.25
414.258	559.25
414.482	567.25
414.705	564.25
414.928	563.25
415.151	551.25
415.374	566.25
415.597	546.25
415.821	542.25
416.044	546.25
416.267	572.25
416.49	559.25
416.713	576.25
416.936	567.25
417.159	568.25
417.382	558.25
417.605	557.25
417.828	571.25
418.051	587.25
418.274	575.25
418.497	574.25
418.72	581.25
418.943	566.25
419.166	565.25
419.389	618.25
419.611	628.25
419.834	614.25
420.057	607.25
420.28	572.25
420.503	579.25
420.726	585.25
420.948	586.25
421.171	618.25
421.394	655.25
421.617	589.25
421.839	595.25
422.062	593.25
422.285	603.25
422.507	638.25
422.73	688.25
422.953	685.25
423.175	635.25
423.398	601.25
423.621	622.25
423.843	653.25
424.066	634.25
424.288	634.25
424.511	654.25
424.733	676.25
424.956	733.25
425.178	694.25
425.401	691.25
425.623	729.25
425.846	616.25
426.068	582.25
426.291	591.25
426.513	596.25
426.735	591.25
426.958	612.25
427.18	694.25
427.402	826.25
427.625	871.25
427.847	761.25
428.069	660.25
428.292	640.25
428.514	584.25
428.736	570.25
428.958	572.25
429.181	546.25
429.403	570.25
429.625	550.25
429.847	591.25
430.069	630.25
430.292	627.25
430.514	556.25
430.736	554.25
430.958	539.25
431.18	525.25
431.402	526.25
431.624	543.25
431.846	547.25
432.068	550.25
432.29	566.25
432.512	561.25
432.734	569.25
432.956	535.25
433.178	548.25
433.4	539.25
433.622	526.25
433.844	543.25
434.066	535.25
434.287	534.25
434.509	534.25
434.731	559.25
434.953	563.25
435.175	601.25
435.397	605.25
435.618	596.25
435.84	648.25
436.062	698.25
436.284	743.25
436.505	652.25
436.727	602.25
436.949	568.25
437.17	551.25
437.392	553.25
437.614	542.25
437.835	559.25
438.057	658.25
438.278	725.25
438.5	725.25
438.721	791.25
438.943	776.25
439.165	619.25
439.386	606.25
439.608	607.25
439.829	615.25
440.05	611.25
440.272	640.25
440.493	599.25
440.715	576.25
440.936	552.25
441.158	551.25
441.379	572.25
441.6	593.25
441.822	614.25
442.043	638.25
442.264	706.25
442.486	728.25
442.707	651.25
442.928	633.25
443.149	620.25
443.371	627.25
443.592	678.25
443.813	763.25
444.034	798.25
444.255	677.25
444.476	625.25
444.698	626.25
444.919	671.25
445.14	748.25
445.361	682.25
445.582	621.25
445.803	683.25
446.024	728.25
446.245	736.25
446.466	710.25
446.687	602.25
446.908	582.25
447.129	569.25
447.35	554.25
447.571	533.25
447.792	530.25
448.013	527.25
448.234	562.25
448.455	574.25
448.675	699.25
448.896	784.25
449.117	684.25
449.338	654.25
449.559	722.25
449.779	810.25
450	679.25
450.221	578.25
450.442	548.25
450.662	531.25
450.883	509.25
451.104	538.25
451.324	527.25
451.545	516.25
451.766	508.25
451.986	489.25
452.207	464.25
452.428	492.25
452.648	483.25
452.869	480.25
453.089	488.25
453.31	499.25
453.53	475.25
453.751	498.25
453.971	482.25
454.192	483.25
454.412	475.25
454.633	479.25
454.853	464.25
455.073	450.25
455.294	492.25
455.514	547.25
455.734	542.25
455.955	493.25
456.175	458.25
456.395	460.25
456.616	459.25
456.836	464.25
457.056	450.25
457.276	458.25
457.497	466.25
457.717	476.25
457.937	468.25
458.157	466.25
458.377	477.25
458.598	487.25
458.818	535.25
459.038	615.25
459.258	600.25
459.478	575.25
459.698	546.25
459.918	542.25
460.138	547.25
460.358	561.25
460.578	551.25
460.798	575.25
461.018	579.25
461.238	551.25
461.458	554.25
461.678	569.25
461.898	583.25
462.118	566.25
462.338	574.25
462.558	599.25
462.777	617.25
462.997	633.25
463.217	664.25
463.437	666.25
463.657	641.25
463.876	628.25
464.096	618.25
464.316	600.25
464.536	618.25
464.755	622.25
464.975	612.25
465.195	594.25
465.414	628.25
465.634	587.25
465.854	562.25
466.073	544.25
466.293	536.25
466.512	521.25
466.732	503.25
466.951	516.25
467.171	489.25
467.391	494.25
467.61	517.25
467.829	504.25
468.049	524.25
468.268	496.25
468.488	502.25
468.707	473.25
468.927	501.25
469.146	502.25
469.365	483.25
469.585	499.25
469.804	506.25
470.023	509.25
470.243	500.25
470.462	526.25
470.681	529.25
470.901	518.25
471.12	523.25
471.339	504.25
471.558	508.25
471.777	519.25
471.997	486.25
472.216	524.25
472.435	546.25
472.654	502.25
472.873	492.25
473.092	476.25
473.311	523.25
473.53	520.25
473.749	512.25
473.968	537.25
474.187	597.25
474.406	613.25
474.625	571.25
474.844	498.25
475.063	502.25
475.282	524.25
475.501	521.25
475.72	528.25
475.939	507.25
476.158	498.25
476.377	516.25
476.596	494.25
476.814	532.25
477.033	532.25
477.252	526.25
477.471	548.25
477.69	544.25
477.908	549.25
478.127	550.25
478.346	554.25
478.564	571.25
478.783	588.25
479.002	599.25
479.22	590.25
479.439	614.25
479.658	609.25
479.876	606.25
480.095	636.25
480.313	634.25
480.532	640.25
480.751	635.25
480.969	632.25
481.188	664.25
481.406	674.25
481.624	644.25
481.843	602.25
482.061	600.25
482.28	588.25
482.498	589.25
482.717	566.25
482.935	607.25
483.153	591.25
483.372	583.25
483.59	596.25
483.808	585.25
484.027	576.25
484.245	590.25
484.463	570.25
484.681	581.25
484.9	597.25
485.118	609.25
485.336	600.25
485.554	591.25
485.772	618.25
485.99	618.25
486.209	612.25
486.427	610.25
486.645	622.25
486.863	611.25
487.081	620.25
487.299	606.25
487.517	638.25
487.735	619.25
487.953	634.25
488.171	628.25
488.389	626.25
488.607	626.25
488.825	614.25
489.043	624.25
489.261	630.25
489.479	617.25
489.696	642.25
489.914	649.25
490.132	639.25
490.35	650.25
490.568	655.25
490.786	641.25
491.003	676.25
491.221	695.25
491.439	718.25
491.657	700.25
491.874	709.25
492.092	714.25
492.31	705.25
492.527	698.25
492.745	710.25
492.963	716.25
493.18	706.25
493.398	720.25
493.615	715.25
493.833	720.25
494.05	716.25
494.268	738.25
494.485	729.25
494.703	713.25
494.92	731.25
495.138	734.25
495.355	730.25
495.573	740.25
495.79	723.25
496.008	735.25
496.225	721.25
496.442	745.25
496.66	723.25
496.877	751.25
497.094	729.25
497.312	759.25
497.529	776.25
497.746	790.25
497.963	795.25
498.181	823.25
498.398	845.25
498.615	853.25
498.832	891.25
499.049	898.25
499.267	934.25
499.484	1001.25
499.701	1039.25
499.918	1094.25
500.135	1170.25
500.352	1280.25
500.569	1309.25
500.786	1295.25
501.003	1274.25
501.22	1197.25
501.437	1143.25
501.654	1065.25
