Data from 1973.PennyLincolnUp.Lamp.En5.5.200Scan.071719.P1.Changed Mount._HRD10591_15-44-16-852.txt Node
Date: Thu Jul 18 15:44:16 EDT 2019
User: cochatt
Spectrometer: HR+D1059
Trigger mode: 1
Integration Time (sec): 1.000000E-1
Scans to average: 1
Electric dark correction enabled: true
Nonlinearity correction enabled: false
Boxcar width: 0
XAxis mode: Wavelengths
Number of Pixels in Spectrum: 2048
>>>>>Begin Spectral Data<<<<<
223.165	-14.31
223.4	-14.31
223.635	-14.31
223.869	-8.31
224.104	-10.31
224.338	-2.31
224.573	-10.31
224.808	-9.31
225.042	4.69
225.277	-14.31
225.511	-6.31
225.746	-11.31
225.98	5.69
226.215	1.69
226.449	20.69
226.683	12.69
226.918	20.69
227.152	20.69
227.387	19.69
227.621	42.69
227.856	29.69
228.09	40.69
228.324	41.69
228.559	49.69
228.793	66.69
229.027	89.69
229.262	99.69
229.496	84.69
229.73	104.69
229.964	129.69
230.199	114.69
230.433	96.69
230.667	110.69
230.901	109.69
231.136	97.69
231.37	103.69
231.604	119.69
231.838	108.69
232.072	105.69
232.306	126.69
232.541	99.69
232.775	108.69
233.009	120.69
233.243	108.69
233.477	115.69
233.711	126.69
233.945	125.69
234.179	127.69
234.413	113.69
234.647	117.69
234.881	118.69
235.115	120.69
235.349	125.69
235.583	118.69
235.817	137.69
236.051	106.69
236.285	116.69
236.519	130.69
236.753	118.69
236.987	134.69
237.221	150.69
237.455	186.69
237.689	164.69
237.922	135.69
238.156	121.69
238.39	139.69
238.624	118.69
238.858	119.69
239.091	122.69
239.325	101.69
239.559	120.69
239.793	126.69
240.027	115.69
240.26	131.69
240.494	150.69
240.728	142.69
240.961	131.69
241.195	116.69
241.429	137.69
241.662	126.69
241.896	131.69
242.13	143.69
242.363	121.69
242.597	136.69
242.83	138.69
243.064	138.69
243.298	129.69
243.531	123.69
243.765	145.69
243.998	144.69
244.232	133.69
244.465	137.69
244.699	141.69
244.932	135.69
245.166	138.69
245.399	140.69
245.633	142.69
245.866	157.69
246.099	147.69
246.333	151.69
246.566	134.69
246.8	147.69
247.033	152.69
247.266	148.69
247.5	144.69
247.733	159.69
247.966	161.69
248.2	172.69
248.433	172.69
248.666	163.69
248.899	180.69
249.133	172.69
249.366	208.69
249.599	194.69
249.832	172.69
250.066	189.69
250.299	191.69
250.532	177.69
250.765	188.69
250.998	197.69
251.231	206.69
251.465	206.69
251.698	180.69
251.931	176.69
252.164	200.69
252.397	187.69
252.63	201.69
252.863	192.69
253.096	178.69
253.329	199.69
253.562	207.69
253.795	214.69
254.028	203.69
254.261	206.69
254.494	207.69
254.727	230.69
254.96	262.69
255.193	240.69
255.426	218.69
255.659	217.69
255.892	224.69
256.124	229.69
256.357	224.69
256.59	222.69
256.823	207.69
257.056	215.69
257.289	201.69
257.521	192.69
257.754	215.69
257.987	205.69
258.22	201.69
258.452	191.69
258.685	202.69
258.918	221.69
259.151	207.69
259.383	221.69
259.616	208.69
259.849	214.69
260.081	220.69
260.314	229.69
260.547	230.69
260.779	222.69
261.012	202.69
261.244	215.69
261.477	220.69
261.71	213.69
261.942	228.69
262.175	222.69
262.407	217.69
262.64	204.69
262.872	200.69
263.105	212.69
263.337	205.69
263.57	207.69
263.802	205.69
264.035	220.69
264.267	204.69
264.499	219.69
264.732	215.69
264.964	210.69
265.197	219.69
265.429	218.69
265.661	211.69
265.894	214.69
266.126	214.69
266.358	198.69
266.591	209.69
266.823	218.69
267.055	214.69
267.287	239.69
267.52	229.69
267.752	231.69
267.984	224.69
268.216	233.69
268.448	244.69
268.681	253.69
268.913	233.69
269.145	287.69
269.377	275.69
269.609	281.69
269.841	258.69
270.073	267.69
270.306	288.69
270.538	304.69
270.77	287.69
271.002	275.69
271.234	277.69
271.466	277.69
271.698	289.69
271.93	304.69
272.162	300.69
272.394	296.69
272.626	281.69
272.858	270.69
273.09	257.69
273.322	277.69
273.553	280.69
273.785	256.69
274.017	280.69
274.249	255.69
274.481	263.69
274.713	246.69
274.945	269.69
275.176	280.69
275.408	269.69
275.64	273.69
275.872	259.69
276.104	258.69
276.335	270.69
276.567	267.69
276.799	286.69
277.031	278.69
277.262	310.69
277.494	312.69
277.726	292.69
277.957	284.69
278.189	296.69
278.421	269.69
278.652	276.69
278.884	276.69
279.115	266.69
279.347	278.69
279.579	270.69
279.81	261.69
280.042	275.69
280.273	276.69
280.505	263.69
280.736	284.69
280.968	269.69
281.199	272.69
281.431	272.69
281.662	277.69
281.894	294.69
282.125	289.69
282.356	284.69
282.588	296.69
282.819	285.69
283.051	293.69
283.282	300.69
283.513	302.69
283.745	287.69
283.976	301.69
284.207	313.69
284.439	292.69
284.67	297.69
284.901	309.69
285.132	281.69
285.364	273.69
285.595	304.69
285.826	274.69
286.057	306.69
286.288	293.69
286.52	285.69
286.751	285.69
286.982	293.69
287.213	294.69
287.444	293.69
287.675	300.69
287.906	326.69
288.138	306.69
288.369	316.69
288.6	308.69
288.831	313.69
289.062	315.69
289.293	307.69
289.524	317.69
289.755	324.69
289.986	306.69
290.217	306.69
290.448	297.69
290.679	284.69
290.91	314.69
291.141	316.69
291.371	323.69
291.602	300.69
291.833	304.69
292.064	314.69
292.295	319.69
292.526	306.69
292.757	302.69
292.987	309.69
293.218	306.69
293.449	308.69
293.68	311.69
293.91	318.69
294.141	295.69
294.372	300.69
294.603	295.69
294.833	314.69
295.064	313.69
295.295	304.69
295.525	308.69
295.756	315.69
295.987	302.69
296.217	337.69
296.448	326.69
296.679	334.69
296.909	322.69
297.14	334.69
297.37	341.69
297.601	328.69
297.831	330.69
298.062	324.69
298.292	311.69
298.523	325.69
298.753	324.69
298.984	334.69
299.214	327.69
299.445	324.69
299.675	327.69
299.905	331.69
300.136	330.69
300.366	337.69
300.597	346.69
300.827	344.69
301.057	326.69
301.288	317.69
301.518	330.69
301.748	339.69
301.979	342.69
302.209	346.69
302.439	356.69
302.669	348.69
302.9	346.69
303.13	344.69
303.36	327.69
303.59	340.69
303.82	366.69
304.051	351.69
304.281	357.69
304.511	346.69
304.741	349.69
304.971	332.69
305.201	336.69
305.431	340.69
305.661	337.69
305.891	318.69
306.121	323.69
306.352	341.69
306.582	336.69
306.812	337.69
307.042	341.69
307.272	330.69
307.502	331.69
307.731	350.69
307.961	346.69
308.191	357.69
308.421	346.69
308.651	341.69
308.881	355.69
309.111	357.69
309.341	344.69
309.571	362.69
309.8	356.69
310.03	359.69
310.26	355.69
310.49	353.69
310.72	375.69
310.949	390.69
311.179	391.69
311.409	372.69
311.639	378.69
311.868	357.69
312.098	360.69
312.328	378.69
312.557	390.69
312.787	363.69
313.017	394.69
313.246	360.69
313.476	387.69
313.706	398.69
313.935	395.69
314.165	376.69
314.394	404.69
314.624	394.69
314.853	386.69
315.083	376.69
315.312	398.69
315.542	368.69
315.771	393.69
316.001	346.69
316.23	382.69
316.46	384.69
316.689	380.69
316.919	403.69
317.148	392.69
317.377	380.69
317.607	379.69
317.836	370.69
318.065	369.69
318.295	379.69
318.524	366.69
318.753	374.69
318.983	375.69
319.212	394.69
319.441	379.69
319.67	404.69
319.9	390.69
320.129	382.69
320.358	383.69
320.587	380.69
320.816	402.69
321.046	379.69
321.275	383.69
321.504	390.69
321.733	392.69
321.962	396.69
322.191	429.69
322.42	414.69
322.649	420.69
322.878	428.69
323.108	437.69
323.337	431.69
323.566	443.69
323.795	435.69
324.024	479.69
324.253	530.69
324.482	712.69
324.71	998.69
324.939	1408.69
325.168	1232.69
325.397	686.69
325.626	521.69
325.855	478.69
326.084	435.69
326.313	438.69
326.542	446.69
326.77	488.69
326.999	518.69
327.228	671.69
327.457	922.69
327.686	1112.69
327.914	788.69
328.143	545.69
328.372	515.69
328.6	506.69
328.829	474.69
329.058	510.69
329.287	494.69
329.515	498.69
329.744	477.69
329.972	455.69
330.201	462.69
330.43	483.69
330.658	497.69
330.887	523.69
331.115	494.69
331.344	484.69
331.572	483.69
331.801	455.69
332.03	461.69
332.258	466.69
332.486	470.69
332.715	459.69
332.943	454.69
333.172	464.69
333.4	467.69
333.629	503.69
333.857	498.69
334.085	496.69
334.314	526.69
334.542	546.69
334.771	538.69
334.999	488.69
335.227	466.69
335.455	493.69
335.684	462.69
335.912	477.69
336.14	484.69
336.369	492.69
336.597	472.69
336.825	470.69
337.053	468.69
337.281	464.69
337.51	459.69
337.738	436.69
337.966	448.69
338.194	445.69
338.422	448.69
338.65	451.69
338.878	438.69
339.106	436.69
339.334	456.69
339.562	442.69
339.79	424.69
340.018	439.69
340.246	423.69
340.474	437.69
340.702	428.69
340.93	428.69
341.158	437.69
341.386	437.69
341.614	433.69
341.842	416.69
342.07	437.69
342.298	424.69
342.526	414.69
342.754	398.69
342.981	433.69
343.209	418.69
343.437	434.69
343.665	458.69
343.893	456.69
344.12	483.69
344.348	462.69
344.576	465.69
344.804	482.69
345.031	458.69
345.259	446.69
345.487	413.69
345.714	429.69
345.942	446.69
346.17	434.69
346.397	430.69
346.625	406.69
346.853	425.69
347.08	406.69
347.308	409.69
347.535	406.69
347.763	429.69
347.99	417.69
348.218	404.69
348.445	409.69
348.673	419.69
348.9	430.69
349.128	404.69
349.355	400.69
349.583	396.69
349.81	397.69
350.037	421.69
350.265	410.69
350.492	401.69
350.72	398.69
350.947	423.69
351.174	422.69
351.402	424.69
351.629	428.69
351.856	414.69
352.083	420.69
352.311	414.69
352.538	410.69
352.765	423.69
352.992	416.69
353.22	407.69
353.447	412.69
353.674	394.69
353.901	400.69
354.128	388.69
354.355	385.69
354.583	399.69
354.81	394.69
355.037	407.69
355.264	407.69
355.491	394.69
355.718	388.69
355.945	416.69
356.172	391.69
356.399	384.69
356.626	381.69
356.853	391.69
357.08	377.69
357.307	391.69
357.534	392.69
357.761	386.69
357.988	379.69
358.215	399.69
358.441	377.69
358.668	382.69
358.895	394.69
359.122	400.69
359.349	404.69
359.576	405.69
359.802	416.69
360.029	416.69
360.256	434.69
360.483	401.69
360.709	400.69
360.936	393.69
361.163	418.69
361.39	405.69
361.616	419.69
361.843	394.69
362.07	380.69
362.296	395.69
362.523	399.69
362.749	397.69
362.976	393.69
363.203	399.69
363.429	418.69
363.656	405.69
363.882	394.69
364.109	398.69
364.335	388.69
364.562	386.69
364.788	408.69
365.015	402.69
365.241	390.69
365.468	404.69
365.694	387.69
365.92	397.69
366.147	398.69
366.373	399.69
366.599	388.69
366.826	386.69
367.052	398.69
367.278	408.69
367.505	372.69
367.731	405.69
367.957	391.69
368.184	399.69
368.41	423.69
368.636	404.69
368.862	414.69
369.089	403.69
369.315	405.69
369.541	409.69
369.767	414.69
369.993	404.69
370.219	394.69
370.445	392.69
370.672	397.69
370.898	388.69
371.124	405.69
371.35	416.69
371.576	418.69
371.802	382.69
372.028	405.69
372.254	385.69
372.48	401.69
372.706	402.69
372.932	423.69
373.158	406.69
373.384	415.69
373.61	390.69
373.835	394.69
374.061	410.69
374.287	401.69
374.513	450.69
374.739	408.69
374.965	428.69
375.191	450.69
375.416	412.69
375.642	403.69
375.868	428.69
376.094	390.69
376.319	397.69
376.545	412.69
376.771	382.69
376.997	417.69
377.222	402.69
377.448	418.69
377.674	400.69
377.899	407.69
378.125	386.69
378.35	406.69
378.576	392.69
378.802	392.69
379.027	409.69
379.253	421.69
379.478	397.69
379.704	407.69
379.929	397.69
380.155	389.69
380.38	400.69
380.606	410.69
380.831	418.69
381.057	406.69
381.282	401.69
381.507	408.69
381.733	432.69
381.958	408.69
382.184	413.69
382.409	418.69
382.634	424.69
382.86	416.69
383.085	413.69
383.31	447.69
383.535	421.69
383.761	412.69
383.986	422.69
384.211	453.69
384.436	444.69
384.662	439.69
384.887	457.69
385.112	425.69
385.337	458.69
385.562	453.69
385.787	456.69
386.013	455.69
386.238	476.69
386.463	485.69
386.688	466.69
386.913	464.69
387.138	462.69
387.363	458.69
387.588	454.69
387.813	452.69
388.038	448.69
388.263	445.69
388.488	451.69
388.713	461.69
388.938	468.69
389.163	457.69
389.387	446.69
389.612	458.69
389.837	462.69
390.062	455.69
390.287	446.69
390.512	456.69
390.736	451.69
390.961	470.69
391.186	467.69
391.411	470.69
391.636	483.69
391.86	492.69
392.085	488.69
392.31	476.69
392.534	489.69
392.759	477.69
392.984	492.69
393.208	484.69
393.433	467.69
393.658	468.69
393.882	462.69
394.107	460.69
394.331	482.69
394.556	488.69
394.78	487.69
395.005	477.69
395.229	472.69
395.454	476.69
395.678	473.69
395.903	496.69
396.127	504.69
396.352	478.69
396.576	463.69
396.801	475.69
397.025	495.69
397.249	482.69
397.474	483.69
397.698	502.69
397.922	507.69
398.147	519.69
398.371	541.69
398.595	512.69
398.82	554.69
399.044	555.69
399.268	569.69
399.492	605.69
399.717	670.69
399.941	697.69
400.165	676.69
400.389	667.69
400.613	611.69
400.837	577.69
401.062	578.69
401.286	543.69
401.51	549.69
401.734	563.69
401.958	553.69
402.182	533.69
402.406	542.69
402.63	541.69
402.854	545.69
403.078	549.69
403.302	548.69
403.526	568.69
403.75	577.69
403.974	590.69
404.198	591.69
404.422	593.69
404.645	556.69
404.869	585.69
405.093	594.69
405.317	636.69
405.541	656.69
405.765	616.69
405.988	592.69
406.212	585.69
406.436	602.69
406.66	630.69
406.883	604.69
407.107	613.69
407.331	670.69
407.555	728.69
407.778	706.69
408.002	657.69
408.226	613.69
408.449	627.69
408.673	607.69
408.896	636.69
409.12	648.69
409.344	617.69
409.567	598.69
409.791	572.69
410.014	548.69
410.238	545.69
410.461	552.69
410.685	599.69
410.908	590.69
411.132	615.69
411.355	630.69
411.578	590.69
411.802	560.69
412.025	536.69
412.249	556.69
412.472	592.69
412.695	628.69
412.919	594.69
413.142	581.69
413.365	562.69
413.589	526.69
413.812	523.69
414.035	546.69
414.258	526.69
414.482	533.69
414.705	520.69
414.928	538.69
415.151	522.69
415.374	529.69
415.597	536.69
415.821	514.69
416.044	519.69
416.267	518.69
416.49	514.69
416.713	528.69
416.936	525.69
417.159	532.69
417.382	535.69
417.605	520.69
417.828	539.69
418.051	545.69
418.274	536.69
418.497	535.69
418.72	523.69
418.943	526.69
419.166	546.69
419.389	587.69
419.611	584.69
419.834	567.69
420.057	555.69
420.28	548.69
420.503	557.69
420.726	540.69
420.948	543.69
421.171	592.69
421.394	592.69
421.617	560.69
421.839	556.69
422.062	537.69
422.285	547.69
422.507	597.69
422.73	636.69
422.953	638.69
423.175	593.69
423.398	551.69
423.621	574.69
423.843	586.69
424.066	605.69
424.288	598.69
424.511	579.69
424.733	629.69
424.956	697.69
425.178	659.69
425.401	662.69
425.623	680.69
425.846	588.69
426.068	576.69
426.291	561.69
426.513	544.69
426.735	552.69
426.958	593.69
427.18	631.69
427.402	756.69
427.625	825.69
427.847	700.69
428.069	624.69
428.292	588.69
428.514	537.69
428.736	508.69
428.958	514.69
429.181	519.69
429.403	504.69
429.625	510.69
429.847	548.69
430.069	622.69
430.292	591.69
430.514	514.69
430.736	533.69
430.958	495.69
431.18	512.69
431.402	473.69
431.624	509.69
431.846	503.69
432.068	497.69
432.29	497.69
432.512	512.69
432.734	500.69
432.956	509.69
433.178	503.69
433.4	499.69
433.622	493.69
433.844	497.69
434.066	512.69
434.287	500.69
434.509	508.69
434.731	513.69
434.953	525.69
435.175	543.69
435.397	588.69
435.618	553.69
435.84	564.69
436.062	667.69
436.284	716.69
436.505	596.69
436.727	544.69
436.949	530.69
437.17	520.69
437.392	524.69
437.614	523.69
437.835	520.69
438.057	609.69
438.278	664.69
438.5	679.69
438.721	750.69
438.943	716.69
439.165	580.69
439.386	550.69
439.608	556.69
439.829	546.69
440.05	576.69
440.272	580.69
440.493	577.69
440.715	533.69
440.936	522.69
441.158	545.69
441.379	538.69
441.6	538.69
441.822	548.69
442.043	588.69
442.264	639.69
442.486	700.69
442.707	590.69
442.928	576.69
443.149	578.69
443.371	585.69
443.592	649.69
443.813	714.69
444.034	757.69
444.255	668.69
444.476	615.69
444.698	598.69
444.919	612.69
445.14	692.69
445.361	625.69
445.582	598.69
445.803	634.69
446.024	654.69
446.245	692.69
446.466	654.69
446.687	573.69
446.908	534.69
447.129	510.69
447.35	492.69
447.571	494.69
447.792	486.69
448.013	515.69
448.234	509.69
448.455	543.69
448.675	621.69
448.896	730.69
449.117	618.69
449.338	590.69
449.559	688.69
449.779	750.69
450	636.69
450.221	533.69
450.442	495.69
450.662	489.69
450.883	506.69
451.104	502.69
451.324	494.69
451.545	495.69
451.766	493.69
451.986	453.69
452.207	466.69
452.428	439.69
452.648	460.69
452.869	425.69
453.089	478.69
453.31	480.69
453.53	444.69
453.751	452.69
453.971	470.69
454.192	458.69
454.412	432.69
454.633	451.69
454.853	411.69
455.073	438.69
455.294	445.69
455.514	510.69
455.734	493.69
455.955	440.69
456.175	450.69
456.395	433.69
456.616	423.69
456.836	451.69
457.056	443.69
457.276	421.69
457.497	416.69
457.717	438.69
457.937	444.69
458.157	449.69
458.377	440.69
458.598	472.69
458.818	503.69
459.038	539.69
459.258	579.69
459.478	502.69
459.698	494.69
459.918	512.69
460.138	524.69
460.358	530.69
460.578	510.69
460.798	525.69
461.018	540.69
461.238	515.69
461.458	526.69
461.678	522.69
461.898	527.69
462.118	538.69
462.338	579.69
462.558	572.69
462.777	578.69
462.997	562.69
463.217	609.69
463.437	615.69
463.657	605.69
463.876	577.69
464.096	574.69
464.316	569.69
464.536	585.69
464.755	571.69
464.975	560.69
465.195	564.69
465.414	576.69
465.634	542.69
465.854	539.69
466.073	494.69
466.293	521.69
466.512	500.69
466.732	458.69
466.951	473.69
467.171	482.69
467.391	473.69
467.61	461.69
467.829	480.69
468.049	480.69
468.268	459.69
468.488	454.69
468.707	460.69
468.927	467.69
469.146	465.69
469.365	482.69
469.585	457.69
469.804	473.69
470.023	473.69
470.243	492.69
470.462	495.69
470.681	497.69
470.901	485.69
471.12	480.69
471.339	476.69
471.558	478.69
471.777	487.69
471.997	486.69
472.216	474.69
472.435	508.69
472.654	484.69
472.873	473.69
473.092	471.69
473.311	464.69
473.53	458.69
473.749	489.69
473.968	523.69
474.187	574.69
474.406	597.69
474.625	505.69
474.844	484.69
475.063	484.69
475.282	467.69
475.501	470.69
475.72	450.69
475.939	496.69
476.158	485.69
476.377	498.69
476.596	480.69
476.814	464.69
477.033	488.69
477.252	498.69
477.471	498.69
477.69	504.69
477.908	527.69
478.127	529.69
478.346	548.69
478.564	558.69
478.783	549.69
479.002	537.69
479.22	553.69
479.439	585.69
479.658	565.69
479.876	576.69
480.095	583.69
480.313	597.69
480.532	595.69
480.751	620.69
480.969	593.69
481.188	644.69
481.406	611.69
481.624	588.69
481.843	573.69
482.061	558.69
482.28	550.69
482.498	557.69
482.717	547.69
482.935	536.69
483.153	541.69
483.372	531.69
483.59	551.69
483.808	550.69
484.027	539.69
484.245	546.69
484.463	547.69
484.681	564.69
484.9	549.69
485.118	558.69
485.336	545.69
485.554	548.69
485.772	567.69
485.99	561.69
486.209	560.69
486.427	574.69
486.645	580.69
486.863	568.69
487.081	567.69
487.299	587.69
487.517	574.69
487.735	585.69
487.953	571.69
488.171	606.69
488.389	559.69
488.607	578.69
488.825	599.69
489.043	568.69
489.261	598.69
489.479	593.69
489.696	600.69
489.914	588.69
490.132	584.69
490.35	621.69
490.568	606.69
490.786	624.69
491.003	626.69
491.221	640.69
491.439	655.69
491.657	626.69
491.874	653.69
492.092	663.69
492.31	666.69
492.527	693.69
492.745	632.69
492.963	669.69
493.18	662.69
493.398	692.69
493.615	681.69
493.833	682.69
494.05	689.69
494.268	698.69
494.485	675.69
494.703	703.69
494.92	683.69
495.138	670.69
495.355	693.69
495.573	692.69
495.79	701.69
496.008	702.69
496.225	684.69
496.442	680.69
496.66	703.69
496.877	697.69
497.094	701.69
497.312	690.69
497.529	718.69
497.746	715.69
497.963	756.69
498.181	775.69
498.398	781.69
498.615	818.69
498.832	808.69
499.049	848.69
499.267	858.69
499.484	922.69
499.701	977.69
499.918	1045.69
500.135	1094.69
500.352	1214.69
500.569	1255.69
500.786	1232.69
501.003	1212.69
501.22	1126.69
501.437	1062.69
501.654	1031.69
