Data from 1973.PennyLincolnUp.Lamp.En5.5.200Scan.071719.P1.Changed Mount._HRD10591_15-43-40-852.txt Node
Date: Thu Jul 18 15:43:40 EDT 2019
User: cochatt
Spectrometer: HR+D1059
Trigger mode: 1
Integration Time (sec): 1.000000E-1
Scans to average: 1
Electric dark correction enabled: true
Nonlinearity correction enabled: false
Boxcar width: 0
XAxis mode: Wavelengths
Number of Pixels in Spectrum: 2048
>>>>>Begin Spectral Data<<<<<
223.165	-13.25
223.4	-13.25
223.635	-13.25
223.869	-23.25
224.104	-12.25
224.338	-23.25
224.573	1.75
224.808	-17.25
225.042	-10.25
225.277	-11.25
225.511	-2.25
225.746	-3.25
225.98	13.75
226.215	4.75
226.449	12.75
226.683	17.75
226.918	29.75
227.152	35.75
227.387	25.75
227.621	50.75
227.856	35.75
228.09	45.75
228.324	41.75
228.559	54.75
228.793	76.75
229.027	90.75
229.262	108.75
229.496	101.75
229.73	112.75
229.964	125.75
230.199	112.75
230.433	106.75
230.667	116.75
230.901	112.75
231.136	114.75
231.37	105.75
231.604	108.75
231.838	110.75
232.072	96.75
232.306	104.75
232.541	117.75
232.775	105.75
233.009	103.75
233.243	99.75
233.477	117.75
233.711	121.75
233.945	118.75
234.179	101.75
234.413	103.75
234.647	99.75
234.881	113.75
235.115	100.75
235.349	116.75
235.583	111.75
235.817	129.75
236.051	129.75
236.285	107.75
236.519	117.75
236.753	109.75
236.987	122.75
237.221	146.75
237.455	198.75
237.689	179.75
237.922	135.75
238.156	124.75
238.39	128.75
238.624	109.75
238.858	122.75
239.091	119.75
239.325	122.75
239.559	117.75
239.793	120.75
240.027	129.75
240.26	128.75
240.494	124.75
240.728	146.75
240.961	137.75
241.195	139.75
241.429	145.75
241.662	139.75
241.896	116.75
242.13	118.75
242.363	135.75
242.597	140.75
242.83	142.75
243.064	126.75
243.298	140.75
243.531	125.75
243.765	146.75
243.998	137.75
244.232	138.75
244.465	140.75
244.699	155.75
244.932	132.75
245.166	134.75
245.399	150.75
245.633	139.75
245.866	154.75
246.099	141.75
246.333	160.75
246.566	146.75
246.8	137.75
247.033	136.75
247.266	150.75
247.5	156.75
247.733	164.75
247.966	142.75
248.2	171.75
248.433	164.75
248.666	174.75
248.899	177.75
249.133	170.75
249.366	188.75
249.599	169.75
249.832	176.75
250.066	155.75
250.299	172.75
250.532	173.75
250.765	170.75
250.998	201.75
251.231	207.75
251.465	200.75
251.698	203.75
251.931	171.75
252.164	170.75
252.397	198.75
252.63	190.75
252.863	196.75
253.096	206.75
253.329	190.75
253.562	212.75
253.795	199.75
254.028	179.75
254.261	203.75
254.494	201.75
254.727	218.75
254.96	220.75
255.193	214.75
255.426	218.75
255.659	213.75
255.892	195.75
256.124	220.75
256.357	204.75
256.59	209.75
256.823	198.75
257.056	193.75
257.289	198.75
257.521	206.75
257.754	185.75
257.987	192.75
258.22	195.75
258.452	211.75
258.685	205.75
258.918	198.75
259.151	182.75
259.383	189.75
259.616	202.75
259.849	197.75
260.081	207.75
260.314	215.75
260.547	233.75
260.779	206.75
261.012	197.75
261.244	209.75
261.477	205.75
261.71	213.75
261.942	218.75
262.175	211.75
262.407	211.75
262.64	215.75
262.872	216.75
263.105	215.75
263.337	220.75
263.57	210.75
263.802	192.75
264.035	194.75
264.267	198.75
264.499	204.75
264.732	209.75
264.964	216.75
265.197	205.75
265.429	217.75
265.661	226.75
265.894	209.75
266.126	219.75
266.358	215.75
266.591	221.75
266.823	213.75
267.055	200.75
267.287	223.75
267.52	214.75
267.752	227.75
267.984	206.75
268.216	210.75
268.448	215.75
268.681	229.75
268.913	243.75
269.145	240.75
269.377	260.75
269.609	262.75
269.841	246.75
270.073	257.75
270.306	264.75
270.538	293.75
270.77	292.75
271.002	271.75
271.234	258.75
271.466	283.75
271.698	281.75
271.93	283.75
272.162	288.75
272.394	277.75
272.626	258.75
272.858	268.75
273.09	261.75
273.322	256.75
273.553	235.75
273.785	262.75
274.017	266.75
274.249	254.75
274.481	264.75
274.713	250.75
274.945	247.75
275.176	249.75
275.408	265.75
275.64	254.75
275.872	252.75
276.104	264.75
276.335	248.75
276.567	267.75
276.799	272.75
277.031	274.75
277.262	292.75
277.494	275.75
277.726	274.75
277.957	274.75
278.189	267.75
278.421	261.75
278.652	259.75
278.884	281.75
279.115	274.75
279.347	269.75
279.579	273.75
279.81	258.75
280.042	268.75
280.273	258.75
280.505	264.75
280.736	280.75
280.968	260.75
281.199	276.75
281.431	271.75
281.662	275.75
281.894	269.75
282.125	265.75
282.356	275.75
282.588	298.75
282.819	284.75
283.051	269.75
283.282	268.75
283.513	268.75
283.745	267.75
283.976	270.75
284.207	271.75
284.439	284.75
284.67	302.75
284.901	275.75
285.132	274.75
285.364	294.75
285.595	283.75
285.826	272.75
286.057	278.75
286.288	288.75
286.52	288.75
286.751	295.75
286.982	295.75
287.213	290.75
287.444	300.75
287.675	290.75
287.906	289.75
288.138	297.75
288.369	301.75
288.6	290.75
288.831	308.75
289.062	291.75
289.293	314.75
289.524	290.75
289.755	298.75
289.986	300.75
290.217	296.75
290.448	294.75
290.679	290.75
290.91	291.75
291.141	299.75
291.371	310.75
291.602	304.75
291.833	302.75
292.064	298.75
292.295	306.75
292.526	282.75
292.757	313.75
292.987	306.75
293.218	266.75
293.449	324.75
293.68	301.75
293.91	298.75
294.141	293.75
294.372	293.75
294.603	304.75
294.833	301.75
295.064	306.75
295.295	298.75
295.525	295.75
295.756	311.75
295.987	312.75
296.217	334.75
296.448	325.75
296.679	321.75
296.909	311.75
297.14	309.75
297.37	318.75
297.601	312.75
297.831	317.75
298.062	311.75
298.292	316.75
298.523	314.75
298.753	299.75
298.984	312.75
299.214	315.75
299.445	325.75
299.675	329.75
299.905	321.75
300.136	320.75
300.366	336.75
300.597	316.75
300.827	322.75
301.057	310.75
301.288	342.75
301.518	342.75
301.748	325.75
301.979	346.75
302.209	342.75
302.439	336.75
302.669	336.75
302.9	326.75
303.13	338.75
303.36	321.75
303.59	346.75
303.82	328.75
304.051	328.75
304.281	324.75
304.511	340.75
304.741	352.75
304.971	336.75
305.201	335.75
305.431	337.75
305.661	329.75
305.891	331.75
306.121	339.75
306.352	337.75
306.582	328.75
306.812	331.75
307.042	339.75
307.272	339.75
307.502	330.75
307.731	313.75
307.961	332.75
308.191	324.75
308.421	350.75
308.651	334.75
308.881	328.75
309.111	313.75
309.341	334.75
309.571	345.75
309.8	341.75
310.03	364.75
310.26	325.75
310.49	333.75
310.72	355.75
310.949	371.75
311.179	365.75
311.409	360.75
311.639	357.75
311.868	368.75
312.098	354.75
312.328	365.75
312.557	378.75
312.787	363.75
313.017	360.75
313.246	352.75
313.476	355.75
313.706	373.75
313.935	374.75
314.165	364.75
314.394	371.75
314.624	395.75
314.853	366.75
315.083	376.75
315.312	392.75
315.542	376.75
315.771	379.75
316.001	345.75
316.23	354.75
316.46	382.75
316.689	378.75
316.919	379.75
317.148	379.75
317.377	379.75
317.607	371.75
317.836	373.75
318.065	350.75
318.295	355.75
318.524	350.75
318.753	376.75
318.983	370.75
319.212	380.75
319.441	376.75
319.67	371.75
319.9	378.75
320.129	368.75
320.358	372.75
320.587	381.75
320.816	368.75
321.046	384.75
321.275	385.75
321.504	367.75
321.733	362.75
321.962	374.75
322.191	362.75
322.42	389.75
322.649	387.75
322.878	394.75
323.108	391.75
323.337	394.75
323.566	406.75
323.795	405.75
324.024	449.75
324.253	474.75
324.482	606.75
324.71	874.75
324.939	1211.75
325.168	1066.75
325.397	600.75
325.626	468.75
325.855	435.75
326.084	398.75
326.313	418.75
326.542	412.75
326.77	426.75
326.999	485.75
327.228	603.75
327.457	806.75
327.686	980.75
327.914	688.75
328.143	491.75
328.372	453.75
328.6	452.75
328.829	450.75
329.058	474.75
329.287	450.75
329.515	448.75
329.744	458.75
329.972	426.75
330.201	451.75
330.43	453.75
330.658	465.75
330.887	504.75
331.115	487.75
331.344	426.75
331.572	428.75
331.801	432.75
332.03	437.75
332.258	434.75
332.486	445.75
332.715	445.75
332.943	426.75
333.172	432.75
333.4	467.75
333.629	451.75
333.857	478.75
334.085	466.75
334.314	496.75
334.542	498.75
334.771	513.75
334.999	482.75
335.227	460.75
335.455	452.75
335.684	444.75
335.912	454.75
336.14	439.75
336.369	441.75
336.597	453.75
336.825	440.75
337.053	434.75
337.281	422.75
337.51	434.75
337.738	430.75
337.966	421.75
338.194	429.75
338.422	454.75
338.65	417.75
338.878	425.75
339.106	424.75
339.334	417.75
339.562	409.75
339.79	420.75
340.018	422.75
340.246	401.75
340.474	424.75
340.702	432.75
340.93	424.75
341.158	414.75
341.386	442.75
341.614	434.75
341.842	406.75
342.07	416.75
342.298	409.75
342.526	410.75
342.754	412.75
342.981	402.75
343.209	411.75
343.437	421.75
343.665	437.75
343.893	438.75
344.12	464.75
344.348	453.75
344.576	458.75
344.804	430.75
345.031	430.75
345.259	449.75
345.487	425.75
345.714	393.75
345.942	401.75
346.17	398.75
346.397	398.75
346.625	391.75
346.853	399.75
347.08	395.75
347.308	408.75
347.535	380.75
347.763	417.75
347.99	397.75
348.218	410.75
348.445	397.75
348.673	402.75
348.9	408.75
349.128	398.75
349.355	388.75
349.583	404.75
349.81	385.75
350.037	363.75
350.265	396.75
350.492	405.75
350.72	374.75
350.947	372.75
351.174	415.75
351.402	399.75
351.629	394.75
351.856	409.75
352.083	404.75
352.311	392.75
352.538	405.75
352.765	379.75
352.992	404.75
353.22	380.75
353.447	377.75
353.674	405.75
353.901	394.75
354.128	379.75
354.355	386.75
354.583	378.75
354.81	393.75
355.037	390.75
355.264	372.75
355.491	389.75
355.718	384.75
355.945	391.75
356.172	369.75
356.399	369.75
356.626	372.75
356.853	391.75
357.08	391.75
357.307	381.75
357.534	365.75
357.761	392.75
357.988	390.75
358.215	374.75
358.441	370.75
358.668	373.75
358.895	376.75
359.122	375.75
359.349	407.75
359.576	411.75
359.802	369.75
360.029	399.75
360.256	414.75
360.483	403.75
360.709	405.75
360.936	408.75
361.163	404.75
361.39	386.75
361.616	380.75
361.843	394.75
362.07	385.75
362.296	392.75
362.523	406.75
362.749	388.75
362.976	394.75
363.203	403.75
363.429	382.75
363.656	390.75
363.882	383.75
364.109	378.75
364.335	373.75
364.562	378.75
364.788	379.75
365.015	384.75
365.241	374.75
365.468	397.75
365.694	391.75
365.92	390.75
366.147	388.75
366.373	369.75
366.599	381.75
366.826	398.75
367.052	362.75
367.278	374.75
367.505	378.75
367.731	401.75
367.957	404.75
368.184	390.75
368.41	396.75
368.636	398.75
368.862	399.75
369.089	395.75
369.315	384.75
369.541	381.75
369.767	402.75
369.993	378.75
370.219	395.75
370.445	392.75
370.672	405.75
370.898	393.75
371.124	396.75
371.35	410.75
371.576	406.75
371.802	381.75
372.028	405.75
372.254	406.75
372.48	405.75
372.706	413.75
372.932	397.75
373.158	378.75
373.384	430.75
373.61	414.75
373.835	411.75
374.061	386.75
374.287	400.75
374.513	411.75
374.739	420.75
374.965	401.75
375.191	417.75
375.416	407.75
375.642	432.75
375.868	383.75
376.094	390.75
376.319	383.75
376.545	404.75
376.771	404.75
376.997	398.75
377.222	384.75
377.448	377.75
377.674	381.75
377.899	406.75
378.125	410.75
378.35	390.75
378.576	400.75
378.802	385.75
379.027	374.75
379.253	404.75
379.478	380.75
379.704	375.75
379.929	385.75
380.155	387.75
380.38	396.75
380.606	385.75
380.831	386.75
381.057	399.75
381.282	411.75
381.507	408.75
381.733	393.75
381.958	388.75
382.184	391.75
382.409	395.75
382.634	401.75
382.86	427.75
383.085	435.75
383.31	418.75
383.535	424.75
383.761	424.75
383.986	430.75
384.211	436.75
384.436	430.75
384.662	427.75
384.887	424.75
385.112	447.75
385.337	458.75
385.562	439.75
385.787	435.75
386.013	462.75
386.238	459.75
386.463	445.75
386.688	473.75
386.913	436.75
387.138	439.75
387.363	421.75
387.588	414.75
387.813	434.75
388.038	445.75
388.263	457.75
388.488	443.75
388.713	450.75
388.938	447.75
389.163	452.75
389.387	459.75
389.612	465.75
389.837	424.75
390.062	441.75
390.287	452.75
390.512	441.75
390.736	458.75
390.961	455.75
391.186	450.75
391.411	454.75
391.636	441.75
391.86	471.75
392.085	456.75
392.31	480.75
392.534	459.75
392.759	458.75
392.984	451.75
393.208	481.75
393.433	448.75
393.658	452.75
393.882	438.75
394.107	474.75
394.331	449.75
394.556	468.75
394.78	441.75
395.005	467.75
395.229	449.75
395.454	469.75
395.678	487.75
395.903	476.75
396.127	507.75
396.352	481.75
396.576	474.75
396.801	449.75
397.025	471.75
397.249	470.75
397.474	488.75
397.698	490.75
397.922	481.75
398.147	490.75
398.371	496.75
398.595	508.75
398.82	536.75
399.044	512.75
399.268	567.75
399.492	630.75
399.717	632.75
399.941	661.75
400.165	666.75
400.389	654.75
400.613	583.75
400.837	570.75
401.062	557.75
401.286	547.75
401.51	530.75
401.734	544.75
401.958	528.75
402.182	528.75
402.406	529.75
402.63	534.75
402.854	519.75
403.078	519.75
403.302	546.75
403.526	552.75
403.75	550.75
403.974	543.75
404.198	549.75
404.422	567.75
404.645	548.75
404.869	568.75
405.093	576.75
405.317	580.75
405.541	607.75
405.765	577.75
405.988	563.75
406.212	544.75
406.436	575.75
406.66	580.75
406.883	567.75
407.107	613.75
407.331	631.75
407.555	706.75
407.778	712.75
408.002	650.75
408.226	622.75
408.449	610.75
408.673	595.75
408.896	587.75
409.12	646.75
409.344	625.75
409.567	572.75
409.791	546.75
410.014	554.75
410.238	531.75
410.461	538.75
410.685	537.75
410.908	547.75
411.132	601.75
411.355	582.75
411.578	578.75
411.802	541.75
412.025	550.75
412.249	542.75
412.472	562.75
412.695	597.75
412.919	581.75
413.142	529.75
413.365	538.75
413.589	537.75
413.812	532.75
414.035	522.75
414.258	505.75
414.482	501.75
414.705	522.75
414.928	511.75
415.151	530.75
415.374	533.75
415.597	503.75
415.821	508.75
416.044	505.75
416.267	505.75
416.49	522.75
416.713	511.75
416.936	492.75
417.159	530.75
417.382	504.75
417.605	517.75
417.828	512.75
418.051	537.75
418.274	502.75
418.497	517.75
418.72	504.75
418.943	507.75
419.166	538.75
419.389	556.75
419.611	568.75
419.834	533.75
420.057	551.75
420.28	555.75
420.503	532.75
420.726	532.75
420.948	516.75
421.171	573.75
421.394	567.75
421.617	532.75
421.839	534.75
422.062	518.75
422.285	522.75
422.507	555.75
422.73	645.75
422.953	606.75
423.175	567.75
423.398	544.75
423.621	548.75
423.843	584.75
424.066	548.75
424.288	550.75
424.511	557.75
424.733	607.75
424.956	677.75
425.178	639.75
425.401	644.75
425.623	664.75
425.846	568.75
426.068	526.75
426.291	541.75
426.513	546.75
426.735	530.75
426.958	568.75
427.18	629.75
427.402	740.75
427.625	786.75
427.847	663.75
428.069	590.75
428.292	552.75
428.514	530.75
428.736	504.75
428.958	471.75
429.181	476.75
429.403	502.75
429.625	495.75
429.847	489.75
430.069	571.75
430.292	581.75
430.514	500.75
430.736	513.75
430.958	478.75
431.18	486.75
431.402	489.75
431.624	483.75
431.846	474.75
432.068	477.75
432.29	475.75
432.512	476.75
432.734	482.75
432.956	488.75
433.178	486.75
433.4	498.75
433.622	492.75
433.844	476.75
434.066	491.75
434.287	480.75
434.509	486.75
434.731	514.75
434.953	520.75
435.175	529.75
435.397	546.75
435.618	547.75
435.84	569.75
436.062	609.75
436.284	646.75
436.505	548.75
436.727	500.75
436.949	517.75
437.17	491.75
437.392	498.75
437.614	506.75
437.835	520.75
438.057	599.75
438.278	660.75
438.5	635.75
438.721	725.75
438.943	698.75
439.165	572.75
439.386	523.75
439.608	539.75
439.829	515.75
440.05	545.75
440.272	560.75
440.493	534.75
440.715	509.75
440.936	511.75
441.158	497.75
441.379	509.75
441.6	520.75
441.822	539.75
442.043	562.75
442.264	616.75
442.486	649.75
442.707	566.75
442.928	554.75
443.149	555.75
443.371	557.75
443.592	600.75
443.813	658.75
444.034	713.75
444.255	603.75
444.476	589.75
444.698	556.75
444.919	566.75
445.14	660.75
445.361	601.75
445.582	566.75
445.803	601.75
446.024	664.75
446.245	672.75
446.466	633.75
446.687	516.75
446.908	527.75
447.129	492.75
447.35	492.75
447.571	507.75
447.792	491.75
448.013	483.75
448.234	488.75
448.455	508.75
448.675	627.75
448.896	714.75
449.117	601.75
449.338	557.75
449.559	656.75
449.779	750.75
450	576.75
450.221	514.75
450.442	483.75
450.662	476.75
450.883	443.75
451.104	454.75
451.324	453.75
451.545	453.75
451.766	470.75
451.986	435.75
452.207	435.75
452.428	427.75
452.648	438.75
452.869	424.75
453.089	445.75
453.31	440.75
453.53	464.75
453.751	438.75
453.971	433.75
454.192	439.75
454.412	444.75
454.633	419.75
454.853	434.75
455.073	438.75
455.294	446.75
455.514	496.75
455.734	481.75
455.955	414.75
456.175	427.75
456.395	440.75
456.616	428.75
456.836	399.75
457.056	421.75
457.276	408.75
457.497	412.75
457.717	408.75
457.937	428.75
458.157	428.75
458.377	421.75
458.598	455.75
458.818	466.75
459.038	511.75
459.258	545.75
459.478	497.75
459.698	492.75
459.918	481.75
460.138	458.75
460.358	508.75
460.578	498.75
460.798	515.75
461.018	525.75
461.238	528.75
461.458	508.75
461.678	515.75
461.898	537.75
462.118	500.75
462.338	523.75
462.558	553.75
462.777	560.75
462.997	578.75
463.217	597.75
463.437	588.75
463.657	574.75
463.876	566.75
464.096	598.75
464.316	579.75
464.536	573.75
464.755	579.75
464.975	532.75
465.195	537.75
465.414	562.75
465.634	527.75
465.854	498.75
466.073	489.75
466.293	479.75
466.512	478.75
466.732	460.75
466.951	453.75
467.171	463.75
467.391	472.75
467.61	482.75
467.829	464.75
468.049	458.75
468.268	461.75
468.488	442.75
468.707	460.75
468.927	478.75
469.146	443.75
469.365	450.75
469.585	440.75
469.804	469.75
470.023	472.75
470.243	432.75
470.462	470.75
470.681	471.75
470.901	463.75
471.12	477.75
471.339	477.75
471.558	438.75
471.777	483.75
471.997	450.75
472.216	456.75
472.435	459.75
472.654	447.75
472.873	448.75
473.092	450.75
473.311	458.75
473.53	454.75
473.749	472.75
473.968	479.75
474.187	570.75
474.406	547.75
474.625	477.75
474.844	486.75
475.063	474.75
475.282	462.75
475.501	454.75
475.72	453.75
475.939	462.75
476.158	486.75
476.377	488.75
476.596	462.75
476.814	465.75
477.033	509.75
477.252	507.75
477.471	506.75
477.69	495.75
477.908	524.75
478.127	535.75
478.346	527.75
478.564	549.75
478.783	536.75
479.002	550.75
479.22	527.75
479.439	568.75
479.658	539.75
479.876	564.75
480.095	560.75
480.313	598.75
480.532	589.75
480.751	592.75
480.969	590.75
481.188	620.75
481.406	595.75
481.624	553.75
481.843	543.75
482.061	539.75
482.28	539.75
482.498	544.75
482.717	522.75
482.935	544.75
483.153	514.75
483.372	520.75
483.59	522.75
483.808	532.75
484.027	533.75
484.245	538.75
484.463	541.75
484.681	550.75
484.9	562.75
485.118	552.75
485.336	553.75
485.554	514.75
485.772	539.75
485.99	545.75
486.209	522.75
486.427	547.75
486.645	560.75
486.863	551.75
487.081	585.75
487.299	575.75
487.517	572.75
487.735	565.75
487.953	550.75
488.171	575.75
488.389	581.75
488.607	557.75
488.825	564.75
489.043	587.75
489.261	590.75
489.479	588.75
489.696	589.75
489.914	563.75
490.132	559.75
490.35	576.75
490.568	596.75
490.786	605.75
491.003	597.75
491.221	598.75
491.439	622.75
491.657	630.75
491.874	632.75
492.092	650.75
492.31	620.75
492.527	648.75
492.745	646.75
492.963	632.75
493.18	657.75
493.398	624.75
493.615	660.75
493.833	660.75
494.05	639.75
494.268	659.75
494.485	643.75
494.703	646.75
494.92	646.75
495.138	653.75
495.355	679.75
495.573	670.75
495.79	635.75
496.008	680.75
496.225	650.75
496.442	658.75
496.66	666.75
496.877	664.75
497.094	676.75
497.312	686.75
497.529	697.75
497.746	681.75
497.963	719.75
498.181	735.75
498.398	747.75
498.615	785.75
498.832	792.75
499.049	837.75
499.267	864.75
499.484	898.75
499.701	955.75
499.918	988.75
500.135	1093.75
500.352	1170.75
500.569	1199.75
500.786	1180.75
501.003	1171.75
501.22	1094.75
501.437	1039.75
501.654	972.75
