Data from 1973.PennyLincolnUp.Lamp.En5.5.200Scan.071719.P1.Changed Mount._HRD10591_15-44-27-852.txt Node
Date: Thu Jul 18 15:44:27 EDT 2019
User: cochatt
Spectrometer: HR+D1059
Trigger mode: 1
Integration Time (sec): 1.000000E-1
Scans to average: 1
Electric dark correction enabled: true
Nonlinearity correction enabled: false
Boxcar width: 0
XAxis mode: Wavelengths
Number of Pixels in Spectrum: 2048
>>>>>Begin Spectral Data<<<<<
223.165	-10.81
223.4	-10.81
223.635	-10.81
223.869	-27.81
224.104	-16.81
224.338	-22.81
224.573	-0.81
224.808	6.19
225.042	-10.81
225.277	-0.81
225.511	4.19
225.746	-11.81
225.98	-5.81
226.215	26.19
226.449	23.19
226.683	11.19
226.918	16.19
227.152	21.19
227.387	31.19
227.621	34.19
227.856	46.19
228.09	43.19
228.324	56.19
228.559	37.19
228.793	56.19
229.027	82.19
229.262	99.19
229.496	108.19
229.73	124.19
229.964	135.19
230.199	120.19
230.433	105.19
230.667	116.19
230.901	110.19
231.136	121.19
231.37	113.19
231.604	104.19
231.838	114.19
232.072	116.19
232.306	101.19
232.541	107.19
232.775	110.19
233.009	122.19
233.243	120.19
233.477	101.19
233.711	112.19
233.945	121.19
234.179	106.19
234.413	117.19
234.647	99.19
234.881	105.19
235.115	108.19
235.349	100.19
235.583	114.19
235.817	123.19
236.051	113.19
236.285	119.19
236.519	119.19
236.753	118.19
236.987	139.19
237.221	167.19
237.455	207.19
237.689	149.19
237.922	130.19
238.156	117.19
238.39	116.19
238.624	120.19
238.858	112.19
239.091	140.19
239.325	119.19
239.559	117.19
239.793	127.19
240.027	141.19
240.26	129.19
240.494	133.19
240.728	144.19
240.961	142.19
241.195	137.19
241.429	148.19
241.662	143.19
241.896	120.19
242.13	135.19
242.363	122.19
242.597	134.19
242.83	134.19
243.064	146.19
243.298	136.19
243.531	135.19
243.765	133.19
243.998	143.19
244.232	136.19
244.465	140.19
244.699	150.19
244.932	136.19
245.166	164.19
245.399	152.19
245.633	143.19
245.866	152.19
246.099	158.19
246.333	139.19
246.566	153.19
246.8	143.19
247.033	150.19
247.266	155.19
247.5	158.19
247.733	164.19
247.966	187.19
248.2	171.19
248.433	178.19
248.666	182.19
248.899	192.19
249.133	171.19
249.366	200.19
249.599	188.19
249.832	165.19
250.066	171.19
250.299	177.19
250.532	176.19
250.765	211.19
250.998	202.19
251.231	203.19
251.465	180.19
251.698	197.19
251.931	182.19
252.164	176.19
252.397	185.19
252.63	190.19
252.863	212.19
253.096	207.19
253.329	220.19
253.562	224.19
253.795	218.19
254.028	212.19
254.261	212.19
254.494	223.19
254.727	242.19
254.96	261.19
255.193	244.19
255.426	230.19
255.659	223.19
255.892	219.19
256.124	234.19
256.357	233.19
256.59	222.19
256.823	216.19
257.056	195.19
257.289	209.19
257.521	215.19
257.754	204.19
257.987	198.19
258.22	214.19
258.452	196.19
258.685	194.19
258.918	206.19
259.151	215.19
259.383	219.19
259.616	226.19
259.849	224.19
260.081	212.19
260.314	261.19
260.547	236.19
260.779	250.19
261.012	220.19
261.244	208.19
261.477	216.19
261.71	225.19
261.942	210.19
262.175	214.19
262.407	213.19
262.64	220.19
262.872	225.19
263.105	223.19
263.337	211.19
263.57	213.19
263.802	226.19
264.035	205.19
264.267	207.19
264.499	211.19
264.732	228.19
264.964	208.19
265.197	210.19
265.429	208.19
265.661	216.19
265.894	213.19
266.126	232.19
266.358	223.19
266.591	212.19
266.823	229.19
267.055	217.19
267.287	224.19
267.52	222.19
267.752	203.19
267.984	240.19
268.216	232.19
268.448	242.19
268.681	245.19
268.913	247.19
269.145	251.19
269.377	280.19
269.609	260.19
269.841	268.19
270.073	243.19
270.306	298.19
270.538	310.19
270.77	296.19
271.002	300.19
271.234	278.19
271.466	289.19
271.698	301.19
271.93	294.19
272.162	300.19
272.394	282.19
272.626	299.19
272.858	282.19
273.09	287.19
273.322	267.19
273.553	280.19
273.785	274.19
274.017	272.19
274.249	256.19
274.481	261.19
274.713	283.19
274.945	284.19
275.176	268.19
275.408	274.19
275.64	276.19
275.872	268.19
276.104	279.19
276.335	285.19
276.567	287.19
276.799	276.19
277.031	282.19
277.262	329.19
277.494	317.19
277.726	308.19
277.957	294.19
278.189	288.19
278.421	297.19
278.652	282.19
278.884	276.19
279.115	270.19
279.347	275.19
279.579	263.19
279.81	297.19
280.042	274.19
280.273	268.19
280.505	272.19
280.736	273.19
280.968	276.19
281.199	281.19
281.431	296.19
281.662	285.19
281.894	277.19
282.125	290.19
282.356	302.19
282.588	302.19
282.819	302.19
283.051	292.19
283.282	289.19
283.513	276.19
283.745	282.19
283.976	288.19
284.207	277.19
284.439	293.19
284.67	296.19
284.901	287.19
285.132	288.19
285.364	281.19
285.595	282.19
285.826	296.19
286.057	307.19
286.288	281.19
286.52	294.19
286.751	293.19
286.982	303.19
287.213	300.19
287.444	311.19
287.675	309.19
287.906	316.19
288.138	316.19
288.369	322.19
288.6	303.19
288.831	323.19
289.062	318.19
289.293	291.19
289.524	299.19
289.755	298.19
289.986	306.19
290.217	312.19
290.448	298.19
290.679	306.19
290.91	320.19
291.141	287.19
291.371	307.19
291.602	318.19
291.833	308.19
292.064	318.19
292.295	299.19
292.526	323.19
292.757	319.19
292.987	313.19
293.218	323.19
293.449	323.19
293.68	306.19
293.91	313.19
294.141	303.19
294.372	311.19
294.603	286.19
294.833	304.19
295.064	303.19
295.295	307.19
295.525	298.19
295.756	322.19
295.987	292.19
296.217	335.19
296.448	349.19
296.679	321.19
296.909	321.19
297.14	336.19
297.37	327.19
297.601	314.19
297.831	327.19
298.062	334.19
298.292	312.19
298.523	320.19
298.753	347.19
298.984	339.19
299.214	323.19
299.445	324.19
299.675	328.19
299.905	334.19
300.136	321.19
300.366	318.19
300.597	349.19
300.827	320.19
301.057	339.19
301.288	342.19
301.518	357.19
301.748	357.19
301.979	339.19
302.209	350.19
302.439	347.19
302.669	344.19
302.9	352.19
303.13	336.19
303.36	351.19
303.59	354.19
303.82	353.19
304.051	387.19
304.281	354.19
304.511	344.19
304.741	340.19
304.971	356.19
305.201	338.19
305.431	338.19
305.661	334.19
305.891	349.19
306.121	359.19
306.352	368.19
306.582	368.19
306.812	352.19
307.042	350.19
307.272	346.19
307.502	345.19
307.731	351.19
307.961	356.19
308.191	361.19
308.421	357.19
308.651	344.19
308.881	355.19
309.111	368.19
309.341	358.19
309.571	370.19
309.8	376.19
310.03	381.19
310.26	360.19
310.49	358.19
310.72	373.19
310.949	381.19
311.179	396.19
311.409	363.19
311.639	374.19
311.868	368.19
312.098	360.19
312.328	379.19
312.557	372.19
312.787	387.19
313.017	382.19
313.246	393.19
313.476	373.19
313.706	382.19
313.935	375.19
314.165	388.19
314.394	388.19
314.624	395.19
314.853	385.19
315.083	361.19
315.312	380.19
315.542	392.19
315.771	374.19
316.001	378.19
316.23	376.19
316.46	390.19
316.689	383.19
316.919	387.19
317.148	395.19
317.377	389.19
317.607	379.19
317.836	388.19
318.065	403.19
318.295	376.19
318.524	385.19
318.753	390.19
318.983	398.19
319.212	377.19
319.441	370.19
319.67	394.19
319.9	398.19
320.129	380.19
320.358	392.19
320.587	393.19
320.816	394.19
321.046	405.19
321.275	402.19
321.504	394.19
321.733	401.19
321.962	393.19
322.191	405.19
322.42	404.19
322.649	418.19
322.878	417.19
323.108	419.19
323.337	434.19
323.566	464.19
323.795	447.19
324.024	482.19
324.253	542.19
324.482	721.19
324.71	1046.19
324.939	1489.19
325.168	1302.19
325.397	708.19
325.626	551.19
325.855	460.19
326.084	456.19
326.313	452.19
326.542	464.19
326.77	478.19
326.999	525.19
327.228	711.19
327.457	948.19
327.686	1126.19
327.914	826.19
328.143	579.19
328.372	547.19
328.6	518.19
328.829	512.19
329.058	488.19
329.287	503.19
329.515	499.19
329.744	481.19
329.972	464.19
330.201	488.19
330.43	498.19
330.658	524.19
330.887	513.19
331.115	502.19
331.344	489.19
331.572	461.19
331.801	463.19
332.03	463.19
332.258	470.19
332.486	442.19
332.715	472.19
332.943	479.19
333.172	484.19
333.4	495.19
333.629	499.19
333.857	508.19
334.085	524.19
334.314	539.19
334.542	533.19
334.771	533.19
334.999	526.19
335.227	480.19
335.455	459.19
335.684	486.19
335.912	480.19
336.14	458.19
336.369	448.19
336.597	466.19
336.825	479.19
337.053	449.19
337.281	452.19
337.51	459.19
337.738	466.19
337.966	455.19
338.194	444.19
338.422	458.19
338.65	447.19
338.878	457.19
339.106	427.19
339.334	430.19
339.562	457.19
339.79	438.19
340.018	436.19
340.246	430.19
340.474	436.19
340.702	419.19
340.93	442.19
341.158	441.19
341.386	428.19
341.614	438.19
341.842	447.19
342.07	440.19
342.298	442.19
342.526	419.19
342.754	427.19
342.981	427.19
343.209	435.19
343.437	442.19
343.665	464.19
343.893	475.19
344.12	458.19
344.348	464.19
344.576	478.19
344.804	463.19
345.031	446.19
345.259	444.19
345.487	463.19
345.714	418.19
345.942	423.19
346.17	413.19
346.397	414.19
346.625	411.19
346.853	426.19
347.08	436.19
347.308	420.19
347.535	427.19
347.763	423.19
347.99	419.19
348.218	423.19
348.445	397.19
348.673	417.19
348.9	415.19
349.128	400.19
349.355	408.19
349.583	416.19
349.81	407.19
350.037	411.19
350.265	413.19
350.492	410.19
350.72	398.19
350.947	420.19
351.174	423.19
351.402	420.19
351.629	415.19
351.856	392.19
352.083	429.19
352.311	432.19
352.538	431.19
352.765	424.19
352.992	418.19
353.22	396.19
353.447	403.19
353.674	421.19
353.901	396.19
354.128	392.19
354.355	379.19
354.583	387.19
354.81	417.19
355.037	399.19
355.264	389.19
355.491	381.19
355.718	393.19
355.945	384.19
356.172	415.19
356.399	396.19
356.626	382.19
356.853	402.19
357.08	400.19
357.307	395.19
357.534	403.19
357.761	382.19
357.988	418.19
358.215	401.19
358.441	392.19
358.668	393.19
358.895	389.19
359.122	388.19
359.349	417.19
359.576	398.19
359.802	418.19
360.029	432.19
360.256	439.19
360.483	431.19
360.709	428.19
360.936	427.19
361.163	407.19
361.39	419.19
361.616	400.19
361.843	409.19
362.07	392.19
362.296	398.19
362.523	402.19
362.749	414.19
362.976	392.19
363.203	386.19
363.429	395.19
363.656	364.19
363.882	407.19
364.109	388.19
364.335	382.19
364.562	390.19
364.788	380.19
365.015	402.19
365.241	403.19
365.468	418.19
365.694	397.19
365.92	410.19
366.147	402.19
366.373	406.19
366.599	405.19
366.826	383.19
367.052	404.19
367.278	402.19
367.505	399.19
367.731	406.19
367.957	393.19
368.184	406.19
368.41	411.19
368.636	413.19
368.862	415.19
369.089	406.19
369.315	402.19
369.541	406.19
369.767	412.19
369.993	414.19
370.219	394.19
370.445	384.19
370.672	414.19
370.898	397.19
371.124	384.19
371.35	421.19
371.576	416.19
371.802	416.19
372.028	409.19
372.254	401.19
372.48	402.19
372.706	399.19
372.932	404.19
373.158	430.19
373.384	434.19
373.61	414.19
373.835	409.19
374.061	404.19
374.287	414.19
374.513	414.19
374.739	419.19
374.965	427.19
375.191	430.19
375.416	426.19
375.642	386.19
375.868	404.19
376.094	440.19
376.319	395.19
376.545	399.19
376.771	401.19
376.997	410.19
377.222	410.19
377.448	405.19
377.674	410.19
377.899	402.19
378.125	396.19
378.35	408.19
378.576	405.19
378.802	411.19
379.027	407.19
379.253	391.19
379.478	402.19
379.704	416.19
379.929	418.19
380.155	404.19
380.38	400.19
380.606	425.19
380.831	428.19
381.057	416.19
381.282	403.19
381.507	409.19
381.733	444.19
381.958	402.19
382.184	414.19
382.409	433.19
382.634	434.19
382.86	424.19
383.085	440.19
383.31	421.19
383.535	420.19
383.761	416.19
383.986	421.19
384.211	447.19
384.436	447.19
384.662	446.19
384.887	440.19
385.112	457.19
385.337	460.19
385.562	464.19
385.787	483.19
386.013	460.19
386.238	442.19
386.463	450.19
386.688	465.19
386.913	456.19
387.138	461.19
387.363	468.19
387.588	454.19
387.813	474.19
388.038	456.19
388.263	457.19
388.488	464.19
388.713	461.19
388.938	443.19
389.163	457.19
389.387	458.19
389.612	468.19
389.837	466.19
390.062	457.19
390.287	457.19
390.512	457.19
390.736	453.19
390.961	465.19
391.186	474.19
391.411	463.19
391.636	474.19
391.86	471.19
392.085	488.19
392.31	486.19
392.534	492.19
392.759	490.19
392.984	468.19
393.208	468.19
393.433	487.19
393.658	466.19
393.882	443.19
394.107	464.19
394.331	485.19
394.556	472.19
394.78	458.19
395.005	489.19
395.229	476.19
395.454	500.19
395.678	482.19
395.903	505.19
396.127	505.19
396.352	514.19
396.576	481.19
396.801	482.19
397.025	495.19
397.249	479.19
397.474	496.19
397.698	488.19
397.922	534.19
398.147	520.19
398.371	530.19
398.595	508.19
398.82	555.19
399.044	551.19
399.268	588.19
399.492	650.19
399.717	664.19
399.941	701.19
400.165	704.19
400.389	694.19
400.613	618.19
400.837	589.19
401.062	564.19
401.286	543.19
401.51	534.19
401.734	537.19
401.958	554.19
402.182	538.19
402.406	542.19
402.63	548.19
402.854	579.19
403.078	553.19
403.302	578.19
403.526	611.19
403.75	594.19
403.974	571.19
404.198	583.19
404.422	584.19
404.645	591.19
404.869	600.19
405.093	606.19
405.317	628.19
405.541	646.19
405.765	591.19
405.988	594.19
406.212	613.19
406.436	598.19
406.66	616.19
406.883	627.19
407.107	620.19
407.331	677.19
407.555	720.19
407.778	746.19
408.002	652.19
408.226	636.19
408.449	608.19
408.673	622.19
408.896	646.19
409.12	656.19
409.344	628.19
409.567	579.19
409.791	587.19
410.014	553.19
410.238	568.19
410.461	547.19
410.685	581.19
410.908	585.19
411.132	613.19
411.355	642.19
411.578	586.19
411.802	577.19
412.025	550.19
412.249	556.19
412.472	567.19
412.695	615.19
412.919	576.19
413.142	554.19
413.365	561.19
413.589	553.19
413.812	554.19
414.035	545.19
414.258	542.19
414.482	528.19
414.705	550.19
414.928	523.19
415.151	536.19
415.374	536.19
415.597	546.19
415.821	531.19
416.044	535.19
416.267	536.19
416.49	539.19
416.713	526.19
416.936	533.19
417.159	532.19
417.382	530.19
417.605	559.19
417.828	545.19
418.051	552.19
418.274	547.19
418.497	546.19
418.72	529.19
418.943	545.19
419.166	560.19
419.389	600.19
419.611	547.19
419.834	570.19
420.057	577.19
420.28	552.19
420.503	554.19
420.726	512.19
420.948	558.19
421.171	586.19
421.394	596.19
421.617	547.19
421.839	542.19
422.062	570.19
422.285	530.19
422.507	597.19
422.73	672.19
422.953	658.19
423.175	611.19
423.398	565.19
423.621	596.19
423.843	580.19
424.066	607.19
424.288	585.19
424.511	606.19
424.733	617.19
424.956	691.19
425.178	667.19
425.401	667.19
425.623	687.19
425.846	602.19
426.068	565.19
426.291	547.19
426.513	574.19
426.735	574.19
426.958	629.19
427.18	666.19
427.402	778.19
427.625	838.19
427.847	740.19
428.069	624.19
428.292	622.19
428.514	556.19
428.736	538.19
428.958	529.19
429.181	521.19
429.403	514.19
429.625	506.19
429.847	549.19
430.069	592.19
430.292	604.19
430.514	529.19
430.736	532.19
430.958	505.19
431.18	512.19
431.402	487.19
431.624	483.19
431.846	491.19
432.068	478.19
432.29	515.19
432.512	514.19
432.734	518.19
432.956	502.19
433.178	487.19
433.4	488.19
433.622	501.19
433.844	523.19
434.066	506.19
434.287	521.19
434.509	504.19
434.731	521.19
434.953	520.19
435.175	531.19
435.397	570.19
435.618	546.19
435.84	585.19
436.062	656.19
436.284	736.19
436.505	606.19
436.727	562.19
436.949	535.19
437.17	532.19
437.392	502.19
437.614	526.19
437.835	549.19
438.057	609.19
438.278	685.19
438.5	689.19
438.721	755.19
438.943	748.19
439.165	616.19
439.386	563.19
439.608	549.19
439.829	546.19
440.05	573.19
440.272	582.19
440.493	559.19
440.715	552.19
440.936	513.19
441.158	527.19
441.379	536.19
441.6	561.19
441.822	554.19
442.043	607.19
442.264	671.19
442.486	720.19
442.707	590.19
442.928	558.19
443.149	583.19
443.371	567.19
443.592	643.19
443.813	702.19
444.034	748.19
444.255	651.19
444.476	618.19
444.698	598.19
444.919	618.19
445.14	741.19
445.361	671.19
445.582	620.19
445.803	635.19
446.024	740.19
446.245	696.19
446.466	664.19
446.687	586.19
446.908	548.19
447.129	516.19
447.35	503.19
447.571	504.19
447.792	505.19
448.013	508.19
448.234	520.19
448.455	539.19
448.675	652.19
448.896	762.19
449.117	638.19
449.338	622.19
449.559	691.19
449.779	786.19
450	647.19
450.221	516.19
450.442	514.19
450.662	512.19
450.883	491.19
451.104	486.19
451.324	487.19
451.545	474.19
451.766	459.19
451.986	450.19
452.207	444.19
452.428	464.19
452.648	464.19
452.869	445.19
453.089	466.19
453.31	471.19
453.53	467.19
453.751	460.19
453.971	464.19
454.192	467.19
454.412	472.19
454.633	459.19
454.853	436.19
455.073	461.19
455.294	465.19
455.514	529.19
455.734	496.19
455.955	469.19
456.175	440.19
456.395	436.19
456.616	430.19
456.836	427.19
457.056	432.19
457.276	410.19
457.497	432.19
457.717	430.19
457.937	446.19
458.157	462.19
458.377	472.19
458.598	459.19
458.818	514.19
459.038	580.19
459.258	579.19
459.478	526.19
459.698	495.19
459.918	491.19
460.138	510.19
460.358	519.19
460.578	520.19
460.798	528.19
461.018	511.19
461.238	523.19
461.458	531.19
461.678	522.19
461.898	544.19
462.118	547.19
462.338	531.19
462.558	566.19
462.777	577.19
462.997	575.19
463.217	631.19
463.437	620.19
463.657	604.19
463.876	591.19
464.096	604.19
464.316	580.19
464.536	586.19
464.755	577.19
464.975	589.19
465.195	579.19
465.414	617.19
465.634	543.19
465.854	497.19
466.073	510.19
466.293	486.19
466.512	472.19
466.732	468.19
466.951	484.19
467.171	472.19
467.391	487.19
467.61	495.19
467.829	498.19
468.049	471.19
468.268	479.19
468.488	464.19
468.707	458.19
468.927	452.19
469.146	486.19
469.365	465.19
469.585	470.19
469.804	472.19
470.023	504.19
470.243	477.19
470.462	490.19
470.681	490.19
470.901	485.19
471.12	474.19
471.339	488.19
471.558	478.19
471.777	474.19
471.997	474.19
472.216	471.19
472.435	471.19
472.654	486.19
472.873	470.19
473.092	485.19
473.311	470.19
473.53	455.19
473.749	474.19
473.968	505.19
474.187	588.19
474.406	614.19
474.625	509.19
474.844	466.19
475.063	465.19
475.282	473.19
475.501	483.19
475.72	483.19
475.939	519.19
476.158	467.19
476.377	500.19
476.596	503.19
476.814	498.19
477.033	510.19
477.252	514.19
477.471	507.19
477.69	512.19
477.908	510.19
478.127	538.19
478.346	560.19
478.564	543.19
478.783	543.19
479.002	568.19
479.22	573.19
479.439	568.19
479.658	572.19
479.876	562.19
480.095	603.19
480.313	620.19
480.532	616.19
480.751	608.19
480.969	601.19
481.188	612.19
481.406	624.19
481.624	574.19
481.843	574.19
482.061	574.19
482.28	565.19
482.498	563.19
482.717	543.19
482.935	545.19
483.153	546.19
483.372	543.19
483.59	532.19
483.808	548.19
484.027	538.19
484.245	542.19
484.463	548.19
484.681	571.19
484.9	558.19
485.118	564.19
485.336	558.19
485.554	540.19
485.772	574.19
485.99	582.19
486.209	578.19
486.427	561.19
486.645	574.19
486.863	588.19
487.081	586.19
487.299	590.19
487.517	567.19
487.735	586.19
487.953	593.19
488.171	566.19
488.389	584.19
488.607	597.19
488.825	592.19
489.043	582.19
489.261	572.19
489.479	602.19
489.696	603.19
489.914	571.19
490.132	624.19
490.35	605.19
490.568	624.19
490.786	618.19
491.003	633.19
491.221	638.19
491.439	662.19
491.657	656.19
491.874	645.19
492.092	666.19
492.31	639.19
492.527	688.19
492.745	702.19
492.963	661.19
493.18	699.19
493.398	701.19
493.615	667.19
493.833	702.19
494.05	673.19
494.268	704.19
494.485	685.19
494.703	692.19
494.92	682.19
495.138	664.19
495.355	691.19
495.573	678.19
495.79	708.19
496.008	722.19
496.225	677.19
496.442	709.19
496.66	707.19
496.877	707.19
497.094	707.19
497.312	715.19
497.529	750.19
497.746	732.19
497.963	763.19
498.181	765.19
498.398	790.19
498.615	790.19
498.832	839.19
499.049	865.19
499.267	860.19
499.484	959.19
499.701	984.19
499.918	1055.19
500.135	1130.19
500.352	1178.19
500.569	1228.19
500.786	1222.19
501.003	1172.19
501.22	1122.19
501.437	1055.19
501.654	1012.19
