Data from 1973.PennyLincolnUp.Lamp.En5.5.200Scan.071719.P1.Changed Mount._HRD10591_15-45-12-853.txt Node
Date: Thu Jul 18 15:45:12 EDT 2019
User: cochatt
Spectrometer: HR+D1059
Trigger mode: 1
Integration Time (sec): 1.000000E-1
Scans to average: 1
Electric dark correction enabled: true
Nonlinearity correction enabled: false
Boxcar width: 0
XAxis mode: Wavelengths
Number of Pixels in Spectrum: 2048
>>>>>Begin Spectral Data<<<<<
223.165	-11.06
223.4	-11.06
223.635	-11.06
223.869	-21.06
224.104	-17.06
224.338	-22.06
224.573	-13.06
224.808	2.94
225.042	-8.06
225.277	-2.06
225.511	-12.06
225.746	2.94
225.98	10.94
226.215	3.94
226.449	14.94
226.683	14.94
226.918	15.94
227.152	39.94
227.387	30.94
227.621	32.94
227.856	25.94
228.09	43.94
228.324	41.94
228.559	48.94
228.793	72.94
229.027	90.94
229.262	99.94
229.496	107.94
229.73	118.94
229.964	145.94
230.199	123.94
230.433	123.94
230.667	109.94
230.901	116.94
231.136	117.94
231.37	105.94
231.604	119.94
231.838	121.94
232.072	126.94
232.306	117.94
232.541	123.94
232.775	113.94
233.009	114.94
233.243	116.94
233.477	114.94
233.711	111.94
233.945	106.94
234.179	122.94
234.413	111.94
234.647	120.94
234.881	113.94
235.115	131.94
235.349	121.94
235.583	135.94
235.817	116.94
236.051	111.94
236.285	135.94
236.519	141.94
236.753	127.94
236.987	119.94
237.221	160.94
237.455	191.94
237.689	166.94
237.922	141.94
238.156	127.94
238.39	148.94
238.624	125.94
238.858	122.94
239.091	120.94
239.325	124.94
239.559	130.94
239.793	139.94
240.027	135.94
240.26	133.94
240.494	165.94
240.728	146.94
240.961	159.94
241.195	143.94
241.429	145.94
241.662	146.94
241.896	137.94
242.13	141.94
242.363	138.94
242.597	141.94
242.83	132.94
243.064	145.94
243.298	127.94
243.531	145.94
243.765	144.94
243.998	143.94
244.232	149.94
244.465	163.94
244.699	160.94
244.932	148.94
245.166	161.94
245.399	142.94
245.633	151.94
245.866	141.94
246.099	157.94
246.333	140.94
246.566	155.94
246.8	145.94
247.033	146.94
247.266	171.94
247.5	175.94
247.733	183.94
247.966	179.94
248.2	186.94
248.433	168.94
248.666	169.94
248.899	184.94
249.133	209.94
249.366	192.94
249.599	188.94
249.832	185.94
250.066	187.94
250.299	183.94
250.532	197.94
250.765	186.94
250.998	226.94
251.231	231.94
251.465	225.94
251.698	213.94
251.931	216.94
252.164	202.94
252.397	207.94
252.63	212.94
252.863	206.94
253.096	209.94
253.329	212.94
253.562	234.94
253.795	220.94
254.028	213.94
254.261	214.94
254.494	231.94
254.727	242.94
254.96	265.94
255.193	261.94
255.426	241.94
255.659	229.94
255.892	232.94
256.124	239.94
256.357	244.94
256.59	233.94
256.823	224.94
257.056	233.94
257.289	225.94
257.521	216.94
257.754	228.94
257.987	209.94
258.22	229.94
258.452	219.94
258.685	229.94
258.918	227.94
259.151	232.94
259.383	240.94
259.616	239.94
259.849	213.94
260.081	236.94
260.314	257.94
260.547	269.94
260.779	247.94
261.012	242.94
261.244	227.94
261.477	244.94
261.71	233.94
261.942	233.94
262.175	219.94
262.407	242.94
262.64	227.94
262.872	228.94
263.105	224.94
263.337	217.94
263.57	221.94
263.802	235.94
264.035	218.94
264.267	212.94
264.499	230.94
264.732	218.94
264.964	236.94
265.197	226.94
265.429	261.94
265.661	225.94
265.894	224.94
266.126	227.94
266.358	233.94
266.591	244.94
266.823	243.94
267.055	239.94
267.287	233.94
267.52	259.94
267.752	248.94
267.984	259.94
268.216	243.94
268.448	265.94
268.681	256.94
268.913	265.94
269.145	287.94
269.377	293.94
269.609	290.94
269.841	290.94
270.073	306.94
270.306	309.94
270.538	305.94
270.77	332.94
271.002	303.94
271.234	317.94
271.466	298.94
271.698	316.94
271.93	354.94
272.162	333.94
272.394	327.94
272.626	308.94
272.858	285.94
273.09	292.94
273.322	283.94
273.553	294.94
273.785	275.94
274.017	285.94
274.249	284.94
274.481	281.94
274.713	273.94
274.945	281.94
275.176	268.94
275.408	288.94
275.64	273.94
275.872	274.94
276.104	275.94
276.335	289.94
276.567	307.94
276.799	306.94
277.031	321.94
277.262	324.94
277.494	325.94
277.726	324.94
277.957	343.94
278.189	321.94
278.421	284.94
278.652	297.94
278.884	280.94
279.115	301.94
279.347	287.94
279.579	289.94
279.81	285.94
280.042	291.94
280.273	287.94
280.505	305.94
280.736	305.94
280.968	298.94
281.199	286.94
281.431	318.94
281.662	300.94
281.894	301.94
282.125	307.94
282.356	322.94
282.588	324.94
282.819	316.94
283.051	311.94
283.282	311.94
283.513	314.94
283.745	311.94
283.976	311.94
284.207	305.94
284.439	302.94
284.67	301.94
284.901	312.94
285.132	315.94
285.364	294.94
285.595	311.94
285.826	302.94
286.057	297.94
286.288	325.94
286.52	326.94
286.751	318.94
286.982	333.94
287.213	329.94
287.444	331.94
287.675	331.94
287.906	318.94
288.138	330.94
288.369	341.94
288.6	335.94
288.831	329.94
289.062	342.94
289.293	327.94
289.524	344.94
289.755	333.94
289.986	314.94
290.217	316.94
290.448	327.94
290.679	319.94
290.91	319.94
291.141	317.94
291.371	321.94
291.602	336.94
291.833	315.94
292.064	312.94
292.295	316.94
292.526	322.94
292.757	327.94
292.987	334.94
293.218	319.94
293.449	339.94
293.68	315.94
293.91	346.94
294.141	338.94
294.372	322.94
294.603	335.94
294.833	338.94
295.064	325.94
295.295	338.94
295.525	341.94
295.756	327.94
295.987	356.94
296.217	363.94
296.448	361.94
296.679	338.94
296.909	341.94
297.14	341.94
297.37	353.94
297.601	365.94
297.831	326.94
298.062	343.94
298.292	340.94
298.523	376.94
298.753	353.94
298.984	357.94
299.214	349.94
299.445	349.94
299.675	355.94
299.905	345.94
300.136	363.94
300.366	360.94
300.597	358.94
300.827	352.94
301.057	374.94
301.288	349.94
301.518	367.94
301.748	361.94
301.979	380.94
302.209	378.94
302.439	358.94
302.669	355.94
302.9	392.94
303.13	383.94
303.36	373.94
303.59	379.94
303.82	377.94
304.051	387.94
304.281	372.94
304.511	373.94
304.741	377.94
304.971	369.94
305.201	363.94
305.431	371.94
305.661	364.94
305.891	379.94
306.121	375.94
306.352	381.94
306.582	377.94
306.812	358.94
307.042	360.94
307.272	363.94
307.502	377.94
307.731	380.94
307.961	345.94
308.191	361.94
308.421	365.94
308.651	395.94
308.881	373.94
309.111	370.94
309.341	384.94
309.571	381.94
309.8	399.94
310.03	394.94
310.26	375.94
310.49	395.94
310.72	401.94
310.949	395.94
311.179	416.94
311.409	401.94
311.639	386.94
311.868	403.94
312.098	397.94
312.328	412.94
312.557	414.94
312.787	443.94
313.017	437.94
313.246	424.94
313.476	412.94
313.706	414.94
313.935	416.94
314.165	427.94
314.394	425.94
314.624	421.94
314.853	419.94
315.083	413.94
315.312	424.94
315.542	412.94
315.771	397.94
316.001	411.94
316.23	444.94
316.46	408.94
316.689	405.94
316.919	398.94
317.148	411.94
317.377	406.94
317.607	427.94
317.836	423.94
318.065	408.94
318.295	383.94
318.524	419.94
318.753	410.94
318.983	412.94
319.212	403.94
319.441	411.94
319.67	413.94
319.9	395.94
320.129	411.94
320.358	408.94
320.587	421.94
320.816	449.94
321.046	409.94
321.275	426.94
321.504	409.94
321.733	439.94
321.962	425.94
322.191	442.94
322.42	450.94
322.649	441.94
322.878	444.94
323.108	455.94
323.337	476.94
323.566	499.94
323.795	531.94
324.024	517.94
324.253	625.94
324.482	781.94
324.71	1122.94
324.939	1583.94
325.168	1393.94
325.397	751.94
325.626	594.94
325.855	513.94
326.084	527.94
326.313	487.94
326.542	491.94
326.77	536.94
326.999	606.94
327.228	755.94
327.457	1020.94
327.686	1225.94
327.914	885.94
328.143	637.94
328.372	598.94
328.6	555.94
328.829	539.94
329.058	531.94
329.287	552.94
329.515	533.94
329.744	523.94
329.972	498.94
330.201	531.94
330.43	554.94
330.658	559.94
330.887	571.94
331.115	576.94
331.344	519.94
331.572	500.94
331.801	509.94
332.03	514.94
332.258	497.94
332.486	493.94
332.715	486.94
332.943	490.94
333.172	505.94
333.4	524.94
333.629	534.94
333.857	539.94
334.085	562.94
334.314	551.94
334.542	577.94
334.771	561.94
334.999	540.94
335.227	557.94
335.455	518.94
335.684	508.94
335.912	511.94
336.14	511.94
336.369	491.94
336.597	492.94
336.825	517.94
337.053	503.94
337.281	503.94
337.51	502.94
337.738	488.94
337.966	491.94
338.194	485.94
338.422	476.94
338.65	464.94
338.878	489.94
339.106	468.94
339.334	479.94
339.562	467.94
339.79	472.94
340.018	441.94
340.246	462.94
340.474	464.94
340.702	490.94
340.93	472.94
341.158	445.94
341.386	467.94
341.614	460.94
341.842	452.94
342.07	466.94
342.298	441.94
342.526	457.94
342.754	436.94
342.981	451.94
343.209	471.94
343.437	475.94
343.665	497.94
343.893	500.94
344.12	508.94
344.348	493.94
344.576	475.94
344.804	483.94
345.031	491.94
345.259	492.94
345.487	492.94
345.714	462.94
345.942	451.94
346.17	463.94
346.397	449.94
346.625	456.94
346.853	440.94
347.08	451.94
347.308	435.94
347.535	458.94
347.763	458.94
347.99	436.94
348.218	471.94
348.445	431.94
348.673	432.94
348.9	443.94
349.128	441.94
349.355	412.94
349.583	417.94
349.81	437.94
350.037	412.94
350.265	428.94
350.492	434.94
350.72	423.94
350.947	439.94
351.174	412.94
351.402	437.94
351.629	437.94
351.856	448.94
352.083	435.94
352.311	451.94
352.538	435.94
352.765	449.94
352.992	464.94
353.22	443.94
353.447	425.94
353.674	425.94
353.901	429.94
354.128	449.94
354.355	433.94
354.583	407.94
354.81	406.94
355.037	435.94
355.264	419.94
355.491	436.94
355.718	408.94
355.945	427.94
356.172	420.94
356.399	443.94
356.626	444.94
356.853	430.94
357.08	411.94
357.307	423.94
357.534	418.94
357.761	420.94
357.988	428.94
358.215	409.94
358.441	418.94
358.668	421.94
358.895	429.94
359.122	436.94
359.349	438.94
359.576	448.94
359.802	465.94
360.029	457.94
360.256	449.94
360.483	442.94
360.709	458.94
360.936	439.94
361.163	436.94
361.39	443.94
361.616	441.94
361.843	437.94
362.07	442.94
362.296	434.94
362.523	442.94
362.749	448.94
362.976	441.94
363.203	432.94
363.429	415.94
363.656	423.94
363.882	422.94
364.109	419.94
364.335	427.94
364.562	449.94
364.788	415.94
365.015	434.94
365.241	428.94
365.468	430.94
365.694	437.94
365.92	407.94
366.147	426.94
366.373	412.94
366.599	430.94
366.826	431.94
367.052	426.94
367.278	452.94
367.505	418.94
367.731	438.94
367.957	435.94
368.184	429.94
368.41	444.94
368.636	444.94
368.862	449.94
369.089	451.94
369.315	439.94
369.541	427.94
369.767	442.94
369.993	413.94
370.219	438.94
370.445	442.94
370.672	427.94
370.898	431.94
371.124	435.94
371.35	442.94
371.576	427.94
371.802	440.94
372.028	433.94
372.254	440.94
372.48	447.94
372.706	432.94
372.932	465.94
373.158	433.94
373.384	432.94
373.61	429.94
373.835	428.94
374.061	444.94
374.287	433.94
374.513	453.94
374.739	453.94
374.965	455.94
375.191	459.94
375.416	440.94
375.642	469.94
375.868	441.94
376.094	449.94
376.319	435.94
376.545	442.94
376.771	443.94
376.997	437.94
377.222	450.94
377.448	445.94
377.674	441.94
377.899	440.94
378.125	444.94
378.35	428.94
378.576	411.94
378.802	428.94
379.027	431.94
379.253	428.94
379.478	422.94
379.704	432.94
379.929	421.94
380.155	449.94
380.38	420.94
380.606	442.94
380.831	447.94
381.057	452.94
381.282	427.94
381.507	445.94
381.733	433.94
381.958	449.94
382.184	427.94
382.409	421.94
382.634	437.94
382.86	448.94
383.085	472.94
383.31	457.94
383.535	457.94
383.761	452.94
383.986	470.94
384.211	461.94
384.436	476.94
384.662	465.94
384.887	479.94
385.112	478.94
385.337	495.94
385.562	464.94
385.787	493.94
386.013	507.94
386.238	491.94
386.463	509.94
386.688	504.94
386.913	483.94
387.138	485.94
387.363	481.94
387.588	515.94
387.813	504.94
388.038	476.94
388.263	480.94
388.488	496.94
388.713	493.94
388.938	489.94
389.163	494.94
389.387	499.94
389.612	495.94
389.837	496.94
390.062	473.94
390.287	466.94
390.512	463.94
390.736	480.94
390.961	471.94
391.186	495.94
391.411	496.94
391.636	496.94
391.86	509.94
392.085	529.94
392.31	532.94
392.534	503.94
392.759	519.94
392.984	520.94
393.208	511.94
393.433	511.94
393.658	493.94
393.882	532.94
394.107	521.94
394.331	494.94
394.556	518.94
394.78	523.94
395.005	533.94
395.229	488.94
395.454	515.94
395.678	515.94
395.903	548.94
396.127	551.94
396.352	540.94
396.576	505.94
396.801	508.94
397.025	530.94
397.249	517.94
397.474	524.94
397.698	531.94
397.922	575.94
398.147	563.94
398.371	549.94
398.595	567.94
398.82	575.94
399.044	595.94
399.268	630.94
399.492	661.94
399.717	742.94
399.941	770.94
400.165	743.94
400.389	724.94
400.613	660.94
400.837	619.94
401.062	599.94
401.286	600.94
401.51	569.94
401.734	583.94
401.958	602.94
402.182	588.94
402.406	583.94
402.63	615.94
402.854	600.94
403.078	573.94
403.302	626.94
403.526	603.94
403.75	623.94
403.974	599.94
404.198	598.94
404.422	615.94
404.645	621.94
404.869	631.94
405.093	645.94
405.317	678.94
405.541	695.94
405.765	653.94
405.988	613.94
406.212	651.94
406.436	651.94
406.66	666.94
406.883	635.94
407.107	701.94
407.331	722.94
407.555	796.94
407.778	819.94
408.002	731.94
408.226	689.94
408.449	657.94
408.673	655.94
408.896	665.94
409.12	695.94
409.344	665.94
409.567	611.94
409.791	634.94
410.014	626.94
410.238	583.94
410.461	625.94
410.685	607.94
410.908	633.94
411.132	624.94
411.355	658.94
411.578	653.94
411.802	629.94
412.025	600.94
412.249	604.94
412.472	602.94
412.695	663.94
412.919	661.94
413.142	595.94
413.365	584.94
413.589	559.94
413.812	564.94
414.035	574.94
414.258	574.94
414.482	561.94
414.705	568.94
414.928	593.94
415.151	563.94
415.374	556.94
415.597	546.94
415.821	553.94
416.044	557.94
416.267	581.94
416.49	569.94
416.713	564.94
416.936	575.94
417.159	551.94
417.382	580.94
417.605	571.94
417.828	567.94
418.051	592.94
418.274	582.94
418.497	575.94
418.72	599.94
418.943	559.94
419.166	619.94
419.389	633.94
419.611	605.94
419.834	625.94
420.057	591.94
420.28	588.94
420.503	589.94
420.726	587.94
420.948	600.94
421.171	596.94
421.394	644.94
421.617	632.94
421.839	581.94
422.062	586.94
422.285	585.94
422.507	649.94
422.73	711.94
422.953	710.94
423.175	655.94
423.398	613.94
423.621	632.94
423.843	643.94
424.066	628.94
424.288	635.94
424.511	678.94
424.733	669.94
424.956	740.94
425.178	697.94
425.401	733.94
425.623	728.94
425.846	652.94
426.068	631.94
426.291	630.94
426.513	596.94
426.735	604.94
426.958	641.94
427.18	703.94
427.402	836.94
427.625	922.94
427.847	771.94
428.069	688.94
428.292	641.94
428.514	592.94
428.736	557.94
428.958	571.94
429.181	564.94
429.403	557.94
429.625	561.94
429.847	575.94
430.069	628.94
430.292	635.94
430.514	582.94
430.736	570.94
430.958	558.94
431.18	528.94
431.402	536.94
431.624	518.94
431.846	532.94
432.068	543.94
432.29	535.94
432.512	551.94
432.734	540.94
432.956	529.94
433.178	555.94
433.4	552.94
433.622	537.94
433.844	555.94
434.066	532.94
434.287	518.94
434.509	565.94
434.731	561.94
434.953	572.94
435.175	595.94
435.397	635.94
435.618	617.94
435.84	635.94
436.062	731.94
436.284	774.94
436.505	654.94
436.727	603.94
436.949	566.94
437.17	540.94
437.392	547.94
437.614	552.94
437.835	561.94
438.057	661.94
438.278	717.94
438.5	738.94
438.721	826.94
438.943	831.94
439.165	637.94
439.386	591.94
439.608	588.94
439.829	591.94
440.05	593.94
440.272	634.94
440.493	611.94
440.715	595.94
440.936	578.94
441.158	593.94
441.379	567.94
441.6	575.94
441.822	611.94
442.043	634.94
442.264	727.94
442.486	730.94
442.707	655.94
442.928	616.94
443.149	627.94
443.371	646.94
443.592	675.94
443.813	757.94
444.034	811.94
444.255	710.94
444.476	620.94
444.698	617.94
444.919	676.94
445.14	758.94
445.361	693.94
445.582	683.94
445.803	693.94
446.024	772.94
446.245	756.94
446.466	708.94
446.687	629.94
446.908	604.94
447.129	571.94
447.35	548.94
447.571	536.94
447.792	535.94
448.013	532.94
448.234	567.94
448.455	588.94
448.675	704.94
448.896	798.94
449.117	691.94
449.338	644.94
449.559	755.94
449.779	833.94
450	664.94
450.221	579.94
450.442	533.94
450.662	535.94
450.883	517.94
451.104	527.94
451.324	538.94
451.545	511.94
451.766	505.94
451.986	513.94
452.207	470.94
452.428	479.94
452.648	500.94
452.869	482.94
453.089	489.94
453.31	509.94
453.53	511.94
453.751	476.94
453.971	480.94
454.192	500.94
454.412	492.94
454.633	477.94
454.853	493.94
455.073	448.94
455.294	494.94
455.514	553.94
455.734	539.94
455.955	486.94
456.175	461.94
456.395	464.94
456.616	473.94
456.836	462.94
457.056	461.94
457.276	456.94
457.497	457.94
457.717	456.94
457.937	485.94
458.157	459.94
458.377	496.94
458.598	487.94
458.818	555.94
459.038	579.94
459.258	631.94
459.478	547.94
459.698	515.94
459.918	530.94
460.138	573.94
460.358	564.94
460.578	572.94
460.798	571.94
461.018	580.94
461.238	573.94
461.458	554.94
461.678	567.94
461.898	589.94
462.118	567.94
462.338	574.94
462.558	583.94
462.777	629.94
462.997	643.94
463.217	659.94
463.437	689.94
463.657	659.94
463.876	633.94
464.096	632.94
464.316	635.94
464.536	614.94
464.755	628.94
464.975	610.94
465.195	620.94
465.414	637.94
465.634	585.94
465.854	559.94
466.073	562.94
466.293	525.94
466.512	524.94
466.732	515.94
466.951	519.94
467.171	516.94
467.391	514.94
467.61	511.94
467.829	531.94
468.049	511.94
468.268	497.94
468.488	515.94
468.707	506.94
468.927	518.94
469.146	499.94
469.365	502.94
469.585	514.94
469.804	516.94
470.023	546.94
470.243	517.94
470.462	523.94
470.681	519.94
470.901	522.94
471.12	524.94
471.339	528.94
471.558	500.94
471.777	522.94
471.997	502.94
472.216	501.94
472.435	536.94
472.654	516.94
472.873	489.94
473.092	501.94
473.311	500.94
473.53	518.94
473.749	509.94
473.968	547.94
474.187	615.94
474.406	636.94
474.625	563.94
474.844	514.94
475.063	539.94
475.282	503.94
475.501	537.94
475.72	529.94
475.939	517.94
476.158	529.94
476.377	531.94
476.596	507.94
476.814	540.94
477.033	551.94
477.252	532.94
477.471	536.94
477.69	560.94
477.908	550.94
478.127	573.94
478.346	577.94
478.564	581.94
478.783	591.94
479.002	602.94
479.22	570.94
479.439	611.94
479.658	598.94
479.876	638.94
480.095	647.94
480.313	659.94
480.532	645.94
480.751	639.94
480.969	646.94
481.188	678.94
481.406	659.94
481.624	649.94
481.843	615.94
482.061	608.94
482.28	601.94
482.498	591.94
482.717	577.94
482.935	591.94
483.153	567.94
483.372	592.94
483.59	588.94
483.808	584.94
484.027	580.94
484.245	597.94
484.463	591.94
484.681	624.94
484.9	603.94
485.118	623.94
485.336	601.94
485.554	597.94
485.772	623.94
485.99	604.94
486.209	633.94
486.427	618.94
486.645	627.94
486.863	638.94
487.081	624.94
487.299	628.94
487.517	615.94
487.735	627.94
487.953	631.94
488.171	623.94
488.389	644.94
488.607	625.94
488.825	633.94
489.043	628.94
489.261	631.94
489.479	627.94
489.696	638.94
489.914	653.94
490.132	655.94
490.35	653.94
490.568	641.94
490.786	659.94
491.003	668.94
491.221	687.94
491.439	707.94
491.657	707.94
491.874	726.94
492.092	707.94
492.31	732.94
492.527	723.94
492.745	729.94
492.963	756.94
493.18	732.94
493.398	735.94
493.615	758.94
493.833	718.94
494.05	739.94
494.268	743.94
494.485	705.94
494.703	712.94
494.92	737.94
495.138	754.94
495.355	748.94
495.573	740.94
495.79	736.94
496.008	748.94
496.225	734.94
496.442	735.94
496.66	775.94
496.877	748.94
497.094	748.94
497.312	771.94
497.529	787.94
497.746	786.94
497.963	808.94
498.181	828.94
498.398	847.94
498.615	856.94
498.832	883.94
499.049	933.94
499.267	958.94
499.484	1035.94
499.701	1078.94
499.918	1139.94
500.135	1205.94
500.352	1311.94
500.569	1356.94
500.786	1303.94
501.003	1281.94
501.22	1229.94
501.437	1158.94
501.654	1055.94
