Data from 1973.PennyLincolnUp.Lamp.En5.5.200Scan.071719.P1.Changed Mount._HRD10591_15-44-57-852.txt Node
Date: Thu Jul 18 15:44:57 EDT 2019
User: cochatt
Spectrometer: HR+D1059
Trigger mode: 1
Integration Time (sec): 1.000000E-1
Scans to average: 1
Electric dark correction enabled: true
Nonlinearity correction enabled: false
Boxcar width: 0
XAxis mode: Wavelengths
Number of Pixels in Spectrum: 2048
>>>>>Begin Spectral Data<<<<<
223.165	-12.81
223.4	-12.81
223.635	-12.81
223.869	-18.81
224.104	-18.81
224.338	-21.81
224.573	-11.81
224.808	-8.81
225.042	1.19
225.277	-10.81
225.511	-12.81
225.746	9.19
225.98	8.19
226.215	6.19
226.449	13.19
226.683	9.19
226.918	32.19
227.152	37.19
227.387	33.19
227.621	37.19
227.856	52.19
228.09	45.19
228.324	51.19
228.559	48.19
228.793	67.19
229.027	98.19
229.262	100.19
229.496	109.19
229.73	128.19
229.964	132.19
230.199	124.19
230.433	112.19
230.667	121.19
230.901	127.19
231.136	137.19
231.37	121.19
231.604	126.19
231.838	104.19
232.072	109.19
232.306	108.19
232.541	116.19
232.775	112.19
233.009	119.19
233.243	119.19
233.477	115.19
233.711	126.19
233.945	116.19
234.179	127.19
234.413	126.19
234.647	113.19
234.881	151.19
235.115	131.19
235.349	129.19
235.583	127.19
235.817	125.19
236.051	112.19
236.285	131.19
236.519	128.19
236.753	127.19
236.987	147.19
237.221	185.19
237.455	196.19
237.689	184.19
237.922	146.19
238.156	145.19
238.39	142.19
238.624	122.19
238.858	132.19
239.091	138.19
239.325	132.19
239.559	144.19
239.793	141.19
240.027	141.19
240.26	141.19
240.494	150.19
240.728	143.19
240.961	154.19
241.195	150.19
241.429	139.19
241.662	153.19
241.896	139.19
242.13	139.19
242.363	144.19
242.597	134.19
242.83	139.19
243.064	140.19
243.298	142.19
243.531	144.19
243.765	149.19
243.998	151.19
244.232	151.19
244.465	145.19
244.699	149.19
244.932	149.19
245.166	167.19
245.399	139.19
245.633	161.19
245.866	163.19
246.099	164.19
246.333	153.19
246.566	171.19
246.8	163.19
247.033	166.19
247.266	170.19
247.5	172.19
247.733	180.19
247.966	171.19
248.2	187.19
248.433	188.19
248.666	180.19
248.899	177.19
249.133	190.19
249.366	198.19
249.599	203.19
249.832	176.19
250.066	191.19
250.299	193.19
250.532	200.19
250.765	204.19
250.998	213.19
251.231	214.19
251.465	225.19
251.698	210.19
251.931	205.19
252.164	178.19
252.397	207.19
252.63	208.19
252.863	195.19
253.096	218.19
253.329	222.19
253.562	225.19
253.795	223.19
254.028	224.19
254.261	219.19
254.494	231.19
254.727	241.19
254.96	276.19
255.193	273.19
255.426	245.19
255.659	229.19
255.892	232.19
256.124	233.19
256.357	230.19
256.59	230.19
256.823	225.19
257.056	211.19
257.289	206.19
257.521	210.19
257.754	237.19
257.987	222.19
258.22	235.19
258.452	233.19
258.685	235.19
258.918	211.19
259.151	217.19
259.383	232.19
259.616	222.19
259.849	256.19
260.081	232.19
260.314	267.19
260.547	251.19
260.779	251.19
261.012	230.19
261.244	225.19
261.477	223.19
261.71	234.19
261.942	231.19
262.175	233.19
262.407	244.19
262.64	230.19
262.872	232.19
263.105	216.19
263.337	229.19
263.57	222.19
263.802	217.19
264.035	225.19
264.267	233.19
264.499	232.19
264.732	232.19
264.964	215.19
265.197	241.19
265.429	227.19
265.661	236.19
265.894	238.19
266.126	228.19
266.358	234.19
266.591	245.19
266.823	244.19
267.055	263.19
267.287	255.19
267.52	247.19
267.752	241.19
267.984	247.19
268.216	234.19
268.448	245.19
268.681	261.19
268.913	245.19
269.145	274.19
269.377	276.19
269.609	302.19
269.841	280.19
270.073	275.19
270.306	311.19
270.538	308.19
270.77	331.19
271.002	320.19
271.234	310.19
271.466	318.19
271.698	325.19
271.93	294.19
272.162	329.19
272.394	327.19
272.626	320.19
272.858	294.19
273.09	294.19
273.322	279.19
273.553	284.19
273.785	297.19
274.017	284.19
274.249	271.19
274.481	282.19
274.713	282.19
274.945	290.19
275.176	268.19
275.408	291.19
275.64	299.19
275.872	291.19
276.104	286.19
276.335	280.19
276.567	311.19
276.799	300.19
277.031	326.19
277.262	335.19
277.494	332.19
277.726	313.19
277.957	304.19
278.189	313.19
278.421	293.19
278.652	312.19
278.884	297.19
279.115	312.19
279.347	307.19
279.579	306.19
279.81	297.19
280.042	297.19
280.273	294.19
280.505	310.19
280.736	274.19
280.968	287.19
281.199	280.19
281.431	296.19
281.662	302.19
281.894	305.19
282.125	285.19
282.356	317.19
282.588	307.19
282.819	333.19
283.051	318.19
283.282	318.19
283.513	313.19
283.745	311.19
283.976	324.19
284.207	303.19
284.439	315.19
284.67	300.19
284.901	310.19
285.132	305.19
285.364	313.19
285.595	291.19
285.826	317.19
286.057	293.19
286.288	317.19
286.52	312.19
286.751	318.19
286.982	325.19
287.213	308.19
287.444	308.19
287.675	311.19
287.906	327.19
288.138	347.19
288.369	346.19
288.6	334.19
288.831	323.19
289.062	336.19
289.293	329.19
289.524	332.19
289.755	317.19
289.986	329.19
290.217	328.19
290.448	328.19
290.679	328.19
290.91	330.19
291.141	309.19
291.371	351.19
291.602	326.19
291.833	337.19
292.064	321.19
292.295	332.19
292.526	328.19
292.757	311.19
292.987	331.19
293.218	319.19
293.449	326.19
293.68	328.19
293.91	318.19
294.141	328.19
294.372	324.19
294.603	332.19
294.833	339.19
295.064	338.19
295.295	331.19
295.525	344.19
295.756	336.19
295.987	335.19
296.217	366.19
296.448	353.19
296.679	336.19
296.909	348.19
297.14	342.19
297.37	314.19
297.601	360.19
297.831	322.19
298.062	347.19
298.292	345.19
298.523	343.19
298.753	358.19
298.984	343.19
299.214	337.19
299.445	345.19
299.675	347.19
299.905	335.19
300.136	342.19
300.366	364.19
300.597	342.19
300.827	360.19
301.057	377.19
301.288	374.19
301.518	362.19
301.748	381.19
301.979	388.19
302.209	365.19
302.439	379.19
302.669	373.19
302.9	359.19
303.13	354.19
303.36	388.19
303.59	377.19
303.82	383.19
304.051	380.19
304.281	382.19
304.511	366.19
304.741	375.19
304.971	381.19
305.201	369.19
305.431	377.19
305.661	372.19
305.891	364.19
306.121	381.19
306.352	378.19
306.582	383.19
306.812	380.19
307.042	378.19
307.272	360.19
307.502	362.19
307.731	366.19
307.961	385.19
308.191	375.19
308.421	374.19
308.651	389.19
308.881	396.19
309.111	382.19
309.341	377.19
309.571	383.19
309.8	382.19
310.03	381.19
310.26	398.19
310.49	399.19
310.72	398.19
310.949	414.19
311.179	399.19
311.409	404.19
311.639	400.19
311.868	399.19
312.098	398.19
312.328	386.19
312.557	422.19
312.787	417.19
313.017	420.19
313.246	408.19
313.476	398.19
313.706	409.19
313.935	402.19
314.165	435.19
314.394	416.19
314.624	429.19
314.853	403.19
315.083	413.19
315.312	396.19
315.542	410.19
315.771	408.19
316.001	392.19
316.23	411.19
316.46	392.19
316.689	383.19
316.919	395.19
317.148	409.19
317.377	408.19
317.607	399.19
317.836	394.19
318.065	416.19
318.295	383.19
318.524	391.19
318.753	391.19
318.983	391.19
319.212	411.19
319.441	404.19
319.67	419.19
319.9	413.19
320.129	396.19
320.358	403.19
320.587	394.19
320.816	423.19
321.046	401.19
321.275	427.19
321.504	416.19
321.733	435.19
321.962	425.19
322.191	437.19
322.42	441.19
322.649	448.19
322.878	459.19
323.108	439.19
323.337	458.19
323.566	480.19
323.795	512.19
324.024	504.19
324.253	613.19
324.482	791.19
324.71	1130.19
324.939	1589.19
325.168	1415.19
325.397	781.19
325.626	573.19
325.855	525.19
326.084	500.19
326.313	470.19
326.542	495.19
326.77	523.19
326.999	569.19
327.228	741.19
327.457	1029.19
327.686	1239.19
327.914	878.19
328.143	633.19
328.372	575.19
328.6	543.19
328.829	546.19
329.058	551.19
329.287	528.19
329.515	534.19
329.744	526.19
329.972	516.19
330.201	526.19
330.43	553.19
330.658	575.19
330.887	565.19
331.115	547.19
331.344	495.19
331.572	496.19
331.801	502.19
332.03	519.19
332.258	497.19
332.486	496.19
332.715	504.19
332.943	518.19
333.172	506.19
333.4	513.19
333.629	524.19
333.857	542.19
334.085	560.19
334.314	552.19
334.542	576.19
334.771	589.19
334.999	553.19
335.227	506.19
335.455	517.19
335.684	502.19
335.912	489.19
336.14	494.19
336.369	477.19
336.597	500.19
336.825	524.19
337.053	489.19
337.281	484.19
337.51	475.19
337.738	493.19
337.966	492.19
338.194	496.19
338.422	484.19
338.65	470.19
338.878	474.19
339.106	491.19
339.334	490.19
339.562	468.19
339.79	428.19
340.018	475.19
340.246	455.19
340.474	469.19
340.702	468.19
340.93	455.19
341.158	460.19
341.386	475.19
341.614	454.19
341.842	462.19
342.07	475.19
342.298	461.19
342.526	456.19
342.754	451.19
342.981	437.19
343.209	433.19
343.437	474.19
343.665	472.19
343.893	490.19
344.12	491.19
344.348	531.19
344.576	479.19
344.804	503.19
345.031	489.19
345.259	477.19
345.487	461.19
345.714	471.19
345.942	487.19
346.17	444.19
346.397	438.19
346.625	466.19
346.853	440.19
347.08	431.19
347.308	438.19
347.535	460.19
347.763	447.19
347.99	441.19
348.218	444.19
348.445	452.19
348.673	442.19
348.9	460.19
349.128	457.19
349.355	430.19
349.583	427.19
349.81	427.19
350.037	435.19
350.265	425.19
350.492	413.19
350.72	435.19
350.947	438.19
351.174	425.19
351.402	457.19
351.629	446.19
351.856	444.19
352.083	455.19
352.311	447.19
352.538	435.19
352.765	449.19
352.992	441.19
353.22	420.19
353.447	435.19
353.674	423.19
353.901	436.19
354.128	423.19
354.355	424.19
354.583	413.19
354.81	408.19
355.037	431.19
355.264	435.19
355.491	431.19
355.718	420.19
355.945	421.19
356.172	396.19
356.399	437.19
356.626	421.19
356.853	414.19
357.08	405.19
357.307	429.19
357.534	443.19
357.761	433.19
357.988	445.19
358.215	417.19
358.441	415.19
358.668	412.19
358.895	423.19
359.122	418.19
359.349	445.19
359.576	429.19
359.802	440.19
360.029	447.19
360.256	470.19
360.483	451.19
360.709	438.19
360.936	442.19
361.163	437.19
361.39	432.19
361.616	440.19
361.843	425.19
362.07	427.19
362.296	459.19
362.523	447.19
362.749	460.19
362.976	433.19
363.203	440.19
363.429	415.19
363.656	423.19
363.882	407.19
364.109	429.19
364.335	443.19
364.562	413.19
364.788	436.19
365.015	441.19
365.241	434.19
365.468	421.19
365.694	418.19
365.92	436.19
366.147	408.19
366.373	441.19
366.599	424.19
366.826	437.19
367.052	439.19
367.278	413.19
367.505	432.19
367.731	436.19
367.957	424.19
368.184	435.19
368.41	437.19
368.636	454.19
368.862	417.19
369.089	447.19
369.315	416.19
369.541	423.19
369.767	441.19
369.993	418.19
370.219	442.19
370.445	426.19
370.672	416.19
370.898	424.19
371.124	457.19
371.35	423.19
371.576	440.19
371.802	453.19
372.028	413.19
372.254	451.19
372.48	422.19
372.706	429.19
372.932	436.19
373.158	442.19
373.384	459.19
373.61	433.19
373.835	435.19
374.061	447.19
374.287	455.19
374.513	443.19
374.739	429.19
374.965	433.19
375.191	431.19
375.416	443.19
375.642	459.19
375.868	474.19
376.094	440.19
376.319	431.19
376.545	427.19
376.771	459.19
376.997	432.19
377.222	428.19
377.448	428.19
377.674	401.19
377.899	425.19
378.125	443.19
378.35	432.19
378.576	435.19
378.802	431.19
379.027	422.19
379.253	424.19
379.478	438.19
379.704	419.19
379.929	444.19
380.155	428.19
380.38	431.19
380.606	436.19
380.831	445.19
381.057	437.19
381.282	428.19
381.507	459.19
381.733	422.19
381.958	419.19
382.184	437.19
382.409	446.19
382.634	450.19
382.86	454.19
383.085	472.19
383.31	440.19
383.535	467.19
383.761	485.19
383.986	462.19
384.211	462.19
384.436	484.19
384.662	478.19
384.887	478.19
385.112	477.19
385.337	468.19
385.562	481.19
385.787	495.19
386.013	474.19
386.238	495.19
386.463	528.19
386.688	493.19
386.913	483.19
387.138	469.19
387.363	477.19
387.588	485.19
387.813	489.19
388.038	484.19
388.263	478.19
388.488	504.19
388.713	486.19
388.938	475.19
389.163	477.19
389.387	493.19
389.612	508.19
389.837	478.19
390.062	466.19
390.287	480.19
390.512	469.19
390.736	474.19
390.961	510.19
391.186	515.19
391.411	513.19
391.636	504.19
391.86	522.19
392.085	522.19
392.31	527.19
392.534	505.19
392.759	513.19
392.984	502.19
393.208	488.19
393.433	482.19
393.658	507.19
393.882	488.19
394.107	489.19
394.331	489.19
394.556	498.19
394.78	517.19
395.005	500.19
395.229	479.19
395.454	499.19
395.678	524.19
395.903	508.19
396.127	524.19
396.352	535.19
396.576	520.19
396.801	495.19
397.025	486.19
397.249	516.19
397.474	535.19
397.698	539.19
397.922	529.19
398.147	566.19
398.371	550.19
398.595	547.19
398.82	562.19
399.044	582.19
399.268	634.19
399.492	672.19
399.717	695.19
399.941	747.19
400.165	744.19
400.389	707.19
400.613	639.19
400.837	587.19
401.062	577.19
401.286	568.19
401.51	597.19
401.734	570.19
401.958	568.19
402.182	599.19
402.406	605.19
402.63	600.19
402.854	587.19
403.078	594.19
403.302	613.19
403.526	611.19
403.75	611.19
403.974	615.19
404.198	610.19
404.422	604.19
404.645	606.19
404.869	598.19
405.093	623.19
405.317	679.19
405.541	692.19
405.765	633.19
405.988	611.19
406.212	634.19
406.436	650.19
406.66	641.19
406.883	631.19
407.107	676.19
407.331	725.19
407.555	781.19
407.778	789.19
408.002	711.19
408.226	647.19
408.449	658.19
408.673	666.19
408.896	669.19
409.12	692.19
409.344	653.19
409.567	612.19
409.791	609.19
410.014	591.19
410.238	592.19
410.461	585.19
410.685	607.19
410.908	611.19
411.132	646.19
411.355	647.19
411.578	637.19
411.802	591.19
412.025	595.19
412.249	621.19
412.472	612.19
412.695	648.19
412.919	636.19
413.142	595.19
413.365	604.19
413.589	577.19
413.812	560.19
414.035	551.19
414.258	557.19
414.482	573.19
414.705	565.19
414.928	569.19
415.151	555.19
415.374	563.19
415.597	565.19
415.821	583.19
416.044	548.19
416.267	559.19
416.49	549.19
416.713	547.19
416.936	556.19
417.159	558.19
417.382	548.19
417.605	579.19
417.828	566.19
418.051	578.19
418.274	585.19
418.497	567.19
418.72	587.19
418.943	579.19
419.166	606.19
419.389	616.19
419.611	607.19
419.834	587.19
420.057	600.19
420.28	589.19
420.503	609.19
420.726	593.19
420.948	584.19
421.171	618.19
421.394	636.19
421.617	592.19
421.839	579.19
422.062	559.19
422.285	591.19
422.507	649.19
422.73	705.19
422.953	684.19
423.175	621.19
423.398	583.19
423.621	595.19
423.843	627.19
424.066	633.19
424.288	602.19
424.511	640.19
424.733	673.19
424.956	763.19
425.178	725.19
425.401	678.19
425.623	714.19
425.846	634.19
426.068	617.19
426.291	597.19
426.513	590.19
426.735	607.19
426.958	619.19
427.18	705.19
427.402	804.19
427.625	880.19
427.847	750.19
428.069	691.19
428.292	638.19
428.514	564.19
428.736	575.19
428.958	527.19
429.181	549.19
429.403	537.19
429.625	551.19
429.847	579.19
430.069	634.19
430.292	647.19
430.514	559.19
430.736	548.19
430.958	523.19
431.18	506.19
431.402	507.19
431.624	524.19
431.846	518.19
432.068	524.19
432.29	528.19
432.512	534.19
432.734	523.19
432.956	523.19
433.178	533.19
433.4	543.19
433.622	549.19
433.844	529.19
434.066	525.19
434.287	534.19
434.509	558.19
434.731	563.19
434.953	565.19
435.175	602.19
435.397	603.19
435.618	590.19
435.84	621.19
436.062	709.19
436.284	766.19
436.505	627.19
436.727	592.19
436.949	571.19
437.17	542.19
437.392	535.19
437.614	537.19
437.835	575.19
438.057	656.19
438.278	716.19
438.5	760.19
438.721	827.19
438.943	785.19
439.165	629.19
439.386	608.19
439.608	585.19
439.829	581.19
440.05	596.19
440.272	609.19
440.493	600.19
440.715	552.19
440.936	546.19
441.158	568.19
441.379	557.19
441.6	579.19
441.822	590.19
442.043	640.19
442.264	693.19
442.486	740.19
442.707	643.19
442.928	597.19
443.149	627.19
443.371	629.19
443.592	684.19
443.813	726.19
444.034	781.19
444.255	702.19
444.476	629.19
444.698	628.19
444.919	664.19
445.14	721.19
445.361	684.19
445.582	640.19
445.803	670.19
446.024	749.19
446.245	737.19
446.466	694.19
446.687	598.19
446.908	568.19
447.129	540.19
447.35	550.19
447.571	544.19
447.792	544.19
448.013	529.19
448.234	525.19
448.455	598.19
448.675	639.19
448.896	769.19
449.117	671.19
449.338	621.19
449.559	703.19
449.779	811.19
450	659.19
450.221	592.19
450.442	527.19
450.662	543.19
450.883	515.19
451.104	526.19
451.324	526.19
451.545	492.19
451.766	498.19
451.986	476.19
452.207	465.19
452.428	469.19
452.648	497.19
452.869	485.19
453.089	489.19
453.31	509.19
453.53	505.19
453.751	483.19
453.971	478.19
454.192	492.19
454.412	485.19
454.633	497.19
454.853	489.19
455.073	470.19
455.294	484.19
455.514	548.19
455.734	547.19
455.955	470.19
456.175	475.19
456.395	434.19
456.616	465.19
456.836	462.19
457.056	465.19
457.276	438.19
457.497	465.19
457.717	469.19
457.937	496.19
458.157	467.19
458.377	478.19
458.598	492.19
458.818	527.19
459.038	600.19
459.258	593.19
459.478	571.19
459.698	554.19
459.918	549.19
460.138	539.19
460.358	547.19
460.578	557.19
460.798	577.19
461.018	581.19
461.238	558.19
461.458	569.19
461.678	549.19
461.898	551.19
462.118	547.19
462.338	579.19
462.558	587.19
462.777	603.19
462.997	636.19
463.217	659.19
463.437	644.19
463.657	637.19
463.876	629.19
464.096	625.19
464.316	608.19
464.536	610.19
464.755	626.19
464.975	603.19
465.195	635.19
465.414	615.19
465.634	573.19
465.854	547.19
466.073	557.19
466.293	513.19
466.512	508.19
466.732	508.19
466.951	518.19
467.171	497.19
467.391	514.19
467.61	522.19
467.829	499.19
468.049	505.19
468.268	495.19
468.488	512.19
468.707	493.19
468.927	494.19
469.146	494.19
469.365	512.19
469.585	495.19
469.804	503.19
470.023	520.19
470.243	507.19
470.462	509.19
470.681	529.19
470.901	522.19
471.12	512.19
471.339	508.19
471.558	494.19
471.777	515.19
471.997	509.19
472.216	480.19
472.435	517.19
472.654	531.19
472.873	503.19
473.092	517.19
473.311	506.19
473.53	499.19
473.749	503.19
473.968	542.19
474.187	625.19
474.406	636.19
474.625	542.19
474.844	533.19
475.063	506.19
475.282	535.19
475.501	502.19
475.72	514.19
475.939	521.19
476.158	531.19
476.377	540.19
476.596	512.19
476.814	516.19
477.033	535.19
477.252	547.19
477.471	533.19
477.69	555.19
477.908	535.19
478.127	557.19
478.346	556.19
478.564	556.19
478.783	591.19
479.002	595.19
479.22	585.19
479.439	604.19
479.658	616.19
479.876	595.19
480.095	621.19
480.313	669.19
480.532	635.19
480.751	633.19
480.969	637.19
481.188	656.19
481.406	693.19
481.624	643.19
481.843	619.19
482.061	597.19
482.28	574.19
482.498	581.19
482.717	586.19
482.935	578.19
483.153	576.19
483.372	581.19
483.59	581.19
483.808	579.19
484.027	582.19
484.245	604.19
484.463	571.19
484.681	560.19
484.9	589.19
485.118	606.19
485.336	612.19
485.554	589.19
485.772	611.19
485.99	603.19
486.209	588.19
486.427	608.19
486.645	617.19
486.863	616.19
487.081	610.19
487.299	621.19
487.517	615.19
487.735	620.19
487.953	614.19
488.171	596.19
488.389	623.19
488.607	627.19
488.825	637.19
489.043	618.19
489.261	629.19
489.479	634.19
489.696	624.19
489.914	627.19
490.132	636.19
490.35	645.19
490.568	669.19
490.786	665.19
491.003	651.19
491.221	662.19
491.439	652.19
491.657	671.19
491.874	704.19
492.092	695.19
492.31	702.19
492.527	712.19
492.745	707.19
492.963	708.19
493.18	712.19
493.398	710.19
493.615	698.19
493.833	708.19
494.05	727.19
494.268	721.19
494.485	700.19
494.703	726.19
494.92	718.19
495.138	759.19
495.355	741.19
495.573	743.19
495.79	729.19
496.008	727.19
496.225	733.19
496.442	728.19
496.66	719.19
496.877	725.19
497.094	735.19
497.312	736.19
497.529	761.19
497.746	789.19
497.963	785.19
498.181	812.19
498.398	823.19
498.615	883.19
498.832	897.19
499.049	903.19
499.267	936.19
499.484	999.19
499.701	1037.19
499.918	1094.19
500.135	1167.19
500.352	1267.19
500.569	1257.19
500.786	1307.19
501.003	1219.19
501.22	1193.19
501.437	1140.19
501.654	1065.19
