Data from 1973.PennyLincolnUp.Lamp.En5.5.200Scan.071719.P1.Changed Mount._HRD10591_15-43-56-852.txt Node
Date: Thu Jul 18 15:43:56 EDT 2019
User: cochatt
Spectrometer: HR+D1059
Trigger mode: 1
Integration Time (sec): 1.000000E-1
Scans to average: 1
Electric dark correction enabled: true
Nonlinearity correction enabled: false
Boxcar width: 0
XAxis mode: Wavelengths
Number of Pixels in Spectrum: 2048
>>>>>Begin Spectral Data<<<<<
223.165	-29.12
223.4	-29.12
223.635	-29.12
223.869	-12.12
224.104	-23.12
224.338	-18.12
224.573	-11.12
224.808	-21.12
225.042	-2.12
225.277	-2.12
225.511	2.88
225.746	5.88
225.98	3.88
226.215	4.88
226.449	18.88
226.683	18.88
226.918	33.88
227.152	29.88
227.387	41.88
227.621	35.88
227.856	46.88
228.09	39.88
228.324	44.88
228.559	58.88
228.793	50.88
229.027	88.88
229.262	90.88
229.496	120.88
229.73	110.88
229.964	134.88
230.199	107.88
230.433	110.88
230.667	120.88
230.901	105.88
231.136	123.88
231.37	103.88
231.604	110.88
231.838	96.88
232.072	123.88
232.306	113.88
232.541	114.88
232.775	107.88
233.009	110.88
233.243	119.88
233.477	93.88
233.711	114.88
233.945	100.88
234.179	103.88
234.413	124.88
234.647	116.88
234.881	111.88
235.115	121.88
235.349	140.88
235.583	125.88
235.817	130.88
236.051	139.88
236.285	104.88
236.519	116.88
236.753	128.88
236.987	139.88
237.221	157.88
237.455	195.88
237.689	167.88
237.922	134.88
238.156	124.88
238.39	125.88
238.624	114.88
238.858	122.88
239.091	126.88
239.325	118.88
239.559	140.88
239.793	126.88
240.027	126.88
240.26	143.88
240.494	149.88
240.728	141.88
240.961	149.88
241.195	122.88
241.429	137.88
241.662	134.88
241.896	144.88
242.13	130.88
242.363	143.88
242.597	148.88
242.83	147.88
243.064	151.88
243.298	126.88
243.531	140.88
243.765	153.88
243.998	156.88
244.232	142.88
244.465	121.88
244.699	133.88
244.932	156.88
245.166	147.88
245.399	144.88
245.633	137.88
245.866	151.88
246.099	153.88
246.333	149.88
246.566	143.88
246.8	148.88
247.033	131.88
247.266	163.88
247.5	154.88
247.733	169.88
247.966	170.88
248.2	167.88
248.433	150.88
248.666	175.88
248.899	176.88
249.133	174.88
249.366	197.88
249.599	174.88
249.832	161.88
250.066	179.88
250.299	192.88
250.532	183.88
250.765	185.88
250.998	213.88
251.231	207.88
251.465	206.88
251.698	193.88
251.931	168.88
252.164	185.88
252.397	191.88
252.63	181.88
252.863	209.88
253.096	210.88
253.329	195.88
253.562	202.88
253.795	206.88
254.028	215.88
254.261	189.88
254.494	214.88
254.727	224.88
254.96	238.88
255.193	245.88
255.426	234.88
255.659	215.88
255.892	220.88
256.124	232.88
256.357	219.88
256.59	219.88
256.823	203.88
257.056	203.88
257.289	207.88
257.521	199.88
257.754	210.88
257.987	210.88
258.22	211.88
258.452	193.88
258.685	215.88
258.918	198.88
259.151	206.88
259.383	233.88
259.616	223.88
259.849	207.88
260.081	237.88
260.314	217.88
260.547	214.88
260.779	219.88
261.012	212.88
261.244	239.88
261.477	226.88
261.71	211.88
261.942	206.88
262.175	225.88
262.407	211.88
262.64	212.88
262.872	207.88
263.105	212.88
263.337	203.88
263.57	214.88
263.802	206.88
264.035	227.88
264.267	210.88
264.499	217.88
264.732	217.88
264.964	200.88
265.197	224.88
265.429	221.88
265.661	211.88
265.894	217.88
266.126	211.88
266.358	211.88
266.591	238.88
266.823	234.88
267.055	232.88
267.287	217.88
267.52	225.88
267.752	232.88
267.984	231.88
268.216	259.88
268.448	243.88
268.681	241.88
268.913	236.88
269.145	266.88
269.377	263.88
269.609	253.88
269.841	258.88
270.073	269.88
270.306	281.88
270.538	294.88
270.77	280.88
271.002	283.88
271.234	274.88
271.466	293.88
271.698	284.88
271.93	280.88
272.162	311.88
272.394	289.88
272.626	282.88
272.858	282.88
273.09	279.88
273.322	262.88
273.553	237.88
273.785	261.88
274.017	247.88
274.249	261.88
274.481	254.88
274.713	253.88
274.945	273.88
275.176	241.88
275.408	253.88
275.64	264.88
275.872	251.88
276.104	278.88
276.335	284.88
276.567	281.88
276.799	285.88
277.031	299.88
277.262	303.88
277.494	312.88
277.726	283.88
277.957	277.88
278.189	277.88
278.421	279.88
278.652	286.88
278.884	270.88
279.115	262.88
279.347	281.88
279.579	277.88
279.81	270.88
280.042	270.88
280.273	264.88
280.505	279.88
280.736	286.88
280.968	277.88
281.199	281.88
281.431	280.88
281.662	281.88
281.894	290.88
282.125	281.88
282.356	301.88
282.588	295.88
282.819	321.88
283.051	264.88
283.282	277.88
283.513	295.88
283.745	285.88
283.976	291.88
284.207	281.88
284.439	290.88
284.67	293.88
284.901	294.88
285.132	284.88
285.364	287.88
285.595	290.88
285.826	283.88
286.057	285.88
286.288	318.88
286.52	296.88
286.751	295.88
286.982	294.88
287.213	311.88
287.444	277.88
287.675	303.88
287.906	311.88
288.138	305.88
288.369	308.88
288.6	316.88
288.831	310.88
289.062	300.88
289.293	310.88
289.524	311.88
289.755	307.88
289.986	299.88
290.217	307.88
290.448	315.88
290.679	333.88
290.91	305.88
291.141	293.88
291.371	303.88
291.602	302.88
291.833	295.88
292.064	314.88
292.295	287.88
292.526	301.88
292.757	317.88
292.987	300.88
293.218	323.88
293.449	333.88
293.68	303.88
293.91	312.88
294.141	302.88
294.372	294.88
294.603	306.88
294.833	298.88
295.064	289.88
295.295	331.88
295.525	300.88
295.756	313.88
295.987	330.88
296.217	312.88
296.448	334.88
296.679	313.88
296.909	312.88
297.14	319.88
297.37	315.88
297.601	336.88
297.831	305.88
298.062	319.88
298.292	318.88
298.523	305.88
298.753	326.88
298.984	320.88
299.214	334.88
299.445	338.88
299.675	337.88
299.905	325.88
300.136	330.88
300.366	339.88
300.597	329.88
300.827	326.88
301.057	359.88
301.288	347.88
301.518	328.88
301.748	349.88
301.979	359.88
302.209	343.88
302.439	349.88
302.669	355.88
302.9	335.88
303.13	341.88
303.36	338.88
303.59	341.88
303.82	357.88
304.051	321.88
304.281	337.88
304.511	346.88
304.741	364.88
304.971	336.88
305.201	337.88
305.431	351.88
305.661	337.88
305.891	330.88
306.121	341.88
306.352	345.88
306.582	353.88
306.812	341.88
307.042	353.88
307.272	346.88
307.502	358.88
307.731	332.88
307.961	341.88
308.191	333.88
308.421	337.88
308.651	359.88
308.881	361.88
309.111	339.88
309.341	339.88
309.571	364.88
309.8	351.88
310.03	352.88
310.26	354.88
310.49	369.88
310.72	358.88
310.949	379.88
311.179	379.88
311.409	357.88
311.639	373.88
311.868	353.88
312.098	353.88
312.328	364.88
312.557	374.88
312.787	381.88
313.017	385.88
313.246	343.88
313.476	355.88
313.706	371.88
313.935	381.88
314.165	380.88
314.394	385.88
314.624	392.88
314.853	377.88
315.083	375.88
315.312	367.88
315.542	380.88
315.771	359.88
316.001	359.88
316.23	377.88
316.46	361.88
316.689	389.88
316.919	399.88
317.148	379.88
317.377	375.88
317.607	368.88
317.836	373.88
318.065	354.88
318.295	376.88
318.524	361.88
318.753	373.88
318.983	379.88
319.212	370.88
319.441	377.88
319.67	388.88
319.9	381.88
320.129	364.88
320.358	383.88
320.587	365.88
320.816	401.88
321.046	395.88
321.275	382.88
321.504	383.88
321.733	395.88
321.962	373.88
322.191	401.88
322.42	398.88
322.649	416.88
322.878	411.88
323.108	426.88
323.337	407.88
323.566	434.88
323.795	453.88
324.024	474.88
324.253	531.88
324.482	654.88
324.71	974.88
324.939	1341.88
325.168	1175.88
325.397	669.88
325.626	474.88
325.855	453.88
326.084	431.88
326.313	430.88
326.542	425.88
326.77	469.88
326.999	507.88
327.228	632.88
327.457	886.88
327.686	1020.88
327.914	703.88
328.143	524.88
328.372	482.88
328.6	482.88
328.829	457.88
329.058	477.88
329.287	484.88
329.515	473.88
329.744	462.88
329.972	474.88
330.201	442.88
330.43	472.88
330.658	500.88
330.887	485.88
331.115	502.88
331.344	451.88
331.572	439.88
331.801	456.88
332.03	437.88
332.258	438.88
332.486	435.88
332.715	463.88
332.943	452.88
333.172	458.88
333.4	480.88
333.629	502.88
333.857	472.88
334.085	489.88
334.314	485.88
334.542	505.88
334.771	505.88
334.999	498.88
335.227	484.88
335.455	473.88
335.684	478.88
335.912	461.88
336.14	449.88
336.369	469.88
336.597	458.88
336.825	471.88
337.053	455.88
337.281	439.88
337.51	434.88
337.738	447.88
337.966	434.88
338.194	442.88
338.422	430.88
338.65	450.88
338.878	427.88
339.106	422.88
339.334	435.88
339.562	430.88
339.79	425.88
340.018	433.88
340.246	447.88
340.474	456.88
340.702	429.88
340.93	445.88
341.158	430.88
341.386	422.88
341.614	435.88
341.842	413.88
342.07	411.88
342.298	419.88
342.526	423.88
342.754	417.88
342.981	382.88
343.209	405.88
343.437	419.88
343.665	437.88
343.893	470.88
344.12	472.88
344.348	458.88
344.576	467.88
344.804	453.88
345.031	461.88
345.259	441.88
345.487	428.88
345.714	444.88
345.942	410.88
346.17	405.88
346.397	385.88
346.625	415.88
346.853	413.88
347.08	417.88
347.308	413.88
347.535	388.88
347.763	406.88
347.99	398.88
348.218	403.88
348.445	401.88
348.673	423.88
348.9	402.88
349.128	408.88
349.355	416.88
349.583	408.88
349.81	402.88
350.037	386.88
350.265	401.88
350.492	372.88
350.72	397.88
350.947	382.88
351.174	399.88
351.402	399.88
351.629	408.88
351.856	390.88
352.083	401.88
352.311	407.88
352.538	394.88
352.765	421.88
352.992	409.88
353.22	407.88
353.447	409.88
353.674	413.88
353.901	405.88
354.128	382.88
354.355	382.88
354.583	399.88
354.81	391.88
355.037	402.88
355.264	400.88
355.491	402.88
355.718	409.88
355.945	396.88
356.172	372.88
356.399	384.88
356.626	395.88
356.853	386.88
357.08	401.88
357.307	380.88
357.534	379.88
357.761	399.88
357.988	392.88
358.215	392.88
358.441	402.88
358.668	412.88
358.895	397.88
359.122	398.88
359.349	395.88
359.576	402.88
359.802	415.88
360.029	407.88
360.256	452.88
360.483	435.88
360.709	399.88
360.936	404.88
361.163	395.88
361.39	425.88
361.616	418.88
361.843	414.88
362.07	405.88
362.296	394.88
362.523	401.88
362.749	417.88
362.976	406.88
363.203	388.88
363.429	396.88
363.656	405.88
363.882	382.88
364.109	398.88
364.335	383.88
364.562	386.88
364.788	405.88
365.015	391.88
365.241	400.88
365.468	394.88
365.694	397.88
365.92	409.88
366.147	398.88
366.373	381.88
366.599	387.88
366.826	393.88
367.052	371.88
367.278	399.88
367.505	395.88
367.731	403.88
367.957	404.88
368.184	377.88
368.41	387.88
368.636	419.88
368.862	392.88
369.089	384.88
369.315	382.88
369.541	377.88
369.767	377.88
369.993	405.88
370.219	375.88
370.445	397.88
370.672	397.88
370.898	405.88
371.124	398.88
371.35	386.88
371.576	410.88
371.802	411.88
372.028	413.88
372.254	414.88
372.48	413.88
372.706	410.88
372.932	408.88
373.158	421.88
373.384	426.88
373.61	415.88
373.835	405.88
374.061	408.88
374.287	421.88
374.513	398.88
374.739	415.88
374.965	422.88
375.191	424.88
375.416	431.88
375.642	407.88
375.868	404.88
376.094	407.88
376.319	397.88
376.545	393.88
376.771	414.88
376.997	396.88
377.222	379.88
377.448	397.88
377.674	385.88
377.899	398.88
378.125	415.88
378.35	400.88
378.576	393.88
378.802	409.88
379.027	398.88
379.253	400.88
379.478	399.88
379.704	387.88
379.929	393.88
380.155	410.88
380.38	397.88
380.606	430.88
380.831	418.88
381.057	399.88
381.282	399.88
381.507	395.88
381.733	404.88
381.958	396.88
382.184	397.88
382.409	414.88
382.634	434.88
382.86	421.88
383.085	395.88
383.31	431.88
383.535	428.88
383.761	417.88
383.986	414.88
384.211	423.88
384.436	414.88
384.662	433.88
384.887	445.88
385.112	444.88
385.337	458.88
385.562	462.88
385.787	460.88
386.013	439.88
386.238	434.88
386.463	468.88
386.688	459.88
386.913	446.88
387.138	445.88
387.363	436.88
387.588	463.88
387.813	434.88
388.038	442.88
388.263	456.88
388.488	445.88
388.713	456.88
388.938	438.88
389.163	466.88
389.387	436.88
389.612	436.88
389.837	435.88
390.062	435.88
390.287	423.88
390.512	441.88
390.736	444.88
390.961	455.88
391.186	462.88
391.411	469.88
391.636	477.88
391.86	476.88
392.085	481.88
392.31	467.88
392.534	483.88
392.759	469.88
392.984	473.88
393.208	442.88
393.433	440.88
393.658	468.88
393.882	451.88
394.107	467.88
394.331	456.88
394.556	489.88
394.78	471.88
395.005	468.88
395.229	467.88
395.454	475.88
395.678	463.88
395.903	491.88
396.127	509.88
396.352	502.88
396.576	472.88
396.801	478.88
397.025	473.88
397.249	475.88
397.474	491.88
397.698	489.88
397.922	539.88
398.147	511.88
398.371	524.88
398.595	519.88
398.82	498.88
399.044	557.88
399.268	573.88
399.492	612.88
399.717	653.88
399.941	685.88
400.165	699.88
400.389	661.88
400.613	614.88
400.837	566.88
401.062	560.88
401.286	523.88
401.51	545.88
401.734	527.88
401.958	542.88
402.182	530.88
402.406	546.88
402.63	538.88
402.854	535.88
403.078	535.88
403.302	547.88
403.526	568.88
403.75	555.88
403.974	553.88
404.198	583.88
404.422	586.88
404.645	556.88
404.869	545.88
405.093	583.88
405.317	603.88
405.541	632.88
405.765	589.88
405.988	570.88
406.212	591.88
406.436	606.88
406.66	617.88
406.883	588.88
407.107	612.88
407.331	659.88
407.555	715.88
407.778	706.88
408.002	655.88
408.226	595.88
408.449	584.88
408.673	597.88
408.896	597.88
409.12	650.88
409.344	614.88
409.567	556.88
409.791	561.88
410.014	554.88
410.238	549.88
410.461	551.88
410.685	559.88
410.908	549.88
411.132	586.88
411.355	600.88
411.578	583.88
411.802	551.88
412.025	539.88
412.249	552.88
412.472	572.88
412.695	587.88
412.919	590.88
413.142	554.88
413.365	546.88
413.589	562.88
413.812	539.88
414.035	517.88
414.258	491.88
414.482	504.88
414.705	533.88
414.928	515.88
415.151	528.88
415.374	510.88
415.597	512.88
415.821	517.88
416.044	499.88
416.267	510.88
416.49	537.88
416.713	524.88
416.936	533.88
417.159	519.88
417.382	532.88
417.605	526.88
417.828	511.88
418.051	562.88
418.274	551.88
418.497	509.88
418.72	497.88
418.943	506.88
419.166	567.88
419.389	589.88
419.611	572.88
419.834	552.88
420.057	550.88
420.28	538.88
420.503	553.88
420.726	551.88
420.948	545.88
421.171	574.88
421.394	581.88
421.617	535.88
421.839	515.88
422.062	543.88
422.285	562.88
422.507	575.88
422.73	650.88
422.953	634.88
423.175	562.88
423.398	563.88
423.621	542.88
423.843	557.88
424.066	590.88
424.288	568.88
424.511	559.88
424.733	597.88
424.956	678.88
425.178	659.88
425.401	659.88
425.623	671.88
425.846	586.88
426.068	540.88
426.291	535.88
426.513	539.88
426.735	537.88
426.958	585.88
427.18	629.88
427.402	747.88
427.625	797.88
427.847	690.88
428.069	616.88
428.292	606.88
428.514	543.88
428.736	513.88
428.958	477.88
429.181	479.88
429.403	485.88
429.625	514.88
429.847	538.88
430.069	590.88
430.292	583.88
430.514	512.88
430.736	486.88
430.958	492.88
431.18	478.88
431.402	514.88
431.624	483.88
431.846	497.88
432.068	495.88
432.29	482.88
432.512	486.88
432.734	477.88
432.956	499.88
433.178	527.88
433.4	511.88
433.622	492.88
433.844	489.88
434.066	503.88
434.287	488.88
434.509	473.88
434.731	498.88
434.953	511.88
435.175	565.88
435.397	577.88
435.618	556.88
435.84	566.88
436.062	646.88
436.284	698.88
436.505	583.88
436.727	539.88
436.949	500.88
437.17	510.88
437.392	522.88
437.614	501.88
437.835	518.88
438.057	595.88
438.278	645.88
438.5	661.88
438.721	744.88
438.943	710.88
439.165	573.88
439.386	541.88
439.608	531.88
439.829	529.88
440.05	532.88
440.272	568.88
440.493	533.88
440.715	517.88
440.936	504.88
441.158	506.88
441.379	499.88
441.6	524.88
441.822	552.88
442.043	570.88
442.264	636.88
442.486	642.88
442.707	595.88
442.928	565.88
443.149	558.88
443.371	567.88
443.592	606.88
443.813	678.88
444.034	728.88
444.255	621.88
444.476	592.88
444.698	588.88
444.919	597.88
445.14	660.88
445.361	616.88
445.582	602.88
445.803	613.88
446.024	699.88
446.245	709.88
446.466	617.88
446.687	562.88
446.908	518.88
447.129	516.88
447.35	508.88
447.571	495.88
447.792	473.88
448.013	512.88
448.234	512.88
448.455	530.88
448.675	628.88
448.896	711.88
449.117	641.88
449.338	609.88
449.559	662.88
449.779	751.88
450	616.88
450.221	531.88
450.442	504.88
450.662	461.88
450.883	473.88
451.104	480.88
451.324	493.88
451.545	441.88
451.766	441.88
451.986	441.88
452.207	437.88
452.428	464.88
452.648	446.88
452.869	444.88
453.089	463.88
453.31	464.88
453.53	459.88
453.751	453.88
453.971	427.88
454.192	442.88
454.412	442.88
454.633	442.88
454.853	427.88
455.073	440.88
455.294	486.88
455.514	510.88
455.734	505.88
455.955	437.88
456.175	451.88
456.395	429.88
456.616	415.88
456.836	404.88
457.056	423.88
457.276	425.88
457.497	435.88
457.717	443.88
457.937	450.88
458.157	402.88
458.377	424.88
458.598	446.88
458.818	487.88
459.038	529.88
459.258	552.88
459.478	514.88
459.698	491.88
459.918	497.88
460.138	525.88
460.358	514.88
460.578	522.88
460.798	528.88
461.018	517.88
461.238	499.88
461.458	535.88
461.678	515.88
461.898	512.88
462.118	529.88
462.338	533.88
462.558	548.88
462.777	566.88
462.997	597.88
463.217	611.88
463.437	582.88
463.657	590.88
463.876	571.88
464.096	565.88
464.316	565.88
464.536	597.88
464.755	571.88
464.975	549.88
465.195	572.88
465.414	563.88
465.634	539.88
465.854	510.88
466.073	486.88
466.293	495.88
466.512	484.88
466.732	474.88
466.951	481.88
467.171	468.88
467.391	460.88
467.61	487.88
467.829	463.88
468.049	467.88
468.268	461.88
468.488	463.88
468.707	474.88
468.927	448.88
469.146	450.88
469.365	445.88
469.585	438.88
469.804	470.88
470.023	457.88
470.243	480.88
470.462	474.88
470.681	493.88
470.901	483.88
471.12	494.88
471.339	470.88
471.558	486.88
471.777	483.88
471.997	468.88
472.216	465.88
472.435	498.88
472.654	462.88
472.873	463.88
473.092	450.88
473.311	437.88
473.53	452.88
473.749	465.88
473.968	491.88
474.187	558.88
474.406	586.88
474.625	490.88
474.844	475.88
475.063	467.88
475.282	455.88
475.501	463.88
475.72	485.88
475.939	467.88
476.158	493.88
476.377	472.88
476.596	474.88
476.814	493.88
477.033	513.88
477.252	492.88
477.471	486.88
477.69	488.88
477.908	528.88
478.127	542.88
478.346	518.88
478.564	530.88
478.783	554.88
479.002	537.88
479.22	549.88
479.439	537.88
479.658	556.88
479.876	562.88
480.095	563.88
480.313	595.88
480.532	611.88
480.751	583.88
480.969	586.88
481.188	609.88
481.406	599.88
481.624	567.88
481.843	544.88
482.061	536.88
482.28	542.88
482.498	553.88
482.717	544.88
482.935	538.88
483.153	540.88
483.372	547.88
483.59	542.88
483.808	527.88
484.027	549.88
484.245	535.88
484.463	523.88
484.681	517.88
484.9	538.88
485.118	546.88
485.336	543.88
485.554	546.88
485.772	535.88
485.99	559.88
486.209	544.88
486.427	559.88
486.645	584.88
486.863	565.88
487.081	558.88
487.299	570.88
487.517	587.88
487.735	554.88
487.953	582.88
488.171	577.88
488.389	568.88
488.607	562.88
488.825	566.88
489.043	558.88
489.261	580.88
489.479	581.88
489.696	577.88
489.914	579.88
490.132	598.88
490.35	605.88
490.568	597.88
490.786	590.88
491.003	595.88
491.221	629.88
491.439	617.88
491.657	632.88
491.874	633.88
492.092	641.88
492.31	649.88
492.527	660.88
492.745	665.88
492.963	645.88
493.18	647.88
493.398	663.88
493.615	666.88
493.833	662.88
494.05	677.88
494.268	685.88
494.485	649.88
494.703	643.88
494.92	642.88
495.138	650.88
495.355	661.88
495.573	678.88
495.79	674.88
496.008	688.88
496.225	665.88
496.442	674.88
496.66	668.88
496.877	693.88
497.094	705.88
497.312	697.88
497.529	699.88
497.746	700.88
497.963	708.88
498.181	743.88
498.398	769.88
498.615	775.88
498.832	801.88
499.049	837.88
499.267	881.88
499.484	901.88
499.701	954.88
499.918	1015.88
500.135	1095.88
500.352	1147.88
500.569	1199.88
500.786	1197.88
501.003	1148.88
501.22	1109.88
501.437	1022.88
501.654	971.88
