Data from 1973.PennyLincolnUp.Lamp.En5.5.200Scan.071719.P1.Changed Mount._HRD10591_15-44-56-852.txt Node
Date: Thu Jul 18 15:44:56 EDT 2019
User: cochatt
Spectrometer: HR+D1059
Trigger mode: 1
Integration Time (sec): 1.000000E-1
Scans to average: 1
Electric dark correction enabled: true
Nonlinearity correction enabled: false
Boxcar width: 0
XAxis mode: Wavelengths
Number of Pixels in Spectrum: 2048
>>>>>Begin Spectral Data<<<<<
223.165	-0.25
223.4	-0.25
223.635	-0.25
223.869	2.75
224.104	-19.25
224.338	-14.25
224.573	-27.25
224.808	-19.25
225.042	1.75
225.277	-14.25
225.511	3.75
225.746	-3.25
225.98	7.75
226.215	9.75
226.449	10.75
226.683	21.75
226.918	19.75
227.152	19.75
227.387	35.75
227.621	42.75
227.856	51.75
228.09	41.75
228.324	46.75
228.559	58.75
228.793	55.75
229.027	78.75
229.262	93.75
229.496	104.75
229.73	123.75
229.964	139.75
230.199	119.75
230.433	113.75
230.667	110.75
230.901	104.75
231.136	117.75
231.37	113.75
231.604	111.75
231.838	131.75
232.072	113.75
232.306	100.75
232.541	115.75
232.775	116.75
233.009	103.75
233.243	106.75
233.477	111.75
233.711	103.75
233.945	115.75
234.179	120.75
234.413	128.75
234.647	117.75
234.881	115.75
235.115	125.75
235.349	107.75
235.583	147.75
235.817	133.75
236.051	113.75
236.285	117.75
236.519	134.75
236.753	123.75
236.987	143.75
237.221	164.75
237.455	220.75
237.689	153.75
237.922	147.75
238.156	132.75
238.39	124.75
238.624	135.75
238.858	133.75
239.091	126.75
239.325	128.75
239.559	119.75
239.793	129.75
240.027	151.75
240.26	138.75
240.494	161.75
240.728	159.75
240.961	163.75
241.195	137.75
241.429	134.75
241.662	121.75
241.896	127.75
242.13	143.75
242.363	149.75
242.597	136.75
242.83	137.75
243.064	150.75
243.298	134.75
243.531	133.75
243.765	155.75
243.998	135.75
244.232	149.75
244.465	151.75
244.699	151.75
244.932	137.75
245.166	166.75
245.399	145.75
245.633	154.75
245.866	148.75
246.099	152.75
246.333	158.75
246.566	170.75
246.8	157.75
247.033	165.75
247.266	143.75
247.5	158.75
247.733	173.75
247.966	171.75
248.2	181.75
248.433	185.75
248.666	180.75
248.899	163.75
249.133	193.75
249.366	207.75
249.599	203.75
249.832	198.75
250.066	179.75
250.299	177.75
250.532	200.75
250.765	204.75
250.998	225.75
251.231	220.75
251.465	210.75
251.698	218.75
251.931	199.75
252.164	194.75
252.397	209.75
252.63	196.75
252.863	215.75
253.096	218.75
253.329	208.75
253.562	243.75
253.795	217.75
254.028	213.75
254.261	213.75
254.494	225.75
254.727	236.75
254.96	270.75
255.193	259.75
255.426	248.75
255.659	230.75
255.892	243.75
256.124	225.75
256.357	229.75
256.59	241.75
256.823	229.75
257.056	222.75
257.289	224.75
257.521	210.75
257.754	206.75
257.987	207.75
258.22	201.75
258.452	210.75
258.685	223.75
258.918	218.75
259.151	227.75
259.383	242.75
259.616	241.75
259.849	231.75
260.081	241.75
260.314	252.75
260.547	243.75
260.779	260.75
261.012	259.75
261.244	229.75
261.477	232.75
261.71	237.75
261.942	233.75
262.175	242.75
262.407	219.75
262.64	225.75
262.872	212.75
263.105	205.75
263.337	222.75
263.57	222.75
263.802	220.75
264.035	214.75
264.267	212.75
264.499	219.75
264.732	220.75
264.964	230.75
265.197	227.75
265.429	243.75
265.661	237.75
265.894	230.75
266.126	227.75
266.358	223.75
266.591	228.75
266.823	234.75
267.055	249.75
267.287	249.75
267.52	238.75
267.752	247.75
267.984	236.75
268.216	265.75
268.448	277.75
268.681	253.75
268.913	266.75
269.145	282.75
269.377	294.75
269.609	287.75
269.841	283.75
270.073	298.75
270.306	305.75
270.538	316.75
270.77	326.75
271.002	292.75
271.234	312.75
271.466	288.75
271.698	326.75
271.93	317.75
272.162	323.75
272.394	336.75
272.626	334.75
272.858	299.75
273.09	301.75
273.322	299.75
273.553	295.75
273.785	271.75
274.017	267.75
274.249	278.75
274.481	289.75
274.713	307.75
274.945	284.75
275.176	284.75
275.408	290.75
275.64	277.75
275.872	281.75
276.104	291.75
276.335	286.75
276.567	303.75
276.799	294.75
277.031	344.75
277.262	325.75
277.494	364.75
277.726	321.75
277.957	314.75
278.189	290.75
278.421	319.75
278.652	286.75
278.884	298.75
279.115	293.75
279.347	281.75
279.579	282.75
279.81	290.75
280.042	309.75
280.273	290.75
280.505	290.75
280.736	292.75
280.968	297.75
281.199	298.75
281.431	306.75
281.662	293.75
281.894	296.75
282.125	302.75
282.356	313.75
282.588	343.75
282.819	321.75
283.051	285.75
283.282	283.75
283.513	312.75
283.745	300.75
283.976	312.75
284.207	298.75
284.439	330.75
284.67	323.75
284.901	318.75
285.132	314.75
285.364	311.75
285.595	318.75
285.826	291.75
286.057	297.75
286.288	324.75
286.52	315.75
286.751	310.75
286.982	319.75
287.213	306.75
287.444	314.75
287.675	335.75
287.906	347.75
288.138	353.75
288.369	341.75
288.6	340.75
288.831	341.75
289.062	335.75
289.293	330.75
289.524	332.75
289.755	342.75
289.986	341.75
290.217	320.75
290.448	331.75
290.679	325.75
290.91	319.75
291.141	330.75
291.371	326.75
291.602	340.75
291.833	338.75
292.064	310.75
292.295	334.75
292.526	312.75
292.757	333.75
292.987	330.75
293.218	341.75
293.449	333.75
293.68	349.75
293.91	297.75
294.141	326.75
294.372	325.75
294.603	331.75
294.833	333.75
295.064	342.75
295.295	327.75
295.525	339.75
295.756	322.75
295.987	340.75
296.217	345.75
296.448	339.75
296.679	335.75
296.909	348.75
297.14	335.75
297.37	346.75
297.601	352.75
297.831	327.75
298.062	343.75
298.292	349.75
298.523	356.75
298.753	343.75
298.984	337.75
299.214	347.75
299.445	345.75
299.675	347.75
299.905	353.75
300.136	345.75
300.366	331.75
300.597	340.75
300.827	371.75
301.057	361.75
301.288	364.75
301.518	372.75
301.748	364.75
301.979	352.75
302.209	372.75
302.439	357.75
302.669	385.75
302.9	366.75
303.13	349.75
303.36	365.75
303.59	370.75
303.82	363.75
304.051	367.75
304.281	375.75
304.511	375.75
304.741	366.75
304.971	359.75
305.201	371.75
305.431	369.75
305.661	373.75
305.891	358.75
306.121	365.75
306.352	355.75
306.582	370.75
306.812	369.75
307.042	362.75
307.272	364.75
307.502	379.75
307.731	381.75
307.961	377.75
308.191	352.75
308.421	383.75
308.651	381.75
308.881	372.75
309.111	374.75
309.341	372.75
309.571	389.75
309.8	380.75
310.03	397.75
310.26	396.75
310.49	388.75
310.72	403.75
310.949	397.75
311.179	397.75
311.409	400.75
311.639	398.75
311.868	406.75
312.098	382.75
312.328	413.75
312.557	417.75
312.787	406.75
313.017	419.75
313.246	414.75
313.476	401.75
313.706	407.75
313.935	415.75
314.165	417.75
314.394	409.75
314.624	423.75
314.853	435.75
315.083	405.75
315.312	392.75
315.542	404.75
315.771	413.75
316.001	395.75
316.23	404.75
316.46	398.75
316.689	382.75
316.919	414.75
317.148	424.75
317.377	429.75
317.607	415.75
317.836	407.75
318.065	410.75
318.295	394.75
318.524	407.75
318.753	403.75
318.983	414.75
319.212	404.75
319.441	433.75
319.67	411.75
319.9	419.75
320.129	415.75
320.358	422.75
320.587	424.75
320.816	435.75
321.046	429.75
321.275	422.75
321.504	423.75
321.733	427.75
321.962	429.75
322.191	436.75
322.42	437.75
322.649	432.75
322.878	457.75
323.108	458.75
323.337	475.75
323.566	500.75
323.795	513.75
324.024	524.75
324.253	581.75
324.482	817.75
324.71	1170.75
324.939	1622.75
325.168	1429.75
325.397	795.75
325.626	565.75
325.855	511.75
326.084	486.75
326.313	494.75
326.542	493.75
326.77	523.75
326.999	585.75
327.228	727.75
327.457	1026.75
327.686	1224.75
327.914	853.75
328.143	639.75
328.372	578.75
328.6	539.75
328.829	545.75
329.058	541.75
329.287	543.75
329.515	513.75
329.744	513.75
329.972	512.75
330.201	538.75
330.43	563.75
330.658	538.75
330.887	552.75
331.115	563.75
331.344	513.75
331.572	500.75
331.801	511.75
332.03	505.75
332.258	502.75
332.486	483.75
332.715	512.75
332.943	469.75
333.172	515.75
333.4	495.75
333.629	517.75
333.857	524.75
334.085	535.75
334.314	539.75
334.542	576.75
334.771	543.75
334.999	556.75
335.227	525.75
335.455	518.75
335.684	488.75
335.912	494.75
336.14	489.75
336.369	487.75
336.597	483.75
336.825	535.75
337.053	509.75
337.281	487.75
337.51	464.75
337.738	484.75
337.966	481.75
338.194	473.75
338.422	482.75
338.65	467.75
338.878	479.75
339.106	466.75
339.334	476.75
339.562	476.75
339.79	466.75
340.018	452.75
340.246	472.75
340.474	473.75
340.702	474.75
340.93	465.75
341.158	470.75
341.386	470.75
341.614	458.75
341.842	467.75
342.07	457.75
342.298	457.75
342.526	439.75
342.754	455.75
342.981	446.75
343.209	474.75
343.437	479.75
343.665	487.75
343.893	515.75
344.12	517.75
344.348	485.75
344.576	488.75
344.804	498.75
345.031	477.75
345.259	475.75
345.487	466.75
345.714	463.75
345.942	437.75
346.17	456.75
346.397	435.75
346.625	433.75
346.853	446.75
347.08	436.75
347.308	437.75
347.535	439.75
347.763	450.75
347.99	443.75
348.218	455.75
348.445	456.75
348.673	443.75
348.9	424.75
349.128	443.75
349.355	441.75
349.583	434.75
349.81	443.75
350.037	434.75
350.265	433.75
350.492	433.75
350.72	426.75
350.947	437.75
351.174	439.75
351.402	437.75
351.629	440.75
351.856	429.75
352.083	440.75
352.311	446.75
352.538	439.75
352.765	451.75
352.992	417.75
353.22	456.75
353.447	441.75
353.674	408.75
353.901	443.75
354.128	419.75
354.355	426.75
354.583	419.75
354.81	424.75
355.037	419.75
355.264	414.75
355.491	431.75
355.718	406.75
355.945	413.75
356.172	416.75
356.399	410.75
356.626	422.75
356.853	410.75
357.08	408.75
357.307	412.75
357.534	403.75
357.761	416.75
357.988	410.75
358.215	416.75
358.441	418.75
358.668	412.75
358.895	423.75
359.122	445.75
359.349	428.75
359.576	449.75
359.802	450.75
360.029	463.75
360.256	486.75
360.483	443.75
360.709	410.75
360.936	433.75
361.163	430.75
361.39	444.75
361.616	436.75
361.843	429.75
362.07	446.75
362.296	424.75
362.523	430.75
362.749	428.75
362.976	439.75
363.203	445.75
363.429	425.75
363.656	407.75
363.882	424.75
364.109	433.75
364.335	409.75
364.562	403.75
364.788	420.75
365.015	425.75
365.241	404.75
365.468	445.75
365.694	405.75
365.92	413.75
366.147	431.75
366.373	431.75
366.599	425.75
366.826	424.75
367.052	417.75
367.278	430.75
367.505	425.75
367.731	445.75
367.957	447.75
368.184	425.75
368.41	441.75
368.636	435.75
368.862	432.75
369.089	438.75
369.315	426.75
369.541	419.75
369.767	414.75
369.993	417.75
370.219	426.75
370.445	435.75
370.672	424.75
370.898	435.75
371.124	435.75
371.35	441.75
371.576	419.75
371.802	419.75
372.028	432.75
372.254	419.75
372.48	433.75
372.706	428.75
372.932	439.75
373.158	427.75
373.384	425.75
373.61	415.75
373.835	412.75
374.061	435.75
374.287	432.75
374.513	453.75
374.739	447.75
374.965	459.75
375.191	444.75
375.416	445.75
375.642	430.75
375.868	433.75
376.094	445.75
376.319	430.75
376.545	426.75
376.771	429.75
376.997	420.75
377.222	427.75
377.448	414.75
377.674	421.75
377.899	425.75
378.125	412.75
378.35	427.75
378.576	425.75
378.802	431.75
379.027	435.75
379.253	413.75
379.478	419.75
379.704	434.75
379.929	439.75
380.155	435.75
380.38	427.75
380.606	410.75
380.831	417.75
381.057	410.75
381.282	424.75
381.507	434.75
381.733	430.75
381.958	439.75
382.184	449.75
382.409	441.75
382.634	442.75
382.86	438.75
383.085	455.75
383.31	449.75
383.535	461.75
383.761	469.75
383.986	469.75
384.211	460.75
384.436	461.75
384.662	483.75
384.887	471.75
385.112	471.75
385.337	459.75
385.562	463.75
385.787	471.75
386.013	490.75
386.238	517.75
386.463	505.75
386.688	479.75
386.913	445.75
387.138	493.75
387.363	485.75
387.588	469.75
387.813	482.75
388.038	498.75
388.263	475.75
388.488	484.75
388.713	474.75
388.938	474.75
389.163	474.75
389.387	474.75
389.612	476.75
389.837	474.75
390.062	475.75
390.287	501.75
390.512	484.75
390.736	483.75
390.961	485.75
391.186	486.75
391.411	499.75
391.636	520.75
391.86	505.75
392.085	520.75
392.31	532.75
392.534	513.75
392.759	523.75
392.984	498.75
393.208	474.75
393.433	497.75
393.658	485.75
393.882	487.75
394.107	482.75
394.331	494.75
394.556	478.75
394.78	485.75
395.005	517.75
395.229	520.75
395.454	522.75
395.678	515.75
395.903	524.75
396.127	523.75
396.352	539.75
396.576	506.75
396.801	490.75
397.025	507.75
397.249	525.75
397.474	521.75
397.698	522.75
397.922	531.75
398.147	562.75
398.371	558.75
398.595	545.75
398.82	577.75
399.044	568.75
399.268	603.75
399.492	671.75
399.717	708.75
399.941	742.75
400.165	723.75
400.389	698.75
400.613	643.75
400.837	618.75
401.062	584.75
401.286	582.75
401.51	599.75
401.734	588.75
401.958	583.75
402.182	575.75
402.406	578.75
402.63	569.75
402.854	571.75
403.078	604.75
403.302	611.75
403.526	598.75
403.75	613.75
403.974	630.75
404.198	614.75
404.422	607.75
404.645	612.75
404.869	614.75
405.093	635.75
405.317	670.75
405.541	706.75
405.765	645.75
405.988	602.75
406.212	625.75
406.436	637.75
406.66	649.75
406.883	613.75
407.107	675.75
407.331	705.75
407.555	789.75
407.778	773.75
408.002	730.75
408.226	681.75
408.449	666.75
408.673	659.75
408.896	662.75
409.12	689.75
409.344	661.75
409.567	603.75
409.791	616.75
410.014	599.75
410.238	601.75
410.461	597.75
410.685	604.75
410.908	617.75
411.132	625.75
411.355	652.75
411.578	643.75
411.802	595.75
412.025	594.75
412.249	573.75
412.472	634.75
412.695	652.75
412.919	631.75
413.142	561.75
413.365	578.75
413.589	564.75
413.812	571.75
414.035	545.75
414.258	552.75
414.482	548.75
414.705	569.75
414.928	556.75
415.151	538.75
415.374	554.75
415.597	562.75
415.821	554.75
416.044	556.75
416.267	578.75
416.49	550.75
416.713	547.75
416.936	554.75
417.159	535.75
417.382	563.75
417.605	573.75
417.828	551.75
418.051	564.75
418.274	570.75
418.497	558.75
418.72	582.75
418.943	561.75
419.166	570.75
419.389	602.75
419.611	615.75
419.834	594.75
420.057	590.75
420.28	573.75
420.503	590.75
420.726	587.75
420.948	594.75
421.171	608.75
421.394	631.75
421.617	590.75
421.839	591.75
422.062	578.75
422.285	590.75
422.507	669.75
422.73	691.75
422.953	681.75
423.175	615.75
423.398	615.75
423.621	613.75
423.843	626.75
424.066	599.75
424.288	618.75
424.511	629.75
424.733	655.75
424.956	757.75
425.178	724.75
425.401	701.75
425.623	724.75
425.846	638.75
426.068	623.75
426.291	586.75
426.513	597.75
426.735	607.75
426.958	654.75
427.18	669.75
427.402	802.75
427.625	863.75
427.847	746.75
428.069	661.75
428.292	609.75
428.514	592.75
428.736	542.75
428.958	562.75
429.181	509.75
429.403	549.75
429.625	545.75
429.847	571.75
430.069	626.75
430.292	625.75
430.514	566.75
430.736	539.75
430.958	544.75
431.18	537.75
431.402	530.75
431.624	502.75
431.846	512.75
432.068	552.75
432.29	520.75
432.512	533.75
432.734	534.75
432.956	548.75
433.178	569.75
433.4	554.75
433.622	545.75
433.844	517.75
434.066	507.75
434.287	525.75
434.509	523.75
434.731	549.75
434.953	595.75
435.175	565.75
435.397	593.75
435.618	597.75
435.84	626.75
436.062	674.75
436.284	764.75
436.505	653.75
436.727	591.75
436.949	564.75
437.17	535.75
437.392	551.75
437.614	549.75
437.835	571.75
438.057	611.75
438.278	717.75
438.5	726.75
438.721	796.75
438.943	779.75
439.165	646.75
439.386	595.75
439.608	577.75
439.829	575.75
440.05	589.75
440.272	635.75
440.493	614.75
440.715	551.75
440.936	561.75
441.158	554.75
441.379	533.75
441.6	569.75
441.822	587.75
442.043	642.75
442.264	675.75
442.486	732.75
442.707	625.75
442.928	591.75
443.149	623.75
443.371	622.75
443.592	666.75
443.813	743.75
444.034	789.75
444.255	695.75
444.476	631.75
444.698	618.75
444.919	619.75
445.14	755.75
445.361	702.75
445.582	640.75
445.803	663.75
446.024	735.75
446.245	777.75
446.466	689.75
446.687	630.75
446.908	575.75
447.129	575.75
447.35	534.75
447.571	553.75
447.792	549.75
448.013	520.75
448.234	559.75
448.455	598.75
448.675	686.75
448.896	770.75
449.117	667.75
449.338	639.75
449.559	717.75
449.779	827.75
450	665.75
450.221	581.75
450.442	523.75
450.662	519.75
450.883	493.75
451.104	520.75
451.324	539.75
451.545	492.75
451.766	507.75
451.986	494.75
452.207	489.75
452.428	486.75
452.648	473.75
452.869	469.75
453.089	474.75
453.31	481.75
453.53	481.75
453.751	464.75
453.971	468.75
454.192	487.75
454.412	476.75
454.633	479.75
454.853	466.75
455.073	469.75
455.294	502.75
455.514	562.75
455.734	561.75
455.955	468.75
456.175	474.75
456.395	469.75
456.616	461.75
456.836	446.75
457.056	445.75
457.276	445.75
457.497	428.75
457.717	456.75
457.937	471.75
458.157	473.75
458.377	476.75
458.598	486.75
458.818	511.75
459.038	608.75
459.258	611.75
459.478	546.75
459.698	508.75
459.918	521.75
460.138	555.75
460.358	567.75
460.578	547.75
460.798	576.75
461.018	561.75
461.238	561.75
461.458	547.75
461.678	550.75
461.898	562.75
462.118	543.75
462.338	583.75
462.558	585.75
462.777	586.75
462.997	646.75
463.217	655.75
463.437	652.75
463.657	641.75
463.876	613.75
464.096	603.75
464.316	612.75
464.536	616.75
464.755	609.75
464.975	591.75
465.195	590.75
465.414	628.75
465.634	561.75
465.854	533.75
466.073	507.75
466.293	532.75
466.512	499.75
466.732	490.75
466.951	495.75
467.171	499.75
467.391	513.75
467.61	514.75
467.829	513.75
468.049	498.75
468.268	498.75
468.488	494.75
468.707	477.75
468.927	477.75
469.146	501.75
469.365	504.75
469.585	483.75
469.804	508.75
470.023	499.75
470.243	513.75
470.462	503.75
470.681	526.75
470.901	501.75
471.12	516.75
471.339	525.75
471.558	506.75
471.777	507.75
471.997	518.75
472.216	518.75
472.435	551.75
472.654	515.75
472.873	506.75
473.092	484.75
473.311	481.75
473.53	501.75
473.749	510.75
473.968	554.75
474.187	595.75
474.406	619.75
474.625	527.75
474.844	506.75
475.063	497.75
475.282	516.75
475.501	517.75
475.72	495.75
475.939	514.75
476.158	491.75
476.377	505.75
476.596	503.75
476.814	506.75
477.033	523.75
477.252	538.75
477.471	520.75
477.69	552.75
477.908	528.75
478.127	563.75
478.346	543.75
478.564	565.75
478.783	561.75
479.002	592.75
479.22	588.75
479.439	590.75
479.658	593.75
479.876	615.75
480.095	619.75
480.313	661.75
480.532	643.75
480.751	635.75
480.969	625.75
481.188	649.75
481.406	680.75
481.624	625.75
481.843	595.75
482.061	579.75
482.28	594.75
482.498	569.75
482.717	597.75
482.935	596.75
483.153	587.75
483.372	581.75
483.59	567.75
483.808	565.75
484.027	583.75
484.245	597.75
484.463	595.75
484.681	583.75
484.9	603.75
485.118	606.75
485.336	583.75
485.554	594.75
485.772	631.75
485.99	623.75
486.209	619.75
486.427	615.75
486.645	616.75
486.863	643.75
487.081	610.75
487.299	611.75
487.517	626.75
487.735	608.75
487.953	618.75
488.171	614.75
488.389	617.75
488.607	607.75
488.825	605.75
489.043	627.75
489.261	603.75
489.479	637.75
489.696	625.75
489.914	626.75
490.132	653.75
490.35	653.75
490.568	651.75
490.786	637.75
491.003	673.75
491.221	676.75
491.439	675.75
491.657	682.75
491.874	700.75
492.092	679.75
492.31	690.75
492.527	689.75
492.745	693.75
492.963	712.75
493.18	691.75
493.398	699.75
493.615	698.75
493.833	695.75
494.05	717.75
494.268	728.75
494.485	733.75
494.703	720.75
494.92	725.75
495.138	732.75
495.355	755.75
495.573	718.75
495.79	743.75
496.008	722.75
496.225	719.75
496.442	717.75
496.66	762.75
496.877	720.75
497.094	755.75
497.312	748.75
497.529	781.75
497.746	795.75
497.963	788.75
498.181	818.75
498.398	825.75
498.615	874.75
498.832	880.75
499.049	883.75
499.267	923.75
499.484	974.75
499.701	1048.75
499.918	1117.75
500.135	1176.75
500.352	1230.75
500.569	1305.75
500.786	1262.75
501.003	1259.75
501.22	1181.75
501.437	1138.75
501.654	1081.75
