Data from 1973.PennyLincolnUp.Lamp.En5.5.200Scan.071719.P1.Changed Mount._HRD10591_15-44-06-852.txt Node
Date: Thu Jul 18 15:44:06 EDT 2019
User: cochatt
Spectrometer: HR+D1059
Trigger mode: 1
Integration Time (sec): 1.000000E-1
Scans to average: 1
Electric dark correction enabled: true
Nonlinearity correction enabled: false
Boxcar width: 0
XAxis mode: Wavelengths
Number of Pixels in Spectrum: 2048
>>>>>Begin Spectral Data<<<<<
223.165	-13.5
223.4	-13.5
223.635	-13.5
223.869	-0.5
224.104	-21.5
224.338	-10.5
224.573	-13.5
224.808	-21.5
225.042	4.5
225.277	-3.5
225.511	6.5
225.746	2.5
225.98	-11.5
226.215	6.5
226.449	9.5
226.683	16.5
226.918	16.5
227.152	33.5
227.387	34.5
227.621	30.5
227.856	40.5
228.09	47.5
228.324	54.5
228.559	51.5
228.793	66.5
229.027	91.5
229.262	116.5
229.496	99.5
229.73	124.5
229.964	144.5
230.199	123.5
230.433	122.5
230.667	109.5
230.901	116.5
231.136	120.5
231.37	107.5
231.604	119.5
231.838	120.5
232.072	107.5
232.306	104.5
232.541	127.5
232.775	122.5
233.009	128.5
233.243	114.5
233.477	118.5
233.711	121.5
233.945	112.5
234.179	110.5
234.413	111.5
234.647	125.5
234.881	126.5
235.115	131.5
235.349	122.5
235.583	127.5
235.817	124.5
236.051	133.5
236.285	130.5
236.519	108.5
236.753	120.5
236.987	152.5
237.221	178.5
237.455	205.5
237.689	166.5
237.922	140.5
238.156	132.5
238.39	140.5
238.624	143.5
238.858	125.5
239.091	131.5
239.325	134.5
239.559	141.5
239.793	132.5
240.027	124.5
240.26	132.5
240.494	166.5
240.728	146.5
240.961	143.5
241.195	152.5
241.429	140.5
241.662	146.5
241.896	140.5
242.13	133.5
242.363	142.5
242.597	140.5
242.83	140.5
243.064	140.5
243.298	128.5
243.531	156.5
243.765	145.5
243.998	149.5
244.232	147.5
244.465	131.5
244.699	141.5
244.932	148.5
245.166	150.5
245.399	156.5
245.633	159.5
245.866	162.5
246.099	154.5
246.333	158.5
246.566	168.5
246.8	149.5
247.033	158.5
247.266	168.5
247.5	168.5
247.733	156.5
247.966	167.5
248.2	184.5
248.433	173.5
248.666	180.5
248.899	163.5
249.133	212.5
249.366	198.5
249.599	156.5
249.832	183.5
250.066	188.5
250.299	194.5
250.532	189.5
250.765	199.5
250.998	222.5
251.231	236.5
251.465	211.5
251.698	203.5
251.931	214.5
252.164	196.5
252.397	196.5
252.63	198.5
252.863	205.5
253.096	223.5
253.329	234.5
253.562	206.5
253.795	214.5
254.028	210.5
254.261	221.5
254.494	223.5
254.727	262.5
254.96	273.5
255.193	262.5
255.426	239.5
255.659	244.5
255.892	221.5
256.124	230.5
256.357	215.5
256.59	231.5
256.823	219.5
257.056	239.5
257.289	227.5
257.521	222.5
257.754	197.5
257.987	192.5
258.22	207.5
258.452	198.5
258.685	216.5
258.918	216.5
259.151	204.5
259.383	228.5
259.616	218.5
259.849	227.5
260.081	233.5
260.314	250.5
260.547	249.5
260.779	250.5
261.012	234.5
261.244	218.5
261.477	227.5
261.71	227.5
261.942	243.5
262.175	228.5
262.407	227.5
262.64	228.5
262.872	207.5
263.105	214.5
263.337	206.5
263.57	217.5
263.802	251.5
264.035	230.5
264.267	217.5
264.499	237.5
264.732	216.5
264.964	225.5
265.197	221.5
265.429	210.5
265.661	217.5
265.894	211.5
266.126	226.5
266.358	218.5
266.591	219.5
266.823	236.5
267.055	250.5
267.287	236.5
267.52	227.5
267.752	234.5
267.984	222.5
268.216	243.5
268.448	245.5
268.681	257.5
268.913	278.5
269.145	264.5
269.377	281.5
269.609	264.5
269.841	271.5
270.073	294.5
270.306	282.5
270.538	300.5
270.77	314.5
271.002	301.5
271.234	292.5
271.466	286.5
271.698	322.5
271.93	320.5
272.162	308.5
272.394	318.5
272.626	301.5
272.858	287.5
273.09	280.5
273.322	271.5
273.553	266.5
273.785	272.5
274.017	255.5
274.249	263.5
274.481	270.5
274.713	264.5
274.945	276.5
275.176	287.5
275.408	270.5
275.64	260.5
275.872	271.5
276.104	290.5
276.335	255.5
276.567	276.5
276.799	301.5
277.031	309.5
277.262	314.5
277.494	318.5
277.726	310.5
277.957	294.5
278.189	285.5
278.421	287.5
278.652	290.5
278.884	282.5
279.115	282.5
279.347	291.5
279.579	288.5
279.81	301.5
280.042	285.5
280.273	271.5
280.505	278.5
280.736	297.5
280.968	301.5
281.199	286.5
281.431	281.5
281.662	293.5
281.894	279.5
282.125	292.5
282.356	308.5
282.588	316.5
282.819	308.5
283.051	305.5
283.282	299.5
283.513	291.5
283.745	300.5
283.976	286.5
284.207	310.5
284.439	288.5
284.67	286.5
284.901	291.5
285.132	293.5
285.364	309.5
285.595	306.5
285.826	305.5
286.057	309.5
286.288	307.5
286.52	290.5
286.751	320.5
286.982	297.5
287.213	304.5
287.444	310.5
287.675	308.5
287.906	324.5
288.138	318.5
288.369	323.5
288.6	322.5
288.831	336.5
289.062	301.5
289.293	317.5
289.524	320.5
289.755	330.5
289.986	307.5
290.217	327.5
290.448	318.5
290.679	322.5
290.91	300.5
291.141	319.5
291.371	316.5
291.602	319.5
291.833	310.5
292.064	329.5
292.295	317.5
292.526	330.5
292.757	301.5
292.987	304.5
293.218	327.5
293.449	319.5
293.68	312.5
293.91	291.5
294.141	319.5
294.372	320.5
294.603	323.5
294.833	301.5
295.064	306.5
295.295	308.5
295.525	319.5
295.756	312.5
295.987	334.5
296.217	334.5
296.448	341.5
296.679	334.5
296.909	343.5
297.14	325.5
297.37	311.5
297.601	313.5
297.831	315.5
298.062	302.5
298.292	326.5
298.523	330.5
298.753	332.5
298.984	331.5
299.214	332.5
299.445	331.5
299.675	331.5
299.905	368.5
300.136	321.5
300.366	327.5
300.597	338.5
300.827	340.5
301.057	346.5
301.288	361.5
301.518	359.5
301.748	350.5
301.979	360.5
302.209	364.5
302.439	349.5
302.669	359.5
302.9	358.5
303.13	345.5
303.36	359.5
303.59	337.5
303.82	342.5
304.051	359.5
304.281	351.5
304.511	333.5
304.741	372.5
304.971	362.5
305.201	358.5
305.431	352.5
305.661	349.5
305.891	345.5
306.121	356.5
306.352	357.5
306.582	379.5
306.812	370.5
307.042	360.5
307.272	363.5
307.502	343.5
307.731	362.5
307.961	358.5
308.191	350.5
308.421	368.5
308.651	359.5
308.881	352.5
309.111	328.5
309.341	366.5
309.571	355.5
309.8	362.5
310.03	372.5
310.26	384.5
310.49	358.5
310.72	368.5
310.949	395.5
311.179	404.5
311.409	391.5
311.639	392.5
311.868	388.5
312.098	390.5
312.328	388.5
312.557	396.5
312.787	413.5
313.017	404.5
313.246	414.5
313.476	386.5
313.706	391.5
313.935	388.5
314.165	392.5
314.394	421.5
314.624	408.5
314.853	397.5
315.083	398.5
315.312	387.5
315.542	406.5
315.771	390.5
316.001	377.5
316.23	388.5
316.46	392.5
316.689	371.5
316.919	412.5
317.148	401.5
317.377	392.5
317.607	392.5
317.836	384.5
318.065	419.5
318.295	379.5
318.524	382.5
318.753	394.5
318.983	398.5
319.212	393.5
319.441	383.5
319.67	391.5
319.9	394.5
320.129	411.5
320.358	389.5
320.587	404.5
320.816	392.5
321.046	394.5
321.275	406.5
321.504	417.5
321.733	416.5
321.962	400.5
322.191	399.5
322.42	396.5
322.649	431.5
322.878	434.5
323.108	455.5
323.337	463.5
323.566	457.5
323.795	470.5
324.024	512.5
324.253	571.5
324.482	748.5
324.71	1094.5
324.939	1579.5
325.168	1368.5
325.397	772.5
325.626	547.5
325.855	492.5
326.084	486.5
326.313	464.5
326.542	482.5
326.77	487.5
326.999	555.5
327.228	695.5
327.457	1003.5
327.686	1221.5
327.914	837.5
328.143	621.5
328.372	547.5
328.6	527.5
328.829	506.5
329.058	516.5
329.287	528.5
329.515	494.5
329.744	474.5
329.972	483.5
330.201	504.5
330.43	512.5
330.658	519.5
330.887	540.5
331.115	544.5
331.344	488.5
331.572	472.5
331.801	483.5
332.03	496.5
332.258	465.5
332.486	490.5
332.715	478.5
332.943	468.5
333.172	492.5
333.4	493.5
333.629	510.5
333.857	512.5
334.085	516.5
334.314	526.5
334.542	556.5
334.771	546.5
334.999	536.5
335.227	489.5
335.455	495.5
335.684	469.5
335.912	475.5
336.14	468.5
336.369	461.5
336.597	473.5
336.825	473.5
337.053	457.5
337.281	464.5
337.51	482.5
337.738	474.5
337.966	450.5
338.194	470.5
338.422	448.5
338.65	451.5
338.878	470.5
339.106	454.5
339.334	452.5
339.562	446.5
339.79	442.5
340.018	463.5
340.246	427.5
340.474	435.5
340.702	447.5
340.93	451.5
341.158	445.5
341.386	440.5
341.614	459.5
341.842	453.5
342.07	435.5
342.298	429.5
342.526	450.5
342.754	443.5
342.981	408.5
343.209	452.5
343.437	429.5
343.665	448.5
343.893	481.5
344.12	494.5
344.348	487.5
344.576	459.5
344.804	474.5
345.031	465.5
345.259	450.5
345.487	429.5
345.714	428.5
345.942	430.5
346.17	428.5
346.397	438.5
346.625	416.5
346.853	434.5
347.08	430.5
347.308	438.5
347.535	422.5
347.763	431.5
347.99	414.5
348.218	443.5
348.445	412.5
348.673	452.5
348.9	408.5
349.128	426.5
349.355	420.5
349.583	410.5
349.81	412.5
350.037	396.5
350.265	423.5
350.492	409.5
350.72	442.5
350.947	428.5
351.174	443.5
351.402	427.5
351.629	425.5
351.856	440.5
352.083	434.5
352.311	414.5
352.538	413.5
352.765	431.5
352.992	444.5
353.22	421.5
353.447	414.5
353.674	390.5
353.901	402.5
354.128	414.5
354.355	397.5
354.583	404.5
354.81	396.5
355.037	392.5
355.264	396.5
355.491	396.5
355.718	392.5
355.945	397.5
356.172	399.5
356.399	400.5
356.626	383.5
356.853	401.5
357.08	394.5
357.307	406.5
357.534	413.5
357.761	388.5
357.988	404.5
358.215	406.5
358.441	399.5
358.668	404.5
358.895	414.5
359.122	408.5
359.349	412.5
359.576	411.5
359.802	428.5
360.029	439.5
360.256	446.5
360.483	440.5
360.709	403.5
360.936	438.5
361.163	422.5
361.39	421.5
361.616	413.5
361.843	431.5
362.07	416.5
362.296	412.5
362.523	410.5
362.749	400.5
362.976	413.5
363.203	405.5
363.429	423.5
363.656	412.5
363.882	433.5
364.109	402.5
364.335	390.5
364.562	396.5
364.788	423.5
365.015	424.5
365.241	401.5
365.468	418.5
365.694	415.5
365.92	395.5
366.147	397.5
366.373	400.5
366.599	399.5
366.826	399.5
367.052	405.5
367.278	388.5
367.505	392.5
367.731	400.5
367.957	414.5
368.184	404.5
368.41	395.5
368.636	421.5
368.862	419.5
369.089	407.5
369.315	416.5
369.541	415.5
369.767	423.5
369.993	401.5
370.219	415.5
370.445	397.5
370.672	420.5
370.898	409.5
371.124	399.5
371.35	407.5
371.576	420.5
371.802	406.5
372.028	432.5
372.254	398.5
372.48	425.5
372.706	426.5
372.932	415.5
373.158	410.5
373.384	431.5
373.61	432.5
373.835	416.5
374.061	408.5
374.287	414.5
374.513	420.5
374.739	430.5
374.965	425.5
375.191	443.5
375.416	443.5
375.642	447.5
375.868	420.5
376.094	416.5
376.319	413.5
376.545	410.5
376.771	425.5
376.997	423.5
377.222	408.5
377.448	418.5
377.674	427.5
377.899	407.5
378.125	414.5
378.35	414.5
378.576	414.5
378.802	420.5
379.027	424.5
379.253	409.5
379.478	397.5
379.704	414.5
379.929	430.5
380.155	393.5
380.38	421.5
380.606	416.5
380.831	416.5
381.057	407.5
381.282	424.5
381.507	423.5
381.733	430.5
381.958	416.5
382.184	425.5
382.409	442.5
382.634	423.5
382.86	422.5
383.085	423.5
383.31	420.5
383.535	439.5
383.761	431.5
383.986	436.5
384.211	463.5
384.436	453.5
384.662	430.5
384.887	431.5
385.112	460.5
385.337	453.5
385.562	461.5
385.787	445.5
386.013	478.5
386.238	484.5
386.463	486.5
386.688	487.5
386.913	467.5
387.138	451.5
387.363	460.5
387.588	460.5
387.813	474.5
388.038	479.5
388.263	473.5
388.488	460.5
388.713	470.5
388.938	463.5
389.163	481.5
389.387	482.5
389.612	459.5
389.837	477.5
390.062	446.5
390.287	452.5
390.512	458.5
390.736	458.5
390.961	473.5
391.186	476.5
391.411	474.5
391.636	479.5
391.86	494.5
392.085	512.5
392.31	495.5
392.534	509.5
392.759	491.5
392.984	468.5
393.208	495.5
393.433	480.5
393.658	472.5
393.882	491.5
394.107	490.5
394.331	477.5
394.556	468.5
394.78	484.5
395.005	480.5
395.229	480.5
395.454	483.5
395.678	502.5
395.903	540.5
396.127	516.5
396.352	539.5
396.576	491.5
396.801	491.5
397.025	478.5
397.249	506.5
397.474	518.5
397.698	490.5
397.922	540.5
398.147	514.5
398.371	514.5
398.595	525.5
398.82	534.5
399.044	573.5
399.268	550.5
399.492	632.5
399.717	677.5
399.941	704.5
400.165	704.5
400.389	690.5
400.613	639.5
400.837	607.5
401.062	562.5
401.286	558.5
401.51	566.5
401.734	551.5
401.958	556.5
402.182	551.5
402.406	544.5
402.63	579.5
402.854	560.5
403.078	583.5
403.302	567.5
403.526	579.5
403.75	590.5
403.974	570.5
404.198	576.5
404.422	591.5
404.645	577.5
404.869	566.5
405.093	596.5
405.317	644.5
405.541	685.5
405.765	626.5
405.988	623.5
406.212	605.5
406.436	612.5
406.66	610.5
406.883	621.5
407.107	643.5
407.331	690.5
407.555	760.5
407.778	738.5
408.002	665.5
408.226	646.5
408.449	618.5
408.673	619.5
408.896	626.5
409.12	702.5
409.344	652.5
409.567	603.5
409.791	558.5
410.014	575.5
410.238	572.5
410.461	560.5
410.685	570.5
410.908	610.5
411.132	640.5
411.355	640.5
411.578	618.5
411.802	568.5
412.025	556.5
412.249	570.5
412.472	588.5
412.695	611.5
412.919	604.5
413.142	566.5
413.365	551.5
413.589	540.5
413.812	574.5
414.035	542.5
414.258	553.5
414.482	555.5
414.705	529.5
414.928	538.5
415.151	559.5
415.374	557.5
415.597	533.5
415.821	529.5
416.044	522.5
416.267	550.5
416.49	527.5
416.713	519.5
416.936	548.5
417.159	527.5
417.382	544.5
417.605	554.5
417.828	555.5
418.051	560.5
418.274	572.5
418.497	555.5
418.72	534.5
418.943	543.5
419.166	551.5
419.389	595.5
419.611	605.5
419.834	590.5
420.057	583.5
420.28	584.5
420.503	548.5
420.726	572.5
420.948	564.5
421.171	602.5
421.394	618.5
421.617	589.5
421.839	536.5
422.062	568.5
422.285	555.5
422.507	604.5
422.73	700.5
422.953	674.5
423.175	604.5
423.398	584.5
423.621	594.5
423.843	606.5
424.066	596.5
424.288	590.5
424.511	623.5
424.733	662.5
424.956	711.5
425.178	697.5
425.401	675.5
425.623	706.5
425.846	620.5
426.068	579.5
426.291	594.5
426.513	572.5
426.735	590.5
426.958	611.5
427.18	666.5
427.402	804.5
427.625	838.5
427.847	733.5
428.069	640.5
428.292	632.5
428.514	579.5
428.736	555.5
428.958	547.5
429.181	527.5
429.403	535.5
429.625	550.5
429.847	551.5
430.069	585.5
430.292	596.5
430.514	568.5
430.736	518.5
430.958	528.5
431.18	503.5
431.402	492.5
431.624	514.5
431.846	498.5
432.068	503.5
432.29	522.5
432.512	510.5
432.734	551.5
432.956	504.5
433.178	522.5
433.4	524.5
433.622	515.5
433.844	506.5
434.066	502.5
434.287	500.5
434.509	495.5
434.731	542.5
434.953	566.5
435.175	570.5
435.397	573.5
435.618	580.5
435.84	605.5
436.062	690.5
436.284	739.5
436.505	617.5
436.727	605.5
436.949	532.5
437.17	529.5
437.392	535.5
437.614	531.5
437.835	559.5
438.057	644.5
438.278	732.5
438.5	728.5
438.721	795.5
438.943	762.5
439.165	598.5
439.386	592.5
439.608	582.5
439.829	540.5
440.05	580.5
440.272	622.5
440.493	575.5
440.715	563.5
440.936	540.5
441.158	535.5
441.379	552.5
441.6	574.5
441.822	564.5
442.043	598.5
442.264	670.5
442.486	716.5
442.707	619.5
442.928	593.5
443.149	621.5
443.371	601.5
443.592	600.5
443.813	736.5
444.034	765.5
444.255	661.5
444.476	624.5
444.698	615.5
444.919	618.5
445.14	714.5
445.361	642.5
445.582	626.5
445.803	640.5
446.024	715.5
446.245	753.5
446.466	682.5
446.687	596.5
446.908	575.5
447.129	545.5
447.35	524.5
447.571	506.5
447.792	511.5
448.013	508.5
448.234	520.5
448.455	585.5
448.675	659.5
448.896	778.5
449.117	672.5
449.338	618.5
449.559	712.5
449.779	810.5
450	654.5
450.221	556.5
450.442	521.5
450.662	514.5
450.883	505.5
451.104	505.5
451.324	484.5
451.545	475.5
451.766	491.5
451.986	493.5
452.207	463.5
452.428	479.5
452.648	460.5
452.869	475.5
453.089	483.5
453.31	470.5
453.53	471.5
453.751	480.5
453.971	486.5
454.192	462.5
454.412	459.5
454.633	468.5
454.853	466.5
455.073	469.5
455.294	482.5
455.514	532.5
455.734	520.5
455.955	475.5
456.175	451.5
456.395	440.5
456.616	451.5
456.836	432.5
457.056	431.5
457.276	425.5
457.497	451.5
457.717	450.5
457.937	447.5
458.157	448.5
458.377	463.5
458.598	468.5
458.818	534.5
459.038	572.5
459.258	588.5
459.478	539.5
459.698	492.5
459.918	510.5
460.138	532.5
460.358	532.5
460.578	549.5
460.798	537.5
461.018	551.5
461.238	570.5
461.458	548.5
461.678	536.5
461.898	534.5
462.118	555.5
462.338	547.5
462.558	545.5
462.777	597.5
462.997	598.5
463.217	636.5
463.437	631.5
463.657	618.5
463.876	612.5
464.096	602.5
464.316	601.5
464.536	580.5
464.755	595.5
464.975	610.5
465.195	594.5
465.414	592.5
465.634	574.5
465.854	527.5
466.073	510.5
466.293	527.5
466.512	494.5
466.732	476.5
466.951	471.5
467.171	500.5
467.391	491.5
467.61	512.5
467.829	488.5
468.049	492.5
468.268	484.5
468.488	496.5
468.707	468.5
468.927	495.5
469.146	454.5
469.365	480.5
469.585	475.5
469.804	485.5
470.023	502.5
470.243	520.5
470.462	499.5
470.681	528.5
470.901	506.5
471.12	504.5
471.339	503.5
471.558	510.5
471.777	489.5
471.997	500.5
472.216	487.5
472.435	504.5
472.654	481.5
472.873	496.5
473.092	467.5
473.311	486.5
473.53	496.5
473.749	501.5
473.968	528.5
474.187	591.5
474.406	602.5
474.625	544.5
474.844	503.5
475.063	481.5
475.282	499.5
475.501	500.5
475.72	503.5
475.939	480.5
476.158	491.5
476.377	475.5
476.596	480.5
476.814	492.5
477.033	524.5
477.252	532.5
477.471	511.5
477.69	529.5
477.908	548.5
478.127	534.5
478.346	559.5
478.564	589.5
478.783	538.5
479.002	577.5
479.22	585.5
479.439	587.5
479.658	577.5
479.876	588.5
480.095	583.5
480.313	646.5
480.532	606.5
480.751	605.5
480.969	617.5
481.188	639.5
481.406	638.5
481.624	597.5
481.843	574.5
482.061	550.5
482.28	567.5
482.498	557.5
482.717	568.5
482.935	554.5
483.153	559.5
483.372	560.5
483.59	570.5
483.808	580.5
484.027	589.5
484.245	562.5
484.463	577.5
484.681	563.5
484.9	595.5
485.118	565.5
485.336	544.5
485.554	570.5
485.772	574.5
485.99	580.5
486.209	596.5
486.427	584.5
486.645	590.5
486.863	625.5
487.081	619.5
487.299	586.5
487.517	598.5
487.735	589.5
487.953	605.5
488.171	607.5
488.389	612.5
488.607	586.5
488.825	617.5
489.043	613.5
489.261	605.5
489.479	604.5
489.696	634.5
489.914	610.5
490.132	628.5
490.35	643.5
490.568	620.5
490.786	632.5
491.003	639.5
491.221	660.5
491.439	655.5
491.657	659.5
491.874	666.5
492.092	662.5
492.31	704.5
492.527	671.5
492.745	702.5
492.963	688.5
493.18	694.5
493.398	710.5
493.615	718.5
493.833	713.5
494.05	683.5
494.268	695.5
494.485	686.5
494.703	720.5
494.92	708.5
495.138	680.5
495.355	699.5
495.573	698.5
495.79	710.5
496.008	722.5
496.225	701.5
496.442	724.5
496.66	706.5
496.877	710.5
497.094	727.5
497.312	735.5
497.529	770.5
497.746	742.5
497.963	770.5
498.181	802.5
498.398	803.5
498.615	816.5
498.832	863.5
499.049	889.5
499.267	902.5
499.484	952.5
499.701	1003.5
499.918	1080.5
500.135	1153.5
500.352	1198.5
500.569	1258.5
500.786	1258.5
501.003	1216.5
501.22	1146.5
501.437	1090.5
501.654	1035.5
501.871	967.5
502.088	923.5
502.305	894.5
502.522	863.5
502.739	854.5
502.956	806.5
503.172	776.5
503.389	800.5
503.606	747.5
503.823	760.5
504.04	729.5
504.256	728.5
504.473	734.5
504.69	766.5
504.907	749.5
505.123	722.5
505.34	709.5
505.557	694.5
505.773	670.5
505.99	663.5
506.207	682.5
506.423	663.5
506.64	683.5
506.856	664.5
507.073	657.5
507.289	637.5
507.506	635.5
507.722	643.5
507.939	655.5
508.155	613.5
508.372	611.5
508.588	607.5
508.805	620.5
509.021	633.5
509.238	638.5
509.454	614.5
509.67	611.5
509.887	627.5
510.103	615.5
510.319	597.5
510.536	700.5
510.752	968.5
510.968	818.5
511.184	632.5
511.401	568.5
511.617	607.5
511.833	587.5
512.049	575.5
512.265	572.5
512.481	591.5
512.698	579.5
512.914	579.5
513.13	605.5
513.346	577.5
513.562	580.5
513.778	573.5
513.994	587.5
514.21	575.5
514.426	618.5
514.642	615.5
514.858	651.5
515.074	654.5
515.29	727.5
515.506	964.5
515.721	806.5
515.937	644.5
516.153	643.5
516.369	645.5
516.585	610.5
516.801	653.5
517.016	640.5
517.232	663.5
517.448	651.5
517.664	653.5
517.879	650.5
518.095	650.5
518.311	648.5
518.527	624.5
518.742	654.5
518.958	596.5
519.173	589.5
519.389	610.5
519.605	593.5
