Data from 1973.PennyLincolnUp.Lamp.En5.5.200Scan.071719.P1.Changed Mount._HRD10591_15-44-33-852.txt Node
Date: Thu Jul 18 15:44:33 EDT 2019
User: cochatt
Spectrometer: HR+D1059
Trigger mode: 1
Integration Time (sec): 1.000000E-1
Scans to average: 1
Electric dark correction enabled: true
Nonlinearity correction enabled: false
Boxcar width: 0
XAxis mode: Wavelengths
Number of Pixels in Spectrum: 2048
>>>>>Begin Spectral Data<<<<<
223.165	-12.31
223.4	-12.31
223.635	-12.31
223.869	-16.31
224.104	-14.31
224.338	-8.31
224.573	-3.31
224.808	-16.31
225.042	-15.31
225.277	-8.31
225.511	-4.31
225.746	-2.31
225.98	-10.31
226.215	13.69
226.449	18.69
226.683	16.69
226.918	29.69
227.152	32.69
227.387	40.69
227.621	29.69
227.856	57.69
228.09	53.69
228.324	45.69
228.559	62.69
228.793	74.69
229.027	102.69
229.262	104.69
229.496	109.69
229.73	109.69
229.964	136.69
230.199	114.69
230.433	115.69
230.667	100.69
230.901	111.69
231.136	120.69
231.37	119.69
231.604	119.69
231.838	125.69
232.072	119.69
232.306	119.69
232.541	119.69
232.775	117.69
233.009	123.69
233.243	113.69
233.477	106.69
233.711	115.69
233.945	112.69
234.179	123.69
234.413	113.69
234.647	133.69
234.881	117.69
235.115	121.69
235.349	117.69
235.583	126.69
235.817	116.69
236.051	127.69
236.285	125.69
236.519	121.69
236.753	135.69
236.987	137.69
237.221	162.69
237.455	209.69
237.689	178.69
237.922	142.69
238.156	128.69
238.39	125.69
238.624	120.69
238.858	133.69
239.091	127.69
239.325	124.69
239.559	131.69
239.793	137.69
240.027	139.69
240.26	125.69
240.494	152.69
240.728	167.69
240.961	157.69
241.195	138.69
241.429	157.69
241.662	131.69
241.896	135.69
242.13	139.69
242.363	138.69
242.597	137.69
242.83	157.69
243.064	145.69
243.298	150.69
243.531	155.69
243.765	147.69
243.998	144.69
244.232	146.69
244.465	147.69
244.699	149.69
244.932	148.69
245.166	148.69
245.399	151.69
245.633	147.69
245.866	138.69
246.099	158.69
246.333	149.69
246.566	171.69
246.8	162.69
247.033	174.69
247.266	169.69
247.5	185.69
247.733	165.69
247.966	182.69
248.2	187.69
248.433	170.69
248.666	184.69
248.899	179.69
249.133	181.69
249.366	205.69
249.599	186.69
249.832	185.69
250.066	170.69
250.299	176.69
250.532	187.69
250.765	205.69
250.998	198.69
251.231	218.69
251.465	222.69
251.698	214.69
251.931	209.69
252.164	202.69
252.397	196.69
252.63	203.69
252.863	197.69
253.096	208.69
253.329	225.69
253.562	221.69
253.795	218.69
254.028	221.69
254.261	220.69
254.494	221.69
254.727	247.69
254.96	262.69
255.193	263.69
255.426	233.69
255.659	217.69
255.892	230.69
256.124	207.69
256.357	224.69
256.59	233.69
256.823	234.69
257.056	218.69
257.289	220.69
257.521	210.69
257.754	216.69
257.987	233.69
258.22	207.69
258.452	218.69
258.685	208.69
258.918	214.69
259.151	207.69
259.383	218.69
259.616	214.69
259.849	225.69
260.081	229.69
260.314	249.69
260.547	258.69
260.779	251.69
261.012	231.69
261.244	233.69
261.477	242.69
261.71	209.69
261.942	251.69
262.175	239.69
262.407	227.69
262.64	231.69
262.872	226.69
263.105	224.69
263.337	225.69
263.57	234.69
263.802	214.69
264.035	223.69
264.267	211.69
264.499	224.69
264.732	222.69
264.964	230.69
265.197	218.69
265.429	226.69
265.661	231.69
265.894	215.69
266.126	240.69
266.358	237.69
266.591	207.69
266.823	239.69
267.055	220.69
267.287	244.69
267.52	234.69
267.752	231.69
267.984	248.69
268.216	231.69
268.448	245.69
268.681	269.69
268.913	231.69
269.145	265.69
269.377	276.69
269.609	278.69
269.841	259.69
270.073	276.69
270.306	301.69
270.538	320.69
270.77	329.69
271.002	297.69
271.234	267.69
271.466	306.69
271.698	290.69
271.93	305.69
272.162	307.69
272.394	307.69
272.626	297.69
272.858	290.69
273.09	282.69
273.322	282.69
273.553	265.69
273.785	271.69
274.017	275.69
274.249	267.69
274.481	275.69
274.713	281.69
274.945	288.69
275.176	270.69
275.408	261.69
275.64	278.69
275.872	253.69
276.104	270.69
276.335	298.69
276.567	302.69
276.799	280.69
277.031	299.69
277.262	303.69
277.494	322.69
277.726	299.69
277.957	287.69
278.189	281.69
278.421	294.69
278.652	283.69
278.884	298.69
279.115	278.69
279.347	289.69
279.579	263.69
279.81	285.69
280.042	278.69
280.273	291.69
280.505	288.69
280.736	282.69
280.968	293.69
281.199	274.69
281.431	287.69
281.662	299.69
281.894	285.69
282.125	291.69
282.356	301.69
282.588	311.69
282.819	298.69
283.051	315.69
283.282	309.69
283.513	302.69
283.745	291.69
283.976	311.69
284.207	305.69
284.439	299.69
284.67	303.69
284.901	315.69
285.132	315.69
285.364	313.69
285.595	297.69
285.826	302.69
286.057	302.69
286.288	310.69
286.52	295.69
286.751	309.69
286.982	323.69
287.213	305.69
287.444	301.69
287.675	302.69
287.906	309.69
288.138	328.69
288.369	318.69
288.6	315.69
288.831	319.69
289.062	321.69
289.293	310.69
289.524	325.69
289.755	326.69
289.986	311.69
290.217	311.69
290.448	319.69
290.679	321.69
290.91	318.69
291.141	322.69
291.371	332.69
291.602	313.69
291.833	322.69
292.064	308.69
292.295	301.69
292.526	313.69
292.757	323.69
292.987	325.69
293.218	315.69
293.449	334.69
293.68	299.69
293.91	309.69
294.141	306.69
294.372	309.69
294.603	328.69
294.833	324.69
295.064	318.69
295.295	327.69
295.525	330.69
295.756	343.69
295.987	327.69
296.217	341.69
296.448	336.69
296.679	345.69
296.909	334.69
297.14	328.69
297.37	339.69
297.601	334.69
297.831	325.69
298.062	326.69
298.292	327.69
298.523	329.69
298.753	335.69
298.984	329.69
299.214	326.69
299.445	338.69
299.675	334.69
299.905	358.69
300.136	329.69
300.366	334.69
300.597	332.69
300.827	337.69
301.057	354.69
301.288	360.69
301.518	349.69
301.748	356.69
301.979	358.69
302.209	366.69
302.439	365.69
302.669	346.69
302.9	350.69
303.13	364.69
303.36	354.69
303.59	355.69
303.82	368.69
304.051	365.69
304.281	360.69
304.511	359.69
304.741	353.69
304.971	349.69
305.201	355.69
305.431	343.69
305.661	365.69
305.891	361.69
306.121	358.69
306.352	363.69
306.582	354.69
306.812	331.69
307.042	358.69
307.272	354.69
307.502	346.69
307.731	368.69
307.961	336.69
308.191	361.69
308.421	361.69
308.651	365.69
308.881	365.69
309.111	350.69
309.341	349.69
309.571	365.69
309.8	377.69
310.03	373.69
310.26	381.69
310.49	367.69
310.72	392.69
310.949	387.69
311.179	395.69
311.409	393.69
311.639	378.69
311.868	383.69
312.098	385.69
312.328	385.69
312.557	424.69
312.787	410.69
313.017	401.69
313.246	407.69
313.476	393.69
313.706	392.69
313.935	401.69
314.165	407.69
314.394	402.69
314.624	421.69
314.853	413.69
315.083	395.69
315.312	400.69
315.542	396.69
315.771	387.69
316.001	392.69
316.23	393.69
316.46	414.69
316.689	395.69
316.919	397.69
317.148	418.69
317.377	382.69
317.607	402.69
317.836	387.69
318.065	404.69
318.295	379.69
318.524	389.69
318.753	394.69
318.983	393.69
319.212	382.69
319.441	389.69
319.67	403.69
319.9	385.69
320.129	361.69
320.358	403.69
320.587	408.69
320.816	397.69
321.046	397.69
321.275	399.69
321.504	400.69
321.733	408.69
321.962	406.69
322.191	443.69
322.42	416.69
322.649	431.69
322.878	414.69
323.108	437.69
323.337	443.69
323.566	450.69
323.795	480.69
324.024	507.69
324.253	543.69
324.482	733.69
324.71	1038.69
324.939	1455.69
325.168	1286.69
325.397	736.69
325.626	543.69
325.855	488.69
326.084	472.69
326.313	456.69
326.542	460.69
326.77	503.69
326.999	544.69
327.228	674.69
327.457	939.69
327.686	1111.69
327.914	771.69
328.143	575.69
328.372	521.69
328.6	528.69
328.829	517.69
329.058	509.69
329.287	510.69
329.515	509.69
329.744	470.69
329.972	489.69
330.201	518.69
330.43	518.69
330.658	534.69
330.887	552.69
331.115	541.69
331.344	493.69
331.572	477.69
331.801	488.69
332.03	479.69
332.258	469.69
332.486	477.69
332.715	475.69
332.943	483.69
333.172	462.69
333.4	488.69
333.629	504.69
333.857	523.69
334.085	528.69
334.314	521.69
334.542	550.69
334.771	549.69
334.999	489.69
335.227	490.69
335.455	525.69
335.684	478.69
335.912	488.69
336.14	489.69
336.369	473.69
336.597	497.69
336.825	475.69
337.053	459.69
337.281	453.69
337.51	456.69
337.738	480.69
337.966	460.69
338.194	465.69
338.422	462.69
338.65	446.69
338.878	473.69
339.106	464.69
339.334	458.69
339.562	439.69
339.79	428.69
340.018	441.69
340.246	445.69
340.474	443.69
340.702	457.69
340.93	455.69
341.158	453.69
341.386	434.69
341.614	433.69
341.842	442.69
342.07	430.69
342.298	433.69
342.526	441.69
342.754	420.69
342.981	422.69
343.209	458.69
343.437	432.69
343.665	447.69
343.893	448.69
344.12	467.69
344.348	488.69
344.576	472.69
344.804	460.69
345.031	490.69
345.259	477.69
345.487	441.69
345.714	433.69
345.942	431.69
346.17	421.69
346.397	439.69
346.625	428.69
346.853	435.69
347.08	425.69
347.308	419.69
347.535	433.69
347.763	438.69
347.99	425.69
348.218	424.69
348.445	434.69
348.673	445.69
348.9	421.69
349.128	403.69
349.355	408.69
349.583	419.69
349.81	435.69
350.037	400.69
350.265	415.69
350.492	413.69
350.72	414.69
350.947	417.69
351.174	421.69
351.402	423.69
351.629	421.69
351.856	404.69
352.083	429.69
352.311	432.69
352.538	433.69
352.765	440.69
352.992	401.69
353.22	391.69
353.447	409.69
353.674	426.69
353.901	429.69
354.128	416.69
354.355	408.69
354.583	410.69
354.81	411.69
355.037	425.69
355.264	408.69
355.491	394.69
355.718	398.69
355.945	423.69
356.172	412.69
356.399	401.69
356.626	409.69
356.853	410.69
357.08	398.69
357.307	387.69
357.534	398.69
357.761	405.69
357.988	404.69
358.215	410.69
358.441	387.69
358.668	416.69
358.895	421.69
359.122	416.69
359.349	420.69
359.576	447.69
359.802	443.69
360.029	456.69
360.256	457.69
360.483	444.69
360.709	429.69
360.936	417.69
361.163	434.69
361.39	421.69
361.616	428.69
361.843	411.69
362.07	435.69
362.296	408.69
362.523	425.69
362.749	419.69
362.976	407.69
363.203	410.69
363.429	407.69
363.656	416.69
363.882	414.69
364.109	403.69
364.335	413.69
364.562	383.69
364.788	382.69
365.015	411.69
365.241	404.69
365.468	413.69
365.694	423.69
365.92	401.69
366.147	404.69
366.373	399.69
366.599	406.69
366.826	385.69
367.052	410.69
367.278	408.69
367.505	417.69
367.731	410.69
367.957	401.69
368.184	403.69
368.41	412.69
368.636	413.69
368.862	443.69
369.089	427.69
369.315	415.69
369.541	433.69
369.767	422.69
369.993	403.69
370.219	393.69
370.445	425.69
370.672	431.69
370.898	408.69
371.124	413.69
371.35	432.69
371.576	427.69
371.802	406.69
372.028	416.69
372.254	402.69
372.48	421.69
372.706	437.69
372.932	454.69
373.158	433.69
373.384	421.69
373.61	436.69
373.835	432.69
374.061	413.69
374.287	431.69
374.513	429.69
374.739	431.69
374.965	447.69
375.191	438.69
375.416	451.69
375.642	433.69
375.868	443.69
376.094	424.69
376.319	434.69
376.545	430.69
376.771	402.69
376.997	403.69
377.222	428.69
377.448	434.69
377.674	427.69
377.899	413.69
378.125	415.69
378.35	424.69
378.576	393.69
378.802	397.69
379.027	399.69
379.253	417.69
379.478	407.69
379.704	437.69
379.929	427.69
380.155	418.69
380.38	417.69
380.606	409.69
380.831	411.69
381.057	409.69
381.282	410.69
381.507	399.69
381.733	415.69
381.958	418.69
382.184	419.69
382.409	451.69
382.634	432.69
382.86	433.69
383.085	425.69
383.31	427.69
383.535	450.69
383.761	436.69
383.986	449.69
384.211	450.69
384.436	446.69
384.662	474.69
384.887	465.69
385.112	450.69
385.337	456.69
385.562	464.69
385.787	489.69
386.013	474.69
386.238	488.69
386.463	461.69
386.688	483.69
386.913	455.69
387.138	459.69
387.363	453.69
387.588	487.69
387.813	459.69
388.038	457.69
388.263	456.69
388.488	471.69
388.713	479.69
388.938	463.69
389.163	469.69
389.387	464.69
389.612	453.69
389.837	478.69
390.062	463.69
390.287	459.69
390.512	482.69
390.736	474.69
390.961	481.69
391.186	454.69
391.411	485.69
391.636	477.69
391.86	496.69
392.085	516.69
392.31	511.69
392.534	511.69
392.759	493.69
392.984	466.69
393.208	476.69
393.433	477.69
393.658	484.69
393.882	489.69
394.107	493.69
394.331	484.69
394.556	478.69
394.78	487.69
395.005	476.69
395.229	489.69
395.454	475.69
395.678	503.69
395.903	495.69
396.127	523.69
396.352	523.69
396.576	518.69
396.801	483.69
397.025	495.69
397.249	513.69
397.474	509.69
397.698	517.69
397.922	524.69
398.147	542.69
398.371	529.69
398.595	522.69
398.82	552.69
399.044	582.69
399.268	594.69
399.492	644.69
399.717	699.69
399.941	709.69
400.165	707.69
400.389	683.69
400.613	611.69
400.837	584.69
401.062	569.69
401.286	581.69
401.51	549.69
401.734	549.69
401.958	556.69
402.182	547.69
402.406	589.69
402.63	573.69
402.854	571.69
403.078	590.69
403.302	573.69
403.526	584.69
403.75	594.69
403.974	577.69
404.198	595.69
404.422	597.69
404.645	589.69
404.869	573.69
405.093	614.69
405.317	673.69
405.541	677.69
405.765	636.69
405.988	597.69
406.212	622.69
406.436	610.69
406.66	594.69
406.883	613.69
407.107	636.69
407.331	680.69
407.555	735.69
407.778	732.69
408.002	677.69
408.226	640.69
408.449	630.69
408.673	645.69
408.896	643.69
409.12	683.69
409.344	646.69
409.567	613.69
409.791	591.69
410.014	575.69
410.238	578.69
410.461	548.69
410.685	573.69
410.908	594.69
411.132	603.69
411.355	635.69
411.578	595.69
411.802	557.69
412.025	580.69
412.249	561.69
412.472	598.69
412.695	635.69
412.919	605.69
413.142	590.69
413.365	566.69
413.589	547.69
413.812	546.69
414.035	514.69
414.258	539.69
414.482	528.69
414.705	543.69
414.928	544.69
415.151	551.69
415.374	545.69
415.597	526.69
415.821	529.69
416.044	543.69
416.267	572.69
416.49	537.69
416.713	531.69
416.936	550.69
417.159	543.69
417.382	557.69
417.605	561.69
417.828	572.69
418.051	544.69
418.274	553.69
418.497	552.69
418.72	537.69
418.943	562.69
419.166	563.69
419.389	619.69
419.611	582.69
419.834	581.69
420.057	585.69
420.28	570.69
420.503	537.69
420.726	555.69
420.948	575.69
421.171	594.69
421.394	619.69
421.617	549.69
421.839	560.69
422.062	547.69
422.285	562.69
422.507	589.69
422.73	669.69
422.953	640.69
423.175	593.69
423.398	585.69
423.621	586.69
423.843	576.69
424.066	585.69
424.288	594.69
424.511	610.69
424.733	639.69
424.956	705.69
425.178	658.69
425.401	668.69
425.623	684.69
425.846	635.69
426.068	576.69
426.291	565.69
426.513	559.69
426.735	565.69
426.958	597.69
427.18	676.69
427.402	758.69
427.625	830.69
427.847	709.69
428.069	633.69
428.292	591.69
428.514	565.69
428.736	543.69
428.958	531.69
429.181	536.69
429.403	528.69
429.625	536.69
429.847	548.69
430.069	623.69
430.292	578.69
430.514	550.69
430.736	525.69
430.958	512.69
431.18	525.69
431.402	486.69
431.624	509.69
431.846	530.69
432.068	522.69
432.29	530.69
432.512	534.69
432.734	506.69
432.956	506.69
433.178	505.69
433.4	524.69
433.622	523.69
433.844	539.69
434.066	499.69
434.287	541.69
434.509	544.69
434.731	537.69
434.953	569.69
435.175	541.69
435.397	582.69
435.618	570.69
435.84	599.69
436.062	639.69
436.284	706.69
436.505	615.69
436.727	549.69
436.949	548.69
437.17	534.69
437.392	528.69
437.614	557.69
437.835	551.69
438.057	618.69
438.278	709.69
438.5	691.69
438.721	758.69
438.943	758.69
439.165	624.69
439.386	556.69
439.608	553.69
439.829	568.69
440.05	565.69
440.272	595.69
440.493	550.69
440.715	554.69
440.936	541.69
441.158	525.69
441.379	551.69
441.6	547.69
441.822	580.69
442.043	606.69
442.264	673.69
442.486	703.69
442.707	602.69
442.928	565.69
443.149	602.69
443.371	606.69
443.592	610.69
443.813	694.69
444.034	779.69
444.255	656.69
444.476	603.69
444.698	594.69
444.919	600.69
445.14	750.69
445.361	667.69
445.582	625.69
445.803	656.69
446.024	705.69
446.245	745.69
446.466	666.69
446.687	581.69
446.908	569.69
447.129	501.69
447.35	507.69
447.571	498.69
447.792	508.69
448.013	535.69
448.234	517.69
448.455	569.69
448.675	658.69
448.896	738.69
449.117	648.69
449.338	598.69
449.559	717.69
449.779	795.69
450	613.69
450.221	541.69
450.442	513.69
450.662	513.69
450.883	506.69
451.104	497.69
451.324	507.69
451.545	501.69
451.766	492.69
451.986	461.69
452.207	461.69
452.428	459.69
452.648	481.69
452.869	471.69
453.089	471.69
453.31	467.69
453.53	469.69
453.751	456.69
453.971	464.69
454.192	482.69
454.412	442.69
454.633	461.69
454.853	450.69
455.073	453.69
455.294	468.69
455.514	545.69
455.734	509.69
455.955	461.69
456.175	446.69
456.395	430.69
456.616	457.69
456.836	426.69
457.056	417.69
457.276	446.69
457.497	436.69
457.717	463.69
457.937	451.69
458.157	448.69
458.377	464.69
458.598	466.69
458.818	526.69
459.038	563.69
459.258	577.69
459.478	526.69
459.698	531.69
459.918	490.69
460.138	519.69
460.358	555.69
460.578	535.69
460.798	543.69
461.018	543.69
461.238	547.69
461.458	557.69
461.678	527.69
461.898	540.69
462.118	506.69
462.338	548.69
462.558	584.69
462.777	589.69
462.997	617.69
463.217	626.69
463.437	640.69
463.657	624.69
463.876	608.69
464.096	598.69
464.316	573.69
464.536	600.69
464.755	599.69
464.975	584.69
465.195	583.69
465.414	619.69
465.634	566.69
465.854	530.69
466.073	508.69
466.293	499.69
466.512	494.69
466.732	502.69
466.951	491.69
467.171	503.69
467.391	491.69
467.61	497.69
467.829	511.69
468.049	492.69
468.268	481.69
468.488	479.69
468.707	494.69
468.927	473.69
469.146	459.69
469.365	471.69
469.585	466.69
469.804	470.69
470.023	482.69
470.243	495.69
470.462	485.69
470.681	518.69
470.901	496.69
471.12	497.69
471.339	511.69
471.558	508.69
471.777	507.69
471.997	479.69
472.216	467.69
472.435	495.69
472.654	483.69
472.873	491.69
473.092	487.69
473.311	485.69
473.53	482.69
473.749	479.69
473.968	506.69
474.187	578.69
474.406	614.69
474.625	539.69
474.844	485.69
475.063	476.69
475.282	496.69
475.501	494.69
475.72	503.69
475.939	501.69
476.158	493.69
476.377	531.69
476.596	478.69
476.814	519.69
477.033	498.69
477.252	507.69
477.471	515.69
477.69	531.69
477.908	518.69
478.127	550.69
478.346	539.69
478.564	549.69
478.783	587.69
479.002	579.69
479.22	569.69
479.439	576.69
479.658	571.69
479.876	558.69
480.095	600.69
480.313	619.69
480.532	602.69
480.751	623.69
480.969	625.69
481.188	640.69
481.406	655.69
481.624	601.69
481.843	583.69
482.061	581.69
482.28	578.69
482.498	567.69
482.717	554.69
482.935	554.69
483.153	555.69
483.372	555.69
483.59	571.69
483.808	565.69
484.027	563.69
484.245	565.69
484.463	569.69
484.681	558.69
484.9	555.69
485.118	582.69
485.336	591.69
485.554	602.69
485.772	550.69
485.99	583.69
486.209	588.69
486.427	575.69
486.645	601.69
486.863	601.69
487.081	622.69
487.299	598.69
487.517	603.69
487.735	578.69
487.953	593.69
488.171	579.69
488.389	605.69
488.607	586.69
488.825	581.69
489.043	600.69
489.261	607.69
489.479	602.69
489.696	607.69
489.914	609.69
490.132	592.69
490.35	598.69
490.568	637.69
490.786	629.69
491.003	611.69
491.221	645.69
491.439	662.69
491.657	642.69
491.874	648.69
492.092	641.69
492.31	656.69
492.527	671.69
492.745	667.69
492.963	685.69
493.18	679.69
493.398	695.69
493.615	694.69
493.833	702.69
494.05	711.69
494.268	690.69
494.485	683.69
494.703	722.69
494.92	679.69
495.138	676.69
495.355	684.69
495.573	686.69
495.79	690.69
496.008	713.69
496.225	707.69
496.442	697.69
496.66	709.69
496.877	694.69
497.094	721.69
497.312	719.69
497.529	712.69
497.746	738.69
497.963	748.69
498.181	800.69
498.398	796.69
498.615	809.69
498.832	847.69
499.049	888.69
499.267	911.69
499.484	922.69
499.701	995.69
499.918	1068.69
500.135	1138.69
500.352	1192.69
500.569	1246.69
500.786	1228.69
501.003	1188.69
501.22	1126.69
501.437	1071.69
501.654	1026.69
