Data from 1973.PennyLincolnUp.Lamp.En5.5.200Scan.071719.P1.Changed Mount._HRD10591_15-43-59-852.txt Node
Date: Thu Jul 18 15:43:59 EDT 2019
User: cochatt
Spectrometer: HR+D1059
Trigger mode: 1
Integration Time (sec): 1.000000E-1
Scans to average: 1
Electric dark correction enabled: true
Nonlinearity correction enabled: false
Boxcar width: 0
XAxis mode: Wavelengths
Number of Pixels in Spectrum: 2048
>>>>>Begin Spectral Data<<<<<
223.165	-5.5
223.4	-5.5
223.635	-5.5
223.869	-31.5
224.104	-18.5
224.338	-11.5
224.573	-23.5
224.808	-4.5
225.042	-4.5
225.277	6.5
225.511	-10.5
225.746	-8.5
225.98	6.5
226.215	14.5
226.449	6.5
226.683	21.5
226.918	25.5
227.152	37.5
227.387	26.5
227.621	42.5
227.856	46.5
228.09	46.5
228.324	55.5
228.559	63.5
228.793	71.5
229.027	87.5
229.262	102.5
229.496	106.5
229.73	131.5
229.964	136.5
230.199	116.5
230.433	117.5
230.667	118.5
230.901	117.5
231.136	108.5
231.37	103.5
231.604	97.5
231.838	100.5
232.072	114.5
232.306	117.5
232.541	110.5
232.775	107.5
233.009	112.5
233.243	94.5
233.477	113.5
233.711	126.5
233.945	114.5
234.179	120.5
234.413	112.5
234.647	125.5
234.881	118.5
235.115	122.5
235.349	121.5
235.583	106.5
235.817	118.5
236.051	124.5
236.285	113.5
236.519	117.5
236.753	133.5
236.987	143.5
237.221	182.5
237.455	199.5
237.689	184.5
237.922	133.5
238.156	125.5
238.39	148.5
238.624	124.5
238.858	126.5
239.091	124.5
239.325	130.5
239.559	137.5
239.793	136.5
240.027	115.5
240.26	132.5
240.494	155.5
240.728	135.5
240.961	142.5
241.195	153.5
241.429	141.5
241.662	141.5
241.896	130.5
242.13	127.5
242.363	155.5
242.597	148.5
242.83	140.5
243.064	134.5
243.298	142.5
243.531	131.5
243.765	135.5
243.998	158.5
244.232	147.5
244.465	146.5
244.699	144.5
244.932	143.5
245.166	156.5
245.399	149.5
245.633	137.5
245.866	145.5
246.099	144.5
246.333	150.5
246.566	153.5
246.8	155.5
247.033	163.5
247.266	156.5
247.5	152.5
247.733	175.5
247.966	173.5
248.2	180.5
248.433	156.5
248.666	176.5
248.899	169.5
249.133	199.5
249.366	197.5
249.599	209.5
249.832	183.5
250.066	181.5
250.299	182.5
250.532	194.5
250.765	183.5
250.998	216.5
251.231	216.5
251.465	183.5
251.698	203.5
251.931	184.5
252.164	184.5
252.397	192.5
252.63	174.5
252.863	207.5
253.096	207.5
253.329	219.5
253.562	221.5
253.795	214.5
254.028	198.5
254.261	216.5
254.494	216.5
254.727	223.5
254.96	261.5
255.193	264.5
255.426	231.5
255.659	219.5
255.892	223.5
256.124	221.5
256.357	231.5
256.59	203.5
256.823	214.5
257.056	208.5
257.289	224.5
257.521	210.5
257.754	198.5
257.987	223.5
258.22	221.5
258.452	220.5
258.685	223.5
258.918	223.5
259.151	216.5
259.383	217.5
259.616	232.5
259.849	219.5
260.081	221.5
260.314	229.5
260.547	244.5
260.779	238.5
261.012	240.5
261.244	239.5
261.477	218.5
261.71	224.5
261.942	216.5
262.175	236.5
262.407	227.5
262.64	218.5
262.872	200.5
263.105	215.5
263.337	214.5
263.57	227.5
263.802	216.5
264.035	216.5
264.267	220.5
264.499	227.5
264.732	216.5
264.964	218.5
265.197	220.5
265.429	226.5
265.661	238.5
265.894	218.5
266.126	235.5
266.358	226.5
266.591	220.5
266.823	239.5
267.055	223.5
267.287	243.5
267.52	235.5
267.752	238.5
267.984	245.5
268.216	207.5
268.448	235.5
268.681	242.5
268.913	250.5
269.145	261.5
269.377	287.5
269.609	273.5
269.841	281.5
270.073	272.5
270.306	298.5
270.538	319.5
270.77	317.5
271.002	283.5
271.234	300.5
271.466	295.5
271.698	291.5
271.93	299.5
272.162	301.5
272.394	309.5
272.626	292.5
272.858	293.5
273.09	282.5
273.322	263.5
273.553	268.5
273.785	281.5
274.017	253.5
274.249	258.5
274.481	256.5
274.713	278.5
274.945	273.5
275.176	287.5
275.408	286.5
275.64	270.5
275.872	276.5
276.104	282.5
276.335	283.5
276.567	291.5
276.799	279.5
277.031	293.5
277.262	311.5
277.494	308.5
277.726	313.5
277.957	297.5
278.189	281.5
278.421	286.5
278.652	278.5
278.884	266.5
279.115	274.5
279.347	284.5
279.579	277.5
279.81	284.5
280.042	268.5
280.273	267.5
280.505	280.5
280.736	279.5
280.968	276.5
281.199	271.5
281.431	273.5
281.662	272.5
281.894	282.5
282.125	285.5
282.356	318.5
282.588	317.5
282.819	313.5
283.051	296.5
283.282	292.5
283.513	291.5
283.745	296.5
283.976	304.5
284.207	302.5
284.439	296.5
284.67	300.5
284.901	315.5
285.132	311.5
285.364	288.5
285.595	289.5
285.826	293.5
286.057	294.5
286.288	289.5
286.52	313.5
286.751	291.5
286.982	290.5
287.213	293.5
287.444	302.5
287.675	309.5
287.906	303.5
288.138	318.5
288.369	327.5
288.6	319.5
288.831	325.5
289.062	316.5
289.293	294.5
289.524	320.5
289.755	331.5
289.986	291.5
290.217	304.5
290.448	312.5
290.679	315.5
290.91	318.5
291.141	308.5
291.371	317.5
291.602	326.5
291.833	315.5
292.064	321.5
292.295	300.5
292.526	327.5
292.757	304.5
292.987	310.5
293.218	310.5
293.449	319.5
293.68	324.5
293.91	308.5
294.141	320.5
294.372	320.5
294.603	311.5
294.833	329.5
295.064	314.5
295.295	314.5
295.525	325.5
295.756	319.5
295.987	339.5
296.217	339.5
296.448	342.5
296.679	318.5
296.909	302.5
297.14	315.5
297.37	336.5
297.601	331.5
297.831	314.5
298.062	325.5
298.292	351.5
298.523	359.5
298.753	333.5
298.984	342.5
299.214	350.5
299.445	329.5
299.675	325.5
299.905	342.5
300.136	327.5
300.366	336.5
300.597	323.5
300.827	337.5
301.057	356.5
301.288	355.5
301.518	344.5
301.748	352.5
301.979	362.5
302.209	347.5
302.439	370.5
302.669	345.5
302.9	359.5
303.13	338.5
303.36	357.5
303.59	367.5
303.82	375.5
304.051	352.5
304.281	362.5
304.511	341.5
304.741	378.5
304.971	342.5
305.201	364.5
305.431	375.5
305.661	358.5
305.891	342.5
306.121	350.5
306.352	351.5
306.582	330.5
306.812	359.5
307.042	367.5
307.272	357.5
307.502	356.5
307.731	360.5
307.961	360.5
308.191	363.5
308.421	356.5
308.651	367.5
308.881	352.5
309.111	353.5
309.341	360.5
309.571	351.5
309.8	356.5
310.03	361.5
310.26	354.5
310.49	379.5
310.72	384.5
310.949	391.5
311.179	383.5
311.409	375.5
311.639	384.5
311.868	382.5
312.098	393.5
312.328	406.5
312.557	395.5
312.787	384.5
313.017	396.5
313.246	385.5
313.476	382.5
313.706	392.5
313.935	379.5
314.165	398.5
314.394	403.5
314.624	426.5
314.853	402.5
315.083	404.5
315.312	375.5
315.542	383.5
315.771	384.5
316.001	397.5
316.23	404.5
316.46	392.5
316.689	393.5
316.919	363.5
317.148	388.5
317.377	394.5
317.607	384.5
317.836	376.5
318.065	380.5
318.295	388.5
318.524	379.5
318.753	390.5
318.983	398.5
319.212	390.5
319.441	394.5
319.67	386.5
319.9	375.5
320.129	404.5
320.358	403.5
320.587	392.5
320.816	414.5
321.046	388.5
321.275	388.5
321.504	381.5
321.733	404.5
321.962	407.5
322.191	415.5
322.42	414.5
322.649	422.5
322.878	416.5
323.108	429.5
323.337	452.5
323.566	472.5
323.795	455.5
324.024	496.5
324.253	583.5
324.482	755.5
324.71	1098.5
324.939	1570.5
325.168	1374.5
325.397	752.5
325.626	542.5
325.855	489.5
326.084	482.5
326.313	464.5
326.542	446.5
326.77	504.5
326.999	566.5
327.228	703.5
327.457	979.5
327.686	1186.5
327.914	824.5
328.143	586.5
328.372	546.5
328.6	502.5
328.829	510.5
329.058	501.5
329.287	532.5
329.515	497.5
329.744	480.5
329.972	488.5
330.201	490.5
330.43	514.5
330.658	521.5
330.887	542.5
331.115	502.5
331.344	514.5
331.572	469.5
331.801	478.5
332.03	480.5
332.258	475.5
332.486	462.5
332.715	464.5
332.943	499.5
333.172	482.5
333.4	490.5
333.629	493.5
333.857	536.5
334.085	523.5
334.314	521.5
334.542	532.5
334.771	540.5
334.999	503.5
335.227	491.5
335.455	516.5
335.684	472.5
335.912	480.5
336.14	466.5
336.369	471.5
336.597	481.5
336.825	473.5
337.053	469.5
337.281	491.5
337.51	465.5
337.738	457.5
337.966	460.5
338.194	475.5
338.422	447.5
338.65	478.5
338.878	474.5
339.106	458.5
339.334	438.5
339.562	462.5
339.79	442.5
340.018	464.5
340.246	442.5
340.474	439.5
340.702	442.5
340.93	436.5
341.158	447.5
341.386	438.5
341.614	450.5
341.842	447.5
342.07	444.5
342.298	425.5
342.526	446.5
342.754	442.5
342.981	436.5
343.209	438.5
343.437	431.5
343.665	432.5
343.893	464.5
344.12	478.5
344.348	485.5
344.576	452.5
344.804	474.5
345.031	441.5
345.259	462.5
345.487	444.5
345.714	435.5
345.942	452.5
346.17	443.5
346.397	420.5
346.625	428.5
346.853	423.5
347.08	426.5
347.308	420.5
347.535	413.5
347.763	439.5
347.99	417.5
348.218	416.5
348.445	435.5
348.673	425.5
348.9	414.5
349.128	413.5
349.355	424.5
349.583	440.5
349.81	415.5
350.037	402.5
350.265	396.5
350.492	401.5
350.72	392.5
350.947	428.5
351.174	442.5
351.402	428.5
351.629	437.5
351.856	406.5
352.083	412.5
352.311	425.5
352.538	403.5
352.765	429.5
352.992	412.5
353.22	406.5
353.447	391.5
353.674	410.5
353.901	416.5
354.128	410.5
354.355	406.5
354.583	398.5
354.81	404.5
355.037	395.5
355.264	400.5
355.491	409.5
355.718	398.5
355.945	384.5
356.172	406.5
356.399	390.5
356.626	395.5
356.853	396.5
357.08	404.5
357.307	408.5
357.534	396.5
357.761	412.5
357.988	399.5
358.215	395.5
358.441	387.5
358.668	397.5
358.895	409.5
359.122	412.5
359.349	400.5
359.576	403.5
359.802	434.5
360.029	438.5
360.256	454.5
360.483	453.5
360.709	411.5
360.936	418.5
361.163	412.5
361.39	423.5
361.616	423.5
361.843	431.5
362.07	386.5
362.296	413.5
362.523	404.5
362.749	422.5
362.976	396.5
363.203	408.5
363.429	404.5
363.656	398.5
363.882	403.5
364.109	403.5
364.335	406.5
364.562	395.5
364.788	409.5
365.015	419.5
365.241	410.5
365.468	419.5
365.694	406.5
365.92	422.5
366.147	413.5
366.373	414.5
366.599	416.5
366.826	395.5
367.052	410.5
367.278	400.5
367.505	402.5
367.731	393.5
367.957	398.5
368.184	405.5
368.41	414.5
368.636	429.5
368.862	419.5
369.089	423.5
369.315	403.5
369.541	408.5
369.767	412.5
369.993	438.5
370.219	394.5
370.445	417.5
370.672	420.5
370.898	405.5
371.124	408.5
371.35	426.5
371.576	422.5
371.802	424.5
372.028	419.5
372.254	404.5
372.48	421.5
372.706	412.5
372.932	436.5
373.158	430.5
373.384	410.5
373.61	416.5
373.835	414.5
374.061	402.5
374.287	409.5
374.513	422.5
374.739	418.5
374.965	416.5
375.191	423.5
375.416	440.5
375.642	445.5
375.868	426.5
376.094	418.5
376.319	406.5
376.545	420.5
376.771	405.5
376.997	415.5
377.222	401.5
377.448	425.5
377.674	419.5
377.899	380.5
378.125	416.5
378.35	415.5
378.576	411.5
378.802	396.5
379.027	401.5
379.253	410.5
379.478	418.5
379.704	397.5
379.929	405.5
380.155	428.5
380.38	425.5
380.606	439.5
380.831	410.5
381.057	406.5
381.282	432.5
381.507	395.5
381.733	420.5
381.958	424.5
382.184	428.5
382.409	426.5
382.634	425.5
382.86	429.5
383.085	453.5
383.31	425.5
383.535	429.5
383.761	449.5
383.986	447.5
384.211	452.5
384.436	431.5
384.662	452.5
384.887	452.5
385.112	462.5
385.337	450.5
385.562	466.5
385.787	473.5
386.013	488.5
386.238	476.5
386.463	477.5
386.688	478.5
386.913	476.5
387.138	493.5
387.363	450.5
387.588	470.5
387.813	481.5
388.038	456.5
388.263	475.5
388.488	468.5
388.713	461.5
388.938	468.5
389.163	441.5
389.387	465.5
389.612	463.5
389.837	458.5
390.062	461.5
390.287	431.5
390.512	449.5
390.736	452.5
390.961	451.5
391.186	467.5
391.411	475.5
391.636	482.5
391.86	492.5
392.085	495.5
392.31	494.5
392.534	495.5
392.759	476.5
392.984	484.5
393.208	484.5
393.433	467.5
393.658	497.5
393.882	483.5
394.107	484.5
394.331	467.5
394.556	475.5
394.78	476.5
395.005	490.5
395.229	477.5
395.454	482.5
395.678	492.5
395.903	505.5
396.127	514.5
396.352	515.5
396.576	490.5
396.801	512.5
397.025	499.5
397.249	489.5
397.474	513.5
397.698	515.5
397.922	496.5
398.147	539.5
398.371	546.5
398.595	520.5
398.82	544.5
399.044	566.5
399.268	565.5
399.492	634.5
399.717	676.5
399.941	719.5
400.165	715.5
400.389	683.5
400.613	627.5
400.837	587.5
401.062	573.5
401.286	581.5
401.51	528.5
401.734	537.5
401.958	518.5
402.182	566.5
402.406	566.5
402.63	566.5
402.854	548.5
403.078	586.5
403.302	573.5
403.526	580.5
403.75	602.5
403.974	586.5
404.198	591.5
404.422	595.5
404.645	608.5
404.869	615.5
405.093	616.5
405.317	664.5
405.541	679.5
405.765	631.5
405.988	629.5
406.212	614.5
406.436	601.5
406.66	621.5
406.883	613.5
407.107	644.5
407.331	672.5
407.555	726.5
407.778	730.5
408.002	675.5
408.226	631.5
408.449	613.5
408.673	619.5
408.896	630.5
409.12	658.5
409.344	651.5
409.567	579.5
409.791	558.5
410.014	571.5
410.238	590.5
410.461	544.5
410.685	581.5
410.908	604.5
411.132	613.5
411.355	629.5
411.578	594.5
411.802	601.5
412.025	565.5
412.249	576.5
412.472	615.5
412.695	627.5
412.919	619.5
413.142	564.5
413.365	552.5
413.589	541.5
413.812	551.5
414.035	541.5
414.258	550.5
414.482	525.5
414.705	558.5
414.928	548.5
415.151	562.5
415.374	523.5
415.597	552.5
415.821	523.5
416.044	525.5
416.267	552.5
416.49	541.5
416.713	534.5
416.936	524.5
417.159	534.5
417.382	541.5
417.605	540.5
417.828	537.5
418.051	557.5
418.274	562.5
418.497	541.5
418.72	554.5
418.943	543.5
419.166	540.5
419.389	590.5
419.611	609.5
419.834	574.5
420.057	574.5
420.28	563.5
420.503	547.5
420.726	564.5
420.948	562.5
421.171	601.5
421.394	631.5
421.617	567.5
421.839	534.5
422.062	553.5
422.285	573.5
422.507	596.5
422.73	661.5
422.953	652.5
423.175	586.5
423.398	574.5
423.621	559.5
423.843	603.5
424.066	578.5
424.288	582.5
424.511	604.5
424.733	648.5
424.956	703.5
425.178	683.5
425.401	681.5
425.623	703.5
425.846	632.5
426.068	572.5
426.291	589.5
426.513	574.5
426.735	590.5
426.958	626.5
427.18	691.5
427.402	788.5
427.625	872.5
427.847	738.5
428.069	633.5
428.292	607.5
428.514	584.5
428.736	562.5
428.958	534.5
429.181	511.5
429.403	522.5
429.625	529.5
429.847	529.5
430.069	630.5
430.292	608.5
430.514	536.5
430.736	527.5
430.958	524.5
431.18	508.5
431.402	507.5
431.624	495.5
431.846	512.5
432.068	512.5
432.29	507.5
432.512	510.5
432.734	530.5
432.956	538.5
433.178	535.5
433.4	503.5
433.622	509.5
433.844	528.5
434.066	502.5
434.287	501.5
434.509	504.5
434.731	527.5
434.953	540.5
435.175	570.5
435.397	571.5
435.618	555.5
435.84	593.5
436.062	677.5
436.284	724.5
436.505	608.5
436.727	574.5
436.949	548.5
437.17	552.5
437.392	526.5
437.614	514.5
437.835	549.5
438.057	630.5
438.278	719.5
438.5	696.5
438.721	806.5
438.943	754.5
439.165	633.5
439.386	580.5
439.608	586.5
439.829	574.5
440.05	551.5
440.272	612.5
440.493	586.5
440.715	554.5
440.936	550.5
441.158	547.5
441.379	531.5
441.6	568.5
441.822	570.5
442.043	607.5
442.264	680.5
442.486	699.5
442.707	617.5
442.928	588.5
443.149	603.5
443.371	602.5
443.592	634.5
443.813	718.5
444.034	759.5
444.255	677.5
444.476	613.5
444.698	601.5
444.919	611.5
445.14	674.5
445.361	631.5
445.582	623.5
445.803	674.5
446.024	738.5
446.245	726.5
446.466	670.5
446.687	603.5
446.908	572.5
447.129	530.5
447.35	514.5
447.571	528.5
447.792	520.5
448.013	525.5
448.234	524.5
448.455	579.5
448.675	661.5
448.896	768.5
449.117	651.5
449.338	630.5
449.559	714.5
449.779	788.5
450	644.5
450.221	555.5
450.442	514.5
450.662	517.5
450.883	512.5
451.104	523.5
451.324	488.5
451.545	479.5
451.766	477.5
451.986	468.5
452.207	462.5
452.428	474.5
452.648	480.5
452.869	469.5
453.089	464.5
453.31	477.5
453.53	465.5
453.751	459.5
453.971	452.5
454.192	461.5
454.412	454.5
454.633	468.5
454.853	445.5
455.073	463.5
455.294	463.5
455.514	545.5
455.734	532.5
455.955	464.5
456.175	460.5
456.395	454.5
456.616	456.5
456.836	447.5
457.056	431.5
457.276	426.5
457.497	442.5
457.717	432.5
457.937	446.5
458.157	452.5
458.377	450.5
458.598	454.5
458.818	504.5
459.038	560.5
459.258	589.5
459.478	538.5
459.698	500.5
459.918	532.5
460.138	507.5
460.358	534.5
460.578	554.5
460.798	557.5
461.018	529.5
461.238	519.5
461.458	551.5
461.678	534.5
461.898	552.5
462.118	542.5
462.338	567.5
462.558	577.5
462.777	588.5
462.997	610.5
463.217	606.5
463.437	619.5
463.657	622.5
463.876	594.5
464.096	600.5
464.316	588.5
464.536	627.5
464.755	567.5
464.975	583.5
465.195	572.5
465.414	605.5
465.634	564.5
465.854	534.5
466.073	535.5
466.293	507.5
466.512	481.5
466.732	477.5
466.951	480.5
467.171	484.5
467.391	493.5
467.61	521.5
467.829	485.5
468.049	491.5
468.268	479.5
468.488	479.5
468.707	480.5
468.927	479.5
469.146	484.5
469.365	476.5
469.585	475.5
469.804	472.5
470.023	483.5
470.243	495.5
470.462	501.5
470.681	518.5
470.901	517.5
471.12	480.5
471.339	510.5
471.558	492.5
471.777	483.5
471.997	487.5
472.216	490.5
472.435	526.5
472.654	511.5
472.873	494.5
473.092	462.5
473.311	471.5
473.53	484.5
473.749	498.5
473.968	514.5
474.187	597.5
474.406	620.5
474.625	544.5
474.844	506.5
475.063	484.5
475.282	491.5
475.501	478.5
475.72	476.5
475.939	526.5
476.158	518.5
476.377	502.5
476.596	496.5
476.814	510.5
477.033	539.5
477.252	520.5
477.471	508.5
477.69	521.5
477.908	557.5
478.127	555.5
478.346	527.5
478.564	534.5
478.783	566.5
479.002	592.5
479.22	581.5
479.439	569.5
479.658	592.5
479.876	581.5
480.095	606.5
480.313	615.5
480.532	632.5
480.751	615.5
480.969	603.5
481.188	639.5
481.406	646.5
481.624	608.5
481.843	566.5
482.061	579.5
482.28	580.5
482.498	571.5
482.717	556.5
482.935	579.5
483.153	565.5
483.372	581.5
483.59	562.5
483.808	551.5
484.027	577.5
484.245	575.5
484.463	581.5
484.681	591.5
484.9	576.5
485.118	573.5
485.336	586.5
485.554	559.5
485.772	567.5
485.99	586.5
486.209	577.5
486.427	604.5
486.645	607.5
486.863	600.5
487.081	632.5
487.299	630.5
487.517	598.5
487.735	610.5
487.953	608.5
488.171	617.5
488.389	589.5
488.607	595.5
488.825	611.5
489.043	619.5
489.261	610.5
489.479	594.5
489.696	607.5
489.914	635.5
490.132	607.5
490.35	621.5
490.568	613.5
490.786	651.5
491.003	638.5
491.221	654.5
491.439	692.5
491.657	657.5
491.874	661.5
492.092	699.5
492.31	698.5
492.527	678.5
492.745	664.5
492.963	694.5
493.18	694.5
493.398	665.5
493.615	714.5
493.833	692.5
494.05	690.5
494.268	696.5
494.485	678.5
494.703	705.5
494.92	711.5
495.138	676.5
495.355	710.5
495.573	724.5
495.79	723.5
496.008	698.5
496.225	696.5
496.442	694.5
496.66	690.5
496.877	725.5
497.094	715.5
497.312	711.5
497.529	733.5
497.746	757.5
497.963	747.5
498.181	785.5
498.398	798.5
498.615	811.5
498.832	835.5
499.049	866.5
499.267	897.5
499.484	942.5
499.701	990.5
499.918	1078.5
500.135	1134.5
500.352	1244.5
500.569	1244.5
500.786	1276.5
501.003	1226.5
501.22	1163.5
501.437	1076.5
501.654	1008.5
501.871	974.5
502.088	943.5
502.305	884.5
502.522	825.5
502.739	827.5
502.956	796.5
503.172	804.5
503.389	781.5
503.606	746.5
503.823	744.5
504.04	748.5
504.256	747.5
504.473	751.5
504.69	731.5
504.907	726.5
505.123	714.5
505.34	692.5
505.557	670.5
505.773	687.5
505.99	682.5
506.207	664.5
506.423	667.5
506.64	671.5
506.856	644.5
507.073	639.5
507.289	647.5
507.506	631.5
507.722	648.5
507.939	640.5
508.155	640.5
508.372	630.5
508.588	600.5
508.805	618.5
509.021	616.5
509.238	617.5
509.454	610.5
509.67	642.5
509.887	619.5
510.103	585.5
510.319	600.5
510.536	670.5
510.752	959.5
510.968	798.5
511.184	612.5
511.401	594.5
511.617	585.5
511.833	576.5
512.049	591.5
512.265	608.5
512.481	578.5
512.698	582.5
512.914	582.5
513.13	571.5
513.346	561.5
513.562	576.5
513.778	570.5
513.994	576.5
514.21	587.5
514.426	621.5
514.642	609.5
514.858	650.5
515.074	640.5
515.29	731.5
515.506	959.5
515.721	842.5
515.937	669.5
516.153	624.5
516.369	609.5
516.585	628.5
516.801	628.5
517.016	670.5
517.232	666.5
517.448	665.5
517.664	660.5
517.879	672.5
518.095	660.5
518.311	651.5
518.527	658.5
518.742	617.5
518.958	630.5
519.173	616.5
519.389	629.5
519.605	605.5
