Data from 1973.PennyLincolnUp.Lamp.En5.5.200Scan.071719.P1.Changed Mount._HRD10591_15-45-23-853.txt Node
Date: Thu Jul 18 15:45:23 EDT 2019
User: cochatt
Spectrometer: HR+D1059
Trigger mode: 1
Integration Time (sec): 1.000000E-1
Scans to average: 1
Electric dark correction enabled: true
Nonlinearity correction enabled: false
Boxcar width: 0
XAxis mode: Wavelengths
Number of Pixels in Spectrum: 2048
>>>>>Begin Spectral Data<<<<<
223.165	-21.31
223.4	-21.31
223.635	-21.31
223.869	-32.31
224.104	-19.31
224.338	-16.31
224.573	-6.31
224.808	-8.31
225.042	-0.31
225.277	-12.31
225.511	-3.31
225.746	5.69
225.98	6.69
226.215	12.69
226.449	24.69
226.683	14.69
226.918	26.69
227.152	28.69
227.387	39.69
227.621	38.69
227.856	48.69
228.09	41.69
228.324	57.69
228.559	49.69
228.793	65.69
229.027	96.69
229.262	100.69
229.496	101.69
229.73	130.69
229.964	139.69
230.199	134.69
230.433	95.69
230.667	106.69
230.901	106.69
231.136	108.69
231.37	105.69
231.604	102.69
231.838	121.69
232.072	104.69
232.306	107.69
232.541	123.69
232.775	115.69
233.009	123.69
233.243	131.69
233.477	116.69
233.711	114.69
233.945	113.69
234.179	108.69
234.413	135.69
234.647	119.69
234.881	108.69
235.115	114.69
235.349	122.69
235.583	130.69
235.817	112.69
236.051	119.69
236.285	137.69
236.519	134.69
236.753	133.69
236.987	126.69
237.221	158.69
237.455	209.69
237.689	172.69
237.922	138.69
238.156	133.69
238.39	130.69
238.624	131.69
238.858	114.69
239.091	129.69
239.325	131.69
239.559	124.69
239.793	125.69
240.027	114.69
240.26	129.69
240.494	152.69
240.728	147.69
240.961	141.69
241.195	151.69
241.429	134.69
241.662	137.69
241.896	138.69
242.13	133.69
242.363	141.69
242.597	137.69
242.83	140.69
243.064	147.69
243.298	156.69
243.531	133.69
243.765	158.69
243.998	151.69
244.232	139.69
244.465	145.69
244.699	154.69
244.932	152.69
245.166	157.69
245.399	129.69
245.633	153.69
245.866	140.69
246.099	162.69
246.333	161.69
246.566	159.69
246.8	151.69
247.033	159.69
247.266	153.69
247.5	175.69
247.733	182.69
247.966	182.69
248.2	174.69
248.433	173.69
248.666	181.69
248.899	188.69
249.133	207.69
249.366	183.69
249.599	189.69
249.832	177.69
250.066	175.69
250.299	181.69
250.532	193.69
250.765	199.69
250.998	220.69
251.231	223.69
251.465	206.69
251.698	193.69
251.931	196.69
252.164	203.69
252.397	201.69
252.63	210.69
252.863	200.69
253.096	221.69
253.329	237.69
253.562	221.69
253.795	196.69
254.028	224.69
254.261	206.69
254.494	235.69
254.727	253.69
254.96	260.69
255.193	267.69
255.426	234.69
255.659	236.69
255.892	226.69
256.124	217.69
256.357	231.69
256.59	241.69
256.823	219.69
257.056	234.69
257.289	220.69
257.521	207.69
257.754	231.69
257.987	226.69
258.22	212.69
258.452	209.69
258.685	216.69
258.918	218.69
259.151	218.69
259.383	237.69
259.616	228.69
259.849	244.69
260.081	243.69
260.314	262.69
260.547	254.69
260.779	240.69
261.012	251.69
261.244	243.69
261.477	235.69
261.71	221.69
261.942	241.69
262.175	224.69
262.407	235.69
262.64	226.69
262.872	230.69
263.105	223.69
263.337	229.69
263.57	209.69
263.802	227.69
264.035	237.69
264.267	217.69
264.499	224.69
264.732	232.69
264.964	244.69
265.197	234.69
265.429	209.69
265.661	211.69
265.894	239.69
266.126	239.69
266.358	243.69
266.591	218.69
266.823	241.69
267.055	241.69
267.287	229.69
267.52	227.69
267.752	242.69
267.984	236.69
268.216	225.69
268.448	253.69
268.681	266.69
268.913	247.69
269.145	257.69
269.377	299.69
269.609	287.69
269.841	295.69
270.073	285.69
270.306	327.69
270.538	326.69
270.77	325.69
271.002	319.69
271.234	292.69
271.466	309.69
271.698	327.69
271.93	316.69
272.162	326.69
272.394	317.69
272.626	311.69
272.858	285.69
273.09	289.69
273.322	289.69
273.553	273.69
273.785	274.69
274.017	275.69
274.249	273.69
274.481	287.69
274.713	273.69
274.945	296.69
275.176	295.69
275.408	279.69
275.64	283.69
275.872	298.69
276.104	288.69
276.335	291.69
276.567	291.69
276.799	304.69
277.031	330.69
277.262	335.69
277.494	337.69
277.726	323.69
277.957	299.69
278.189	293.69
278.421	301.69
278.652	321.69
278.884	308.69
279.115	283.69
279.347	317.69
279.579	304.69
279.81	285.69
280.042	286.69
280.273	294.69
280.505	288.69
280.736	288.69
280.968	290.69
281.199	287.69
281.431	284.69
281.662	307.69
281.894	300.69
282.125	305.69
282.356	299.69
282.588	318.69
282.819	332.69
283.051	316.69
283.282	307.69
283.513	308.69
283.745	291.69
283.976	290.69
284.207	296.69
284.439	305.69
284.67	325.69
284.901	323.69
285.132	316.69
285.364	321.69
285.595	316.69
285.826	299.69
286.057	316.69
286.288	320.69
286.52	287.69
286.751	306.69
286.982	316.69
287.213	308.69
287.444	322.69
287.675	310.69
287.906	332.69
288.138	337.69
288.369	331.69
288.6	321.69
288.831	346.69
289.062	323.69
289.293	338.69
289.524	324.69
289.755	318.69
289.986	348.69
290.217	316.69
290.448	331.69
290.679	313.69
290.91	323.69
291.141	322.69
291.371	336.69
291.602	314.69
291.833	333.69
292.064	331.69
292.295	339.69
292.526	340.69
292.757	325.69
292.987	324.69
293.218	328.69
293.449	333.69
293.68	341.69
293.91	310.69
294.141	303.69
294.372	334.69
294.603	329.69
294.833	339.69
295.064	336.69
295.295	325.69
295.525	339.69
295.756	343.69
295.987	332.69
296.217	342.69
296.448	359.69
296.679	348.69
296.909	322.69
297.14	331.69
297.37	340.69
297.601	326.69
297.831	334.69
298.062	339.69
298.292	337.69
298.523	345.69
298.753	338.69
298.984	322.69
299.214	340.69
299.445	326.69
299.675	328.69
299.905	350.69
300.136	334.69
300.366	332.69
300.597	354.69
300.827	369.69
301.057	371.69
301.288	364.69
301.518	367.69
301.748	377.69
301.979	353.69
302.209	356.69
302.439	360.69
302.669	367.69
302.9	363.69
303.13	364.69
303.36	356.69
303.59	384.69
303.82	375.69
304.051	347.69
304.281	356.69
304.511	371.69
304.741	367.69
304.971	380.69
305.201	363.69
305.431	367.69
305.661	364.69
305.891	373.69
306.121	369.69
306.352	375.69
306.582	379.69
306.812	372.69
307.042	373.69
307.272	346.69
307.502	377.69
307.731	365.69
307.961	369.69
308.191	379.69
308.421	368.69
308.651	360.69
308.881	372.69
309.111	361.69
309.341	351.69
309.571	387.69
309.8	403.69
310.03	393.69
310.26	379.69
310.49	381.69
310.72	404.69
310.949	424.69
311.179	396.69
311.409	418.69
311.639	393.69
311.868	391.69
312.098	426.69
312.328	405.69
312.557	410.69
312.787	424.69
313.017	411.69
313.246	410.69
313.476	375.69
313.706	380.69
313.935	407.69
314.165	407.69
314.394	401.69
314.624	405.69
314.853	401.69
315.083	413.69
315.312	401.69
315.542	400.69
315.771	396.69
316.001	409.69
316.23	422.69
316.46	407.69
316.689	416.69
316.919	405.69
317.148	413.69
317.377	429.69
317.607	412.69
317.836	397.69
318.065	408.69
318.295	409.69
318.524	418.69
318.753	405.69
318.983	406.69
319.212	395.69
319.441	386.69
319.67	417.69
319.9	419.69
320.129	428.69
320.358	404.69
320.587	421.69
320.816	413.69
321.046	418.69
321.275	440.69
321.504	431.69
321.733	429.69
321.962	423.69
322.191	425.69
322.42	445.69
322.649	471.69
322.878	453.69
323.108	446.69
323.337	463.69
323.566	479.69
323.795	502.69
324.024	528.69
324.253	604.69
324.482	781.69
324.71	1120.69
324.939	1599.69
325.168	1402.69
325.397	798.69
325.626	581.69
325.855	527.69
326.084	517.69
326.313	490.69
326.542	484.69
326.77	512.69
326.999	580.69
327.228	752.69
327.457	1066.69
327.686	1236.69
327.914	871.69
328.143	623.69
328.372	573.69
328.6	561.69
328.829	536.69
329.058	528.69
329.287	544.69
329.515	519.69
329.744	488.69
329.972	482.69
330.201	533.69
330.43	523.69
330.658	548.69
330.887	583.69
331.115	556.69
331.344	516.69
331.572	521.69
331.801	498.69
332.03	509.69
332.258	509.69
332.486	506.69
332.715	479.69
332.943	505.69
333.172	501.69
333.4	531.69
333.629	529.69
333.857	539.69
334.085	540.69
334.314	556.69
334.542	562.69
334.771	590.69
334.999	543.69
335.227	525.69
335.455	507.69
335.684	482.69
335.912	500.69
336.14	495.69
336.369	499.69
336.597	475.69
336.825	476.69
337.053	489.69
337.281	474.69
337.51	481.69
337.738	503.69
337.966	482.69
338.194	458.69
338.422	472.69
338.65	480.69
338.878	468.69
339.106	471.69
339.334	464.69
339.562	477.69
339.79	481.69
340.018	451.69
340.246	472.69
340.474	478.69
340.702	472.69
340.93	451.69
341.158	487.69
341.386	481.69
341.614	458.69
341.842	448.69
342.07	450.69
342.298	475.69
342.526	449.69
342.754	446.69
342.981	441.69
343.209	435.69
343.437	482.69
343.665	462.69
343.893	505.69
344.12	492.69
344.348	513.69
344.576	495.69
344.804	477.69
345.031	480.69
345.259	488.69
345.487	479.69
345.714	460.69
345.942	451.69
346.17	439.69
346.397	463.69
346.625	447.69
346.853	453.69
347.08	446.69
347.308	460.69
347.535	457.69
347.763	435.69
347.99	449.69
348.218	454.69
348.445	477.69
348.673	447.69
348.9	440.69
349.128	438.69
349.355	423.69
349.583	432.69
349.81	428.69
350.037	422.69
350.265	424.69
350.492	443.69
350.72	433.69
350.947	432.69
351.174	449.69
351.402	429.69
351.629	423.69
351.856	435.69
352.083	439.69
352.311	448.69
352.538	435.69
352.765	466.69
352.992	433.69
353.22	435.69
353.447	422.69
353.674	445.69
353.901	427.69
354.128	432.69
354.355	421.69
354.583	425.69
354.81	419.69
355.037	426.69
355.264	415.69
355.491	426.69
355.718	430.69
355.945	422.69
356.172	417.69
356.399	437.69
356.626	430.69
356.853	443.69
357.08	436.69
357.307	410.69
357.534	419.69
357.761	405.69
357.988	413.69
358.215	407.69
358.441	413.69
358.668	411.69
358.895	429.69
359.122	412.69
359.349	424.69
359.576	439.69
359.802	437.69
360.029	435.69
360.256	455.69
360.483	420.69
360.709	423.69
360.936	428.69
361.163	443.69
361.39	449.69
361.616	435.69
361.843	428.69
362.07	428.69
362.296	445.69
362.523	445.69
362.749	452.69
362.976	420.69
363.203	432.69
363.429	436.69
363.656	434.69
363.882	418.69
364.109	402.69
364.335	434.69
364.562	415.69
364.788	419.69
365.015	412.69
365.241	427.69
365.468	423.69
365.694	429.69
365.92	419.69
366.147	433.69
366.373	425.69
366.599	400.69
366.826	406.69
367.052	416.69
367.278	428.69
367.505	420.69
367.731	418.69
367.957	431.69
368.184	449.69
368.41	417.69
368.636	428.69
368.862	441.69
369.089	419.69
369.315	410.69
369.541	423.69
369.767	423.69
369.993	446.69
370.219	428.69
370.445	435.69
370.672	439.69
370.898	416.69
371.124	447.69
371.35	429.69
371.576	431.69
371.802	425.69
372.028	411.69
372.254	441.69
372.48	425.69
372.706	426.69
372.932	447.69
373.158	445.69
373.384	426.69
373.61	448.69
373.835	427.69
374.061	415.69
374.287	412.69
374.513	439.69
374.739	444.69
374.965	447.69
375.191	459.69
375.416	455.69
375.642	454.69
375.868	433.69
376.094	434.69
376.319	431.69
376.545	422.69
376.771	435.69
376.997	428.69
377.222	423.69
377.448	426.69
377.674	409.69
377.899	419.69
378.125	428.69
378.35	410.69
378.576	399.69
378.802	423.69
379.027	419.69
379.253	432.69
379.478	410.69
379.704	432.69
379.929	419.69
380.155	433.69
380.38	420.69
380.606	426.69
380.831	451.69
381.057	427.69
381.282	430.69
381.507	409.69
381.733	427.69
381.958	441.69
382.184	438.69
382.409	432.69
382.634	450.69
382.86	463.69
383.085	445.69
383.31	448.69
383.535	456.69
383.761	441.69
383.986	448.69
384.211	454.69
384.436	478.69
384.662	471.69
384.887	477.69
385.112	469.69
385.337	482.69
385.562	483.69
385.787	485.69
386.013	493.69
386.238	512.69
386.463	493.69
386.688	492.69
386.913	480.69
387.138	482.69
387.363	505.69
387.588	511.69
387.813	474.69
388.038	488.69
388.263	489.69
388.488	489.69
388.713	499.69
388.938	475.69
389.163	473.69
389.387	486.69
389.612	472.69
389.837	482.69
390.062	482.69
390.287	490.69
390.512	472.69
390.736	490.69
390.961	491.69
391.186	503.69
391.411	511.69
391.636	511.69
391.86	507.69
392.085	539.69
392.31	518.69
392.534	519.69
392.759	519.69
392.984	488.69
393.208	499.69
393.433	501.69
393.658	493.69
393.882	500.69
394.107	459.69
394.331	507.69
394.556	486.69
394.78	499.69
395.005	472.69
395.229	488.69
395.454	520.69
395.678	521.69
395.903	519.69
396.127	540.69
396.352	537.69
396.576	508.69
396.801	515.69
397.025	488.69
397.249	513.69
397.474	522.69
397.698	538.69
397.922	541.69
398.147	546.69
398.371	546.69
398.595	550.69
398.82	584.69
399.044	561.69
399.268	596.69
399.492	678.69
399.717	741.69
399.941	757.69
400.165	754.69
400.389	737.69
400.613	663.69
400.837	631.69
401.062	596.69
401.286	579.69
401.51	576.69
401.734	564.69
401.958	572.69
402.182	569.69
402.406	603.69
402.63	584.69
402.854	578.69
403.078	595.69
403.302	614.69
403.526	601.69
403.75	622.69
403.974	613.69
404.198	598.69
404.422	607.69
404.645	637.69
404.869	640.69
405.093	612.69
405.317	669.69
405.541	718.69
405.765	643.69
405.988	643.69
406.212	645.69
406.436	633.69
406.66	647.69
406.883	648.69
407.107	673.69
407.331	704.69
407.555	757.69
407.778	765.69
408.002	727.69
408.226	653.69
408.449	668.69
408.673	661.69
408.896	664.69
409.12	695.69
409.344	663.69
409.567	608.69
409.791	611.69
410.014	582.69
410.238	584.69
410.461	623.69
410.685	595.69
410.908	583.69
411.132	637.69
411.355	679.69
411.578	653.69
411.802	624.69
412.025	570.69
412.249	595.69
412.472	618.69
412.695	644.69
412.919	628.69
413.142	593.69
413.365	563.69
413.589	595.69
413.812	573.69
414.035	572.69
414.258	569.69
414.482	560.69
414.705	562.69
414.928	570.69
415.151	554.69
415.374	564.69
415.597	551.69
415.821	554.69
416.044	559.69
416.267	585.69
416.49	575.69
416.713	578.69
416.936	550.69
417.159	559.69
417.382	565.69
417.605	587.69
417.828	577.69
418.051	613.69
418.274	588.69
418.497	547.69
418.72	561.69
418.943	569.69
419.166	583.69
419.389	641.69
419.611	611.69
419.834	599.69
420.057	607.69
420.28	605.69
420.503	585.69
420.726	589.69
420.948	590.69
421.171	628.69
421.394	635.69
421.617	589.69
421.839	595.69
422.062	559.69
422.285	555.69
422.507	630.69
422.73	710.69
422.953	663.69
423.175	633.69
423.398	594.69
423.621	607.69
423.843	630.69
424.066	604.69
424.288	633.69
424.511	629.69
424.733	695.69
424.956	743.69
425.178	705.69
425.401	719.69
425.623	725.69
425.846	672.69
426.068	597.69
426.291	587.69
426.513	610.69
426.735	608.69
426.958	612.69
427.18	685.69
427.402	790.69
427.625	873.69
427.847	759.69
428.069	684.69
428.292	616.69
428.514	600.69
428.736	547.69
428.958	574.69
429.181	553.69
429.403	546.69
429.625	585.69
429.847	593.69
430.069	633.69
430.292	619.69
430.514	547.69
430.736	549.69
430.958	560.69
431.18	539.69
431.402	531.69
431.624	525.69
431.846	526.69
432.068	535.69
432.29	529.69
432.512	528.69
432.734	527.69
432.956	540.69
433.178	519.69
433.4	545.69
433.622	522.69
433.844	527.69
434.066	535.69
434.287	523.69
434.509	542.69
434.731	567.69
434.953	572.69
435.175	606.69
435.397	610.69
435.618	594.69
435.84	626.69
436.062	688.69
436.284	760.69
436.505	673.69
436.727	577.69
436.949	563.69
437.17	552.69
437.392	554.69
437.614	531.69
437.835	586.69
438.057	631.69
438.278	721.69
438.5	727.69
438.721	801.69
438.943	806.69
439.165	635.69
439.386	578.69
439.608	601.69
439.829	600.69
440.05	605.69
440.272	655.69
440.493	612.69
440.715	591.69
440.936	571.69
441.158	544.69
441.379	561.69
441.6	563.69
441.822	576.69
442.043	635.69
442.264	704.69
442.486	755.69
442.707	618.69
442.928	606.69
443.149	631.69
443.371	626.69
443.592	644.69
443.813	722.69
444.034	791.69
444.255	688.69
444.476	653.69
444.698	641.69
444.919	628.69
445.14	733.69
445.361	680.69
445.582	643.69
445.803	669.69
446.024	749.69
446.245	785.69
446.466	691.69
446.687	628.69
446.908	594.69
447.129	562.69
447.35	555.69
447.571	527.69
447.792	544.69
448.013	547.69
448.234	537.69
448.455	600.69
448.675	699.69
448.896	777.69
449.117	665.69
449.338	657.69
449.559	718.69
449.779	794.69
450	689.69
450.221	587.69
450.442	565.69
450.662	521.69
450.883	514.69
451.104	544.69
451.324	514.69
451.545	479.69
451.766	489.69
451.986	486.69
452.207	479.69
452.428	495.69
452.648	491.69
452.869	498.69
453.089	492.69
453.31	495.69
453.53	483.69
453.751	488.69
453.971	508.69
454.192	492.69
454.412	478.69
454.633	474.69
454.853	489.69
455.073	471.69
455.294	492.69
455.514	568.69
455.734	551.69
455.955	475.69
456.175	476.69
456.395	465.69
456.616	433.69
456.836	461.69
457.056	459.69
457.276	464.69
457.497	469.69
457.717	448.69
457.937	476.69
458.157	470.69
458.377	487.69
458.598	492.69
458.818	541.69
459.038	615.69
459.258	611.69
459.478	569.69
459.698	531.69
459.918	544.69
460.138	547.69
460.358	525.69
460.578	553.69
460.798	567.69
461.018	554.69
461.238	546.69
461.458	576.69
461.678	567.69
461.898	566.69
462.118	545.69
462.338	615.69
462.558	591.69
462.777	607.69
462.997	613.69
463.217	672.69
463.437	699.69
463.657	641.69
463.876	625.69
464.096	634.69
464.316	621.69
464.536	607.69
464.755	625.69
464.975	599.69
465.195	609.69
465.414	633.69
465.634	564.69
465.854	561.69
466.073	516.69
466.293	519.69
466.512	517.69
466.732	498.69
466.951	499.69
467.171	481.69
467.391	509.69
467.61	513.69
467.829	524.69
468.049	525.69
468.268	501.69
468.488	513.69
468.707	489.69
468.927	495.69
469.146	482.69
469.365	513.69
469.585	525.69
469.804	541.69
470.023	533.69
470.243	506.69
470.462	512.69
470.681	529.69
470.901	525.69
471.12	503.69
471.339	512.69
471.558	540.69
471.777	514.69
471.997	507.69
472.216	520.69
472.435	527.69
472.654	520.69
472.873	517.69
473.092	483.69
473.311	498.69
473.53	494.69
473.749	502.69
473.968	523.69
474.187	616.69
474.406	627.69
474.625	549.69
474.844	525.69
475.063	523.69
475.282	488.69
475.501	514.69
475.72	521.69
475.939	528.69
476.158	513.69
476.377	534.69
476.596	527.69
476.814	518.69
477.033	524.69
477.252	525.69
477.471	538.69
477.69	548.69
477.908	547.69
478.127	527.69
478.346	564.69
478.564	582.69
478.783	574.69
479.002	606.69
479.22	591.69
479.439	582.69
479.658	623.69
479.876	615.69
480.095	618.69
480.313	656.69
480.532	658.69
480.751	642.69
480.969	649.69
481.188	631.69
481.406	648.69
481.624	643.69
481.843	629.69
482.061	589.69
482.28	605.69
482.498	580.69
482.717	593.69
482.935	604.69
483.153	584.69
483.372	581.69
483.59	593.69
483.808	588.69
484.027	580.69
484.245	573.69
484.463	605.69
484.681	600.69
484.9	612.69
485.118	628.69
485.336	581.69
485.554	582.69
485.772	583.69
485.99	612.69
486.209	626.69
486.427	613.69
486.645	630.69
486.863	615.69
487.081	636.69
487.299	633.69
487.517	625.69
487.735	618.69
487.953	623.69
488.171	623.69
488.389	635.69
488.607	650.69
488.825	630.69
489.043	623.69
489.261	640.69
489.479	634.69
489.696	647.69
489.914	653.69
490.132	668.69
490.35	666.69
490.568	672.69
490.786	673.69
491.003	665.69
491.221	673.69
491.439	681.69
491.657	681.69
491.874	717.69
492.092	683.69
492.31	703.69
492.527	722.69
492.745	729.69
492.963	723.69
493.18	715.69
493.398	732.69
493.615	743.69
493.833	732.69
494.05	744.69
494.268	737.69
494.485	739.69
494.703	740.69
494.92	725.69
495.138	708.69
495.355	727.69
495.573	723.69
495.79	730.69
496.008	737.69
496.225	735.69
496.442	727.69
496.66	732.69
496.877	752.69
497.094	747.69
497.312	736.69
497.529	769.69
497.746	802.69
497.963	785.69
498.181	815.69
498.398	815.69
498.615	857.69
498.832	892.69
499.049	925.69
499.267	932.69
499.484	983.69
499.701	1037.69
499.918	1115.69
500.135	1202.69
500.352	1308.69
500.569	1315.69
500.786	1316.69
501.003	1259.69
501.22	1201.69
501.437	1153.69
501.654	1072.69
