Data from 1973.PennyLincolnUp.Lamp.En5.5.200Scan.071719.P1.Changed Mount._HRD10591_15-44-25-853.txt Node
Date: Thu Jul 18 15:44:25 EDT 2019
User: cochatt
Spectrometer: HR+D1059
Trigger mode: 1
Integration Time (sec): 1.000000E-1
Scans to average: 1
Electric dark correction enabled: true
Nonlinearity correction enabled: false
Boxcar width: 0
XAxis mode: Wavelengths
Number of Pixels in Spectrum: 2048
>>>>>Begin Spectral Data<<<<<
223.165	-4.56
223.4	-4.56
223.635	-4.56
223.869	-7.56
224.104	-19.56
224.338	-14.56
224.573	-14.56
224.808	-13.56
225.042	1.44
225.277	-3.56
225.511	3.44
225.746	-14.56
225.98	0.44
226.215	9.44
226.449	10.44
226.683	16.44
226.918	13.44
227.152	37.44
227.387	32.44
227.621	40.44
227.856	34.44
228.09	28.44
228.324	39.44
228.559	60.44
228.793	51.44
229.027	92.44
229.262	95.44
229.496	100.44
229.73	115.44
229.964	127.44
230.199	112.44
230.433	107.44
230.667	115.44
230.901	92.44
231.136	107.44
231.37	102.44
231.604	104.44
231.838	105.44
232.072	106.44
232.306	103.44
232.541	110.44
232.775	116.44
233.009	118.44
233.243	121.44
233.477	104.44
233.711	119.44
233.945	105.44
234.179	121.44
234.413	103.44
234.647	117.44
234.881	98.44
235.115	113.44
235.349	113.44
235.583	118.44
235.817	116.44
236.051	131.44
236.285	123.44
236.519	133.44
236.753	139.44
236.987	137.44
237.221	168.44
237.455	199.44
237.689	171.44
237.922	132.44
238.156	141.44
238.39	125.44
238.624	126.44
238.858	136.44
239.091	125.44
239.325	119.44
239.559	121.44
239.793	111.44
240.027	133.44
240.26	125.44
240.494	145.44
240.728	137.44
240.961	137.44
241.195	146.44
241.429	130.44
241.662	137.44
241.896	136.44
242.13	128.44
242.363	124.44
242.597	133.44
242.83	142.44
243.064	129.44
243.298	138.44
243.531	128.44
243.765	150.44
243.998	141.44
244.232	151.44
244.465	131.44
244.699	143.44
244.932	140.44
245.166	145.44
245.399	148.44
245.633	138.44
245.866	131.44
246.099	162.44
246.333	139.44
246.566	151.44
246.8	143.44
247.033	155.44
247.266	159.44
247.5	164.44
247.733	177.44
247.966	180.44
248.2	181.44
248.433	165.44
248.666	155.44
248.899	178.44
249.133	189.44
249.366	193.44
249.599	168.44
249.832	185.44
250.066	186.44
250.299	182.44
250.532	176.44
250.765	193.44
250.998	204.44
251.231	217.44
251.465	214.44
251.698	211.44
251.931	215.44
252.164	186.44
252.397	187.44
252.63	197.44
252.863	207.44
253.096	196.44
253.329	204.44
253.562	199.44
253.795	217.44
254.028	199.44
254.261	211.44
254.494	199.44
254.727	231.44
254.96	263.44
255.193	255.44
255.426	232.44
255.659	214.44
255.892	215.44
256.124	225.44
256.357	208.44
256.59	219.44
256.823	215.44
257.056	204.44
257.289	210.44
257.521	223.44
257.754	211.44
257.987	194.44
258.22	207.44
258.452	206.44
258.685	191.44
258.918	201.44
259.151	219.44
259.383	219.44
259.616	213.44
259.849	232.44
260.081	212.44
260.314	249.44
260.547	248.44
260.779	232.44
261.012	228.44
261.244	210.44
261.477	228.44
261.71	221.44
261.942	226.44
262.175	215.44
262.407	229.44
262.64	230.44
262.872	201.44
263.105	218.44
263.337	223.44
263.57	212.44
263.802	208.44
264.035	226.44
264.267	214.44
264.499	191.44
264.732	204.44
264.964	201.44
265.197	226.44
265.429	205.44
265.661	201.44
265.894	224.44
266.126	226.44
266.358	212.44
266.591	219.44
266.823	223.44
267.055	228.44
267.287	248.44
267.52	233.44
267.752	237.44
267.984	243.44
268.216	249.44
268.448	232.44
268.681	235.44
268.913	259.44
269.145	272.44
269.377	269.44
269.609	265.44
269.841	274.44
270.073	275.44
270.306	282.44
270.538	297.44
270.77	311.44
271.002	275.44
271.234	291.44
271.466	292.44
271.698	311.44
271.93	321.44
272.162	286.44
272.394	307.44
272.626	298.44
272.858	277.44
273.09	276.44
273.322	287.44
273.553	285.44
273.785	281.44
274.017	288.44
274.249	259.44
274.481	264.44
274.713	263.44
274.945	266.44
275.176	283.44
275.408	269.44
275.64	284.44
275.872	256.44
276.104	264.44
276.335	271.44
276.567	282.44
276.799	281.44
277.031	302.44
277.262	312.44
277.494	316.44
277.726	297.44
277.957	305.44
278.189	293.44
278.421	283.44
278.652	259.44
278.884	262.44
279.115	262.44
279.347	278.44
279.579	282.44
279.81	267.44
280.042	269.44
280.273	263.44
280.505	301.44
280.736	274.44
280.968	280.44
281.199	281.44
281.431	268.44
281.662	273.44
281.894	288.44
282.125	303.44
282.356	307.44
282.588	313.44
282.819	309.44
283.051	289.44
283.282	280.44
283.513	294.44
283.745	303.44
283.976	284.44
284.207	309.44
284.439	303.44
284.67	301.44
284.901	291.44
285.132	291.44
285.364	282.44
285.595	290.44
285.826	285.44
286.057	291.44
286.288	311.44
286.52	292.44
286.751	303.44
286.982	314.44
287.213	301.44
287.444	311.44
287.675	297.44
287.906	313.44
288.138	309.44
288.369	306.44
288.6	317.44
288.831	315.44
289.062	309.44
289.293	318.44
289.524	307.44
289.755	317.44
289.986	312.44
290.217	313.44
290.448	326.44
290.679	333.44
290.91	308.44
291.141	306.44
291.371	322.44
291.602	295.44
291.833	305.44
292.064	309.44
292.295	306.44
292.526	304.44
292.757	298.44
292.987	313.44
293.218	307.44
293.449	298.44
293.68	323.44
293.91	304.44
294.141	321.44
294.372	310.44
294.603	303.44
294.833	311.44
295.064	313.44
295.295	317.44
295.525	334.44
295.756	327.44
295.987	323.44
296.217	335.44
296.448	337.44
296.679	336.44
296.909	298.44
297.14	322.44
297.37	314.44
297.601	315.44
297.831	307.44
298.062	320.44
298.292	307.44
298.523	328.44
298.753	338.44
298.984	324.44
299.214	331.44
299.445	336.44
299.675	331.44
299.905	337.44
300.136	343.44
300.366	336.44
300.597	356.44
300.827	349.44
301.057	338.44
301.288	359.44
301.518	332.44
301.748	344.44
301.979	355.44
302.209	358.44
302.439	353.44
302.669	351.44
302.9	329.44
303.13	360.44
303.36	355.44
303.59	349.44
303.82	352.44
304.051	352.44
304.281	345.44
304.511	356.44
304.741	345.44
304.971	347.44
305.201	350.44
305.431	348.44
305.661	363.44
305.891	351.44
306.121	349.44
306.352	346.44
306.582	356.44
306.812	350.44
307.042	347.44
307.272	361.44
307.502	333.44
307.731	362.44
307.961	343.44
308.191	365.44
308.421	357.44
308.651	348.44
308.881	353.44
309.111	363.44
309.341	351.44
309.571	374.44
309.8	375.44
310.03	369.44
310.26	361.44
310.49	375.44
310.72	364.44
310.949	386.44
311.179	387.44
311.409	373.44
311.639	383.44
311.868	375.44
312.098	364.44
312.328	357.44
312.557	406.44
312.787	393.44
313.017	399.44
313.246	401.44
313.476	402.44
313.706	383.44
313.935	381.44
314.165	406.44
314.394	393.44
314.624	391.44
314.853	388.44
315.083	375.44
315.312	376.44
315.542	384.44
315.771	379.44
316.001	381.44
316.23	376.44
316.46	391.44
316.689	391.44
316.919	394.44
317.148	386.44
317.377	373.44
317.607	379.44
317.836	371.44
318.065	375.44
318.295	389.44
318.524	380.44
318.753	397.44
318.983	394.44
319.212	385.44
319.441	398.44
319.67	394.44
319.9	377.44
320.129	387.44
320.358	393.44
320.587	382.44
320.816	403.44
321.046	411.44
321.275	387.44
321.504	393.44
321.733	382.44
321.962	380.44
322.191	409.44
322.42	411.44
322.649	426.44
322.878	431.44
323.108	427.44
323.337	440.44
323.566	437.44
323.795	481.44
324.024	501.44
324.253	572.44
324.482	755.44
324.71	1087.44
324.939	1523.44
325.168	1325.44
325.397	729.44
325.626	537.44
325.855	480.44
326.084	493.44
326.313	472.44
326.542	452.44
326.77	479.44
326.999	540.44
327.228	697.44
327.457	979.44
327.686	1189.44
327.914	807.44
328.143	602.44
328.372	527.44
328.6	526.44
328.829	509.44
329.058	513.44
329.287	497.44
329.515	486.44
329.744	471.44
329.972	452.44
330.201	497.44
330.43	514.44
330.658	525.44
330.887	548.44
331.115	525.44
331.344	488.44
331.572	463.44
331.801	455.44
332.03	465.44
332.258	473.44
332.486	456.44
332.715	481.44
332.943	466.44
333.172	467.44
333.4	480.44
333.629	496.44
333.857	520.44
334.085	521.44
334.314	507.44
334.542	529.44
334.771	533.44
334.999	504.44
335.227	482.44
335.455	492.44
335.684	485.44
335.912	469.44
336.14	467.44
336.369	466.44
336.597	458.44
336.825	478.44
337.053	464.44
337.281	456.44
337.51	452.44
337.738	447.44
337.966	449.44
338.194	455.44
338.422	444.44
338.65	436.44
338.878	437.44
339.106	436.44
339.334	433.44
339.562	413.44
339.79	450.44
340.018	422.44
340.246	448.44
340.474	449.44
340.702	470.44
340.93	430.44
341.158	440.44
341.386	437.44
341.614	440.44
341.842	437.44
342.07	424.44
342.298	443.44
342.526	446.44
342.754	427.44
342.981	421.44
343.209	425.44
343.437	430.44
343.665	459.44
343.893	468.44
344.12	475.44
344.348	473.44
344.576	483.44
344.804	458.44
345.031	444.44
345.259	438.44
345.487	459.44
345.714	424.44
345.942	439.44
346.17	417.44
346.397	414.44
346.625	426.44
346.853	422.44
347.08	415.44
347.308	438.44
347.535	405.44
347.763	429.44
347.99	420.44
348.218	433.44
348.445	417.44
348.673	418.44
348.9	395.44
349.128	411.44
349.355	396.44
349.583	419.44
349.81	407.44
350.037	380.44
350.265	415.44
350.492	401.44
350.72	417.44
350.947	419.44
351.174	402.44
351.402	408.44
351.629	415.44
351.856	416.44
352.083	435.44
352.311	419.44
352.538	436.44
352.765	435.44
352.992	419.44
353.22	431.44
353.447	424.44
353.674	397.44
353.901	391.44
354.128	390.44
354.355	380.44
354.583	409.44
354.81	398.44
355.037	404.44
355.264	410.44
355.491	394.44
355.718	394.44
355.945	408.44
356.172	405.44
356.399	410.44
356.626	410.44
356.853	398.44
357.08	400.44
357.307	396.44
357.534	399.44
357.761	376.44
357.988	402.44
358.215	400.44
358.441	397.44
358.668	400.44
358.895	399.44
359.122	392.44
359.349	419.44
359.576	415.44
359.802	415.44
360.029	420.44
360.256	445.44
360.483	422.44
360.709	413.44
360.936	408.44
361.163	393.44
361.39	409.44
361.616	421.44
361.843	407.44
362.07	415.44
362.296	418.44
362.523	413.44
362.749	403.44
362.976	407.44
363.203	403.44
363.429	401.44
363.656	393.44
363.882	407.44
364.109	391.44
364.335	387.44
364.562	391.44
364.788	413.44
365.015	404.44
365.241	423.44
365.468	422.44
365.694	405.44
365.92	420.44
366.147	414.44
366.373	405.44
366.599	400.44
366.826	399.44
367.052	371.44
367.278	379.44
367.505	386.44
367.731	403.44
367.957	387.44
368.184	395.44
368.41	386.44
368.636	406.44
368.862	417.44
369.089	408.44
369.315	417.44
369.541	393.44
369.767	397.44
369.993	420.44
370.219	406.44
370.445	409.44
370.672	404.44
370.898	391.44
371.124	401.44
371.35	406.44
371.576	423.44
371.802	411.44
372.028	429.44
372.254	387.44
372.48	427.44
372.706	434.44
372.932	407.44
373.158	418.44
373.384	419.44
373.61	404.44
373.835	418.44
374.061	406.44
374.287	431.44
374.513	422.44
374.739	430.44
374.965	442.44
375.191	456.44
375.416	420.44
375.642	417.44
375.868	415.44
376.094	422.44
376.319	394.44
376.545	420.44
376.771	432.44
376.997	410.44
377.222	422.44
377.448	405.44
377.674	410.44
377.899	389.44
378.125	410.44
378.35	407.44
378.576	405.44
378.802	409.44
379.027	397.44
379.253	429.44
379.478	426.44
379.704	402.44
379.929	391.44
380.155	436.44
380.38	425.44
380.606	395.44
380.831	411.44
381.057	403.44
381.282	415.44
381.507	404.44
381.733	413.44
381.958	421.44
382.184	423.44
382.409	447.44
382.634	426.44
382.86	428.44
383.085	424.44
383.31	436.44
383.535	417.44
383.761	416.44
383.986	425.44
384.211	439.44
384.436	449.44
384.662	418.44
384.887	431.44
385.112	429.44
385.337	447.44
385.562	443.44
385.787	448.44
386.013	449.44
386.238	472.44
386.463	463.44
386.688	472.44
386.913	475.44
387.138	469.44
387.363	481.44
387.588	460.44
387.813	452.44
388.038	450.44
388.263	437.44
388.488	465.44
388.713	466.44
388.938	460.44
389.163	461.44
389.387	453.44
389.612	443.44
389.837	459.44
390.062	466.44
390.287	453.44
390.512	467.44
390.736	454.44
390.961	465.44
391.186	466.44
391.411	470.44
391.636	473.44
391.86	465.44
392.085	487.44
392.31	486.44
392.534	480.44
392.759	478.44
392.984	459.44
393.208	468.44
393.433	482.44
393.658	459.44
393.882	463.44
394.107	475.44
394.331	474.44
394.556	473.44
394.78	467.44
395.005	496.44
395.229	479.44
395.454	477.44
395.678	482.44
395.903	491.44
396.127	508.44
396.352	486.44
396.576	486.44
396.801	483.44
397.025	490.44
397.249	489.44
397.474	480.44
397.698	499.44
397.922	511.44
398.147	512.44
398.371	511.44
398.595	504.44
398.82	539.44
399.044	562.44
399.268	579.44
399.492	633.44
399.717	647.44
399.941	712.44
400.165	691.44
400.389	693.44
400.613	623.44
400.837	581.44
401.062	569.44
401.286	549.44
401.51	541.44
401.734	548.44
401.958	536.44
402.182	573.44
402.406	556.44
402.63	557.44
402.854	566.44
403.078	561.44
403.302	573.44
403.526	555.44
403.75	577.44
403.974	583.44
404.198	585.44
404.422	583.44
404.645	569.44
404.869	581.44
405.093	621.44
405.317	625.44
405.541	662.44
405.765	610.44
405.988	581.44
406.212	590.44
406.436	609.44
406.66	616.44
406.883	593.44
407.107	649.44
407.331	671.44
407.555	732.44
407.778	738.44
408.002	671.44
408.226	640.44
408.449	625.44
408.673	602.44
408.896	623.44
409.12	672.44
409.344	650.44
409.567	588.44
409.791	570.44
410.014	545.44
410.238	575.44
410.461	579.44
410.685	584.44
410.908	564.44
411.132	593.44
411.355	640.44
411.578	597.44
411.802	555.44
412.025	557.44
412.249	568.44
412.472	567.44
412.695	620.44
412.919	587.44
413.142	568.44
413.365	553.44
413.589	543.44
413.812	524.44
414.035	521.44
414.258	546.44
414.482	544.44
414.705	534.44
414.928	557.44
415.151	527.44
415.374	519.44
415.597	504.44
415.821	524.44
416.044	518.44
416.267	536.44
416.49	543.44
416.713	515.44
416.936	529.44
417.159	533.44
417.382	556.44
417.605	542.44
417.828	523.44
418.051	545.44
418.274	538.44
418.497	523.44
418.72	520.44
418.943	526.44
419.166	554.44
419.389	595.44
419.611	555.44
419.834	536.44
420.057	572.44
420.28	575.44
420.503	575.44
420.726	561.44
420.948	557.44
421.171	600.44
421.394	615.44
421.617	545.44
421.839	548.44
422.062	529.44
422.285	540.44
422.507	624.44
422.73	679.44
422.953	632.44
423.175	593.44
423.398	565.44
423.621	576.44
423.843	582.44
424.066	593.44
424.288	591.44
424.511	580.44
424.733	636.44
424.956	710.44
425.178	658.44
425.401	673.44
425.623	684.44
425.846	604.44
426.068	583.44
426.291	537.44
426.513	562.44
426.735	571.44
426.958	597.44
427.18	667.44
427.402	791.44
427.625	845.44
427.847	736.44
428.069	639.44
428.292	593.44
428.514	539.44
428.736	528.44
428.958	513.44
429.181	520.44
429.403	505.44
429.625	542.44
429.847	556.44
430.069	596.44
430.292	598.44
430.514	533.44
430.736	521.44
430.958	522.44
431.18	498.44
431.402	479.44
431.624	508.44
431.846	485.44
432.068	508.44
432.29	513.44
432.512	522.44
432.734	500.44
432.956	505.44
433.178	509.44
433.4	523.44
433.622	475.44
433.844	503.44
434.066	501.44
434.287	521.44
434.509	524.44
434.731	521.44
434.953	531.44
435.175	553.44
435.397	589.44
435.618	570.44
435.84	605.44
436.062	664.44
436.284	706.44
436.505	652.44
436.727	573.44
436.949	518.44
437.17	517.44
437.392	535.44
437.614	493.44
437.835	557.44
438.057	607.44
438.278	678.44
438.5	721.44
438.721	765.44
438.943	751.44
439.165	586.44
439.386	535.44
439.608	566.44
439.829	549.44
440.05	559.44
440.272	584.44
440.493	561.44
440.715	557.44
440.936	538.44
441.158	559.44
441.379	545.44
441.6	543.44
441.822	562.44
442.043	601.44
442.264	669.44
442.486	692.44
442.707	599.44
442.928	569.44
443.149	595.44
443.371	600.44
443.592	614.44
443.813	716.44
444.034	762.44
444.255	656.44
444.476	604.44
444.698	620.44
444.919	612.44
445.14	697.44
445.361	669.44
445.582	616.44
445.803	663.44
446.024	717.44
446.245	709.44
446.466	674.44
446.687	573.44
446.908	537.44
447.129	513.44
447.35	513.44
447.571	520.44
447.792	513.44
448.013	527.44
448.234	535.44
448.455	555.44
448.675	637.44
448.896	727.44
449.117	623.44
449.338	633.44
449.559	705.44
449.779	783.44
450	636.44
450.221	556.44
450.442	500.44
450.662	502.44
450.883	504.44
451.104	491.44
451.324	504.44
451.545	474.44
451.766	469.44
451.986	468.44
452.207	451.44
452.428	470.44
452.648	458.44
452.869	454.44
453.089	468.44
453.31	476.44
453.53	458.44
453.751	460.44
453.971	460.44
454.192	479.44
454.412	460.44
454.633	465.44
454.853	466.44
455.073	451.44
455.294	472.44
455.514	511.44
455.734	508.44
455.955	471.44
456.175	444.44
456.395	417.44
456.616	443.44
456.836	447.44
457.056	448.44
457.276	427.44
457.497	440.44
457.717	451.44
457.937	413.44
458.157	449.44
458.377	452.44
458.598	476.44
458.818	515.44
459.038	559.44
459.258	585.44
459.478	529.44
459.698	500.44
459.918	503.44
460.138	519.44
460.358	522.44
460.578	547.44
460.798	534.44
461.018	547.44
461.238	507.44
461.458	523.44
461.678	533.44
461.898	520.44
462.118	532.44
462.338	533.44
462.558	564.44
462.777	591.44
462.997	593.44
463.217	620.44
463.437	614.44
463.657	590.44
463.876	597.44
464.096	590.44
464.316	578.44
464.536	573.44
464.755	558.44
464.975	581.44
465.195	583.44
465.414	605.44
465.634	545.44
465.854	543.44
466.073	511.44
466.293	515.44
466.512	479.44
466.732	465.44
466.951	462.44
467.171	476.44
467.391	487.44
467.61	473.44
467.829	487.44
468.049	471.44
468.268	499.44
468.488	476.44
468.707	458.44
468.927	451.44
469.146	447.44
469.365	449.44
469.585	450.44
469.804	480.44
470.023	498.44
470.243	505.44
470.462	507.44
470.681	509.44
470.901	504.44
471.12	472.44
471.339	484.44
471.558	490.44
471.777	485.44
471.997	478.44
472.216	465.44
472.435	486.44
472.654	491.44
472.873	459.44
473.092	459.44
473.311	467.44
473.53	475.44
473.749	489.44
473.968	507.44
474.187	569.44
474.406	600.44
474.625	505.44
474.844	484.44
475.063	487.44
475.282	469.44
475.501	476.44
475.72	494.44
475.939	505.44
476.158	502.44
476.377	496.44
476.596	487.44
476.814	493.44
477.033	512.44
477.252	489.44
477.471	508.44
477.69	552.44
477.908	531.44
478.127	527.44
478.346	546.44
478.564	539.44
478.783	570.44
479.002	584.44
479.22	566.44
479.439	568.44
479.658	576.44
479.876	574.44
480.095	561.44
480.313	612.44
480.532	609.44
480.751	596.44
480.969	602.44
481.188	618.44
481.406	642.44
481.624	591.44
481.843	561.44
482.061	566.44
482.28	563.44
482.498	549.44
482.717	542.44
482.935	543.44
483.153	546.44
483.372	533.44
483.59	563.44
483.808	545.44
484.027	538.44
484.245	552.44
484.463	557.44
484.681	560.44
484.9	561.44
485.118	597.44
485.336	574.44
485.554	584.44
485.772	543.44
485.99	568.44
486.209	580.44
486.427	583.44
486.645	577.44
486.863	567.44
487.081	595.44
487.299	582.44
487.517	585.44
487.735	583.44
487.953	583.44
488.171	589.44
488.389	556.44
488.607	597.44
488.825	608.44
489.043	596.44
489.261	609.44
489.479	591.44
489.696	613.44
489.914	586.44
490.132	620.44
490.35	611.44
490.568	603.44
490.786	611.44
491.003	639.44
491.221	636.44
491.439	647.44
491.657	662.44
491.874	671.44
492.092	676.44
492.31	667.44
492.527	676.44
492.745	673.44
492.963	675.44
493.18	677.44
493.398	691.44
493.615	704.44
493.833	704.44
494.05	703.44
494.268	673.44
494.485	711.44
494.703	707.44
494.92	713.44
495.138	677.44
495.355	704.44
495.573	711.44
495.79	667.44
496.008	720.44
496.225	705.44
496.442	703.44
496.66	709.44
496.877	660.44
497.094	720.44
497.312	709.44
497.529	719.44
497.746	719.44
497.963	746.44
498.181	773.44
498.398	771.44
498.615	790.44
498.832	843.44
499.049	844.44
499.267	886.44
499.484	931.44
499.701	984.44
499.918	1045.44
500.135	1124.44
500.352	1207.44
500.569	1215.44
500.786	1245.44
501.003	1158.44
501.22	1111.44
501.437	1033.44
501.654	997.44
