Data from 1973.PennyLincolnUp.Lamp.En5.5.200Scan.071719.P1.Changed Mount._HRD10591_15-46-08-853.txt Node
Date: Thu Jul 18 15:46:08 EDT 2019
User: cochatt
Spectrometer: HR+D1059
Trigger mode: 1
Integration Time (sec): 1.000000E-1
Scans to average: 1
Electric dark correction enabled: true
Nonlinearity correction enabled: false
Boxcar width: 0
XAxis mode: Wavelengths
Number of Pixels in Spectrum: 2048
>>>>>Begin Spectral Data<<<<<
223.165	-11.81
223.4	-11.81
223.635	-11.81
223.869	-28.81
224.104	-19.81
224.338	-12.81
224.573	1.19
224.808	-11.81
225.042	-14.81
225.277	-5.81
225.511	-13.81
225.746	-9.81
225.98	15.19
226.215	8.19
226.449	8.19
226.683	27.19
226.918	39.19
227.152	30.19
227.387	33.19
227.621	29.19
227.856	50.19
228.09	44.19
228.324	46.19
228.559	66.19
228.793	73.19
229.027	103.19
229.262	113.19
229.496	106.19
229.73	116.19
229.964	150.19
230.199	125.19
230.433	104.19
230.667	107.19
230.901	111.19
231.136	76.19
231.37	114.19
231.604	117.19
231.838	111.19
232.072	109.19
232.306	115.19
232.541	120.19
232.775	106.19
233.009	101.19
233.243	113.19
233.477	120.19
233.711	111.19
233.945	126.19
234.179	124.19
234.413	111.19
234.647	102.19
234.881	147.19
235.115	133.19
235.349	117.19
235.583	126.19
235.817	120.19
236.051	112.19
236.285	122.19
236.519	132.19
236.753	131.19
236.987	144.19
237.221	166.19
237.455	214.19
237.689	168.19
237.922	146.19
238.156	141.19
238.39	141.19
238.624	125.19
238.858	145.19
239.091	115.19
239.325	128.19
239.559	136.19
239.793	120.19
240.027	122.19
240.26	149.19
240.494	159.19
240.728	165.19
240.961	163.19
241.195	156.19
241.429	141.19
241.662	140.19
241.896	131.19
242.13	139.19
242.363	132.19
242.597	152.19
242.83	141.19
243.064	144.19
243.298	141.19
243.531	157.19
243.765	138.19
243.998	137.19
244.232	147.19
244.465	152.19
244.699	151.19
244.932	149.19
245.166	149.19
245.399	166.19
245.633	162.19
245.866	162.19
246.099	162.19
246.333	163.19
246.566	148.19
246.8	156.19
247.033	156.19
247.266	163.19
247.5	174.19
247.733	162.19
247.966	179.19
248.2	194.19
248.433	175.19
248.666	176.19
248.899	172.19
249.133	200.19
249.366	211.19
249.599	199.19
249.832	168.19
250.066	187.19
250.299	184.19
250.532	187.19
250.765	193.19
250.998	219.19
251.231	212.19
251.465	226.19
251.698	202.19
251.931	180.19
252.164	198.19
252.397	209.19
252.63	211.19
252.863	206.19
253.096	209.19
253.329	234.19
253.562	222.19
253.795	231.19
254.028	208.19
254.261	219.19
254.494	229.19
254.727	254.19
254.96	276.19
255.193	277.19
255.426	246.19
255.659	238.19
255.892	227.19
256.124	244.19
256.357	224.19
256.59	206.19
256.823	227.19
257.056	207.19
257.289	218.19
257.521	222.19
257.754	208.19
257.987	224.19
258.22	216.19
258.452	222.19
258.685	214.19
258.918	222.19
259.151	229.19
259.383	218.19
259.616	236.19
259.849	224.19
260.081	233.19
260.314	258.19
260.547	264.19
260.779	234.19
261.012	251.19
261.244	232.19
261.477	230.19
261.71	228.19
261.942	242.19
262.175	235.19
262.407	222.19
262.64	226.19
262.872	208.19
263.105	227.19
263.337	214.19
263.57	225.19
263.802	235.19
264.035	232.19
264.267	218.19
264.499	217.19
264.732	243.19
264.964	215.19
265.197	232.19
265.429	227.19
265.661	246.19
265.894	232.19
266.126	239.19
266.358	227.19
266.591	248.19
266.823	242.19
267.055	245.19
267.287	237.19
267.52	247.19
267.752	244.19
267.984	242.19
268.216	256.19
268.448	252.19
268.681	238.19
268.913	254.19
269.145	275.19
269.377	290.19
269.609	279.19
269.841	306.19
270.073	294.19
270.306	283.19
270.538	312.19
270.77	325.19
271.002	308.19
271.234	288.19
271.466	302.19
271.698	318.19
271.93	318.19
272.162	351.19
272.394	339.19
272.626	304.19
272.858	318.19
273.09	295.19
273.322	292.19
273.553	272.19
273.785	296.19
274.017	286.19
274.249	274.19
274.481	283.19
274.713	282.19
274.945	278.19
275.176	296.19
275.408	297.19
275.64	280.19
275.872	279.19
276.104	295.19
276.335	286.19
276.567	308.19
276.799	306.19
277.031	329.19
277.262	335.19
277.494	328.19
277.726	326.19
277.957	304.19
278.189	306.19
278.421	290.19
278.652	303.19
278.884	298.19
279.115	306.19
279.347	298.19
279.579	295.19
279.81	287.19
280.042	276.19
280.273	292.19
280.505	295.19
280.736	294.19
280.968	298.19
281.199	286.19
281.431	282.19
281.662	295.19
281.894	301.19
282.125	307.19
282.356	312.19
282.588	314.19
282.819	329.19
283.051	292.19
283.282	298.19
283.513	295.19
283.745	312.19
283.976	302.19
284.207	329.19
284.439	316.19
284.67	310.19
284.901	304.19
285.132	328.19
285.364	307.19
285.595	301.19
285.826	308.19
286.057	320.19
286.288	310.19
286.52	305.19
286.751	304.19
286.982	325.19
287.213	314.19
287.444	326.19
287.675	326.19
287.906	323.19
288.138	339.19
288.369	332.19
288.6	348.19
288.831	333.19
289.062	331.19
289.293	319.19
289.524	328.19
289.755	314.19
289.986	325.19
290.217	344.19
290.448	323.19
290.679	328.19
290.91	331.19
291.141	326.19
291.371	326.19
291.602	309.19
291.833	326.19
292.064	340.19
292.295	349.19
292.526	312.19
292.757	328.19
292.987	317.19
293.218	311.19
293.449	338.19
293.68	322.19
293.91	325.19
294.141	335.19
294.372	345.19
294.603	326.19
294.833	338.19
295.064	333.19
295.295	338.19
295.525	333.19
295.756	333.19
295.987	342.19
296.217	363.19
296.448	349.19
296.679	325.19
296.909	348.19
297.14	337.19
297.37	353.19
297.601	351.19
297.831	348.19
298.062	345.19
298.292	335.19
298.523	358.19
298.753	376.19
298.984	356.19
299.214	347.19
299.445	352.19
299.675	323.19
299.905	356.19
300.136	343.19
300.366	347.19
300.597	340.19
300.827	361.19
301.057	357.19
301.288	356.19
301.518	365.19
301.748	336.19
301.979	357.19
302.209	360.19
302.439	368.19
302.669	353.19
302.9	370.19
303.13	342.19
303.36	363.19
303.59	377.19
303.82	386.19
304.051	371.19
304.281	383.19
304.511	358.19
304.741	345.19
304.971	378.19
305.201	364.19
305.431	370.19
305.661	359.19
305.891	368.19
306.121	356.19
306.352	356.19
306.582	354.19
306.812	359.19
307.042	374.19
307.272	370.19
307.502	370.19
307.731	389.19
307.961	383.19
308.191	367.19
308.421	352.19
308.651	377.19
308.881	353.19
309.111	378.19
309.341	375.19
309.571	382.19
309.8	390.19
310.03	391.19
310.26	412.19
310.49	390.19
310.72	407.19
310.949	402.19
311.179	418.19
311.409	403.19
311.639	390.19
311.868	388.19
312.098	391.19
312.328	383.19
312.557	407.19
312.787	422.19
313.017	443.19
313.246	415.19
313.476	420.19
313.706	401.19
313.935	437.19
314.165	418.19
314.394	415.19
314.624	421.19
314.853	410.19
315.083	412.19
315.312	392.19
315.542	394.19
315.771	424.19
316.001	412.19
316.23	418.19
316.46	396.19
316.689	397.19
316.919	396.19
317.148	409.19
317.377	412.19
317.607	405.19
317.836	415.19
318.065	410.19
318.295	412.19
318.524	387.19
318.753	388.19
318.983	403.19
319.212	407.19
319.441	423.19
319.67	401.19
319.9	420.19
320.129	424.19
320.358	423.19
320.587	411.19
320.816	418.19
321.046	444.19
321.275	435.19
321.504	432.19
321.733	416.19
321.962	419.19
322.191	420.19
322.42	440.19
322.649	462.19
322.878	442.19
323.108	456.19
323.337	471.19
323.566	502.19
323.795	509.19
324.024	513.19
324.253	602.19
324.482	794.19
324.71	1142.19
324.939	1580.19
325.168	1428.19
325.397	783.19
325.626	590.19
325.855	512.19
326.084	494.19
326.313	478.19
326.542	478.19
326.77	540.19
326.999	584.19
327.228	731.19
327.457	1051.19
327.686	1220.19
327.914	866.19
328.143	624.19
328.372	544.19
328.6	540.19
328.829	539.19
329.058	539.19
329.287	547.19
329.515	540.19
329.744	518.19
329.972	500.19
330.201	522.19
330.43	540.19
330.658	557.19
330.887	575.19
331.115	550.19
331.344	516.19
331.572	499.19
331.801	512.19
332.03	496.19
332.258	511.19
332.486	478.19
332.715	474.19
332.943	507.19
333.172	520.19
333.4	496.19
333.629	511.19
333.857	540.19
334.085	536.19
334.314	550.19
334.542	586.19
334.771	574.19
334.999	551.19
335.227	492.19
335.455	512.19
335.684	492.19
335.912	518.19
336.14	477.19
336.369	480.19
336.597	491.19
336.825	497.19
337.053	502.19
337.281	485.19
337.51	477.19
337.738	489.19
337.966	478.19
338.194	479.19
338.422	488.19
338.65	471.19
338.878	490.19
339.106	473.19
339.334	452.19
339.562	468.19
339.79	466.19
340.018	469.19
340.246	473.19
340.474	454.19
340.702	469.19
340.93	469.19
341.158	459.19
341.386	446.19
341.614	457.19
341.842	464.19
342.07	460.19
342.298	457.19
342.526	454.19
342.754	450.19
342.981	465.19
343.209	451.19
343.437	453.19
343.665	476.19
343.893	482.19
344.12	492.19
344.348	492.19
344.576	472.19
344.804	475.19
345.031	484.19
345.259	498.19
345.487	464.19
345.714	452.19
345.942	444.19
346.17	449.19
346.397	447.19
346.625	418.19
346.853	460.19
347.08	445.19
347.308	434.19
347.535	455.19
347.763	462.19
347.99	433.19
348.218	451.19
348.445	444.19
348.673	430.19
348.9	446.19
349.128	418.19
349.355	434.19
349.583	423.19
349.81	436.19
350.037	434.19
350.265	428.19
350.492	456.19
350.72	451.19
350.947	429.19
351.174	441.19
351.402	428.19
351.629	437.19
351.856	429.19
352.083	450.19
352.311	426.19
352.538	450.19
352.765	454.19
352.992	438.19
353.22	430.19
353.447	406.19
353.674	429.19
353.901	395.19
354.128	415.19
354.355	419.19
354.583	406.19
354.81	416.19
355.037	424.19
355.264	419.19
355.491	404.19
355.718	432.19
355.945	422.19
356.172	419.19
356.399	412.19
356.626	433.19
356.853	420.19
357.08	412.19
357.307	410.19
357.534	412.19
357.761	419.19
357.988	422.19
358.215	407.19
358.441	423.19
358.668	412.19
358.895	427.19
359.122	403.19
359.349	424.19
359.576	417.19
359.802	468.19
360.029	448.19
360.256	478.19
360.483	440.19
360.709	443.19
360.936	440.19
361.163	423.19
361.39	418.19
361.616	447.19
361.843	439.19
362.07	427.19
362.296	438.19
362.523	432.19
362.749	448.19
362.976	430.19
363.203	430.19
363.429	436.19
363.656	450.19
363.882	416.19
364.109	424.19
364.335	411.19
364.562	424.19
364.788	428.19
365.015	438.19
365.241	411.19
365.468	412.19
365.694	423.19
365.92	437.19
366.147	430.19
366.373	424.19
366.599	435.19
366.826	406.19
367.052	418.19
367.278	434.19
367.505	422.19
367.731	415.19
367.957	426.19
368.184	404.19
368.41	425.19
368.636	409.19
368.862	418.19
369.089	404.19
369.315	416.19
369.541	409.19
369.767	401.19
369.993	419.19
370.219	424.19
370.445	418.19
370.672	453.19
370.898	440.19
371.124	431.19
371.35	446.19
371.576	438.19
371.802	431.19
372.028	428.19
372.254	423.19
372.48	426.19
372.706	446.19
372.932	437.19
373.158	442.19
373.384	451.19
373.61	442.19
373.835	437.19
374.061	438.19
374.287	439.19
374.513	429.19
374.739	443.19
374.965	456.19
375.191	445.19
375.416	464.19
375.642	430.19
375.868	415.19
376.094	415.19
376.319	445.19
376.545	437.19
376.771	434.19
376.997	431.19
377.222	408.19
377.448	428.19
377.674	416.19
377.899	416.19
378.125	398.19
378.35	413.19
378.576	434.19
378.802	427.19
379.027	431.19
379.253	446.19
379.478	423.19
379.704	416.19
379.929	429.19
380.155	446.19
380.38	432.19
380.606	421.19
380.831	416.19
381.057	449.19
381.282	446.19
381.507	431.19
381.733	432.19
381.958	444.19
382.184	452.19
382.409	452.19
382.634	445.19
382.86	425.19
383.085	425.19
383.31	443.19
383.535	446.19
383.761	460.19
383.986	460.19
384.211	462.19
384.436	446.19
384.662	467.19
384.887	480.19
385.112	478.19
385.337	459.19
385.562	471.19
385.787	469.19
386.013	480.19
386.238	500.19
386.463	486.19
386.688	462.19
386.913	469.19
387.138	491.19
387.363	510.19
387.588	468.19
387.813	475.19
388.038	476.19
388.263	469.19
388.488	472.19
388.713	480.19
388.938	461.19
389.163	468.19
389.387	479.19
389.612	485.19
389.837	465.19
390.062	475.19
390.287	490.19
390.512	464.19
390.736	487.19
390.961	484.19
391.186	498.19
391.411	483.19
391.636	490.19
391.86	511.19
392.085	528.19
392.31	527.19
392.534	480.19
392.759	512.19
392.984	511.19
393.208	503.19
393.433	515.19
393.658	511.19
393.882	507.19
394.107	507.19
394.331	506.19
394.556	489.19
394.78	470.19
395.005	507.19
395.229	510.19
395.454	512.19
395.678	526.19
395.903	522.19
396.127	531.19
396.352	539.19
396.576	501.19
396.801	499.19
397.025	521.19
397.249	519.19
397.474	536.19
397.698	537.19
397.922	547.19
398.147	535.19
398.371	567.19
398.595	546.19
398.82	570.19
399.044	578.19
399.268	606.19
399.492	681.19
399.717	755.19
399.941	749.19
400.165	722.19
400.389	702.19
400.613	644.19
400.837	617.19
401.062	587.19
401.286	579.19
401.51	582.19
401.734	581.19
401.958	561.19
402.182	580.19
402.406	589.19
402.63	584.19
402.854	620.19
403.078	606.19
403.302	579.19
403.526	591.19
403.75	618.19
403.974	597.19
404.198	591.19
404.422	632.19
404.645	607.19
404.869	620.19
405.093	646.19
405.317	686.19
405.541	715.19
405.765	663.19
405.988	614.19
406.212	637.19
406.436	617.19
406.66	654.19
406.883	646.19
407.107	660.19
407.331	699.19
407.555	799.19
407.778	799.19
408.002	694.19
408.226	674.19
408.449	654.19
408.673	654.19
408.896	645.19
409.12	672.19
409.344	676.19
409.567	641.19
409.791	619.19
410.014	610.19
410.238	596.19
410.461	602.19
410.685	595.19
410.908	591.19
411.132	619.19
411.355	652.19
411.578	654.19
411.802	610.19
412.025	595.19
412.249	589.19
412.472	608.19
412.695	665.19
412.919	629.19
413.142	596.19
413.365	583.19
413.589	571.19
413.812	584.19
414.035	563.19
414.258	542.19
414.482	570.19
414.705	557.19
414.928	550.19
415.151	552.19
415.374	546.19
415.597	580.19
415.821	553.19
416.044	540.19
416.267	555.19
416.49	551.19
416.713	539.19
416.936	563.19
417.159	560.19
417.382	556.19
417.605	573.19
417.828	592.19
418.051	590.19
418.274	562.19
418.497	575.19
418.72	547.19
418.943	579.19
419.166	581.19
419.389	625.19
419.611	609.19
419.834	605.19
420.057	610.19
420.28	592.19
420.503	601.19
420.726	603.19
420.948	594.19
421.171	618.19
421.394	652.19
421.617	587.19
421.839	570.19
422.062	575.19
422.285	582.19
422.507	638.19
422.73	696.19
422.953	668.19
423.175	624.19
423.398	587.19
423.621	605.19
423.843	611.19
424.066	629.19
424.288	614.19
424.511	615.19
424.733	662.19
424.956	725.19
425.178	705.19
425.401	705.19
425.623	731.19
425.846	638.19
426.068	620.19
426.291	587.19
426.513	590.19
426.735	621.19
426.958	656.19
427.18	700.19
427.402	803.19
427.625	866.19
427.847	740.19
428.069	669.19
428.292	626.19
428.514	582.19
428.736	583.19
428.958	567.19
429.181	540.19
429.403	516.19
429.625	539.19
429.847	568.19
430.069	622.19
430.292	609.19
430.514	565.19
430.736	548.19
430.958	550.19
431.18	513.19
431.402	541.19
431.624	534.19
431.846	524.19
432.068	520.19
432.29	546.19
432.512	539.19
432.734	516.19
432.956	533.19
433.178	536.19
433.4	533.19
433.622	552.19
433.844	540.19
434.066	540.19
434.287	539.19
434.509	547.19
434.731	535.19
434.953	568.19
435.175	578.19
435.397	609.19
435.618	592.19
435.84	644.19
436.062	700.19
436.284	730.19
436.505	627.19
436.727	590.19
436.949	564.19
437.17	547.19
437.392	538.19
437.614	552.19
437.835	568.19
438.057	644.19
438.278	733.19
438.5	741.19
438.721	794.19
438.943	746.19
439.165	635.19
439.386	588.19
439.608	595.19
439.829	571.19
440.05	604.19
440.272	631.19
440.493	620.19
440.715	594.19
440.936	587.19
441.158	560.19
441.379	574.19
441.6	590.19
441.822	612.19
442.043	626.19
442.264	680.19
442.486	739.19
442.707	662.19
442.928	648.19
443.149	621.19
443.371	637.19
443.592	661.19
443.813	760.19
444.034	799.19
444.255	694.19
444.476	647.19
444.698	636.19
444.919	646.19
445.14	723.19
445.361	678.19
445.582	654.19
445.803	654.19
446.024	760.19
446.245	745.19
446.466	684.19
446.687	634.19
446.908	579.19
447.129	553.19
447.35	543.19
447.571	551.19
447.792	543.19
448.013	522.19
448.234	539.19
448.455	580.19
448.675	686.19
448.896	778.19
449.117	690.19
449.338	609.19
449.559	728.19
449.779	805.19
450	688.19
450.221	578.19
450.442	544.19
450.662	526.19
450.883	512.19
451.104	516.19
451.324	496.19
451.545	522.19
451.766	491.19
451.986	482.19
452.207	494.19
452.428	477.19
452.648	480.19
452.869	478.19
453.089	488.19
453.31	500.19
453.53	509.19
453.751	474.19
453.971	503.19
454.192	524.19
454.412	495.19
454.633	472.19
454.853	476.19
455.073	493.19
455.294	503.19
455.514	558.19
455.734	530.19
455.955	486.19
456.175	468.19
456.395	459.19
456.616	476.19
456.836	461.19
457.056	460.19
457.276	452.19
457.497	459.19
457.717	468.19
457.937	464.19
458.157	470.19
458.377	491.19
458.598	467.19
458.818	538.19
459.038	581.19
459.258	621.19
459.478	550.19
459.698	519.19
459.918	527.19
460.138	528.19
460.358	531.19
460.578	540.19
460.798	569.19
461.018	574.19
461.238	573.19
461.458	555.19
461.678	556.19
461.898	578.19
462.118	570.19
462.338	565.19
462.558	595.19
462.777	607.19
462.997	624.19
463.217	641.19
463.437	656.19
463.657	618.19
463.876	621.19
464.096	629.19
464.316	638.19
464.536	618.19
464.755	614.19
464.975	623.19
465.195	615.19
465.414	647.19
465.634	600.19
465.854	553.19
466.073	526.19
466.293	510.19
466.512	525.19
466.732	519.19
466.951	495.19
467.171	503.19
467.391	517.19
467.61	508.19
467.829	506.19
468.049	509.19
468.268	495.19
468.488	502.19
468.707	485.19
468.927	491.19
469.146	489.19
469.365	490.19
469.585	495.19
469.804	519.19
470.023	510.19
470.243	507.19
470.462	519.19
470.681	530.19
470.901	530.19
471.12	523.19
471.339	535.19
471.558	521.19
471.777	513.19
471.997	496.19
472.216	511.19
472.435	514.19
472.654	490.19
472.873	503.19
473.092	501.19
473.311	520.19
473.53	507.19
473.749	503.19
473.968	517.19
474.187	638.19
474.406	641.19
474.625	554.19
474.844	537.19
475.063	520.19
475.282	503.19
475.501	491.19
475.72	524.19
475.939	502.19
476.158	509.19
476.377	518.19
476.596	497.19
476.814	532.19
477.033	557.19
477.252	544.19
477.471	549.19
477.69	552.19
477.908	540.19
478.127	582.19
478.346	554.19
478.564	583.19
478.783	587.19
479.002	582.19
479.22	586.19
479.439	596.19
479.658	586.19
479.876	622.19
480.095	600.19
480.313	640.19
480.532	636.19
480.751	648.19
480.969	651.19
481.188	654.19
481.406	673.19
481.624	618.19
481.843	617.19
482.061	596.19
482.28	593.19
482.498	587.19
482.717	572.19
482.935	552.19
483.153	603.19
483.372	586.19
483.59	572.19
483.808	586.19
484.027	582.19
484.245	594.19
484.463	587.19
484.681	628.19
484.9	581.19
485.118	587.19
485.336	583.19
485.554	608.19
485.772	605.19
485.99	593.19
486.209	598.19
486.427	595.19
486.645	616.19
486.863	633.19
487.081	619.19
487.299	637.19
487.517	620.19
487.735	598.19
487.953	622.19
488.171	628.19
488.389	616.19
488.607	628.19
488.825	633.19
489.043	615.19
489.261	634.19
489.479	640.19
489.696	642.19
489.914	638.19
490.132	628.19
490.35	670.19
490.568	654.19
490.786	647.19
491.003	655.19
491.221	691.19
491.439	683.19
491.657	684.19
491.874	711.19
492.092	676.19
492.31	706.19
492.527	714.19
492.745	711.19
492.963	711.19
493.18	735.19
493.398	727.19
493.615	719.19
493.833	739.19
494.05	702.19
494.268	758.19
494.485	747.19
494.703	738.19
494.92	736.19
495.138	722.19
495.355	706.19
495.573	712.19
495.79	735.19
496.008	734.19
496.225	732.19
496.442	724.19
496.66	738.19
496.877	734.19
497.094	730.19
497.312	731.19
497.529	768.19
497.746	754.19
497.963	792.19
498.181	837.19
498.398	830.19
498.615	853.19
498.832	879.19
499.049	911.19
499.267	964.19
499.484	1007.19
499.701	1039.19
499.918	1142.19
500.135	1148.19
500.352	1276.19
500.569	1320.19
500.786	1342.19
501.003	1270.19
501.22	1209.19
501.437	1124.19
501.654	1066.19
