Data from 1973.PennyLincolnUp.Lamp.En5.5.200Scan.071719.P1.Changed Mount._HRD10591_15-43-37-852.txt Node
Date: Thu Jul 18 15:43:37 EDT 2019
User: cochatt
Spectrometer: HR+D1059
Trigger mode: 1
Integration Time (sec): 1.000000E-1
Scans to average: 1
Electric dark correction enabled: true
Nonlinearity correction enabled: false
Boxcar width: 0
XAxis mode: Wavelengths
Number of Pixels in Spectrum: 2048
>>>>>Begin Spectral Data<<<<<
223.165	-5.44
223.4	-5.44
223.635	-5.44
223.869	-22.44
224.104	-15.44
224.338	-10.44
224.573	-25.44
224.808	-12.44
225.042	-14.44
225.277	-8.44
225.511	-4.44
225.746	5.56
225.98	15.56
226.215	13.56
226.449	12.56
226.683	10.56
226.918	27.56
227.152	33.56
227.387	39.56
227.621	28.56
227.856	46.56
228.09	41.56
228.324	60.56
228.559	58.56
228.793	57.56
229.027	89.56
229.262	90.56
229.496	107.56
229.73	109.56
229.964	123.56
230.199	116.56
230.433	108.56
230.667	112.56
230.901	95.56
231.136	102.56
231.37	107.56
231.604	108.56
231.838	109.56
232.072	101.56
232.306	112.56
232.541	111.56
232.775	110.56
233.009	122.56
233.243	95.56
233.477	100.56
233.711	118.56
233.945	124.56
234.179	120.56
234.413	115.56
234.647	102.56
234.881	116.56
235.115	107.56
235.349	118.56
235.583	110.56
235.817	111.56
236.051	119.56
236.285	134.56
236.519	116.56
236.753	110.56
236.987	126.56
237.221	145.56
237.455	183.56
237.689	148.56
237.922	137.56
238.156	131.56
238.39	116.56
238.624	126.56
238.858	126.56
239.091	122.56
239.325	125.56
239.559	128.56
239.793	130.56
240.027	127.56
240.26	125.56
240.494	143.56
240.728	149.56
240.961	133.56
241.195	142.56
241.429	124.56
241.662	135.56
241.896	117.56
242.13	125.56
242.363	136.56
242.597	128.56
242.83	131.56
243.064	136.56
243.298	126.56
243.531	127.56
243.765	142.56
243.998	143.56
244.232	138.56
244.465	136.56
244.699	158.56
244.932	155.56
245.166	147.56
245.399	144.56
245.633	144.56
245.866	145.56
246.099	142.56
246.333	156.56
246.566	150.56
246.8	151.56
247.033	153.56
247.266	150.56
247.5	160.56
247.733	162.56
247.966	149.56
248.2	163.56
248.433	174.56
248.666	171.56
248.899	186.56
249.133	187.56
249.366	166.56
249.599	183.56
249.832	170.56
250.066	176.56
250.299	175.56
250.532	177.56
250.765	189.56
250.998	195.56
251.231	218.56
251.465	198.56
251.698	182.56
251.931	194.56
252.164	182.56
252.397	193.56
252.63	185.56
252.863	187.56
253.096	197.56
253.329	203.56
253.562	214.56
253.795	200.56
254.028	198.56
254.261	204.56
254.494	213.56
254.727	221.56
254.96	267.56
255.193	252.56
255.426	223.56
255.659	193.56
255.892	229.56
256.124	196.56
256.357	197.56
256.59	219.56
256.823	199.56
257.056	205.56
257.289	211.56
257.521	198.56
257.754	204.56
257.987	195.56
258.22	208.56
258.452	204.56
258.685	196.56
258.918	208.56
259.151	205.56
259.383	211.56
259.616	198.56
259.849	208.56
260.081	208.56
260.314	244.56
260.547	245.56
260.779	231.56
261.012	211.56
261.244	210.56
261.477	207.56
261.71	213.56
261.942	214.56
262.175	207.56
262.407	201.56
262.64	197.56
262.872	200.56
263.105	202.56
263.337	200.56
263.57	215.56
263.802	216.56
264.035	206.56
264.267	200.56
264.499	222.56
264.732	215.56
264.964	205.56
265.197	225.56
265.429	196.56
265.661	218.56
265.894	206.56
266.126	207.56
266.358	224.56
266.591	222.56
266.823	214.56
267.055	243.56
267.287	238.56
267.52	240.56
267.752	208.56
267.984	204.56
268.216	224.56
268.448	217.56
268.681	251.56
268.913	223.56
269.145	249.56
269.377	265.56
269.609	247.56
269.841	247.56
270.073	252.56
270.306	258.56
270.538	278.56
270.77	282.56
271.002	270.56
271.234	281.56
271.466	262.56
271.698	280.56
271.93	277.56
272.162	286.56
272.394	293.56
272.626	271.56
272.858	270.56
273.09	260.56
273.322	276.56
273.553	249.56
273.785	265.56
274.017	252.56
274.249	249.56
274.481	260.56
274.713	267.56
274.945	272.56
275.176	258.56
275.408	259.56
275.64	256.56
275.872	250.56
276.104	262.56
276.335	264.56
276.567	263.56
276.799	263.56
277.031	275.56
277.262	294.56
277.494	276.56
277.726	285.56
277.957	269.56
278.189	267.56
278.421	278.56
278.652	274.56
278.884	283.56
279.115	251.56
279.347	266.56
279.579	284.56
279.81	289.56
280.042	263.56
280.273	268.56
280.505	286.56
280.736	271.56
280.968	254.56
281.199	282.56
281.431	277.56
281.662	275.56
281.894	265.56
282.125	269.56
282.356	283.56
282.588	303.56
282.819	301.56
283.051	268.56
283.282	280.56
283.513	285.56
283.745	287.56
283.976	276.56
284.207	289.56
284.439	279.56
284.67	287.56
284.901	289.56
285.132	288.56
285.364	299.56
285.595	299.56
285.826	278.56
286.057	304.56
286.288	270.56
286.52	292.56
286.751	285.56
286.982	285.56
287.213	286.56
287.444	308.56
287.675	285.56
287.906	310.56
288.138	302.56
288.369	309.56
288.6	292.56
288.831	292.56
289.062	310.56
289.293	292.56
289.524	297.56
289.755	306.56
289.986	299.56
290.217	288.56
290.448	304.56
290.679	302.56
290.91	296.56
291.141	286.56
291.371	292.56
291.602	301.56
291.833	306.56
292.064	292.56
292.295	292.56
292.526	309.56
292.757	299.56
292.987	285.56
293.218	302.56
293.449	300.56
293.68	317.56
293.91	282.56
294.141	301.56
294.372	292.56
294.603	307.56
294.833	316.56
295.064	288.56
295.295	288.56
295.525	301.56
295.756	324.56
295.987	309.56
296.217	326.56
296.448	316.56
296.679	320.56
296.909	301.56
297.14	319.56
297.37	319.56
297.601	320.56
297.831	300.56
298.062	326.56
298.292	319.56
298.523	317.56
298.753	334.56
298.984	322.56
299.214	314.56
299.445	303.56
299.675	332.56
299.905	318.56
300.136	323.56
300.366	313.56
300.597	330.56
300.827	313.56
301.057	333.56
301.288	336.56
301.518	332.56
301.748	335.56
301.979	347.56
302.209	341.56
302.439	335.56
302.669	310.56
302.9	353.56
303.13	323.56
303.36	316.56
303.59	351.56
303.82	346.56
304.051	338.56
304.281	335.56
304.511	324.56
304.741	327.56
304.971	340.56
305.201	345.56
305.431	335.56
305.661	335.56
305.891	323.56
306.121	348.56
306.352	329.56
306.582	335.56
306.812	330.56
307.042	334.56
307.272	332.56
307.502	333.56
307.731	341.56
307.961	365.56
308.191	351.56
308.421	353.56
308.651	343.56
308.881	349.56
309.111	343.56
309.341	338.56
309.571	320.56
309.8	354.56
310.03	339.56
310.26	351.56
310.49	341.56
310.72	340.56
310.949	367.56
311.179	379.56
311.409	360.56
311.639	360.56
311.868	348.56
312.098	352.56
312.328	346.56
312.557	381.56
312.787	386.56
313.017	377.56
313.246	368.56
313.476	351.56
313.706	357.56
313.935	379.56
314.165	374.56
314.394	378.56
314.624	362.56
314.853	361.56
315.083	379.56
315.312	366.56
315.542	367.56
315.771	368.56
316.001	356.56
316.23	357.56
316.46	361.56
316.689	371.56
316.919	373.56
317.148	378.56
317.377	372.56
317.607	368.56
317.836	370.56
318.065	360.56
318.295	386.56
318.524	373.56
318.753	350.56
318.983	375.56
319.212	378.56
319.441	379.56
319.67	397.56
319.9	379.56
320.129	367.56
320.358	374.56
320.587	366.56
320.816	354.56
321.046	352.56
321.275	376.56
321.504	360.56
321.733	357.56
321.962	369.56
322.191	372.56
322.42	381.56
322.649	381.56
322.878	397.56
323.108	392.56
323.337	386.56
323.566	423.56
323.795	416.56
324.024	443.56
324.253	496.56
324.482	599.56
324.71	859.56
324.939	1208.56
325.168	1028.56
325.397	631.56
325.626	464.56
325.855	436.56
326.084	399.56
326.313	414.56
326.542	422.56
326.77	423.56
326.999	485.56
327.228	587.56
327.457	813.56
327.686	940.56
327.914	665.56
328.143	505.56
328.372	458.56
328.6	460.56
328.829	445.56
329.058	446.56
329.287	459.56
329.515	430.56
329.744	418.56
329.972	439.56
330.201	442.56
330.43	449.56
330.658	498.56
330.887	469.56
331.115	459.56
331.344	447.56
331.572	428.56
331.801	438.56
332.03	464.56
332.258	446.56
332.486	445.56
332.715	451.56
332.943	452.56
333.172	458.56
333.4	455.56
333.629	463.56
333.857	479.56
334.085	498.56
334.314	475.56
334.542	475.56
334.771	508.56
334.999	487.56
335.227	486.56
335.455	437.56
335.684	441.56
335.912	446.56
336.14	455.56
336.369	438.56
336.597	456.56
336.825	435.56
337.053	452.56
337.281	448.56
337.51	445.56
337.738	426.56
337.966	431.56
338.194	433.56
338.422	425.56
338.65	422.56
338.878	414.56
339.106	426.56
339.334	435.56
339.562	434.56
339.79	418.56
340.018	430.56
340.246	417.56
340.474	425.56
340.702	419.56
340.93	417.56
341.158	412.56
341.386	428.56
341.614	435.56
341.842	409.56
342.07	413.56
342.298	415.56
342.526	402.56
342.754	398.56
342.981	399.56
343.209	415.56
343.437	414.56
343.665	416.56
343.893	443.56
344.12	480.56
344.348	451.56
344.576	432.56
344.804	434.56
345.031	414.56
345.259	424.56
345.487	407.56
345.714	428.56
345.942	410.56
346.17	401.56
346.397	397.56
346.625	415.56
346.853	391.56
347.08	385.56
347.308	403.56
347.535	400.56
347.763	419.56
347.99	396.56
348.218	388.56
348.445	386.56
348.673	387.56
348.9	401.56
349.128	404.56
349.355	387.56
349.583	411.56
349.81	399.56
350.037	381.56
350.265	401.56
350.492	378.56
350.72	384.56
350.947	391.56
351.174	378.56
351.402	410.56
351.629	390.56
351.856	382.56
352.083	382.56
352.311	384.56
352.538	374.56
352.765	375.56
352.992	384.56
353.22	374.56
353.447	388.56
353.674	373.56
353.901	375.56
354.128	381.56
354.355	382.56
354.583	382.56
354.81	382.56
355.037	394.56
355.264	378.56
355.491	394.56
355.718	381.56
355.945	390.56
356.172	382.56
356.399	384.56
356.626	371.56
356.853	376.56
357.08	381.56
357.307	376.56
357.534	382.56
357.761	376.56
357.988	376.56
358.215	370.56
358.441	397.56
358.668	375.56
358.895	388.56
359.122	374.56
359.349	385.56
359.576	392.56
359.802	397.56
360.029	417.56
360.256	408.56
360.483	413.56
360.709	397.56
360.936	394.56
361.163	382.56
361.39	387.56
361.616	403.56
361.843	387.56
362.07	383.56
362.296	394.56
362.523	374.56
362.749	395.56
362.976	374.56
363.203	401.56
363.429	395.56
363.656	390.56
363.882	386.56
364.109	388.56
364.335	393.56
364.562	391.56
364.788	380.56
365.015	375.56
365.241	394.56
365.468	374.56
365.694	360.56
365.92	390.56
366.147	388.56
366.373	396.56
366.599	383.56
366.826	369.56
367.052	375.56
367.278	390.56
367.505	399.56
367.731	405.56
367.957	364.56
368.184	382.56
368.41	420.56
368.636	403.56
368.862	388.56
369.089	399.56
369.315	394.56
369.541	389.56
369.767	372.56
369.993	382.56
370.219	383.56
370.445	414.56
370.672	389.56
370.898	393.56
371.124	416.56
371.35	387.56
371.576	396.56
371.802	396.56
372.028	386.56
372.254	404.56
372.48	406.56
372.706	411.56
372.932	402.56
373.158	416.56
373.384	391.56
373.61	411.56
373.835	399.56
374.061	406.56
374.287	407.56
374.513	403.56
374.739	434.56
374.965	424.56
375.191	399.56
375.416	420.56
375.642	407.56
375.868	415.56
376.094	419.56
376.319	392.56
376.545	396.56
376.771	392.56
376.997	392.56
377.222	388.56
377.448	403.56
377.674	381.56
377.899	392.56
378.125	399.56
378.35	370.56
378.576	398.56
378.802	388.56
379.027	390.56
379.253	401.56
379.478	402.56
379.704	390.56
379.929	395.56
380.155	381.56
380.38	431.56
380.606	400.56
380.831	388.56
381.057	415.56
381.282	403.56
381.507	410.56
381.733	388.56
381.958	393.56
382.184	412.56
382.409	410.56
382.634	417.56
382.86	410.56
383.085	426.56
383.31	406.56
383.535	408.56
383.761	407.56
383.986	421.56
384.211	451.56
384.436	431.56
384.662	435.56
384.887	462.56
385.112	441.56
385.337	430.56
385.562	452.56
385.787	441.56
386.013	459.56
386.238	439.56
386.463	451.56
386.688	457.56
386.913	430.56
387.138	436.56
387.363	470.56
387.588	442.56
387.813	436.56
388.038	450.56
388.263	440.56
388.488	452.56
388.713	437.56
388.938	443.56
389.163	423.56
389.387	460.56
389.612	452.56
389.837	433.56
390.062	428.56
390.287	445.56
390.512	442.56
390.736	446.56
390.961	473.56
391.186	452.56
391.411	457.56
391.636	464.56
391.86	464.56
392.085	471.56
392.31	461.56
392.534	445.56
392.759	453.56
392.984	483.56
393.208	470.56
393.433	452.56
393.658	440.56
393.882	456.56
394.107	453.56
394.331	449.56
394.556	429.56
394.78	458.56
395.005	453.56
395.229	463.56
395.454	472.56
395.678	480.56
395.903	489.56
396.127	509.56
396.352	508.56
396.576	471.56
396.801	426.56
397.025	435.56
397.249	472.56
397.474	486.56
397.698	476.56
397.922	501.56
398.147	486.56
398.371	496.56
398.595	485.56
398.82	506.56
399.044	542.56
399.268	537.56
399.492	602.56
399.717	659.56
399.941	682.56
400.165	662.56
400.389	659.56
400.613	572.56
400.837	537.56
401.062	524.56
401.286	528.56
401.51	532.56
401.734	514.56
401.958	536.56
402.182	522.56
402.406	541.56
402.63	521.56
402.854	550.56
403.078	558.56
403.302	552.56
403.526	545.56
403.75	536.56
403.974	567.56
404.198	551.56
404.422	557.56
404.645	551.56
404.869	556.56
405.093	587.56
405.317	589.56
405.541	611.56
405.765	568.56
405.988	543.56
406.212	585.56
406.436	564.56
406.66	584.56
406.883	584.56
407.107	582.56
407.331	636.56
407.555	678.56
407.778	700.56
408.002	662.56
408.226	585.56
408.449	590.56
408.673	590.56
408.896	598.56
409.12	624.56
409.344	608.56
409.567	565.56
409.791	585.56
410.014	564.56
410.238	543.56
410.461	538.56
410.685	528.56
410.908	564.56
411.132	572.56
411.355	579.56
411.578	588.56
411.802	532.56
412.025	528.56
412.249	550.56
412.472	565.56
412.695	579.56
412.919	590.56
413.142	525.56
413.365	517.56
413.589	522.56
413.812	524.56
414.035	502.56
414.258	514.56
414.482	527.56
414.705	509.56
414.928	530.56
415.151	517.56
415.374	528.56
415.597	535.56
415.821	495.56
416.044	512.56
416.267	501.56
416.49	487.56
416.713	507.56
416.936	508.56
417.159	501.56
417.382	499.56
417.605	490.56
417.828	523.56
418.051	526.56
418.274	540.56
418.497	493.56
418.72	519.56
418.943	527.56
419.166	525.56
419.389	569.56
419.611	566.56
419.834	532.56
420.057	556.56
420.28	540.56
420.503	532.56
420.726	515.56
420.948	528.56
421.171	555.56
421.394	584.56
421.617	558.56
421.839	507.56
422.062	528.56
422.285	548.56
422.507	572.56
422.73	638.56
422.953	606.56
423.175	549.56
423.398	563.56
423.621	572.56
423.843	576.56
424.066	584.56
424.288	560.56
424.511	558.56
424.733	621.56
424.956	659.56
425.178	653.56
425.401	632.56
425.623	637.56
425.846	579.56
426.068	558.56
426.291	532.56
426.513	508.56
426.735	529.56
426.958	564.56
427.18	631.56
427.402	714.56
427.625	794.56
427.847	659.56
428.069	582.56
428.292	553.56
428.514	527.56
428.736	507.56
428.958	506.56
429.181	511.56
429.403	502.56
429.625	514.56
429.847	522.56
430.069	566.56
430.292	567.56
430.514	530.56
430.736	500.56
430.958	496.56
431.18	468.56
431.402	472.56
431.624	487.56
431.846	463.56
432.068	483.56
432.29	462.56
432.512	474.56
432.734	510.56
432.956	480.56
433.178	495.56
433.4	493.56
433.622	502.56
433.844	476.56
434.066	473.56
434.287	473.56
434.509	511.56
434.731	519.56
434.953	527.56
435.175	518.56
435.397	553.56
435.618	555.56
435.84	550.56
436.062	648.56
436.284	668.56
436.505	547.56
436.727	536.56
436.949	514.56
437.17	484.56
437.392	503.56
437.614	506.56
437.835	517.56
438.057	576.56
438.278	658.56
438.5	637.56
438.721	682.56
438.943	709.56
439.165	586.56
439.386	528.56
439.608	529.56
439.829	520.56
440.05	516.56
440.272	548.56
440.493	550.56
440.715	517.56
440.936	520.56
441.158	502.56
441.379	490.56
441.6	523.56
441.822	548.56
442.043	567.56
442.264	619.56
442.486	665.56
442.707	578.56
442.928	562.56
443.149	555.56
443.371	556.56
443.592	610.56
443.813	657.56
444.034	710.56
444.255	617.56
444.476	578.56
444.698	582.56
444.919	574.56
445.14	668.56
445.361	616.56
445.582	571.56
445.803	610.56
446.024	645.56
446.245	664.56
446.466	623.56
446.687	555.56
446.908	513.56
447.129	499.56
447.35	498.56
447.571	482.56
447.792	444.56
448.013	461.56
448.234	473.56
448.455	519.56
448.675	599.56
448.896	691.56
449.117	614.56
449.338	566.56
449.559	647.56
449.779	710.56
450	600.56
450.221	480.56
450.442	475.56
450.662	460.56
450.883	472.56
451.104	468.56
451.324	470.56
451.545	455.56
451.766	436.56
451.986	450.56
452.207	458.56
452.428	450.56
452.648	436.56
452.869	427.56
453.089	434.56
453.31	459.56
453.53	463.56
453.751	439.56
453.971	430.56
454.192	430.56
454.412	428.56
454.633	426.56
454.853	415.56
455.073	433.56
455.294	466.56
455.514	494.56
455.734	483.56
455.955	450.56
456.175	439.56
456.395	442.56
456.616	415.56
456.836	402.56
457.056	419.56
457.276	409.56
457.497	414.56
457.717	418.56
457.937	437.56
458.157	425.56
458.377	438.56
458.598	461.56
458.818	479.56
459.038	505.56
459.258	571.56
459.478	478.56
459.698	498.56
459.918	510.56
460.138	492.56
460.358	484.56
460.578	501.56
460.798	484.56
461.018	527.56
461.238	508.56
461.458	535.56
461.678	502.56
461.898	526.56
462.118	516.56
462.338	546.56
462.558	546.56
462.777	560.56
462.997	575.56
463.217	603.56
463.437	608.56
463.657	582.56
463.876	571.56
464.096	566.56
464.316	570.56
464.536	554.56
464.755	589.56
464.975	544.56
465.195	568.56
465.414	575.56
465.634	516.56
465.854	503.56
466.073	491.56
466.293	487.56
466.512	460.56
466.732	444.56
466.951	467.56
467.171	473.56
467.391	472.56
467.61	456.56
467.829	468.56
468.049	450.56
468.268	466.56
468.488	478.56
468.707	450.56
468.927	437.56
469.146	438.56
469.365	439.56
469.585	461.56
469.804	471.56
470.023	473.56
470.243	479.56
470.462	464.56
470.681	476.56
470.901	484.56
471.12	457.56
471.339	468.56
471.558	450.56
471.777	474.56
471.997	470.56
472.216	474.56
472.435	482.56
472.654	450.56
472.873	458.56
473.092	444.56
473.311	445.56
473.53	452.56
473.749	451.56
473.968	507.56
474.187	538.56
474.406	560.56
474.625	506.56
474.844	469.56
475.063	459.56
475.282	477.56
475.501	469.56
475.72	478.56
475.939	486.56
476.158	473.56
476.377	477.56
476.596	484.56
476.814	467.56
477.033	477.56
477.252	486.56
477.471	500.56
477.69	509.56
477.908	539.56
478.127	499.56
478.346	506.56
478.564	524.56
478.783	532.56
479.002	534.56
479.22	543.56
479.439	555.56
479.658	555.56
479.876	554.56
480.095	565.56
480.313	587.56
480.532	592.56
480.751	616.56
480.969	564.56
481.188	592.56
481.406	595.56
481.624	564.56
481.843	540.56
482.061	539.56
482.28	529.56
482.498	551.56
482.717	544.56
482.935	526.56
483.153	526.56
483.372	535.56
483.59	523.56
483.808	529.56
484.027	552.56
484.245	532.56
484.463	528.56
484.681	557.56
484.9	547.56
485.118	551.56
485.336	551.56
485.554	549.56
485.772	551.56
485.99	554.56
486.209	574.56
486.427	553.56
486.645	584.56
486.863	577.56
487.081	550.56
487.299	542.56
487.517	579.56
487.735	566.56
487.953	566.56
488.171	574.56
488.389	569.56
488.607	547.56
488.825	543.56
489.043	537.56
489.261	582.56
489.479	573.56
489.696	566.56
489.914	559.56
490.132	584.56
490.35	597.56
490.568	590.56
490.786	595.56
491.003	600.56
491.221	615.56
491.439	623.56
491.657	627.56
491.874	622.56
492.092	620.56
492.31	657.56
492.527	655.56
492.745	650.56
492.963	606.56
493.18	648.56
493.398	635.56
493.615	644.56
493.833	651.56
494.05	643.56
494.268	643.56
494.485	654.56
494.703	670.56
494.92	655.56
495.138	642.56
495.355	634.56
495.573	646.56
495.79	645.56
496.008	670.56
496.225	650.56
496.442	643.56
496.66	666.56
496.877	672.56
497.094	671.56
497.312	702.56
497.529	674.56
497.746	686.56
497.963	730.56
498.181	734.56
498.398	736.56
498.615	786.56
498.832	806.56
499.049	852.56
499.267	866.56
499.484	909.56
499.701	965.56
499.918	988.56
500.135	1078.56
500.352	1127.56
500.569	1166.56
500.786	1194.56
501.003	1139.56
501.22	1092.56
501.437	1013.56
501.654	982.56
