Data from 1973.PennyLincolnUp.Lamp.En5.5.200Scan.071719.P1.Changed Mount._HRD10591_15-45-45-852.txt Node
Date: Thu Jul 18 15:45:45 EDT 2019
User: cochatt
Spectrometer: HR+D1059
Trigger mode: 1
Integration Time (sec): 1.000000E-1
Scans to average: 1
Electric dark correction enabled: true
Nonlinearity correction enabled: false
Boxcar width: 0
XAxis mode: Wavelengths
Number of Pixels in Spectrum: 2048
>>>>>Begin Spectral Data<<<<<
223.165	-19.81
223.4	-19.81
223.635	-19.81
223.869	-19.81
224.104	-29.81
224.338	-10.81
224.573	-26.81
224.808	-6.81
225.042	-5.81
225.277	-2.81
225.511	11.19
225.746	2.19
225.98	9.19
226.215	11.19
226.449	15.19
226.683	26.19
226.918	12.19
227.152	35.19
227.387	39.19
227.621	37.19
227.856	34.19
228.09	56.19
228.324	66.19
228.559	62.19
228.793	61.19
229.027	89.19
229.262	103.19
229.496	109.19
229.73	123.19
229.964	139.19
230.199	121.19
230.433	101.19
230.667	117.19
230.901	98.19
231.136	101.19
231.37	107.19
231.604	114.19
231.838	118.19
232.072	111.19
232.306	111.19
232.541	115.19
232.775	121.19
233.009	118.19
233.243	110.19
233.477	112.19
233.711	97.19
233.945	137.19
234.179	108.19
234.413	118.19
234.647	116.19
234.881	129.19
235.115	116.19
235.349	120.19
235.583	130.19
235.817	120.19
236.051	136.19
236.285	124.19
236.519	122.19
236.753	121.19
236.987	137.19
237.221	156.19
237.455	215.19
237.689	170.19
237.922	121.19
238.156	128.19
238.39	108.19
238.624	134.19
238.858	134.19
239.091	129.19
239.325	130.19
239.559	135.19
239.793	119.19
240.027	129.19
240.26	132.19
240.494	158.19
240.728	125.19
240.961	136.19
241.195	134.19
241.429	146.19
241.662	136.19
241.896	127.19
242.13	128.19
242.363	135.19
242.597	160.19
242.83	139.19
243.064	143.19
243.298	140.19
243.531	130.19
243.765	143.19
243.998	136.19
244.232	127.19
244.465	150.19
244.699	153.19
244.932	133.19
245.166	140.19
245.399	147.19
245.633	146.19
245.866	149.19
246.099	154.19
246.333	160.19
246.566	160.19
246.8	149.19
247.033	162.19
247.266	151.19
247.5	146.19
247.733	163.19
247.966	178.19
248.2	178.19
248.433	169.19
248.666	178.19
248.899	189.19
249.133	186.19
249.366	234.19
249.599	196.19
249.832	183.19
250.066	186.19
250.299	179.19
250.532	195.19
250.765	218.19
250.998	224.19
251.231	222.19
251.465	214.19
251.698	193.19
251.931	185.19
252.164	201.19
252.397	190.19
252.63	211.19
252.863	203.19
253.096	205.19
253.329	221.19
253.562	234.19
253.795	215.19
254.028	202.19
254.261	217.19
254.494	205.19
254.727	221.19
254.96	264.19
255.193	247.19
255.426	251.19
255.659	227.19
255.892	225.19
256.124	222.19
256.357	221.19
256.59	225.19
256.823	223.19
257.056	235.19
257.289	220.19
257.521	210.19
257.754	218.19
257.987	214.19
258.22	219.19
258.452	216.19
258.685	223.19
258.918	217.19
259.151	216.19
259.383	220.19
259.616	216.19
259.849	219.19
260.081	241.19
260.314	266.19
260.547	246.19
260.779	260.19
261.012	224.19
261.244	237.19
261.477	238.19
261.71	225.19
261.942	242.19
262.175	231.19
262.407	224.19
262.64	217.19
262.872	225.19
263.105	216.19
263.337	222.19
263.57	218.19
263.802	221.19
264.035	202.19
264.267	231.19
264.499	237.19
264.732	224.19
264.964	230.19
265.197	213.19
265.429	229.19
265.661	219.19
265.894	231.19
266.126	232.19
266.358	228.19
266.591	233.19
266.823	240.19
267.055	236.19
267.287	241.19
267.52	251.19
267.752	234.19
267.984	254.19
268.216	233.19
268.448	240.19
268.681	246.19
268.913	243.19
269.145	272.19
269.377	273.19
269.609	272.19
269.841	272.19
270.073	295.19
270.306	289.19
270.538	299.19
270.77	320.19
271.002	300.19
271.234	298.19
271.466	311.19
271.698	301.19
271.93	328.19
272.162	323.19
272.394	322.19
272.626	297.19
272.858	280.19
273.09	266.19
273.322	281.19
273.553	268.19
273.785	263.19
274.017	281.19
274.249	289.19
274.481	280.19
274.713	273.19
274.945	265.19
275.176	276.19
275.408	296.19
275.64	273.19
275.872	290.19
276.104	296.19
276.335	288.19
276.567	296.19
276.799	312.19
277.031	312.19
277.262	308.19
277.494	327.19
277.726	302.19
277.957	294.19
278.189	313.19
278.421	285.19
278.652	296.19
278.884	268.19
279.115	261.19
279.347	278.19
279.579	281.19
279.81	276.19
280.042	288.19
280.273	285.19
280.505	281.19
280.736	291.19
280.968	291.19
281.199	292.19
281.431	293.19
281.662	285.19
281.894	298.19
282.125	299.19
282.356	310.19
282.588	304.19
282.819	319.19
283.051	296.19
283.282	302.19
283.513	282.19
283.745	288.19
283.976	309.19
284.207	306.19
284.439	298.19
284.67	305.19
284.901	316.19
285.132	318.19
285.364	328.19
285.595	290.19
285.826	302.19
286.057	303.19
286.288	300.19
286.52	310.19
286.751	314.19
286.982	322.19
287.213	314.19
287.444	324.19
287.675	308.19
287.906	325.19
288.138	333.19
288.369	325.19
288.6	316.19
288.831	324.19
289.062	331.19
289.293	322.19
289.524	314.19
289.755	324.19
289.986	325.19
290.217	317.19
290.448	323.19
290.679	319.19
290.91	308.19
291.141	315.19
291.371	310.19
291.602	318.19
291.833	306.19
292.064	320.19
292.295	313.19
292.526	315.19
292.757	337.19
292.987	320.19
293.218	320.19
293.449	324.19
293.68	328.19
293.91	346.19
294.141	321.19
294.372	304.19
294.603	323.19
294.833	308.19
295.064	325.19
295.295	330.19
295.525	326.19
295.756	323.19
295.987	340.19
296.217	339.19
296.448	339.19
296.679	344.19
296.909	349.19
297.14	334.19
297.37	339.19
297.601	325.19
297.831	329.19
298.062	324.19
298.292	334.19
298.523	339.19
298.753	334.19
298.984	344.19
299.214	341.19
299.445	344.19
299.675	349.19
299.905	354.19
300.136	347.19
300.366	330.19
300.597	354.19
300.827	350.19
301.057	358.19
301.288	366.19
301.518	372.19
301.748	358.19
301.979	358.19
302.209	347.19
302.439	353.19
302.669	356.19
302.9	357.19
303.13	361.19
303.36	382.19
303.59	363.19
303.82	362.19
304.051	378.19
304.281	381.19
304.511	349.19
304.741	347.19
304.971	353.19
305.201	355.19
305.431	363.19
305.661	368.19
305.891	388.19
306.121	354.19
306.352	336.19
306.582	360.19
306.812	355.19
307.042	352.19
307.272	368.19
307.502	352.19
307.731	352.19
307.961	356.19
308.191	349.19
308.421	362.19
308.651	348.19
308.881	350.19
309.111	380.19
309.341	372.19
309.571	395.19
309.8	376.19
310.03	388.19
310.26	392.19
310.49	407.19
310.72	402.19
310.949	410.19
311.179	398.19
311.409	390.19
311.639	378.19
311.868	392.19
312.098	402.19
312.328	398.19
312.557	419.19
312.787	417.19
313.017	408.19
313.246	399.19
313.476	398.19
313.706	405.19
313.935	398.19
314.165	403.19
314.394	405.19
314.624	411.19
314.853	392.19
315.083	403.19
315.312	411.19
315.542	410.19
315.771	412.19
316.001	394.19
316.23	397.19
316.46	386.19
316.689	384.19
316.919	394.19
317.148	407.19
317.377	427.19
317.607	405.19
317.836	412.19
318.065	405.19
318.295	382.19
318.524	398.19
318.753	400.19
318.983	408.19
319.212	398.19
319.441	395.19
319.67	410.19
319.9	385.19
320.129	405.19
320.358	403.19
320.587	416.19
320.816	395.19
321.046	395.19
321.275	425.19
321.504	426.19
321.733	414.19
321.962	416.19
322.191	415.19
322.42	427.19
322.649	435.19
322.878	460.19
323.108	445.19
323.337	456.19
323.566	472.19
323.795	494.19
324.024	513.19
324.253	571.19
324.482	746.19
324.71	1074.19
324.939	1545.19
325.168	1324.19
325.397	764.19
325.626	570.19
325.855	497.19
326.084	498.19
326.313	465.19
326.542	454.19
326.77	505.19
326.999	546.19
327.228	706.19
327.457	978.19
327.686	1205.19
327.914	846.19
328.143	630.19
328.372	552.19
328.6	520.19
328.829	515.19
329.058	526.19
329.287	534.19
329.515	494.19
329.744	498.19
329.972	489.19
330.201	514.19
330.43	526.19
330.658	544.19
330.887	561.19
331.115	564.19
331.344	525.19
331.572	524.19
331.801	507.19
332.03	505.19
332.258	491.19
332.486	486.19
332.715	484.19
332.943	494.19
333.172	483.19
333.4	520.19
333.629	537.19
333.857	516.19
334.085	544.19
334.314	547.19
334.542	574.19
334.771	557.19
334.999	532.19
335.227	506.19
335.455	498.19
335.684	517.19
335.912	501.19
336.14	481.19
336.369	476.19
336.597	492.19
336.825	470.19
337.053	485.19
337.281	489.19
337.51	477.19
337.738	485.19
337.966	473.19
338.194	474.19
338.422	489.19
338.65	475.19
338.878	460.19
339.106	462.19
339.334	465.19
339.562	462.19
339.79	493.19
340.018	474.19
340.246	429.19
340.474	481.19
340.702	449.19
340.93	446.19
341.158	452.19
341.386	439.19
341.614	444.19
341.842	447.19
342.07	443.19
342.298	448.19
342.526	436.19
342.754	439.19
342.981	430.19
343.209	459.19
343.437	462.19
343.665	463.19
343.893	474.19
344.12	494.19
344.348	500.19
344.576	485.19
344.804	476.19
345.031	466.19
345.259	485.19
345.487	440.19
345.714	432.19
345.942	450.19
346.17	463.19
346.397	427.19
346.625	445.19
346.853	439.19
347.08	433.19
347.308	436.19
347.535	436.19
347.763	435.19
347.99	448.19
348.218	434.19
348.445	451.19
348.673	423.19
348.9	442.19
349.128	434.19
349.355	411.19
349.583	418.19
349.81	436.19
350.037	415.19
350.265	420.19
350.492	420.19
350.72	427.19
350.947	415.19
351.174	417.19
351.402	429.19
351.629	430.19
351.856	451.19
352.083	442.19
352.311	430.19
352.538	424.19
352.765	428.19
352.992	437.19
353.22	425.19
353.447	440.19
353.674	441.19
353.901	419.19
354.128	416.19
354.355	400.19
354.583	417.19
354.81	422.19
355.037	420.19
355.264	427.19
355.491	424.19
355.718	415.19
355.945	404.19
356.172	417.19
356.399	418.19
356.626	403.19
356.853	396.19
357.08	428.19
357.307	399.19
357.534	405.19
357.761	431.19
357.988	403.19
358.215	406.19
358.441	410.19
358.668	393.19
358.895	411.19
359.122	424.19
359.349	417.19
359.576	429.19
359.802	429.19
360.029	451.19
360.256	458.19
360.483	447.19
360.709	427.19
360.936	425.19
361.163	416.19
361.39	416.19
361.616	426.19
361.843	424.19
362.07	407.19
362.296	438.19
362.523	433.19
362.749	440.19
362.976	412.19
363.203	440.19
363.429	398.19
363.656	413.19
363.882	414.19
364.109	406.19
364.335	407.19
364.562	422.19
364.788	418.19
365.015	414.19
365.241	416.19
365.468	425.19
365.694	426.19
365.92	418.19
366.147	421.19
366.373	405.19
366.599	415.19
366.826	387.19
367.052	402.19
367.278	418.19
367.505	417.19
367.731	408.19
367.957	404.19
368.184	408.19
368.41	433.19
368.636	433.19
368.862	407.19
369.089	424.19
369.315	392.19
369.541	409.19
369.767	428.19
369.993	436.19
370.219	421.19
370.445	423.19
370.672	419.19
370.898	408.19
371.124	418.19
371.35	441.19
371.576	426.19
371.802	429.19
372.028	403.19
372.254	434.19
372.48	423.19
372.706	443.19
372.932	434.19
373.158	407.19
373.384	444.19
373.61	450.19
373.835	426.19
374.061	428.19
374.287	446.19
374.513	432.19
374.739	437.19
374.965	434.19
375.191	444.19
375.416	448.19
375.642	445.19
375.868	447.19
376.094	442.19
376.319	426.19
376.545	430.19
376.771	421.19
376.997	424.19
377.222	422.19
377.448	417.19
377.674	415.19
377.899	407.19
378.125	413.19
378.35	422.19
378.576	426.19
378.802	398.19
379.027	435.19
379.253	434.19
379.478	409.19
379.704	421.19
379.929	424.19
380.155	436.19
380.38	434.19
380.606	441.19
380.831	403.19
381.057	446.19
381.282	418.19
381.507	423.19
381.733	433.19
381.958	416.19
382.184	432.19
382.409	439.19
382.634	427.19
382.86	445.19
383.085	439.19
383.31	451.19
383.535	471.19
383.761	457.19
383.986	463.19
384.211	470.19
384.436	473.19
384.662	460.19
384.887	484.19
385.112	458.19
385.337	460.19
385.562	481.19
385.787	468.19
386.013	483.19
386.238	504.19
386.463	467.19
386.688	485.19
386.913	477.19
387.138	469.19
387.363	485.19
387.588	477.19
387.813	459.19
388.038	477.19
388.263	487.19
388.488	475.19
388.713	463.19
388.938	491.19
389.163	480.19
389.387	475.19
389.612	469.19
389.837	493.19
390.062	478.19
390.287	486.19
390.512	485.19
390.736	472.19
390.961	473.19
391.186	480.19
391.411	487.19
391.636	504.19
391.86	536.19
392.085	520.19
392.31	507.19
392.534	496.19
392.759	512.19
392.984	498.19
393.208	490.19
393.433	483.19
393.658	478.19
393.882	470.19
394.107	507.19
394.331	498.19
394.556	472.19
394.78	499.19
395.005	474.19
395.229	488.19
395.454	493.19
395.678	536.19
395.903	516.19
396.127	520.19
396.352	517.19
396.576	516.19
396.801	499.19
397.025	486.19
397.249	512.19
397.474	515.19
397.698	514.19
397.922	530.19
398.147	532.19
398.371	538.19
398.595	538.19
398.82	572.19
399.044	587.19
399.268	609.19
399.492	653.19
399.717	718.19
399.941	759.19
400.165	741.19
400.389	703.19
400.613	653.19
400.837	605.19
401.062	578.19
401.286	577.19
401.51	557.19
401.734	557.19
401.958	550.19
402.182	572.19
402.406	573.19
402.63	595.19
402.854	584.19
403.078	602.19
403.302	603.19
403.526	628.19
403.75	614.19
403.974	582.19
404.198	616.19
404.422	609.19
404.645	598.19
404.869	622.19
405.093	625.19
405.317	646.19
405.541	683.19
405.765	646.19
405.988	614.19
406.212	627.19
406.436	642.19
406.66	656.19
406.883	642.19
407.107	672.19
407.331	709.19
407.555	781.19
407.778	773.19
408.002	688.19
408.226	649.19
408.449	649.19
408.673	649.19
408.896	660.19
409.12	689.19
409.344	677.19
409.567	620.19
409.791	601.19
410.014	582.19
410.238	611.19
410.461	573.19
410.685	603.19
410.908	610.19
411.132	628.19
411.355	652.19
411.578	635.19
411.802	609.19
412.025	589.19
412.249	606.19
412.472	620.19
412.695	621.19
412.919	632.19
413.142	580.19
413.365	568.19
413.589	573.19
413.812	549.19
414.035	573.19
414.258	557.19
414.482	552.19
414.705	546.19
414.928	575.19
415.151	558.19
415.374	560.19
415.597	547.19
415.821	558.19
416.044	528.19
416.267	552.19
416.49	541.19
416.713	556.19
416.936	542.19
417.159	570.19
417.382	545.19
417.605	528.19
417.828	563.19
418.051	572.19
418.274	552.19
418.497	562.19
418.72	564.19
418.943	545.19
419.166	591.19
419.389	598.19
419.611	613.19
419.834	601.19
420.057	588.19
420.28	584.19
420.503	586.19
420.726	569.19
420.948	579.19
421.171	614.19
421.394	628.19
421.617	587.19
421.839	553.19
422.062	572.19
422.285	576.19
422.507	618.19
422.73	681.19
422.953	665.19
423.175	606.19
423.398	603.19
423.621	590.19
423.843	642.19
424.066	628.19
424.288	610.19
424.511	625.19
424.733	664.19
424.956	710.19
425.178	694.19
425.401	701.19
425.623	711.19
425.846	618.19
426.068	600.19
426.291	593.19
426.513	582.19
426.735	602.19
426.958	635.19
427.18	696.19
427.402	804.19
427.625	868.19
427.847	739.19
428.069	667.19
428.292	590.19
428.514	563.19
428.736	564.19
428.958	558.19
429.181	531.19
429.403	534.19
429.625	545.19
429.847	578.19
430.069	630.19
430.292	628.19
430.514	555.19
430.736	525.19
430.958	515.19
431.18	538.19
431.402	525.19
431.624	527.19
431.846	505.19
432.068	524.19
432.29	526.19
432.512	535.19
432.734	542.19
432.956	527.19
433.178	542.19
433.4	539.19
433.622	534.19
433.844	523.19
434.066	519.19
434.287	539.19
434.509	538.19
434.731	563.19
434.953	568.19
435.175	573.19
435.397	582.19
435.618	610.19
435.84	615.19
436.062	692.19
436.284	717.19
436.505	617.19
436.727	571.19
436.949	553.19
437.17	546.19
437.392	533.19
437.614	545.19
437.835	568.19
438.057	633.19
438.278	716.19
438.5	702.19
438.721	753.19
438.943	749.19
439.165	598.19
439.386	585.19
439.608	564.19
439.829	568.19
440.05	579.19
440.272	613.19
440.493	576.19
440.715	570.19
440.936	537.19
441.158	542.19
441.379	546.19
441.6	577.19
441.822	587.19
442.043	638.19
442.264	703.19
442.486	764.19
442.707	653.19
442.928	610.19
443.149	610.19
443.371	628.19
443.592	665.19
443.813	728.19
444.034	791.19
444.255	661.19
444.476	636.19
444.698	617.19
444.919	629.19
445.14	709.19
445.361	654.19
445.582	637.19
445.803	666.19
446.024	738.19
446.245	747.19
446.466	670.19
446.687	604.19
446.908	597.19
447.129	553.19
447.35	545.19
447.571	534.19
447.792	524.19
448.013	509.19
448.234	556.19
448.455	579.19
448.675	664.19
448.896	748.19
449.117	640.19
449.338	626.19
449.559	724.19
449.779	793.19
450	670.19
450.221	581.19
450.442	512.19
450.662	500.19
450.883	533.19
451.104	537.19
451.324	493.19
451.545	470.19
451.766	500.19
451.986	455.19
452.207	468.19
452.428	477.19
452.648	468.19
452.869	489.19
453.089	491.19
453.31	500.19
453.53	459.19
453.751	491.19
453.971	477.19
454.192	489.19
454.412	472.19
454.633	461.19
454.853	455.19
455.073	480.19
455.294	481.19
455.514	534.19
455.734	517.19
455.955	467.19
456.175	460.19
456.395	442.19
456.616	464.19
456.836	444.19
457.056	475.19
457.276	440.19
457.497	434.19
457.717	452.19
457.937	451.19
458.157	470.19
458.377	476.19
458.598	490.19
458.818	521.19
459.038	588.19
459.258	604.19
459.478	558.19
459.698	523.19
459.918	528.19
460.138	536.19
460.358	548.19
460.578	562.19
460.798	539.19
461.018	560.19
461.238	536.19
461.458	565.19
461.678	557.19
461.898	569.19
462.118	573.19
462.338	585.19
462.558	584.19
462.777	587.19
462.997	606.19
463.217	661.19
463.437	628.19
463.657	622.19
463.876	620.19
464.096	600.19
464.316	598.19
464.536	599.19
464.755	619.19
464.975	577.19
465.195	612.19
465.414	627.19
465.634	557.19
465.854	545.19
466.073	529.19
466.293	496.19
466.512	494.19
466.732	513.19
466.951	500.19
467.171	479.19
467.391	504.19
467.61	489.19
467.829	499.19
468.049	499.19
468.268	493.19
468.488	490.19
468.707	477.19
468.927	488.19
469.146	480.19
469.365	486.19
469.585	486.19
469.804	493.19
470.023	527.19
470.243	497.19
470.462	499.19
470.681	512.19
470.901	523.19
471.12	519.19
471.339	483.19
471.558	499.19
471.777	496.19
471.997	502.19
472.216	483.19
472.435	501.19
472.654	478.19
472.873	500.19
473.092	486.19
473.311	482.19
473.53	498.19
473.749	511.19
473.968	539.19
474.187	610.19
474.406	652.19
474.625	536.19
474.844	497.19
475.063	490.19
475.282	504.19
475.501	516.19
475.72	505.19
475.939	505.19
476.158	488.19
476.377	516.19
476.596	535.19
476.814	526.19
477.033	518.19
477.252	530.19
477.471	528.19
477.69	547.19
477.908	550.19
478.127	575.19
478.346	568.19
478.564	564.19
478.783	572.19
479.002	566.19
479.22	594.19
479.439	612.19
479.658	583.19
479.876	595.19
480.095	598.19
480.313	633.19
480.532	626.19
480.751	630.19
480.969	630.19
481.188	651.19
481.406	676.19
481.624	629.19
481.843	598.19
482.061	582.19
482.28	590.19
482.498	561.19
482.717	583.19
482.935	572.19
483.153	577.19
483.372	566.19
483.59	591.19
483.808	598.19
484.027	572.19
484.245	579.19
484.463	554.19
484.681	584.19
484.9	577.19
485.118	582.19
485.336	604.19
485.554	580.19
485.772	595.19
485.99	610.19
486.209	589.19
486.427	572.19
486.645	612.19
486.863	622.19
487.081	609.19
487.299	610.19
487.517	608.19
487.735	610.19
487.953	597.19
488.171	613.19
488.389	621.19
488.607	610.19
488.825	599.19
489.043	618.19
489.261	613.19
489.479	642.19
489.696	627.19
489.914	647.19
490.132	626.19
490.35	642.19
490.568	651.19
490.786	675.19
491.003	671.19
491.221	672.19
491.439	674.19
491.657	676.19
491.874	683.19
492.092	689.19
492.31	685.19
492.527	700.19
492.745	710.19
492.963	728.19
493.18	708.19
493.398	714.19
493.615	724.19
493.833	721.19
494.05	710.19
494.268	721.19
494.485	740.19
494.703	721.19
494.92	706.19
495.138	705.19
495.355	715.19
495.573	725.19
495.79	699.19
496.008	704.19
496.225	693.19
496.442	729.19
496.66	732.19
496.877	725.19
497.094	747.19
497.312	741.19
497.529	774.19
497.746	785.19
497.963	753.19
498.181	815.19
498.398	817.19
498.615	832.19
498.832	893.19
499.049	895.19
499.267	932.19
499.484	1011.19
499.701	1076.19
499.918	1095.19
500.135	1167.19
500.352	1243.19
500.569	1286.19
500.786	1273.19
501.003	1220.19
501.22	1194.19
501.437	1124.19
501.654	1058.19
