Data from 1973.PennyLincolnUp.Lamp.En5.5.200Scan.071719.P1.Changed Mount._HRD10591_15-45-22-853.txt Node
Date: Thu Jul 18 15:45:22 EDT 2019
User: cochatt
Spectrometer: HR+D1059
Trigger mode: 1
Integration Time (sec): 1.000000E-1
Scans to average: 1
Electric dark correction enabled: true
Nonlinearity correction enabled: false
Boxcar width: 0
XAxis mode: Wavelengths
Number of Pixels in Spectrum: 2048
>>>>>Begin Spectral Data<<<<<
223.165	-14.19
223.4	-14.19
223.635	-14.19
223.869	-28.19
224.104	-14.19
224.338	-5.19
224.573	-19.19
224.808	-13.19
225.042	0.81
225.277	3.81
225.511	1.81
225.746	0.81
225.98	13.81
226.215	-1.19
226.449	9.81
226.683	10.81
226.918	27.81
227.152	25.81
227.387	28.81
227.621	25.81
227.856	37.81
228.09	52.81
228.324	57.81
228.559	56.81
228.793	64.81
229.027	96.81
229.262	115.81
229.496	122.81
229.73	118.81
229.964	132.81
230.199	123.81
230.433	106.81
230.667	98.81
230.901	109.81
231.136	115.81
231.37	100.81
231.604	118.81
231.838	123.81
232.072	116.81
232.306	109.81
232.541	105.81
232.775	131.81
233.009	124.81
233.243	113.81
233.477	123.81
233.711	112.81
233.945	118.81
234.179	129.81
234.413	109.81
234.647	125.81
234.881	107.81
235.115	128.81
235.349	112.81
235.583	124.81
235.817	125.81
236.051	132.81
236.285	114.81
236.519	138.81
236.753	142.81
236.987	134.81
237.221	161.81
237.455	192.81
237.689	180.81
237.922	143.81
238.156	150.81
238.39	129.81
238.624	132.81
238.858	128.81
239.091	135.81
239.325	113.81
239.559	140.81
239.793	137.81
240.027	127.81
240.26	144.81
240.494	136.81
240.728	150.81
240.961	146.81
241.195	151.81
241.429	152.81
241.662	134.81
241.896	145.81
242.13	132.81
242.363	142.81
242.597	146.81
242.83	146.81
243.064	133.81
243.298	155.81
243.531	146.81
243.765	157.81
243.998	150.81
244.232	152.81
244.465	147.81
244.699	160.81
244.932	150.81
245.166	153.81
245.399	152.81
245.633	158.81
245.866	148.81
246.099	157.81
246.333	169.81
246.566	154.81
246.8	144.81
247.033	166.81
247.266	158.81
247.5	168.81
247.733	169.81
247.966	176.81
248.2	176.81
248.433	187.81
248.666	183.81
248.899	178.81
249.133	206.81
249.366	194.81
249.599	204.81
249.832	191.81
250.066	200.81
250.299	188.81
250.532	176.81
250.765	207.81
250.998	221.81
251.231	218.81
251.465	219.81
251.698	206.81
251.931	185.81
252.164	196.81
252.397	205.81
252.63	209.81
252.863	204.81
253.096	226.81
253.329	239.81
253.562	231.81
253.795	229.81
254.028	221.81
254.261	212.81
254.494	228.81
254.727	247.81
254.96	264.81
255.193	268.81
255.426	243.81
255.659	242.81
255.892	234.81
256.124	241.81
256.357	258.81
256.59	233.81
256.823	230.81
257.056	225.81
257.289	216.81
257.521	201.81
257.754	220.81
257.987	211.81
258.22	224.81
258.452	221.81
258.685	228.81
258.918	218.81
259.151	221.81
259.383	224.81
259.616	238.81
259.849	243.81
260.081	248.81
260.314	249.81
260.547	259.81
260.779	240.81
261.012	241.81
261.244	236.81
261.477	218.81
261.71	228.81
261.942	240.81
262.175	246.81
262.407	235.81
262.64	218.81
262.872	234.81
263.105	220.81
263.337	218.81
263.57	229.81
263.802	230.81
264.035	222.81
264.267	225.81
264.499	224.81
264.732	235.81
264.964	234.81
265.197	234.81
265.429	231.81
265.661	231.81
265.894	246.81
266.126	220.81
266.358	223.81
266.591	236.81
266.823	222.81
267.055	241.81
267.287	260.81
267.52	258.81
267.752	234.81
267.984	236.81
268.216	245.81
268.448	244.81
268.681	237.81
268.913	250.81
269.145	289.81
269.377	274.81
269.609	284.81
269.841	276.81
270.073	284.81
270.306	293.81
270.538	315.81
270.77	317.81
271.002	324.81
271.234	309.81
271.466	297.81
271.698	334.81
271.93	317.81
272.162	316.81
272.394	326.81
272.626	305.81
272.858	286.81
273.09	296.81
273.322	292.81
273.553	286.81
273.785	284.81
274.017	278.81
274.249	291.81
274.481	284.81
274.713	270.81
274.945	283.81
275.176	287.81
275.408	288.81
275.64	291.81
275.872	290.81
276.104	279.81
276.335	276.81
276.567	301.81
276.799	326.81
277.031	328.81
277.262	334.81
277.494	322.81
277.726	306.81
277.957	305.81
278.189	295.81
278.421	282.81
278.652	279.81
278.884	296.81
279.115	304.81
279.347	280.81
279.579	302.81
279.81	298.81
280.042	304.81
280.273	312.81
280.505	312.81
280.736	298.81
280.968	296.81
281.199	286.81
281.431	281.81
281.662	298.81
281.894	311.81
282.125	299.81
282.356	325.81
282.588	317.81
282.819	353.81
283.051	311.81
283.282	305.81
283.513	301.81
283.745	300.81
283.976	310.81
284.207	321.81
284.439	316.81
284.67	298.81
284.901	310.81
285.132	324.81
285.364	320.81
285.595	315.81
285.826	310.81
286.057	312.81
286.288	315.81
286.52	317.81
286.751	313.81
286.982	323.81
287.213	327.81
287.444	330.81
287.675	337.81
287.906	332.81
288.138	336.81
288.369	330.81
288.6	346.81
288.831	333.81
289.062	319.81
289.293	335.81
289.524	346.81
289.755	321.81
289.986	316.81
290.217	324.81
290.448	313.81
290.679	305.81
290.91	326.81
291.141	328.81
291.371	326.81
291.602	325.81
291.833	339.81
292.064	321.81
292.295	313.81
292.526	331.81
292.757	349.81
292.987	330.81
293.218	316.81
293.449	328.81
293.68	343.81
293.91	334.81
294.141	332.81
294.372	333.81
294.603	317.81
294.833	333.81
295.064	349.81
295.295	350.81
295.525	350.81
295.756	336.81
295.987	356.81
296.217	360.81
296.448	352.81
296.679	348.81
296.909	332.81
297.14	320.81
297.37	352.81
297.601	340.81
297.831	333.81
298.062	335.81
298.292	356.81
298.523	347.81
298.753	372.81
298.984	356.81
299.214	358.81
299.445	354.81
299.675	341.81
299.905	344.81
300.136	346.81
300.366	343.81
300.597	376.81
300.827	379.81
301.057	377.81
301.288	377.81
301.518	364.81
301.748	374.81
301.979	365.81
302.209	368.81
302.439	362.81
302.669	366.81
302.9	363.81
303.13	390.81
303.36	379.81
303.59	377.81
303.82	364.81
304.051	380.81
304.281	360.81
304.511	370.81
304.741	352.81
304.971	379.81
305.201	387.81
305.431	360.81
305.661	384.81
305.891	377.81
306.121	368.81
306.352	359.81
306.582	378.81
306.812	362.81
307.042	361.81
307.272	358.81
307.502	357.81
307.731	363.81
307.961	376.81
308.191	378.81
308.421	360.81
308.651	376.81
308.881	384.81
309.111	371.81
309.341	387.81
309.571	375.81
309.8	396.81
310.03	396.81
310.26	404.81
310.49	402.81
310.72	407.81
310.949	384.81
311.179	408.81
311.409	405.81
311.639	406.81
311.868	398.81
312.098	410.81
312.328	412.81
312.557	431.81
312.787	441.81
313.017	416.81
313.246	414.81
313.476	415.81
313.706	392.81
313.935	406.81
314.165	430.81
314.394	414.81
314.624	441.81
314.853	424.81
315.083	444.81
315.312	416.81
315.542	432.81
315.771	416.81
316.001	396.81
316.23	403.81
316.46	393.81
316.689	426.81
316.919	413.81
317.148	412.81
317.377	408.81
317.607	416.81
317.836	404.81
318.065	414.81
318.295	423.81
318.524	418.81
318.753	406.81
318.983	394.81
319.212	410.81
319.441	413.81
319.67	437.81
319.9	416.81
320.129	432.81
320.358	422.81
320.587	411.81
320.816	450.81
321.046	423.81
321.275	426.81
321.504	424.81
321.733	414.81
321.962	435.81
322.191	436.81
322.42	439.81
322.649	468.81
322.878	472.81
323.108	484.81
323.337	488.81
323.566	513.81
323.795	521.81
324.024	581.81
324.253	646.81
324.482	863.81
324.71	1192.81
324.939	1714.81
325.168	1486.81
325.397	853.81
325.626	608.81
325.855	529.81
326.084	512.81
326.313	503.81
326.542	501.81
326.77	544.81
326.999	605.81
327.228	779.81
327.457	1128.81
327.686	1356.81
327.914	956.81
328.143	647.81
328.372	617.81
328.6	574.81
328.829	541.81
329.058	579.81
329.287	574.81
329.515	554.81
329.744	504.81
329.972	515.81
330.201	532.81
330.43	564.81
330.658	573.81
330.887	600.81
331.115	571.81
331.344	536.81
331.572	513.81
331.801	539.81
332.03	524.81
332.258	508.81
332.486	485.81
332.715	484.81
332.943	497.81
333.172	516.81
333.4	544.81
333.629	527.81
333.857	556.81
334.085	564.81
334.314	554.81
334.542	554.81
334.771	579.81
334.999	567.81
335.227	516.81
335.455	531.81
335.684	531.81
335.912	491.81
336.14	474.81
336.369	496.81
336.597	502.81
336.825	518.81
337.053	514.81
337.281	492.81
337.51	471.81
337.738	485.81
337.966	467.81
338.194	509.81
338.422	471.81
338.65	478.81
338.878	473.81
339.106	470.81
339.334	467.81
339.562	474.81
339.79	483.81
340.018	471.81
340.246	484.81
340.474	463.81
340.702	470.81
340.93	460.81
341.158	467.81
341.386	481.81
341.614	469.81
341.842	482.81
342.07	462.81
342.298	451.81
342.526	462.81
342.754	455.81
342.981	444.81
343.209	456.81
343.437	467.81
343.665	483.81
343.893	503.81
344.12	490.81
344.348	503.81
344.576	500.81
344.804	490.81
345.031	472.81
345.259	490.81
345.487	459.81
345.714	473.81
345.942	461.81
346.17	457.81
346.397	451.81
346.625	427.81
346.853	453.81
347.08	442.81
347.308	448.81
347.535	452.81
347.763	427.81
347.99	461.81
348.218	467.81
348.445	475.81
348.673	453.81
348.9	453.81
349.128	439.81
349.355	433.81
349.583	411.81
349.81	425.81
350.037	411.81
350.265	446.81
350.492	445.81
350.72	452.81
350.947	426.81
351.174	444.81
351.402	432.81
351.629	458.81
351.856	450.81
352.083	433.81
352.311	439.81
352.538	452.81
352.765	436.81
352.992	437.81
353.22	422.81
353.447	422.81
353.674	415.81
353.901	416.81
354.128	437.81
354.355	399.81
354.583	405.81
354.81	405.81
355.037	432.81
355.264	400.81
355.491	412.81
355.718	428.81
355.945	430.81
356.172	419.81
356.399	422.81
356.626	420.81
356.853	428.81
357.08	413.81
357.307	417.81
357.534	441.81
357.761	418.81
357.988	436.81
358.215	435.81
358.441	424.81
358.668	414.81
358.895	411.81
359.122	424.81
359.349	442.81
359.576	432.81
359.802	465.81
360.029	477.81
360.256	478.81
360.483	460.81
360.709	420.81
360.936	416.81
361.163	418.81
361.39	435.81
361.616	445.81
361.843	442.81
362.07	429.81
362.296	418.81
362.523	443.81
362.749	423.81
362.976	441.81
363.203	436.81
363.429	410.81
363.656	429.81
363.882	444.81
364.109	423.81
364.335	438.81
364.562	436.81
364.788	425.81
365.015	410.81
365.241	403.81
365.468	411.81
365.694	434.81
365.92	434.81
366.147	426.81
366.373	416.81
366.599	448.81
366.826	424.81
367.052	434.81
367.278	421.81
367.505	433.81
367.731	428.81
367.957	427.81
368.184	427.81
368.41	442.81
368.636	438.81
368.862	436.81
369.089	447.81
369.315	436.81
369.541	447.81
369.767	428.81
369.993	413.81
370.219	436.81
370.445	453.81
370.672	431.81
370.898	412.81
371.124	412.81
371.35	443.81
371.576	442.81
371.802	436.81
372.028	425.81
372.254	434.81
372.48	450.81
372.706	443.81
372.932	432.81
373.158	434.81
373.384	451.81
373.61	450.81
373.835	437.81
374.061	443.81
374.287	427.81
374.513	434.81
374.739	452.81
374.965	466.81
375.191	440.81
375.416	476.81
375.642	448.81
375.868	438.81
376.094	452.81
376.319	438.81
376.545	430.81
376.771	429.81
376.997	430.81
377.222	440.81
377.448	425.81
377.674	417.81
377.899	424.81
378.125	439.81
378.35	410.81
378.576	436.81
378.802	416.81
379.027	436.81
379.253	420.81
379.478	435.81
379.704	435.81
379.929	426.81
380.155	428.81
380.38	442.81
380.606	418.81
380.831	439.81
381.057	424.81
381.282	436.81
381.507	428.81
381.733	419.81
381.958	439.81
382.184	439.81
382.409	437.81
382.634	436.81
382.86	420.81
383.085	432.81
383.31	463.81
383.535	466.81
383.761	461.81
383.986	471.81
384.211	461.81
384.436	460.81
384.662	484.81
384.887	455.81
385.112	488.81
385.337	471.81
385.562	468.81
385.787	492.81
386.013	474.81
386.238	512.81
386.463	492.81
386.688	496.81
386.913	497.81
387.138	496.81
387.363	472.81
387.588	474.81
387.813	478.81
388.038	482.81
388.263	474.81
388.488	489.81
388.713	502.81
388.938	486.81
389.163	483.81
389.387	485.81
389.612	463.81
389.837	486.81
390.062	470.81
390.287	481.81
390.512	480.81
390.736	498.81
390.961	494.81
391.186	481.81
391.411	488.81
391.636	513.81
391.86	504.81
392.085	496.81
392.31	531.81
392.534	526.81
392.759	509.81
392.984	473.81
393.208	498.81
393.433	516.81
393.658	497.81
393.882	507.81
394.107	502.81
394.331	495.81
394.556	484.81
394.78	516.81
395.005	492.81
395.229	512.81
395.454	512.81
395.678	529.81
395.903	540.81
396.127	535.81
396.352	547.81
396.576	517.81
396.801	500.81
397.025	493.81
397.249	484.81
397.474	526.81
397.698	541.81
397.922	537.81
398.147	544.81
398.371	554.81
398.595	558.81
398.82	576.81
399.044	581.81
399.268	637.81
399.492	676.81
399.717	718.81
399.941	735.81
400.165	727.81
400.389	732.81
400.613	682.81
400.837	613.81
401.062	573.81
401.286	587.81
401.51	569.81
401.734	583.81
401.958	579.81
402.182	594.81
402.406	590.81
402.63	604.81
402.854	606.81
403.078	600.81
403.302	604.81
403.526	599.81
403.75	601.81
403.974	603.81
404.198	601.81
404.422	634.81
404.645	615.81
404.869	637.81
405.093	644.81
405.317	657.81
405.541	696.81
405.765	645.81
405.988	627.81
406.212	631.81
406.436	634.81
406.66	664.81
406.883	662.81
407.107	698.81
407.331	716.81
407.555	766.81
407.778	762.81
408.002	695.81
408.226	682.81
408.449	648.81
408.673	661.81
408.896	650.81
409.12	699.81
409.344	676.81
409.567	626.81
409.791	615.81
410.014	603.81
410.238	603.81
410.461	596.81
410.685	594.81
410.908	628.81
411.132	646.81
411.355	651.81
411.578	636.81
411.802	614.81
412.025	608.81
412.249	590.81
412.472	617.81
412.695	657.81
412.919	641.81
413.142	605.81
413.365	583.81
413.589	585.81
413.812	593.81
414.035	553.81
414.258	552.81
414.482	557.81
414.705	571.81
414.928	568.81
415.151	587.81
415.374	570.81
415.597	562.81
415.821	581.81
416.044	581.81
416.267	590.81
416.49	567.81
416.713	573.81
416.936	550.81
417.159	574.81
417.382	538.81
417.605	557.81
417.828	573.81
418.051	607.81
418.274	570.81
418.497	574.81
418.72	589.81
418.943	573.81
419.166	611.81
419.389	640.81
419.611	610.81
419.834	614.81
420.057	603.81
420.28	570.81
420.503	590.81
420.726	584.81
420.948	587.81
421.171	614.81
421.394	640.81
421.617	589.81
421.839	577.81
422.062	594.81
422.285	577.81
422.507	638.81
422.73	709.81
422.953	682.81
423.175	614.81
423.398	604.81
423.621	601.81
423.843	617.81
424.066	628.81
424.288	609.81
424.511	652.81
424.733	670.81
424.956	737.81
425.178	722.81
425.401	705.81
425.623	733.81
425.846	635.81
426.068	607.81
426.291	605.81
426.513	614.81
426.735	589.81
426.958	629.81
427.18	678.81
427.402	797.81
427.625	864.81
427.847	771.81
428.069	659.81
428.292	606.81
428.514	559.81
428.736	586.81
428.958	567.81
429.181	537.81
429.403	555.81
429.625	546.81
429.847	591.81
430.069	644.81
430.292	629.81
430.514	556.81
430.736	548.81
430.958	540.81
431.18	526.81
431.402	530.81
431.624	535.81
431.846	529.81
432.068	514.81
432.29	535.81
432.512	530.81
432.734	524.81
432.956	541.81
433.178	552.81
433.4	555.81
433.622	518.81
433.844	544.81
434.066	543.81
434.287	508.81
434.509	544.81
434.731	550.81
434.953	567.81
435.175	584.81
435.397	618.81
435.618	606.81
435.84	633.81
436.062	680.81
436.284	748.81
436.505	649.81
436.727	589.81
436.949	554.81
437.17	550.81
437.392	550.81
437.614	546.81
437.835	574.81
438.057	666.81
438.278	730.81
438.5	716.81
438.721	806.81
438.943	786.81
439.165	656.81
439.386	588.81
439.608	572.81
439.829	583.81
440.05	587.81
440.272	646.81
440.493	650.81
440.715	566.81
440.936	563.81
441.158	574.81
441.379	570.81
441.6	578.81
441.822	603.81
442.043	610.81
442.264	709.81
442.486	730.81
442.707	667.81
442.928	636.81
443.149	637.81
443.371	653.81
443.592	691.81
443.813	762.81
444.034	810.81
444.255	724.81
444.476	645.81
444.698	642.81
444.919	640.81
445.14	724.81
445.361	660.81
445.582	647.81
445.803	688.81
446.024	750.81
446.245	747.81
446.466	704.81
446.687	643.81
446.908	584.81
447.129	589.81
447.35	553.81
447.571	514.81
447.792	539.81
448.013	533.81
448.234	556.81
448.455	596.81
448.675	672.81
448.896	784.81
449.117	680.81
449.338	644.81
449.559	716.81
449.779	827.81
450	666.81
450.221	581.81
450.442	553.81
450.662	530.81
450.883	531.81
451.104	521.81
451.324	531.81
451.545	488.81
451.766	517.81
451.986	493.81
452.207	492.81
452.428	483.81
452.648	467.81
452.869	494.81
453.089	502.81
453.31	528.81
453.53	485.81
453.751	485.81
453.971	479.81
454.192	501.81
454.412	498.81
454.633	506.81
454.853	489.81
455.073	488.81
455.294	503.81
455.514	565.81
455.734	548.81
455.955	501.81
456.175	463.81
456.395	448.81
456.616	457.81
456.836	464.81
457.056	442.81
457.276	478.81
457.497	475.81
457.717	462.81
457.937	467.81
458.157	461.81
458.377	492.81
458.598	521.81
458.818	552.81
459.038	611.81
459.258	614.81
459.478	556.81
459.698	537.81
459.918	537.81
460.138	539.81
460.358	556.81
460.578	577.81
460.798	570.81
461.018	587.81
461.238	597.81
461.458	552.81
461.678	566.81
461.898	588.81
462.118	591.81
462.338	588.81
462.558	596.81
462.777	588.81
462.997	630.81
463.217	669.81
463.437	676.81
463.657	644.81
463.876	614.81
464.096	609.81
464.316	628.81
464.536	630.81
464.755	595.81
464.975	634.81
465.195	620.81
465.414	658.81
465.634	605.81
465.854	560.81
466.073	554.81
466.293	525.81
466.512	496.81
466.732	506.81
466.951	516.81
467.171	515.81
467.391	519.81
467.61	519.81
467.829	517.81
468.049	522.81
468.268	520.81
468.488	503.81
468.707	490.81
468.927	473.81
469.146	492.81
469.365	503.81
469.585	514.81
469.804	491.81
470.023	518.81
470.243	512.81
470.462	517.81
470.681	552.81
470.901	551.81
471.12	513.81
471.339	497.81
471.558	501.81
471.777	505.81
471.997	520.81
472.216	502.81
472.435	545.81
472.654	517.81
472.873	509.81
473.092	498.81
473.311	485.81
473.53	498.81
473.749	526.81
473.968	544.81
474.187	628.81
474.406	659.81
474.625	557.81
474.844	512.81
475.063	520.81
475.282	502.81
475.501	516.81
475.72	534.81
475.939	520.81
476.158	536.81
476.377	530.81
476.596	519.81
476.814	538.81
477.033	545.81
477.252	538.81
477.471	576.81
477.69	536.81
477.908	542.81
478.127	581.81
478.346	570.81
478.564	584.81
478.783	599.81
479.002	598.81
479.22	598.81
479.439	602.81
479.658	633.81
479.876	603.81
480.095	621.81
480.313	648.81
480.532	666.81
480.751	619.81
480.969	620.81
481.188	691.81
481.406	684.81
481.624	614.81
481.843	603.81
482.061	597.81
482.28	594.81
482.498	585.81
482.717	576.81
482.935	588.81
483.153	589.81
483.372	581.81
483.59	580.81
483.808	589.81
484.027	578.81
484.245	594.81
484.463	586.81
484.681	599.81
484.9	577.81
485.118	614.81
485.336	602.81
485.554	604.81
485.772	606.81
485.99	610.81
486.209	583.81
486.427	625.81
486.645	605.81
486.863	636.81
487.081	608.81
487.299	615.81
487.517	629.81
487.735	631.81
487.953	616.81
488.171	622.81
488.389	628.81
488.607	651.81
488.825	635.81
489.043	626.81
489.261	647.81
489.479	645.81
489.696	659.81
489.914	641.81
490.132	628.81
490.35	629.81
490.568	646.81
490.786	635.81
491.003	678.81
491.221	666.81
491.439	690.81
491.657	692.81
491.874	698.81
492.092	704.81
492.31	697.81
492.527	709.81
492.745	696.81
492.963	688.81
493.18	719.81
493.398	730.81
493.615	696.81
493.833	721.81
494.05	714.81
494.268	724.81
494.485	736.81
494.703	693.81
494.92	737.81
495.138	708.81
495.355	710.81
495.573	739.81
495.79	745.81
496.008	731.81
496.225	715.81
496.442	740.81
496.66	732.81
496.877	730.81
497.094	739.81
497.312	753.81
497.529	788.81
497.746	769.81
497.963	758.81
498.181	814.81
498.398	843.81
498.615	852.81
498.832	874.81
499.049	913.81
499.267	921.81
499.484	1017.81
499.701	1067.81
499.918	1097.81
500.135	1177.81
500.352	1248.81
500.569	1308.81
500.786	1321.81
501.003	1272.81
501.22	1202.81
501.437	1102.81
501.654	1064.81
