Data from 1973.PennyLincolnUp.Lamp.En5.5.200Scan.071719.P1.Changed Mount._HRD10591_15-44-35-852.txt Node
Date: Thu Jul 18 15:44:35 EDT 2019
User: cochatt
Spectrometer: HR+D1059
Trigger mode: 1
Integration Time (sec): 1.000000E-1
Scans to average: 1
Electric dark correction enabled: true
Nonlinearity correction enabled: false
Boxcar width: 0
XAxis mode: Wavelengths
Number of Pixels in Spectrum: 2048
>>>>>Begin Spectral Data<<<<<
223.165	-11.88
223.4	-11.88
223.635	-11.88
223.869	-11.88
224.104	-22.88
224.338	-6.88
224.573	-15.88
224.808	-13.88
225.042	-23.88
225.277	-15.88
225.511	-11.88
225.746	9.12
225.98	0.12
226.215	13.12
226.449	19.12
226.683	26.12
226.918	34.12
227.152	33.12
227.387	32.12
227.621	47.12
227.856	44.12
228.09	38.12
228.324	50.12
228.559	59.12
228.793	75.12
229.027	98.12
229.262	98.12
229.496	103.12
229.73	133.12
229.964	134.12
230.199	112.12
230.433	114.12
230.667	101.12
230.901	97.12
231.136	101.12
231.37	114.12
231.604	116.12
231.838	123.12
232.072	99.12
232.306	115.12
232.541	121.12
232.775	115.12
233.009	121.12
233.243	118.12
233.477	108.12
233.711	105.12
233.945	119.12
234.179	109.12
234.413	131.12
234.647	132.12
234.881	127.12
235.115	116.12
235.349	116.12
235.583	113.12
235.817	120.12
236.051	123.12
236.285	117.12
236.519	133.12
236.753	123.12
236.987	137.12
237.221	159.12
237.455	199.12
237.689	154.12
237.922	152.12
238.156	135.12
238.39	126.12
238.624	124.12
238.858	116.12
239.091	120.12
239.325	132.12
239.559	118.12
239.793	119.12
240.027	121.12
240.26	131.12
240.494	155.12
240.728	144.12
240.961	147.12
241.195	140.12
241.429	141.12
241.662	141.12
241.896	143.12
242.13	131.12
242.363	118.12
242.597	131.12
242.83	135.12
243.064	160.12
243.298	161.12
243.531	156.12
243.765	143.12
243.998	140.12
244.232	136.12
244.465	161.12
244.699	154.12
244.932	139.12
245.166	141.12
245.399	158.12
245.633	159.12
245.866	155.12
246.099	145.12
246.333	138.12
246.566	159.12
246.8	149.12
247.033	148.12
247.266	154.12
247.5	175.12
247.733	170.12
247.966	160.12
248.2	165.12
248.433	153.12
248.666	174.12
248.899	186.12
249.133	200.12
249.366	213.12
249.599	191.12
249.832	165.12
250.066	168.12
250.299	177.12
250.532	183.12
250.765	196.12
250.998	212.12
251.231	214.12
251.465	211.12
251.698	195.12
251.931	210.12
252.164	193.12
252.397	187.12
252.63	209.12
252.863	208.12
253.096	211.12
253.329	216.12
253.562	217.12
253.795	218.12
254.028	218.12
254.261	223.12
254.494	221.12
254.727	252.12
254.96	257.12
255.193	244.12
255.426	225.12
255.659	210.12
255.892	220.12
256.124	218.12
256.357	226.12
256.59	233.12
256.823	211.12
257.056	218.12
257.289	211.12
257.521	200.12
257.754	208.12
257.987	207.12
258.22	218.12
258.452	223.12
258.685	207.12
258.918	217.12
259.151	225.12
259.383	215.12
259.616	219.12
259.849	219.12
260.081	243.12
260.314	245.12
260.547	256.12
260.779	224.12
261.012	228.12
261.244	214.12
261.477	230.12
261.71	221.12
261.942	222.12
262.175	219.12
262.407	220.12
262.64	234.12
262.872	211.12
263.105	225.12
263.337	221.12
263.57	207.12
263.802	221.12
264.035	215.12
264.267	213.12
264.499	219.12
264.732	220.12
264.964	213.12
265.197	204.12
265.429	209.12
265.661	213.12
265.894	234.12
266.126	232.12
266.358	211.12
266.591	223.12
266.823	247.12
267.055	238.12
267.287	245.12
267.52	245.12
267.752	236.12
267.984	241.12
268.216	236.12
268.448	247.12
268.681	241.12
268.913	257.12
269.145	262.12
269.377	275.12
269.609	280.12
269.841	258.12
270.073	287.12
270.306	287.12
270.538	282.12
270.77	303.12
271.002	298.12
271.234	285.12
271.466	305.12
271.698	290.12
271.93	300.12
272.162	318.12
272.394	315.12
272.626	278.12
272.858	284.12
273.09	276.12
273.322	275.12
273.553	265.12
273.785	283.12
274.017	245.12
274.249	283.12
274.481	277.12
274.713	279.12
274.945	252.12
275.176	265.12
275.408	273.12
275.64	266.12
275.872	264.12
276.104	257.12
276.335	276.12
276.567	276.12
276.799	311.12
277.031	300.12
277.262	312.12
277.494	308.12
277.726	297.12
277.957	285.12
278.189	296.12
278.421	277.12
278.652	288.12
278.884	271.12
279.115	275.12
279.347	268.12
279.579	287.12
279.81	274.12
280.042	309.12
280.273	284.12
280.505	289.12
280.736	276.12
280.968	283.12
281.199	282.12
281.431	281.12
281.662	283.12
281.894	278.12
282.125	291.12
282.356	292.12
282.588	299.12
282.819	305.12
283.051	285.12
283.282	296.12
283.513	292.12
283.745	281.12
283.976	279.12
284.207	303.12
284.439	309.12
284.67	294.12
284.901	305.12
285.132	292.12
285.364	289.12
285.595	308.12
285.826	300.12
286.057	309.12
286.288	291.12
286.52	305.12
286.751	305.12
286.982	303.12
287.213	296.12
287.444	306.12
287.675	313.12
287.906	335.12
288.138	325.12
288.369	322.12
288.6	305.12
288.831	308.12
289.062	320.12
289.293	307.12
289.524	295.12
289.755	314.12
289.986	305.12
290.217	315.12
290.448	319.12
290.679	310.12
290.91	295.12
291.141	297.12
291.371	315.12
291.602	307.12
291.833	306.12
292.064	320.12
292.295	311.12
292.526	305.12
292.757	319.12
292.987	310.12
293.218	316.12
293.449	318.12
293.68	308.12
293.91	306.12
294.141	315.12
294.372	317.12
294.603	319.12
294.833	309.12
295.064	303.12
295.295	300.12
295.525	296.12
295.756	325.12
295.987	322.12
296.217	346.12
296.448	354.12
296.679	340.12
296.909	341.12
297.14	331.12
297.37	325.12
297.601	317.12
297.831	328.12
298.062	336.12
298.292	324.12
298.523	350.12
298.753	322.12
298.984	342.12
299.214	323.12
299.445	315.12
299.675	341.12
299.905	311.12
300.136	336.12
300.366	331.12
300.597	341.12
300.827	355.12
301.057	329.12
301.288	361.12
301.518	353.12
301.748	336.12
301.979	354.12
302.209	335.12
302.439	346.12
302.669	360.12
302.9	330.12
303.13	343.12
303.36	354.12
303.59	359.12
303.82	349.12
304.051	345.12
304.281	339.12
304.511	337.12
304.741	352.12
304.971	329.12
305.201	347.12
305.431	357.12
305.661	349.12
305.891	367.12
306.121	369.12
306.352	352.12
306.582	364.12
306.812	362.12
307.042	331.12
307.272	360.12
307.502	337.12
307.731	360.12
307.961	344.12
308.191	349.12
308.421	339.12
308.651	333.12
308.881	344.12
309.111	354.12
309.341	353.12
309.571	377.12
309.8	364.12
310.03	387.12
310.26	375.12
310.49	383.12
310.72	370.12
310.949	379.12
311.179	391.12
311.409	387.12
311.639	376.12
311.868	404.12
312.098	381.12
312.328	384.12
312.557	386.12
312.787	394.12
313.017	393.12
313.246	384.12
313.476	364.12
313.706	379.12
313.935	397.12
314.165	393.12
314.394	398.12
314.624	407.12
314.853	403.12
315.083	381.12
315.312	380.12
315.542	382.12
315.771	383.12
316.001	388.12
316.23	403.12
316.46	397.12
316.689	378.12
316.919	391.12
317.148	389.12
317.377	402.12
317.607	405.12
317.836	385.12
318.065	402.12
318.295	400.12
318.524	384.12
318.753	378.12
318.983	366.12
319.212	381.12
319.441	393.12
319.67	385.12
319.9	384.12
320.129	395.12
320.358	378.12
320.587	388.12
320.816	375.12
321.046	405.12
321.275	405.12
321.504	402.12
321.733	393.12
321.962	423.12
322.191	425.12
322.42	400.12
322.649	416.12
322.878	433.12
323.108	427.12
323.337	430.12
323.566	473.12
323.795	468.12
324.024	512.12
324.253	563.12
324.482	732.12
324.71	1027.12
324.939	1500.12
325.168	1312.12
325.397	709.12
325.626	556.12
325.855	488.12
326.084	460.12
326.313	450.12
326.542	456.12
326.77	491.12
326.999	533.12
327.228	672.12
327.457	971.12
327.686	1127.12
327.914	805.12
328.143	590.12
328.372	523.12
328.6	527.12
328.829	488.12
329.058	492.12
329.287	500.12
329.515	500.12
329.744	488.12
329.972	467.12
330.201	492.12
330.43	520.12
330.658	515.12
330.887	525.12
331.115	537.12
331.344	490.12
331.572	453.12
331.801	466.12
332.03	499.12
332.258	475.12
332.486	465.12
332.715	454.12
332.943	475.12
333.172	497.12
333.4	501.12
333.629	505.12
333.857	529.12
334.085	527.12
334.314	552.12
334.542	517.12
334.771	555.12
334.999	521.12
335.227	487.12
335.455	490.12
335.684	481.12
335.912	481.12
336.14	474.12
336.369	469.12
336.597	463.12
336.825	495.12
337.053	461.12
337.281	453.12
337.51	445.12
337.738	435.12
337.966	460.12
338.194	468.12
338.422	465.12
338.65	423.12
338.878	443.12
339.106	455.12
339.334	439.12
339.562	449.12
339.79	442.12
340.018	446.12
340.246	448.12
340.474	462.12
340.702	433.12
340.93	445.12
341.158	440.12
341.386	451.12
341.614	445.12
341.842	447.12
342.07	433.12
342.298	426.12
342.526	439.12
342.754	439.12
342.981	409.12
343.209	430.12
343.437	433.12
343.665	463.12
343.893	449.12
344.12	474.12
344.348	451.12
344.576	467.12
344.804	468.12
345.031	451.12
345.259	459.12
345.487	437.12
345.714	437.12
345.942	422.12
346.17	431.12
346.397	420.12
346.625	433.12
346.853	400.12
347.08	428.12
347.308	417.12
347.535	455.12
347.763	439.12
347.99	444.12
348.218	417.12
348.445	437.12
348.673	438.12
348.9	425.12
349.128	412.12
349.355	406.12
349.583	417.12
349.81	406.12
350.037	398.12
350.265	402.12
350.492	381.12
350.72	410.12
350.947	412.12
351.174	420.12
351.402	439.12
351.629	402.12
351.856	426.12
352.083	422.12
352.311	431.12
352.538	423.12
352.765	419.12
352.992	401.12
353.22	402.12
353.447	412.12
353.674	419.12
353.901	393.12
354.128	394.12
354.355	394.12
354.583	421.12
354.81	395.12
355.037	380.12
355.264	403.12
355.491	394.12
355.718	416.12
355.945	400.12
356.172	387.12
356.399	393.12
356.626	415.12
356.853	397.12
357.08	400.12
357.307	399.12
357.534	405.12
357.761	394.12
357.988	410.12
358.215	404.12
358.441	387.12
358.668	383.12
358.895	385.12
359.122	402.12
359.349	403.12
359.576	411.12
359.802	413.12
360.029	438.12
360.256	438.12
360.483	411.12
360.709	408.12
360.936	428.12
361.163	426.12
361.39	403.12
361.616	424.12
361.843	428.12
362.07	417.12
362.296	393.12
362.523	417.12
362.749	402.12
362.976	422.12
363.203	404.12
363.429	407.12
363.656	412.12
363.882	388.12
364.109	388.12
364.335	412.12
364.562	416.12
364.788	398.12
365.015	406.12
365.241	393.12
365.468	411.12
365.694	389.12
365.92	410.12
366.147	405.12
366.373	398.12
366.599	411.12
366.826	409.12
367.052	379.12
367.278	402.12
367.505	423.12
367.731	404.12
367.957	392.12
368.184	412.12
368.41	414.12
368.636	428.12
368.862	420.12
369.089	419.12
369.315	391.12
369.541	409.12
369.767	395.12
369.993	404.12
370.219	422.12
370.445	412.12
370.672	407.12
370.898	405.12
371.124	414.12
371.35	415.12
371.576	415.12
371.802	401.12
372.028	417.12
372.254	409.12
372.48	392.12
372.706	427.12
372.932	405.12
373.158	407.12
373.384	428.12
373.61	442.12
373.835	385.12
374.061	408.12
374.287	408.12
374.513	395.12
374.739	427.12
374.965	435.12
375.191	431.12
375.416	425.12
375.642	433.12
375.868	426.12
376.094	419.12
376.319	415.12
376.545	410.12
376.771	405.12
376.997	409.12
377.222	418.12
377.448	411.12
377.674	417.12
377.899	430.12
378.125	418.12
378.35	397.12
378.576	416.12
378.802	415.12
379.027	428.12
379.253	417.12
379.478	403.12
379.704	394.12
379.929	418.12
380.155	412.12
380.38	412.12
380.606	419.12
380.831	395.12
381.057	427.12
381.282	433.12
381.507	407.12
381.733	433.12
381.958	435.12
382.184	411.12
382.409	417.12
382.634	426.12
382.86	398.12
383.085	432.12
383.31	417.12
383.535	444.12
383.761	452.12
383.986	438.12
384.211	428.12
384.436	453.12
384.662	456.12
384.887	463.12
385.112	453.12
385.337	466.12
385.562	478.12
385.787	461.12
386.013	474.12
386.238	441.12
386.463	493.12
386.688	469.12
386.913	461.12
387.138	484.12
387.363	452.12
387.588	467.12
387.813	452.12
388.038	441.12
388.263	481.12
388.488	479.12
388.713	466.12
388.938	467.12
389.163	464.12
389.387	459.12
389.612	444.12
389.837	456.12
390.062	445.12
390.287	460.12
390.512	471.12
390.736	437.12
390.961	466.12
391.186	464.12
391.411	475.12
391.636	471.12
391.86	511.12
392.085	513.12
392.31	486.12
392.534	484.12
392.759	484.12
392.984	487.12
393.208	497.12
393.433	487.12
393.658	471.12
393.882	454.12
394.107	470.12
394.331	479.12
394.556	480.12
394.78	461.12
395.005	466.12
395.229	501.12
395.454	497.12
395.678	496.12
395.903	496.12
396.127	507.12
396.352	501.12
396.576	489.12
396.801	461.12
397.025	464.12
397.249	489.12
397.474	484.12
397.698	485.12
397.922	524.12
398.147	530.12
398.371	529.12
398.595	529.12
398.82	562.12
399.044	557.12
399.268	599.12
399.492	652.12
399.717	723.12
399.941	698.12
400.165	697.12
400.389	682.12
400.613	598.12
400.837	554.12
401.062	575.12
401.286	548.12
401.51	573.12
401.734	527.12
401.958	545.12
402.182	575.12
402.406	578.12
402.63	577.12
402.854	557.12
403.078	561.12
403.302	587.12
403.526	587.12
403.75	598.12
403.974	563.12
404.198	583.12
404.422	593.12
404.645	583.12
404.869	605.12
405.093	597.12
405.317	643.12
405.541	665.12
405.765	623.12
405.988	627.12
406.212	586.12
406.436	614.12
406.66	632.12
406.883	600.12
407.107	628.12
407.331	639.12
407.555	733.12
407.778	728.12
408.002	685.12
408.226	653.12
408.449	632.12
408.673	625.12
408.896	629.12
409.12	652.12
409.344	637.12
409.567	600.12
409.791	575.12
410.014	580.12
410.238	582.12
410.461	564.12
410.685	595.12
410.908	611.12
411.132	608.12
411.355	649.12
411.578	596.12
411.802	557.12
412.025	585.12
412.249	564.12
412.472	575.12
412.695	631.12
412.919	618.12
413.142	577.12
413.365	567.12
413.589	553.12
413.812	534.12
414.035	546.12
414.258	529.12
414.482	511.12
414.705	533.12
414.928	515.12
415.151	537.12
415.374	536.12
415.597	536.12
415.821	543.12
416.044	540.12
416.267	550.12
416.49	538.12
416.713	533.12
416.936	524.12
417.159	529.12
417.382	523.12
417.605	532.12
417.828	549.12
418.051	568.12
418.274	556.12
418.497	531.12
418.72	563.12
418.943	537.12
419.166	589.12
419.389	596.12
419.611	583.12
419.834	584.12
420.057	546.12
420.28	548.12
420.503	571.12
420.726	560.12
420.948	555.12
421.171	603.12
421.394	609.12
421.617	588.12
421.839	540.12
422.062	542.12
422.285	553.12
422.507	620.12
422.73	675.12
422.953	674.12
423.175	625.12
423.398	580.12
423.621	564.12
423.843	588.12
424.066	599.12
424.288	593.12
424.511	600.12
424.733	659.12
424.956	681.12
425.178	682.12
425.401	668.12
425.623	708.12
425.846	641.12
426.068	576.12
426.291	555.12
426.513	573.12
426.735	586.12
426.958	599.12
427.18	658.12
427.402	773.12
427.625	829.12
427.847	707.12
428.069	633.12
428.292	605.12
428.514	563.12
428.736	552.12
428.958	543.12
429.181	511.12
429.403	528.12
429.625	529.12
429.847	568.12
430.069	593.12
430.292	600.12
430.514	525.12
430.736	519.12
430.958	525.12
431.18	501.12
431.402	487.12
431.624	513.12
431.846	506.12
432.068	541.12
432.29	527.12
432.512	492.12
432.734	517.12
432.956	506.12
433.178	511.12
433.4	497.12
433.622	515.12
433.844	508.12
434.066	545.12
434.287	506.12
434.509	502.12
434.731	526.12
434.953	544.12
435.175	564.12
435.397	576.12
435.618	566.12
435.84	594.12
436.062	646.12
436.284	705.12
436.505	610.12
436.727	561.12
436.949	553.12
437.17	533.12
437.392	537.12
437.614	529.12
437.835	546.12
438.057	614.12
438.278	697.12
438.5	693.12
438.721	787.12
438.943	739.12
439.165	604.12
439.386	557.12
439.608	579.12
439.829	569.12
440.05	576.12
440.272	619.12
440.493	575.12
440.715	557.12
440.936	530.12
441.158	560.12
441.379	547.12
441.6	541.12
441.822	589.12
442.043	599.12
442.264	638.12
442.486	708.12
442.707	617.12
442.928	612.12
443.149	585.12
443.371	599.12
443.592	616.12
443.813	697.12
444.034	781.12
444.255	665.12
444.476	605.12
444.698	590.12
444.919	604.12
445.14	722.12
445.361	671.12
445.582	620.12
445.803	666.12
446.024	695.12
446.245	691.12
446.466	672.12
446.687	586.12
446.908	554.12
447.129	529.12
447.35	519.12
447.571	521.12
447.792	514.12
448.013	513.12
448.234	517.12
448.455	579.12
448.675	643.12
448.896	743.12
449.117	634.12
449.338	607.12
449.559	687.12
449.779	800.12
450	639.12
450.221	548.12
450.442	515.12
450.662	487.12
450.883	484.12
451.104	523.12
451.324	508.12
451.545	483.12
451.766	488.12
451.986	468.12
452.207	440.12
452.428	472.12
452.648	460.12
452.869	442.12
453.089	454.12
453.31	507.12
453.53	464.12
453.751	453.12
453.971	457.12
454.192	450.12
454.412	457.12
454.633	456.12
454.853	425.12
455.073	458.12
455.294	505.12
455.514	512.12
455.734	520.12
455.955	466.12
456.175	450.12
456.395	423.12
456.616	433.12
456.836	451.12
457.056	446.12
457.276	427.12
457.497	450.12
457.717	448.12
457.937	454.12
458.157	466.12
458.377	460.12
458.598	466.12
458.818	510.12
459.038	556.12
459.258	597.12
459.478	512.12
459.698	513.12
459.918	515.12
460.138	524.12
460.358	523.12
460.578	534.12
460.798	547.12
461.018	538.12
461.238	528.12
461.458	558.12
461.678	526.12
461.898	525.12
462.118	547.12
462.338	555.12
462.558	559.12
462.777	563.12
462.997	576.12
463.217	635.12
463.437	635.12
463.657	601.12
463.876	601.12
464.096	607.12
464.316	573.12
464.536	587.12
464.755	568.12
464.975	568.12
465.195	577.12
465.414	612.12
465.634	546.12
465.854	529.12
466.073	513.12
466.293	487.12
466.512	504.12
466.732	483.12
466.951	474.12
467.171	484.12
467.391	481.12
467.61	504.12
467.829	480.12
468.049	484.12
468.268	482.12
468.488	468.12
468.707	470.12
468.927	456.12
469.146	465.12
469.365	489.12
469.585	479.12
469.804	496.12
470.023	489.12
470.243	496.12
470.462	492.12
470.681	508.12
470.901	505.12
471.12	497.12
471.339	466.12
471.558	464.12
471.777	473.12
471.997	469.12
472.216	471.12
472.435	485.12
472.654	482.12
472.873	487.12
473.092	458.12
473.311	483.12
473.53	478.12
473.749	485.12
473.968	518.12
474.187	592.12
474.406	611.12
474.625	519.12
474.844	495.12
475.063	500.12
475.282	475.12
475.501	475.12
475.72	494.12
475.939	486.12
476.158	498.12
476.377	523.12
476.596	497.12
476.814	498.12
477.033	495.12
477.252	501.12
477.471	521.12
477.69	506.12
477.908	518.12
478.127	571.12
478.346	529.12
478.564	533.12
478.783	556.12
479.002	567.12
479.22	573.12
479.439	601.12
479.658	591.12
479.876	580.12
480.095	595.12
480.313	611.12
480.532	615.12
480.751	599.12
480.969	613.12
481.188	633.12
481.406	643.12
481.624	579.12
481.843	575.12
482.061	587.12
482.28	556.12
482.498	566.12
482.717	543.12
482.935	531.12
483.153	557.12
483.372	540.12
483.59	555.12
483.808	548.12
484.027	550.12
484.245	548.12
484.463	561.12
484.681	558.12
484.9	572.12
485.118	582.12
485.336	536.12
485.554	564.12
485.772	548.12
485.99	576.12
486.209	580.12
486.427	578.12
486.645	573.12
486.863	599.12
487.081	576.12
487.299	579.12
487.517	608.12
487.735	586.12
487.953	567.12
488.171	586.12
488.389	621.12
488.607	583.12
488.825	613.12
489.043	592.12
489.261	597.12
489.479	594.12
489.696	585.12
489.914	619.12
490.132	625.12
490.35	622.12
490.568	631.12
490.786	644.12
491.003	636.12
491.221	625.12
491.439	641.12
491.657	671.12
491.874	680.12
492.092	649.12
492.31	671.12
492.527	673.12
492.745	633.12
492.963	655.12
493.18	664.12
493.398	676.12
493.615	698.12
493.833	700.12
494.05	684.12
494.268	685.12
494.485	682.12
494.703	666.12
494.92	707.12
495.138	729.12
495.355	683.12
495.573	697.12
495.79	676.12
496.008	701.12
496.225	707.12
496.442	683.12
496.66	711.12
496.877	672.12
497.094	707.12
497.312	732.12
497.529	716.12
497.746	754.12
497.963	767.12
498.181	785.12
498.398	799.12
498.615	810.12
498.832	847.12
499.049	867.12
499.267	888.12
499.484	928.12
499.701	1016.12
499.918	1043.12
500.135	1118.12
500.352	1216.12
500.569	1203.12
500.786	1209.12
501.003	1197.12
501.22	1149.12
501.437	1073.12
501.654	1012.12
