Data from 1973.PennyLincolnUp.Lamp.En5.5.200Scan.071719.P1.Changed Mount._HRD10591_15-45-15-852.txt Node
Date: Thu Jul 18 15:45:15 EDT 2019
User: cochatt
Spectrometer: HR+D1059
Trigger mode: 1
Integration Time (sec): 1.000000E-1
Scans to average: 1
Electric dark correction enabled: true
Nonlinearity correction enabled: false
Boxcar width: 0
XAxis mode: Wavelengths
Number of Pixels in Spectrum: 2048
>>>>>Begin Spectral Data<<<<<
223.165	-13.81
223.4	-13.81
223.635	-13.81
223.869	-14.81
224.104	-16.81
224.338	-24.81
224.573	1.19
224.808	-17.81
225.042	-7.81
225.277	3.19
225.511	-2.81
225.746	6.19
225.98	11.19
226.215	-0.81
226.449	7.19
226.683	21.19
226.918	26.19
227.152	23.19
227.387	33.19
227.621	28.19
227.856	39.19
228.09	41.19
228.324	39.19
228.559	53.19
228.793	62.19
229.027	72.19
229.262	98.19
229.496	118.19
229.73	117.19
229.964	157.19
230.199	119.19
230.433	119.19
230.667	110.19
230.901	101.19
231.136	105.19
231.37	108.19
231.604	104.19
231.838	113.19
232.072	116.19
232.306	114.19
232.541	120.19
232.775	110.19
233.009	134.19
233.243	117.19
233.477	104.19
233.711	120.19
233.945	120.19
234.179	114.19
234.413	137.19
234.647	121.19
234.881	133.19
235.115	123.19
235.349	117.19
235.583	126.19
235.817	116.19
236.051	122.19
236.285	120.19
236.519	116.19
236.753	137.19
236.987	131.19
237.221	162.19
237.455	213.19
237.689	175.19
237.922	149.19
238.156	144.19
238.39	123.19
238.624	136.19
238.858	126.19
239.091	121.19
239.325	129.19
239.559	106.19
239.793	131.19
240.027	148.19
240.26	151.19
240.494	151.19
240.728	155.19
240.961	146.19
241.195	145.19
241.429	146.19
241.662	148.19
241.896	140.19
242.13	139.19
242.363	130.19
242.597	133.19
242.83	154.19
243.064	125.19
243.298	145.19
243.531	150.19
243.765	149.19
243.998	142.19
244.232	141.19
244.465	138.19
244.699	149.19
244.932	149.19
245.166	147.19
245.399	167.19
245.633	146.19
245.866	152.19
246.099	164.19
246.333	161.19
246.566	169.19
246.8	165.19
247.033	161.19
247.266	173.19
247.5	161.19
247.733	181.19
247.966	186.19
248.2	177.19
248.433	181.19
248.666	177.19
248.899	214.19
249.133	180.19
249.366	207.19
249.599	195.19
249.832	172.19
250.066	179.19
250.299	191.19
250.532	199.19
250.765	207.19
250.998	222.19
251.231	232.19
251.465	226.19
251.698	218.19
251.931	206.19
252.164	195.19
252.397	216.19
252.63	209.19
252.863	203.19
253.096	217.19
253.329	231.19
253.562	241.19
253.795	212.19
254.028	204.19
254.261	221.19
254.494	228.19
254.727	258.19
254.96	285.19
255.193	281.19
255.426	247.19
255.659	226.19
255.892	234.19
256.124	216.19
256.357	233.19
256.59	220.19
256.823	229.19
257.056	214.19
257.289	217.19
257.521	215.19
257.754	215.19
257.987	214.19
258.22	204.19
258.452	224.19
258.685	208.19
258.918	228.19
259.151	197.19
259.383	237.19
259.616	217.19
259.849	216.19
260.081	238.19
260.314	266.19
260.547	267.19
260.779	247.19
261.012	264.19
261.244	241.19
261.477	234.19
261.71	221.19
261.942	241.19
262.175	229.19
262.407	241.19
262.64	214.19
262.872	225.19
263.105	227.19
263.337	223.19
263.57	232.19
263.802	236.19
264.035	238.19
264.267	238.19
264.499	216.19
264.732	233.19
264.964	233.19
265.197	242.19
265.429	235.19
265.661	229.19
265.894	230.19
266.126	238.19
266.358	239.19
266.591	250.19
266.823	245.19
267.055	255.19
267.287	257.19
267.52	235.19
267.752	248.19
267.984	241.19
268.216	224.19
268.448	253.19
268.681	254.19
268.913	276.19
269.145	260.19
269.377	291.19
269.609	278.19
269.841	315.19
270.073	284.19
270.306	307.19
270.538	295.19
270.77	343.19
271.002	322.19
271.234	317.19
271.466	309.19
271.698	324.19
271.93	339.19
272.162	330.19
272.394	317.19
272.626	315.19
272.858	289.19
273.09	311.19
273.322	295.19
273.553	299.19
273.785	284.19
274.017	277.19
274.249	285.19
274.481	282.19
274.713	287.19
274.945	295.19
275.176	265.19
275.408	286.19
275.64	280.19
275.872	280.19
276.104	299.19
276.335	301.19
276.567	305.19
276.799	323.19
277.031	317.19
277.262	327.19
277.494	351.19
277.726	311.19
277.957	321.19
278.189	292.19
278.421	314.19
278.652	291.19
278.884	305.19
279.115	289.19
279.347	293.19
279.579	286.19
279.81	268.19
280.042	292.19
280.273	314.19
280.505	282.19
280.736	306.19
280.968	295.19
281.199	289.19
281.431	298.19
281.662	299.19
281.894	293.19
282.125	284.19
282.356	305.19
282.588	311.19
282.819	335.19
283.051	325.19
283.282	310.19
283.513	315.19
283.745	291.19
283.976	324.19
284.207	309.19
284.439	310.19
284.67	322.19
284.901	326.19
285.132	315.19
285.364	302.19
285.595	313.19
285.826	304.19
286.057	304.19
286.288	310.19
286.52	322.19
286.751	317.19
286.982	313.19
287.213	318.19
287.444	321.19
287.675	339.19
287.906	328.19
288.138	340.19
288.369	333.19
288.6	339.19
288.831	341.19
289.062	333.19
289.293	321.19
289.524	339.19
289.755	342.19
289.986	334.19
290.217	322.19
290.448	322.19
290.679	304.19
290.91	322.19
291.141	319.19
291.371	319.19
291.602	316.19
291.833	315.19
292.064	351.19
292.295	341.19
292.526	333.19
292.757	341.19
292.987	329.19
293.218	339.19
293.449	339.19
293.68	330.19
293.91	328.19
294.141	349.19
294.372	348.19
294.603	334.19
294.833	338.19
295.064	349.19
295.295	332.19
295.525	329.19
295.756	337.19
295.987	351.19
296.217	355.19
296.448	360.19
296.679	345.19
296.909	347.19
297.14	335.19
297.37	337.19
297.601	347.19
297.831	362.19
298.062	376.19
298.292	365.19
298.523	371.19
298.753	355.19
298.984	356.19
299.214	365.19
299.445	355.19
299.675	340.19
299.905	345.19
300.136	351.19
300.366	355.19
300.597	346.19
300.827	354.19
301.057	348.19
301.288	365.19
301.518	368.19
301.748	371.19
301.979	372.19
302.209	369.19
302.439	369.19
302.669	391.19
302.9	372.19
303.13	372.19
303.36	367.19
303.59	352.19
303.82	374.19
304.051	380.19
304.281	393.19
304.511	387.19
304.741	385.19
304.971	381.19
305.201	389.19
305.431	359.19
305.661	367.19
305.891	366.19
306.121	362.19
306.352	367.19
306.582	364.19
306.812	369.19
307.042	381.19
307.272	366.19
307.502	376.19
307.731	369.19
307.961	346.19
308.191	390.19
308.421	377.19
308.651	381.19
308.881	358.19
309.111	373.19
309.341	375.19
309.571	389.19
309.8	405.19
310.03	397.19
310.26	397.19
310.49	382.19
310.72	412.19
310.949	411.19
311.179	417.19
311.409	411.19
311.639	381.19
311.868	393.19
312.098	409.19
312.328	407.19
312.557	445.19
312.787	422.19
313.017	427.19
313.246	414.19
313.476	415.19
313.706	398.19
313.935	405.19
314.165	417.19
314.394	415.19
314.624	424.19
314.853	417.19
315.083	413.19
315.312	401.19
315.542	414.19
315.771	416.19
316.001	409.19
316.23	427.19
316.46	416.19
316.689	421.19
316.919	417.19
317.148	429.19
317.377	439.19
317.607	411.19
317.836	401.19
318.065	411.19
318.295	415.19
318.524	406.19
318.753	405.19
318.983	420.19
319.212	402.19
319.441	425.19
319.67	399.19
319.9	414.19
320.129	416.19
320.358	419.19
320.587	422.19
320.816	418.19
321.046	437.19
321.275	423.19
321.504	417.19
321.733	405.19
321.962	449.19
322.191	429.19
322.42	437.19
322.649	463.19
322.878	456.19
323.108	463.19
323.337	492.19
323.566	485.19
323.795	510.19
324.024	535.19
324.253	603.19
324.482	824.19
324.71	1123.19
324.939	1625.19
325.168	1441.19
325.397	801.19
325.626	590.19
325.855	524.19
326.084	494.19
326.313	485.19
326.542	508.19
326.77	505.19
326.999	600.19
327.228	747.19
327.457	1036.19
327.686	1246.19
327.914	879.19
328.143	642.19
328.372	563.19
328.6	549.19
328.829	565.19
329.058	544.19
329.287	547.19
329.515	531.19
329.744	518.19
329.972	510.19
330.201	531.19
330.43	559.19
330.658	554.19
330.887	591.19
331.115	553.19
331.344	543.19
331.572	518.19
331.801	522.19
332.03	528.19
332.258	520.19
332.486	497.19
332.715	513.19
332.943	518.19
333.172	519.19
333.4	542.19
333.629	540.19
333.857	534.19
334.085	547.19
334.314	573.19
334.542	579.19
334.771	587.19
334.999	543.19
335.227	516.19
335.455	521.19
335.684	484.19
335.912	527.19
336.14	503.19
336.369	492.19
336.597	505.19
336.825	495.19
337.053	492.19
337.281	508.19
337.51	514.19
337.738	488.19
337.966	476.19
338.194	488.19
338.422	486.19
338.65	473.19
338.878	476.19
339.106	467.19
339.334	494.19
339.562	474.19
339.79	464.19
340.018	494.19
340.246	464.19
340.474	463.19
340.702	478.19
340.93	458.19
341.158	460.19
341.386	463.19
341.614	455.19
341.842	469.19
342.07	470.19
342.298	453.19
342.526	462.19
342.754	452.19
342.981	454.19
343.209	462.19
343.437	473.19
343.665	481.19
343.893	498.19
344.12	520.19
344.348	485.19
344.576	482.19
344.804	511.19
345.031	490.19
345.259	474.19
345.487	475.19
345.714	455.19
345.942	439.19
346.17	451.19
346.397	455.19
346.625	456.19
346.853	429.19
347.08	423.19
347.308	443.19
347.535	447.19
347.763	449.19
347.99	450.19
348.218	438.19
348.445	450.19
348.673	437.19
348.9	438.19
349.128	461.19
349.355	444.19
349.583	418.19
349.81	427.19
350.037	437.19
350.265	441.19
350.492	438.19
350.72	446.19
350.947	441.19
351.174	454.19
351.402	458.19
351.629	455.19
351.856	441.19
352.083	441.19
352.311	435.19
352.538	453.19
352.765	449.19
352.992	438.19
353.22	441.19
353.447	444.19
353.674	434.19
353.901	431.19
354.128	467.19
354.355	433.19
354.583	441.19
354.81	412.19
355.037	437.19
355.264	439.19
355.491	424.19
355.718	424.19
355.945	406.19
356.172	440.19
356.399	419.19
356.626	415.19
356.853	419.19
357.08	436.19
357.307	436.19
357.534	420.19
357.761	437.19
357.988	418.19
358.215	410.19
358.441	428.19
358.668	424.19
358.895	406.19
359.122	444.19
359.349	435.19
359.576	445.19
359.802	453.19
360.029	460.19
360.256	490.19
360.483	447.19
360.709	458.19
360.936	429.19
361.163	426.19
361.39	425.19
361.616	446.19
361.843	444.19
362.07	453.19
362.296	443.19
362.523	428.19
362.749	433.19
362.976	441.19
363.203	450.19
363.429	410.19
363.656	413.19
363.882	435.19
364.109	406.19
364.335	423.19
364.562	435.19
364.788	431.19
365.015	418.19
365.241	435.19
365.468	417.19
365.694	434.19
365.92	426.19
366.147	428.19
366.373	436.19
366.599	439.19
366.826	428.19
367.052	430.19
367.278	408.19
367.505	417.19
367.731	434.19
367.957	430.19
368.184	434.19
368.41	440.19
368.636	455.19
368.862	454.19
369.089	437.19
369.315	413.19
369.541	421.19
369.767	424.19
369.993	432.19
370.219	425.19
370.445	424.19
370.672	442.19
370.898	447.19
371.124	428.19
371.35	428.19
371.576	438.19
371.802	426.19
372.028	442.19
372.254	441.19
372.48	458.19
372.706	426.19
372.932	453.19
373.158	426.19
373.384	435.19
373.61	434.19
373.835	439.19
374.061	459.19
374.287	433.19
374.513	468.19
374.739	459.19
374.965	445.19
375.191	460.19
375.416	459.19
375.642	460.19
375.868	452.19
376.094	439.19
376.319	439.19
376.545	446.19
376.771	441.19
376.997	433.19
377.222	442.19
377.448	422.19
377.674	427.19
377.899	447.19
378.125	429.19
378.35	437.19
378.576	447.19
378.802	434.19
379.027	453.19
379.253	444.19
379.478	425.19
379.704	419.19
379.929	427.19
380.155	446.19
380.38	426.19
380.606	440.19
380.831	436.19
381.057	436.19
381.282	433.19
381.507	445.19
381.733	459.19
381.958	441.19
382.184	440.19
382.409	420.19
382.634	426.19
382.86	440.19
383.085	445.19
383.31	453.19
383.535	451.19
383.761	457.19
383.986	466.19
384.211	484.19
384.436	446.19
384.662	484.19
384.887	479.19
385.112	497.19
385.337	487.19
385.562	478.19
385.787	472.19
386.013	469.19
386.238	506.19
386.463	510.19
386.688	519.19
386.913	493.19
387.138	477.19
387.363	486.19
387.588	488.19
387.813	486.19
388.038	497.19
388.263	481.19
388.488	489.19
388.713	487.19
388.938	475.19
389.163	500.19
389.387	493.19
389.612	481.19
389.837	474.19
390.062	475.19
390.287	488.19
390.512	491.19
390.736	494.19
390.961	490.19
391.186	477.19
391.411	512.19
391.636	521.19
391.86	527.19
392.085	527.19
392.31	503.19
392.534	520.19
392.759	509.19
392.984	515.19
393.208	503.19
393.433	486.19
393.658	498.19
393.882	491.19
394.107	511.19
394.331	513.19
394.556	503.19
394.78	495.19
395.005	494.19
395.229	520.19
395.454	539.19
395.678	541.19
395.903	519.19
396.127	525.19
396.352	538.19
396.576	517.19
396.801	526.19
397.025	527.19
397.249	536.19
397.474	523.19
397.698	543.19
397.922	550.19
398.147	556.19
398.371	553.19
398.595	563.19
398.82	591.19
399.044	581.19
399.268	634.19
399.492	683.19
399.717	723.19
399.941	775.19
400.165	740.19
400.389	746.19
400.613	675.19
400.837	629.19
401.062	604.19
401.286	590.19
401.51	585.19
401.734	588.19
401.958	595.19
402.182	586.19
402.406	597.19
402.63	599.19
402.854	606.19
403.078	597.19
403.302	615.19
403.526	635.19
403.75	625.19
403.974	630.19
404.198	630.19
404.422	627.19
404.645	621.19
404.869	635.19
405.093	663.19
405.317	667.19
405.541	711.19
405.765	675.19
405.988	639.19
406.212	605.19
406.436	672.19
406.66	672.19
406.883	666.19
407.107	690.19
407.331	723.19
407.555	784.19
407.778	819.19
408.002	709.19
408.226	677.19
408.449	652.19
408.673	659.19
408.896	686.19
409.12	716.19
409.344	691.19
409.567	635.19
409.791	626.19
410.014	619.19
410.238	609.19
410.461	598.19
410.685	601.19
410.908	637.19
411.132	648.19
411.355	684.19
411.578	628.19
411.802	594.19
412.025	593.19
412.249	595.19
412.472	615.19
412.695	644.19
412.919	645.19
413.142	590.19
413.365	597.19
413.589	597.19
413.812	583.19
414.035	561.19
414.258	584.19
414.482	580.19
414.705	573.19
414.928	567.19
415.151	576.19
415.374	572.19
415.597	581.19
415.821	573.19
416.044	572.19
416.267	582.19
416.49	566.19
416.713	529.19
416.936	539.19
417.159	563.19
417.382	567.19
417.605	573.19
417.828	577.19
418.051	579.19
418.274	581.19
418.497	565.19
418.72	581.19
418.943	565.19
419.166	584.19
419.389	632.19
419.611	587.19
419.834	617.19
420.057	617.19
420.28	619.19
420.503	598.19
420.726	599.19
420.948	599.19
421.171	603.19
421.394	646.19
421.617	577.19
421.839	604.19
422.062	589.19
422.285	610.19
422.507	637.19
422.73	705.19
422.953	700.19
423.175	651.19
423.398	615.19
423.621	629.19
423.843	644.19
424.066	638.19
424.288	637.19
424.511	644.19
424.733	677.19
424.956	778.19
425.178	702.19
425.401	711.19
425.623	742.19
425.846	684.19
426.068	625.19
426.291	603.19
426.513	603.19
426.735	625.19
426.958	634.19
427.18	718.19
427.402	807.19
427.625	905.19
427.847	765.19
428.069	671.19
428.292	625.19
428.514	581.19
428.736	585.19
428.958	566.19
429.181	572.19
429.403	552.19
429.625	570.19
429.847	595.19
430.069	652.19
430.292	661.19
430.514	586.19
430.736	567.19
430.958	565.19
431.18	540.19
431.402	548.19
431.624	534.19
431.846	544.19
432.068	513.19
432.29	543.19
432.512	524.19
432.734	534.19
432.956	552.19
433.178	555.19
433.4	551.19
433.622	543.19
433.844	551.19
434.066	540.19
434.287	536.19
434.509	563.19
434.731	561.19
434.953	583.19
435.175	597.19
435.397	594.19
435.618	619.19
435.84	641.19
436.062	726.19
436.284	799.19
436.505	655.19
436.727	602.19
436.949	561.19
437.17	571.19
437.392	548.19
437.614	551.19
437.835	579.19
438.057	650.19
438.278	760.19
438.5	745.19
438.721	817.19
438.943	769.19
439.165	655.19
439.386	585.19
439.608	586.19
439.829	587.19
440.05	618.19
440.272	642.19
440.493	610.19
440.715	596.19
440.936	571.19
441.158	567.19
441.379	577.19
441.6	610.19
441.822	604.19
442.043	648.19
442.264	695.19
442.486	749.19
442.707	657.19
442.928	601.19
443.149	629.19
443.371	658.19
443.592	685.19
443.813	775.19
444.034	814.19
444.255	709.19
444.476	671.19
444.698	649.19
444.919	647.19
445.14	772.19
445.361	702.19
445.582	671.19
445.803	698.19
446.024	789.19
446.245	805.19
446.466	701.19
446.687	628.19
446.908	615.19
447.129	561.19
447.35	555.19
447.571	548.19
447.792	547.19
448.013	543.19
448.234	573.19
448.455	585.19
448.675	681.19
448.896	784.19
449.117	677.19
449.338	679.19
449.559	744.19
449.779	866.19
450	693.19
450.221	581.19
450.442	561.19
450.662	533.19
450.883	539.19
451.104	540.19
451.324	519.19
451.545	519.19
451.766	515.19
451.986	501.19
452.207	499.19
452.428	494.19
452.648	491.19
452.869	478.19
453.089	488.19
453.31	514.19
453.53	493.19
453.751	491.19
453.971	495.19
454.192	490.19
454.412	481.19
454.633	473.19
454.853	474.19
455.073	480.19
455.294	517.19
455.514	583.19
455.734	559.19
455.955	489.19
456.175	468.19
456.395	468.19
456.616	468.19
456.836	464.19
457.056	470.19
457.276	464.19
457.497	470.19
457.717	466.19
457.937	473.19
458.157	449.19
458.377	459.19
458.598	500.19
458.818	533.19
459.038	596.19
459.258	608.19
459.478	565.19
459.698	552.19
459.918	544.19
460.138	549.19
460.358	590.19
460.578	570.19
460.798	564.19
461.018	598.19
461.238	585.19
461.458	575.19
461.678	566.19
461.898	598.19
462.118	568.19
462.338	602.19
462.558	609.19
462.777	612.19
462.997	641.19
463.217	655.19
463.437	689.19
463.657	663.19
463.876	637.19
464.096	637.19
464.316	616.19
464.536	629.19
464.755	623.19
464.975	605.19
465.195	609.19
465.414	666.19
465.634	627.19
465.854	555.19
466.073	545.19
466.293	533.19
466.512	529.19
466.732	525.19
466.951	507.19
467.171	505.19
467.391	525.19
467.61	501.19
467.829	514.19
468.049	526.19
468.268	503.19
468.488	527.19
468.707	504.19
468.927	490.19
469.146	494.19
469.365	498.19
469.585	501.19
469.804	501.19
470.023	525.19
470.243	540.19
470.462	542.19
470.681	532.19
470.901	556.19
471.12	523.19
471.339	531.19
471.558	504.19
471.777	519.19
471.997	508.19
472.216	532.19
472.435	539.19
472.654	525.19
472.873	481.19
473.092	500.19
473.311	482.19
473.53	508.19
473.749	535.19
473.968	553.19
474.187	647.19
474.406	646.19
474.625	557.19
474.844	524.19
475.063	517.19
475.282	519.19
475.501	505.19
475.72	532.19
475.939	538.19
476.158	553.19
476.377	526.19
476.596	520.19
476.814	526.19
477.033	531.19
477.252	550.19
477.471	560.19
477.69	545.19
477.908	584.19
478.127	556.19
478.346	573.19
478.564	590.19
478.783	614.19
479.002	585.19
479.22	603.19
479.439	619.19
479.658	638.19
479.876	633.19
480.095	620.19
480.313	657.19
480.532	639.19
480.751	638.19
480.969	654.19
481.188	676.19
481.406	688.19
481.624	631.19
481.843	616.19
482.061	600.19
482.28	605.19
482.498	598.19
482.717	587.19
482.935	579.19
483.153	598.19
483.372	605.19
483.59	586.19
483.808	594.19
484.027	581.19
484.245	605.19
484.463	584.19
484.681	612.19
484.9	597.19
485.118	648.19
485.336	621.19
485.554	615.19
485.772	607.19
485.99	633.19
486.209	622.19
486.427	631.19
486.645	625.19
486.863	629.19
487.081	629.19
487.299	628.19
487.517	616.19
487.735	631.19
487.953	639.19
488.171	620.19
488.389	637.19
488.607	625.19
488.825	661.19
489.043	644.19
489.261	657.19
489.479	638.19
489.696	663.19
489.914	635.19
490.132	632.19
490.35	655.19
490.568	653.19
490.786	655.19
491.003	677.19
491.221	698.19
491.439	679.19
491.657	707.19
491.874	725.19
492.092	720.19
492.31	730.19
492.527	733.19
492.745	711.19
492.963	738.19
493.18	742.19
493.398	710.19
493.615	764.19
493.833	731.19
494.05	745.19
494.268	767.19
494.485	753.19
494.703	731.19
494.92	735.19
495.138	730.19
495.355	729.19
495.573	768.19
495.79	740.19
496.008	760.19
496.225	762.19
496.442	753.19
496.66	764.19
496.877	776.19
497.094	758.19
497.312	761.19
497.529	758.19
497.746	774.19
497.963	802.19
498.181	826.19
498.398	821.19
498.615	862.19
498.832	874.19
499.049	935.19
499.267	951.19
499.484	1009.19
499.701	1071.19
499.918	1145.19
500.135	1215.19
500.352	1293.19
500.569	1331.19
500.786	1350.19
501.003	1335.19
501.22	1232.19
501.437	1175.19
501.654	1125.19
