Data from 1973.PennyLincolnUp.Lamp.En5.5.200Scan.071719.P1.Changed Mount._HRD10591_15-44-55-852.txt Node
Date: Thu Jul 18 15:44:55 EDT 2019
User: cochatt
Spectrometer: HR+D1059
Trigger mode: 1
Integration Time (sec): 1.000000E-1
Scans to average: 1
Electric dark correction enabled: true
Nonlinearity correction enabled: false
Boxcar width: 0
XAxis mode: Wavelengths
Number of Pixels in Spectrum: 2048
>>>>>Begin Spectral Data<<<<<
223.165	-6.69
223.4	-6.69
223.635	-6.69
223.869	-30.69
224.104	-17.69
224.338	-8.69
224.573	-5.69
224.808	-22.69
225.042	-15.69
225.277	4.31
225.511	-7.69
225.746	7.31
225.98	10.31
226.215	7.31
226.449	20.31
226.683	12.31
226.918	23.31
227.152	30.31
227.387	41.31
227.621	35.31
227.856	49.31
228.09	57.31
228.324	58.31
228.559	55.31
228.793	71.31
229.027	86.31
229.262	97.31
229.496	108.31
229.73	128.31
229.964	159.31
230.199	142.31
230.433	113.31
230.667	125.31
230.901	106.31
231.136	122.31
231.37	126.31
231.604	120.31
231.838	106.31
232.072	126.31
232.306	120.31
232.541	119.31
232.775	105.31
233.009	127.31
233.243	124.31
233.477	113.31
233.711	122.31
233.945	123.31
234.179	134.31
234.413	134.31
234.647	123.31
234.881	115.31
235.115	134.31
235.349	129.31
235.583	124.31
235.817	126.31
236.051	129.31
236.285	129.31
236.519	133.31
236.753	136.31
236.987	141.31
237.221	172.31
237.455	215.31
237.689	172.31
237.922	139.31
238.156	146.31
238.39	134.31
238.624	126.31
238.858	128.31
239.091	122.31
239.325	131.31
239.559	134.31
239.793	140.31
240.027	149.31
240.26	161.31
240.494	161.31
240.728	156.31
240.961	156.31
241.195	143.31
241.429	142.31
241.662	143.31
241.896	138.31
242.13	146.31
242.363	147.31
242.597	132.31
242.83	150.31
243.064	151.31
243.298	158.31
243.531	138.31
243.765	151.31
243.998	139.31
244.232	154.31
244.465	138.31
244.699	149.31
244.932	164.31
245.166	158.31
245.399	150.31
245.633	147.31
245.866	166.31
246.099	162.31
246.333	176.31
246.566	146.31
246.8	153.31
247.033	162.31
247.266	159.31
247.5	160.31
247.733	166.31
247.966	186.31
248.2	171.31
248.433	182.31
248.666	185.31
248.899	187.31
249.133	199.31
249.366	179.31
249.599	190.31
249.832	190.31
250.066	176.31
250.299	187.31
250.532	200.31
250.765	208.31
250.998	225.31
251.231	222.31
251.465	223.31
251.698	223.31
251.931	203.31
252.164	208.31
252.397	188.31
252.63	181.31
252.863	214.31
253.096	212.31
253.329	238.31
253.562	234.31
253.795	227.31
254.028	198.31
254.261	215.31
254.494	214.31
254.727	249.31
254.96	265.31
255.193	263.31
255.426	233.31
255.659	244.31
255.892	210.31
256.124	227.31
256.357	227.31
256.59	226.31
256.823	224.31
257.056	215.31
257.289	211.31
257.521	201.31
257.754	223.31
257.987	220.31
258.22	197.31
258.452	227.31
258.685	218.31
258.918	222.31
259.151	211.31
259.383	243.31
259.616	227.31
259.849	240.31
260.081	235.31
260.314	258.31
260.547	275.31
260.779	252.31
261.012	240.31
261.244	224.31
261.477	235.31
261.71	233.31
261.942	234.31
262.175	246.31
262.407	243.31
262.64	224.31
262.872	215.31
263.105	222.31
263.337	221.31
263.57	222.31
263.802	241.31
264.035	212.31
264.267	224.31
264.499	227.31
264.732	232.31
264.964	227.31
265.197	235.31
265.429	224.31
265.661	236.31
265.894	231.31
266.126	229.31
266.358	237.31
266.591	238.31
266.823	229.31
267.055	247.31
267.287	239.31
267.52	245.31
267.752	247.31
267.984	234.31
268.216	234.31
268.448	248.31
268.681	235.31
268.913	279.31
269.145	282.31
269.377	303.31
269.609	293.31
269.841	258.31
270.073	286.31
270.306	312.31
270.538	326.31
270.77	318.31
271.002	303.31
271.234	304.31
271.466	317.31
271.698	330.31
271.93	314.31
272.162	306.31
272.394	327.31
272.626	306.31
272.858	301.31
273.09	291.31
273.322	294.31
273.553	273.31
273.785	306.31
274.017	275.31
274.249	278.31
274.481	272.31
274.713	275.31
274.945	289.31
275.176	276.31
275.408	292.31
275.64	271.31
275.872	265.31
276.104	299.31
276.335	287.31
276.567	282.31
276.799	300.31
277.031	324.31
277.262	330.31
277.494	323.31
277.726	341.31
277.957	313.31
278.189	293.31
278.421	308.31
278.652	292.31
278.884	288.31
279.115	288.31
279.347	283.31
279.579	312.31
279.81	297.31
280.042	288.31
280.273	320.31
280.505	299.31
280.736	293.31
280.968	284.31
281.199	305.31
281.431	301.31
281.662	302.31
281.894	291.31
282.125	285.31
282.356	330.31
282.588	325.31
282.819	327.31
283.051	301.31
283.282	318.31
283.513	321.31
283.745	302.31
283.976	311.31
284.207	310.31
284.439	306.31
284.67	314.31
284.901	304.31
285.132	289.31
285.364	298.31
285.595	311.31
285.826	318.31
286.057	316.31
286.288	308.31
286.52	302.31
286.751	326.31
286.982	302.31
287.213	320.31
287.444	320.31
287.675	320.31
287.906	309.31
288.138	331.31
288.369	320.31
288.6	314.31
288.831	324.31
289.062	333.31
289.293	323.31
289.524	334.31
289.755	327.31
289.986	321.31
290.217	329.31
290.448	330.31
290.679	326.31
290.91	334.31
291.141	359.31
291.371	324.31
291.602	316.31
291.833	324.31
292.064	337.31
292.295	331.31
292.526	329.31
292.757	328.31
292.987	350.31
293.218	326.31
293.449	315.31
293.68	341.31
293.91	351.31
294.141	326.31
294.372	342.31
294.603	326.31
294.833	338.31
295.064	323.31
295.295	341.31
295.525	325.31
295.756	333.31
295.987	319.31
296.217	334.31
296.448	368.31
296.679	333.31
296.909	341.31
297.14	340.31
297.37	340.31
297.601	347.31
297.831	336.31
298.062	328.31
298.292	348.31
298.523	310.31
298.753	355.31
298.984	348.31
299.214	350.31
299.445	356.31
299.675	350.31
299.905	366.31
300.136	342.31
300.366	351.31
300.597	355.31
300.827	355.31
301.057	378.31
301.288	371.31
301.518	372.31
301.748	363.31
301.979	367.31
302.209	366.31
302.439	387.31
302.669	363.31
302.9	363.31
303.13	371.31
303.36	363.31
303.59	385.31
303.82	387.31
304.051	378.31
304.281	376.31
304.511	356.31
304.741	376.31
304.971	380.31
305.201	365.31
305.431	361.31
305.661	379.31
305.891	382.31
306.121	362.31
306.352	379.31
306.582	370.31
306.812	365.31
307.042	363.31
307.272	360.31
307.502	379.31
307.731	366.31
307.961	379.31
308.191	367.31
308.421	370.31
308.651	356.31
308.881	376.31
309.111	377.31
309.341	372.31
309.571	380.31
309.8	398.31
310.03	406.31
310.26	383.31
310.49	388.31
310.72	408.31
310.949	413.31
311.179	407.31
311.409	410.31
311.639	402.31
311.868	403.31
312.098	401.31
312.328	402.31
312.557	411.31
312.787	430.31
313.017	428.31
313.246	386.31
313.476	394.31
313.706	406.31
313.935	414.31
314.165	415.31
314.394	419.31
314.624	404.31
314.853	404.31
315.083	421.31
315.312	414.31
315.542	400.31
315.771	408.31
316.001	397.31
316.23	409.31
316.46	407.31
316.689	411.31
316.919	406.31
317.148	415.31
317.377	439.31
317.607	426.31
317.836	410.31
318.065	413.31
318.295	410.31
318.524	411.31
318.753	410.31
318.983	403.31
319.212	413.31
319.441	410.31
319.67	432.31
319.9	408.31
320.129	419.31
320.358	405.31
320.587	400.31
320.816	418.31
321.046	419.31
321.275	423.31
321.504	442.31
321.733	419.31
321.962	437.31
322.191	426.31
322.42	446.31
322.649	444.31
322.878	474.31
323.108	471.31
323.337	458.31
323.566	466.31
323.795	508.31
324.024	539.31
324.253	626.31
324.482	816.31
324.71	1162.31
324.939	1610.31
325.168	1470.31
325.397	809.31
325.626	590.31
325.855	516.31
326.084	493.31
326.313	476.31
326.542	497.31
326.77	516.31
326.999	582.31
327.228	778.31
327.457	1063.31
327.686	1278.31
327.914	908.31
328.143	642.31
328.372	566.31
328.6	544.31
328.829	538.31
329.058	564.31
329.287	531.31
329.515	526.31
329.744	510.31
329.972	515.31
330.201	524.31
330.43	533.31
330.658	587.31
330.887	587.31
331.115	577.31
331.344	519.31
331.572	509.31
331.801	477.31
332.03	509.31
332.258	499.31
332.486	476.31
332.715	488.31
332.943	510.31
333.172	509.31
333.4	503.31
333.629	515.31
333.857	537.31
334.085	552.31
334.314	553.31
334.542	579.31
334.771	572.31
334.999	546.31
335.227	525.31
335.455	509.31
335.684	499.31
335.912	522.31
336.14	477.31
336.369	482.31
336.597	490.31
336.825	517.31
337.053	493.31
337.281	486.31
337.51	460.31
337.738	487.31
337.966	479.31
338.194	478.31
338.422	458.31
338.65	460.31
338.878	472.31
339.106	465.31
339.334	471.31
339.562	456.31
339.79	459.31
340.018	464.31
340.246	465.31
340.474	443.31
340.702	451.31
340.93	460.31
341.158	447.31
341.386	453.31
341.614	449.31
341.842	471.31
342.07	454.31
342.298	459.31
342.526	439.31
342.754	442.31
342.981	472.31
343.209	446.31
343.437	474.31
343.665	473.31
343.893	483.31
344.12	518.31
344.348	497.31
344.576	503.31
344.804	462.31
345.031	452.31
345.259	479.31
345.487	467.31
345.714	455.31
345.942	465.31
346.17	465.31
346.397	451.31
346.625	433.31
346.853	447.31
347.08	448.31
347.308	426.31
347.535	442.31
347.763	443.31
347.99	428.31
348.218	441.31
348.445	436.31
348.673	458.31
348.9	445.31
349.128	431.31
349.355	409.31
349.583	442.31
349.81	428.31
350.037	410.31
350.265	426.31
350.492	414.31
350.72	419.31
350.947	430.31
351.174	440.31
351.402	456.31
351.629	450.31
351.856	449.31
352.083	433.31
352.311	449.31
352.538	456.31
352.765	447.31
352.992	439.31
353.22	417.31
353.447	451.31
353.674	425.31
353.901	422.31
354.128	439.31
354.355	426.31
354.583	428.31
354.81	425.31
355.037	410.31
355.264	425.31
355.491	426.31
355.718	410.31
355.945	425.31
356.172	394.31
356.399	413.31
356.626	408.31
356.853	412.31
357.08	417.31
357.307	411.31
357.534	412.31
357.761	432.31
357.988	393.31
358.215	398.31
358.441	418.31
358.668	416.31
358.895	415.31
359.122	427.31
359.349	426.31
359.576	430.31
359.802	434.31
360.029	492.31
360.256	476.31
360.483	464.31
360.709	429.31
360.936	432.31
361.163	445.31
361.39	439.31
361.616	434.31
361.843	416.31
362.07	422.31
362.296	448.31
362.523	426.31
362.749	440.31
362.976	437.31
363.203	436.31
363.429	420.31
363.656	408.31
363.882	401.31
364.109	412.31
364.335	423.31
364.562	413.31
364.788	394.31
365.015	413.31
365.241	411.31
365.468	424.31
365.694	438.31
365.92	428.31
366.147	388.31
366.373	420.31
366.599	431.31
366.826	408.31
367.052	414.31
367.278	415.31
367.505	422.31
367.731	426.31
367.957	418.31
368.184	429.31
368.41	408.31
368.636	421.31
368.862	450.31
369.089	411.31
369.315	420.31
369.541	401.31
369.767	430.31
369.993	425.31
370.219	422.31
370.445	426.31
370.672	417.31
370.898	441.31
371.124	422.31
371.35	442.31
371.576	419.31
371.802	423.31
372.028	403.31
372.254	421.31
372.48	445.31
372.706	439.31
372.932	458.31
373.158	462.31
373.384	448.31
373.61	412.31
373.835	418.31
374.061	407.31
374.287	440.31
374.513	436.31
374.739	431.31
374.965	435.31
375.191	435.31
375.416	428.31
375.642	447.31
375.868	424.31
376.094	426.31
376.319	425.31
376.545	436.31
376.771	434.31
376.997	427.31
377.222	432.31
377.448	425.31
377.674	414.31
377.899	426.31
378.125	429.31
378.35	435.31
378.576	428.31
378.802	415.31
379.027	425.31
379.253	457.31
379.478	421.31
379.704	447.31
379.929	422.31
380.155	420.31
380.38	455.31
380.606	413.31
380.831	412.31
381.057	414.31
381.282	421.31
381.507	421.31
381.733	439.31
381.958	426.31
382.184	416.31
382.409	426.31
382.634	415.31
382.86	408.31
383.085	433.31
383.31	448.31
383.535	426.31
383.761	440.31
383.986	459.31
384.211	461.31
384.436	477.31
384.662	456.31
384.887	460.31
385.112	468.31
385.337	460.31
385.562	471.31
385.787	458.31
386.013	463.31
386.238	469.31
386.463	486.31
386.688	484.31
386.913	486.31
387.138	491.31
387.363	493.31
387.588	472.31
387.813	475.31
388.038	469.31
388.263	492.31
388.488	499.31
388.713	503.31
388.938	459.31
389.163	483.31
389.387	481.31
389.612	475.31
389.837	471.31
390.062	468.31
390.287	475.31
390.512	450.31
390.736	460.31
390.961	480.31
391.186	456.31
391.411	482.31
391.636	489.31
391.86	497.31
392.085	504.31
392.31	503.31
392.534	499.31
392.759	497.31
392.984	462.31
393.208	503.31
393.433	492.31
393.658	480.31
393.882	455.31
394.107	464.31
394.331	480.31
394.556	491.31
394.78	499.31
395.005	496.31
395.229	500.31
395.454	487.31
395.678	502.31
395.903	502.31
396.127	532.31
396.352	540.31
396.576	513.31
396.801	516.31
397.025	507.31
397.249	520.31
397.474	520.31
397.698	526.31
397.922	526.31
398.147	557.31
398.371	561.31
398.595	574.31
398.82	551.31
399.044	575.31
399.268	602.31
399.492	642.31
399.717	715.31
399.941	754.31
400.165	743.31
400.389	714.31
400.613	643.31
400.837	622.31
401.062	584.31
401.286	571.31
401.51	573.31
401.734	562.31
401.958	583.31
402.182	543.31
402.406	562.31
402.63	585.31
402.854	582.31
403.078	569.31
403.302	598.31
403.526	590.31
403.75	585.31
403.974	592.31
404.198	598.31
404.422	602.31
404.645	618.31
404.869	609.31
405.093	618.31
405.317	663.31
405.541	656.31
405.765	646.31
405.988	594.31
406.212	610.31
406.436	625.31
406.66	642.31
406.883	640.31
407.107	635.31
407.331	707.31
407.555	747.31
407.778	730.31
408.002	691.31
408.226	662.31
408.449	642.31
408.673	637.31
408.896	659.31
409.12	685.31
409.344	658.31
409.567	582.31
409.791	582.31
410.014	596.31
410.238	585.31
410.461	574.31
410.685	580.31
410.908	587.31
411.132	601.31
411.355	658.31
411.578	641.31
411.802	568.31
412.025	566.31
412.249	595.31
412.472	598.31
412.695	640.31
412.919	604.31
413.142	582.31
413.365	553.31
413.589	566.31
413.812	543.31
414.035	551.31
414.258	540.31
414.482	574.31
414.705	538.31
414.928	537.31
415.151	536.31
415.374	556.31
415.597	553.31
415.821	548.31
416.044	524.31
416.267	571.31
416.49	547.31
416.713	569.31
416.936	542.31
417.159	562.31
417.382	539.31
417.605	536.31
417.828	561.31
418.051	559.31
418.274	573.31
418.497	564.31
418.72	548.31
418.943	553.31
419.166	592.31
419.389	602.31
419.611	577.31
419.834	592.31
420.057	605.31
420.28	587.31
420.503	551.31
420.726	562.31
420.948	574.31
421.171	596.31
421.394	619.31
421.617	588.31
421.839	566.31
422.062	569.31
422.285	572.31
422.507	625.31
422.73	681.31
422.953	661.31
423.175	604.31
423.398	598.31
423.621	587.31
423.843	590.31
424.066	600.31
424.288	600.31
424.511	631.31
424.733	666.31
424.956	713.31
425.178	687.31
425.401	730.31
425.623	712.31
425.846	624.31
426.068	586.31
426.291	590.31
426.513	564.31
426.735	585.31
426.958	638.31
427.18	676.31
427.402	796.31
427.625	879.31
427.847	739.31
428.069	684.31
428.292	596.31
428.514	559.31
428.736	540.31
428.958	562.31
429.181	523.31
429.403	541.31
429.625	551.31
429.847	553.31
430.069	617.31
430.292	625.31
430.514	535.31
430.736	528.31
430.958	532.31
431.18	520.31
431.402	522.31
431.624	516.31
431.846	505.31
432.068	525.31
432.29	527.31
432.512	513.31
432.734	517.31
432.956	528.31
433.178	516.31
433.4	511.31
433.622	509.31
433.844	516.31
434.066	521.31
434.287	522.31
434.509	539.31
434.731	552.31
434.953	561.31
435.175	563.31
435.397	607.31
435.618	589.31
435.84	621.31
436.062	659.31
436.284	734.31
436.505	630.31
436.727	588.31
436.949	554.31
437.17	540.31
437.392	520.31
437.614	557.31
437.835	574.31
438.057	660.31
438.278	715.31
438.5	729.31
438.721	788.31
438.943	776.31
439.165	614.31
439.386	560.31
439.608	582.31
439.829	574.31
440.05	608.31
440.272	626.31
440.493	596.31
440.715	560.31
440.936	564.31
441.158	548.31
441.379	547.31
441.6	566.31
441.822	600.31
442.043	595.31
442.264	678.31
442.486	706.31
442.707	624.31
442.928	593.31
443.149	598.31
443.371	636.31
443.592	659.31
443.813	736.31
444.034	800.31
444.255	658.31
444.476	641.31
444.698	635.31
444.919	650.31
445.14	748.31
445.361	655.31
445.582	619.31
445.803	676.31
446.024	721.31
446.245	766.31
446.466	688.31
446.687	603.31
446.908	577.31
447.129	562.31
447.35	535.31
447.571	528.31
447.792	531.31
448.013	508.31
448.234	540.31
448.455	583.31
448.675	664.31
448.896	776.31
449.117	655.31
449.338	633.31
449.559	708.31
449.779	785.31
450	631.31
450.221	569.31
450.442	526.31
450.662	494.31
450.883	496.31
451.104	514.31
451.324	524.31
451.545	476.31
451.766	507.31
451.986	464.31
452.207	474.31
452.428	502.31
452.648	478.31
452.869	459.31
453.089	488.31
453.31	516.31
453.53	469.31
453.751	466.31
453.971	484.31
454.192	477.31
454.412	452.31
454.633	482.31
454.853	474.31
455.073	482.31
455.294	493.31
455.514	528.31
455.734	501.31
455.955	451.31
456.175	464.31
456.395	448.31
456.616	459.31
456.836	441.31
457.056	476.31
457.276	451.31
457.497	468.31
457.717	448.31
457.937	463.31
458.157	445.31
458.377	458.31
458.598	498.31
458.818	538.31
459.038	570.31
459.258	609.31
459.478	559.31
459.698	509.31
459.918	512.31
460.138	532.31
460.358	557.31
460.578	552.31
460.798	546.31
461.018	564.31
461.238	576.31
461.458	545.31
461.678	551.31
461.898	533.31
462.118	562.31
462.338	583.31
462.558	566.31
462.777	579.31
462.997	636.31
463.217	656.31
463.437	623.31
463.657	619.31
463.876	593.31
464.096	601.31
464.316	596.31
464.536	585.31
464.755	598.31
464.975	571.31
465.195	610.31
465.414	622.31
465.634	582.31
465.854	531.31
466.073	517.31
466.293	520.31
466.512	491.31
466.732	494.31
466.951	482.31
467.171	497.31
467.391	489.31
467.61	503.31
467.829	495.31
468.049	476.31
468.268	497.31
468.488	483.31
468.707	455.31
468.927	487.31
469.146	468.31
469.365	488.31
469.585	474.31
469.804	492.31
470.023	510.31
470.243	506.31
470.462	513.31
470.681	508.31
470.901	510.31
471.12	480.31
471.339	492.31
471.558	504.31
471.777	489.31
471.997	483.31
472.216	515.31
472.435	514.31
472.654	495.31
472.873	472.31
473.092	494.31
473.311	487.31
473.53	504.31
473.749	509.31
473.968	568.31
474.187	608.31
474.406	611.31
474.625	537.31
474.844	502.31
475.063	504.31
475.282	492.31
475.501	492.31
475.72	488.31
475.939	492.31
476.158	478.31
476.377	494.31
476.596	521.31
476.814	496.31
477.033	524.31
477.252	517.31
477.471	546.31
477.69	493.31
477.908	544.31
478.127	535.31
478.346	575.31
478.564	562.31
478.783	560.31
479.002	585.31
479.22	584.31
479.439	597.31
479.658	598.31
479.876	599.31
480.095	598.31
480.313	628.31
480.532	629.31
480.751	620.31
480.969	610.31
481.188	649.31
481.406	672.31
481.624	632.31
481.843	578.31
482.061	590.31
482.28	587.31
482.498	597.31
482.717	583.31
482.935	558.31
483.153	559.31
483.372	563.31
483.59	543.31
483.808	580.31
484.027	561.31
484.245	540.31
484.463	544.31
484.681	577.31
484.9	574.31
485.118	595.31
485.336	570.31
485.554	607.31
485.772	581.31
485.99	604.31
486.209	603.31
486.427	605.31
486.645	615.31
486.863	608.31
487.081	597.31
487.299	596.31
487.517	608.31
487.735	612.31
487.953	604.31
488.171	620.31
488.389	594.31
488.607	607.31
488.825	600.31
489.043	615.31
489.261	619.31
489.479	617.31
489.696	620.31
489.914	643.31
490.132	628.31
490.35	640.31
490.568	651.31
490.786	651.31
491.003	652.31
491.221	673.31
491.439	670.31
491.657	690.31
491.874	694.31
492.092	700.31
492.31	666.31
492.527	703.31
492.745	688.31
492.963	698.31
493.18	691.31
493.398	677.31
493.615	713.31
493.833	722.31
494.05	680.31
494.268	711.31
494.485	718.31
494.703	703.31
494.92	695.31
495.138	718.31
495.355	676.31
495.573	714.31
495.79	707.31
496.008	738.31
496.225	730.31
496.442	719.31
496.66	714.31
496.877	724.31
497.094	741.31
497.312	747.31
497.529	746.31
497.746	747.31
497.963	771.31
498.181	815.31
498.398	793.31
498.615	851.31
498.832	836.31
499.049	874.31
499.267	887.31
499.484	966.31
499.701	1001.31
499.918	1060.31
500.135	1160.31
500.352	1230.31
500.569	1262.31
500.786	1250.31
501.003	1194.31
501.22	1170.31
501.437	1098.31
501.654	1010.31
