Data from 1973.PennyLincolnUp.Lamp.En5.5.200Scan.071719.P1.Changed Mount._HRD10591_15-45-31-853.txt Node
Date: Thu Jul 18 15:45:31 EDT 2019
User: cochatt
Spectrometer: HR+D1059
Trigger mode: 1
Integration Time (sec): 1.000000E-1
Scans to average: 1
Electric dark correction enabled: true
Nonlinearity correction enabled: false
Boxcar width: 0
XAxis mode: Wavelengths
Number of Pixels in Spectrum: 2048
>>>>>Begin Spectral Data<<<<<
223.165	-18.81
223.4	-18.81
223.635	-18.81
223.869	-13.81
224.104	-12.81
224.338	-27.81
224.573	-10.81
224.808	-11.81
225.042	-8.81
225.277	-4.81
225.511	6.19
225.746	1.19
225.98	6.19
226.215	12.19
226.449	13.19
226.683	30.19
226.918	14.19
227.152	26.19
227.387	32.19
227.621	35.19
227.856	53.19
228.09	36.19
228.324	52.19
228.559	52.19
228.793	72.19
229.027	100.19
229.262	104.19
229.496	101.19
229.73	123.19
229.964	138.19
230.199	116.19
230.433	106.19
230.667	96.19
230.901	110.19
231.136	121.19
231.37	114.19
231.604	95.19
231.838	102.19
232.072	123.19
232.306	122.19
232.541	127.19
232.775	104.19
233.009	116.19
233.243	122.19
233.477	120.19
233.711	122.19
233.945	127.19
234.179	107.19
234.413	120.19
234.647	112.19
234.881	121.19
235.115	100.19
235.349	119.19
235.583	121.19
235.817	123.19
236.051	137.19
236.285	95.19
236.519	118.19
236.753	130.19
236.987	151.19
237.221	185.19
237.455	210.19
237.689	172.19
237.922	138.19
238.156	120.19
238.39	129.19
238.624	135.19
238.858	132.19
239.091	124.19
239.325	130.19
239.559	121.19
239.793	137.19
240.027	134.19
240.26	139.19
240.494	147.19
240.728	150.19
240.961	170.19
241.195	150.19
241.429	131.19
241.662	146.19
241.896	139.19
242.13	140.19
242.363	157.19
242.597	135.19
242.83	156.19
243.064	144.19
243.298	140.19
243.531	150.19
243.765	141.19
243.998	140.19
244.232	146.19
244.465	151.19
244.699	146.19
244.932	152.19
245.166	148.19
245.399	146.19
245.633	156.19
245.866	148.19
246.099	157.19
246.333	152.19
246.566	164.19
246.8	149.19
247.033	154.19
247.266	161.19
247.5	155.19
247.733	166.19
247.966	179.19
248.2	172.19
248.433	168.19
248.666	152.19
248.899	165.19
249.133	198.19
249.366	196.19
249.599	182.19
249.832	181.19
250.066	173.19
250.299	185.19
250.532	180.19
250.765	205.19
250.998	201.19
251.231	233.19
251.465	223.19
251.698	213.19
251.931	221.19
252.164	208.19
252.397	194.19
252.63	193.19
252.863	215.19
253.096	219.19
253.329	214.19
253.562	229.19
253.795	217.19
254.028	218.19
254.261	231.19
254.494	225.19
254.727	241.19
254.96	270.19
255.193	254.19
255.426	256.19
255.659	231.19
255.892	221.19
256.124	224.19
256.357	249.19
256.59	225.19
256.823	219.19
257.056	220.19
257.289	218.19
257.521	219.19
257.754	232.19
257.987	225.19
258.22	223.19
258.452	202.19
258.685	216.19
258.918	220.19
259.151	211.19
259.383	211.19
259.616	234.19
259.849	232.19
260.081	230.19
260.314	269.19
260.547	259.19
260.779	253.19
261.012	250.19
261.244	248.19
261.477	236.19
261.71	225.19
261.942	230.19
262.175	253.19
262.407	217.19
262.64	215.19
262.872	252.19
263.105	232.19
263.337	227.19
263.57	236.19
263.802	230.19
264.035	222.19
264.267	214.19
264.499	236.19
264.732	246.19
264.964	231.19
265.197	196.19
265.429	240.19
265.661	220.19
265.894	226.19
266.126	237.19
266.358	234.19
266.591	242.19
266.823	228.19
267.055	221.19
267.287	256.19
267.52	218.19
267.752	249.19
267.984	242.19
268.216	249.19
268.448	269.19
268.681	259.19
268.913	268.19
269.145	267.19
269.377	291.19
269.609	282.19
269.841	276.19
270.073	288.19
270.306	284.19
270.538	321.19
270.77	317.19
271.002	333.19
271.234	288.19
271.466	300.19
271.698	332.19
271.93	333.19
272.162	320.19
272.394	335.19
272.626	322.19
272.858	312.19
273.09	291.19
273.322	283.19
273.553	266.19
273.785	282.19
274.017	272.19
274.249	280.19
274.481	283.19
274.713	283.19
274.945	289.19
275.176	276.19
275.408	264.19
275.64	271.19
275.872	284.19
276.104	287.19
276.335	292.19
276.567	274.19
276.799	293.19
277.031	314.19
277.262	340.19
277.494	337.19
277.726	302.19
277.957	314.19
278.189	294.19
278.421	283.19
278.652	293.19
278.884	300.19
279.115	282.19
279.347	277.19
279.579	290.19
279.81	285.19
280.042	284.19
280.273	260.19
280.505	283.19
280.736	282.19
280.968	282.19
281.199	296.19
281.431	322.19
281.662	284.19
281.894	284.19
282.125	292.19
282.356	295.19
282.588	336.19
282.819	338.19
283.051	305.19
283.282	293.19
283.513	308.19
283.745	280.19
283.976	304.19
284.207	313.19
284.439	298.19
284.67	305.19
284.901	301.19
285.132	298.19
285.364	309.19
285.595	292.19
285.826	304.19
286.057	292.19
286.288	308.19
286.52	307.19
286.751	306.19
286.982	330.19
287.213	301.19
287.444	312.19
287.675	298.19
287.906	330.19
288.138	326.19
288.369	323.19
288.6	338.19
288.831	322.19
289.062	324.19
289.293	325.19
289.524	324.19
289.755	338.19
289.986	316.19
290.217	318.19
290.448	306.19
290.679	317.19
290.91	326.19
291.141	315.19
291.371	321.19
291.602	328.19
291.833	325.19
292.064	324.19
292.295	321.19
292.526	318.19
292.757	322.19
292.987	332.19
293.218	324.19
293.449	315.19
293.68	304.19
293.91	311.19
294.141	315.19
294.372	328.19
294.603	307.19
294.833	318.19
295.064	330.19
295.295	315.19
295.525	329.19
295.756	331.19
295.987	328.19
296.217	350.19
296.448	357.19
296.679	328.19
296.909	336.19
297.14	344.19
297.37	330.19
297.601	337.19
297.831	334.19
298.062	350.19
298.292	343.19
298.523	351.19
298.753	336.19
298.984	352.19
299.214	335.19
299.445	340.19
299.675	348.19
299.905	352.19
300.136	350.19
300.366	348.19
300.597	355.19
300.827	356.19
301.057	357.19
301.288	363.19
301.518	357.19
301.748	329.19
301.979	356.19
302.209	368.19
302.439	372.19
302.669	369.19
302.9	379.19
303.13	328.19
303.36	365.19
303.59	374.19
303.82	379.19
304.051	371.19
304.281	365.19
304.511	354.19
304.741	370.19
304.971	372.19
305.201	360.19
305.431	363.19
305.661	340.19
305.891	362.19
306.121	354.19
306.352	361.19
306.582	361.19
306.812	355.19
307.042	369.19
307.272	352.19
307.502	340.19
307.731	374.19
307.961	376.19
308.191	382.19
308.421	357.19
308.651	381.19
308.881	381.19
309.111	376.19
309.341	353.19
309.571	384.19
309.8	370.19
310.03	404.19
310.26	402.19
310.49	376.19
310.72	414.19
310.949	418.19
311.179	412.19
311.409	396.19
311.639	379.19
311.868	373.19
312.098	398.19
312.328	417.19
312.557	415.19
312.787	432.19
313.017	421.19
313.246	416.19
313.476	392.19
313.706	392.19
313.935	385.19
314.165	411.19
314.394	419.19
314.624	413.19
314.853	403.19
315.083	415.19
315.312	393.19
315.542	402.19
315.771	393.19
316.001	389.19
316.23	393.19
316.46	403.19
316.689	410.19
316.919	394.19
317.148	414.19
317.377	397.19
317.607	401.19
317.836	391.19
318.065	400.19
318.295	417.19
318.524	406.19
318.753	411.19
318.983	411.19
319.212	386.19
319.441	406.19
319.67	411.19
319.9	411.19
320.129	389.19
320.358	411.19
320.587	392.19
320.816	410.19
321.046	440.19
321.275	421.19
321.504	414.19
321.733	396.19
321.962	399.19
322.191	428.19
322.42	444.19
322.649	480.19
322.878	436.19
323.108	473.19
323.337	471.19
323.566	490.19
323.795	512.19
324.024	531.19
324.253	592.19
324.482	788.19
324.71	1180.19
324.939	1692.19
325.168	1490.19
325.397	809.19
325.626	594.19
325.855	539.19
326.084	466.19
326.313	502.19
326.542	483.19
326.77	501.19
326.999	583.19
327.228	729.19
327.457	1066.19
327.686	1268.19
327.914	897.19
328.143	640.19
328.372	585.19
328.6	586.19
328.829	538.19
329.058	537.19
329.287	536.19
329.515	541.19
329.744	474.19
329.972	484.19
330.201	515.19
330.43	542.19
330.658	577.19
330.887	602.19
331.115	553.19
331.344	513.19
331.572	521.19
331.801	505.19
332.03	530.19
332.258	499.19
332.486	488.19
332.715	500.19
332.943	494.19
333.172	534.19
333.4	516.19
333.629	534.19
333.857	533.19
334.085	541.19
334.314	554.19
334.542	574.19
334.771	570.19
334.999	536.19
335.227	517.19
335.455	505.19
335.684	504.19
335.912	501.19
336.14	482.19
336.369	483.19
336.597	517.19
336.825	498.19
337.053	501.19
337.281	460.19
337.51	468.19
337.738	482.19
337.966	474.19
338.194	476.19
338.422	490.19
338.65	481.19
338.878	462.19
339.106	451.19
339.334	455.19
339.562	468.19
339.79	450.19
340.018	451.19
340.246	448.19
340.474	466.19
340.702	468.19
340.93	437.19
341.158	447.19
341.386	450.19
341.614	454.19
341.842	452.19
342.07	461.19
342.298	454.19
342.526	467.19
342.754	450.19
342.981	460.19
343.209	452.19
343.437	486.19
343.665	453.19
343.893	471.19
344.12	517.19
344.348	493.19
344.576	477.19
344.804	487.19
345.031	480.19
345.259	461.19
345.487	466.19
345.714	456.19
345.942	469.19
346.17	474.19
346.397	427.19
346.625	451.19
346.853	443.19
347.08	429.19
347.308	432.19
347.535	448.19
347.763	455.19
347.99	426.19
348.218	449.19
348.445	448.19
348.673	444.19
348.9	444.19
349.128	417.19
349.355	418.19
349.583	417.19
349.81	420.19
350.037	423.19
350.265	444.19
350.492	438.19
350.72	429.19
350.947	452.19
351.174	446.19
351.402	430.19
351.629	416.19
351.856	438.19
352.083	428.19
352.311	448.19
352.538	461.19
352.765	428.19
352.992	453.19
353.22	417.19
353.447	428.19
353.674	437.19
353.901	410.19
354.128	423.19
354.355	420.19
354.583	427.19
354.81	433.19
355.037	427.19
355.264	418.19
355.491	390.19
355.718	429.19
355.945	421.19
356.172	416.19
356.399	419.19
356.626	400.19
356.853	393.19
357.08	406.19
357.307	399.19
357.534	426.19
357.761	407.19
357.988	419.19
358.215	428.19
358.441	407.19
358.668	416.19
358.895	435.19
359.122	433.19
359.349	440.19
359.576	438.19
359.802	470.19
360.029	467.19
360.256	473.19
360.483	450.19
360.709	435.19
360.936	439.19
361.163	436.19
361.39	441.19
361.616	418.19
361.843	426.19
362.07	426.19
362.296	429.19
362.523	432.19
362.749	443.19
362.976	416.19
363.203	426.19
363.429	412.19
363.656	415.19
363.882	426.19
364.109	434.19
364.335	423.19
364.562	425.19
364.788	429.19
365.015	415.19
365.241	405.19
365.468	419.19
365.694	446.19
365.92	419.19
366.147	417.19
366.373	400.19
366.599	402.19
366.826	429.19
367.052	410.19
367.278	415.19
367.505	428.19
367.731	429.19
367.957	422.19
368.184	405.19
368.41	424.19
368.636	424.19
368.862	433.19
369.089	438.19
369.315	424.19
369.541	422.19
369.767	439.19
369.993	437.19
370.219	422.19
370.445	443.19
370.672	422.19
370.898	407.19
371.124	426.19
371.35	434.19
371.576	427.19
371.802	436.19
372.028	427.19
372.254	410.19
372.48	448.19
372.706	430.19
372.932	447.19
373.158	444.19
373.384	428.19
373.61	431.19
373.835	456.19
374.061	438.19
374.287	438.19
374.513	431.19
374.739	429.19
374.965	471.19
375.191	436.19
375.416	451.19
375.642	428.19
375.868	425.19
376.094	416.19
376.319	432.19
376.545	444.19
376.771	422.19
376.997	411.19
377.222	426.19
377.448	429.19
377.674	420.19
377.899	423.19
378.125	422.19
378.35	410.19
378.576	432.19
378.802	417.19
379.027	424.19
379.253	432.19
379.478	429.19
379.704	434.19
379.929	438.19
380.155	427.19
380.38	414.19
380.606	418.19
380.831	421.19
381.057	424.19
381.282	454.19
381.507	429.19
381.733	419.19
381.958	430.19
382.184	437.19
382.409	461.19
382.634	449.19
382.86	445.19
383.085	453.19
383.31	455.19
383.535	468.19
383.761	458.19
383.986	459.19
384.211	464.19
384.436	482.19
384.662	472.19
384.887	467.19
385.112	466.19
385.337	478.19
385.562	465.19
385.787	480.19
386.013	516.19
386.238	480.19
386.463	468.19
386.688	474.19
386.913	470.19
387.138	497.19
387.363	484.19
387.588	452.19
387.813	483.19
388.038	466.19
388.263	486.19
388.488	480.19
388.713	484.19
388.938	490.19
389.163	475.19
389.387	509.19
389.612	462.19
389.837	486.19
390.062	480.19
390.287	481.19
390.512	470.19
390.736	483.19
390.961	493.19
391.186	492.19
391.411	505.19
391.636	505.19
391.86	490.19
392.085	549.19
392.31	536.19
392.534	508.19
392.759	510.19
392.984	494.19
393.208	491.19
393.433	488.19
393.658	508.19
393.882	486.19
394.107	486.19
394.331	500.19
394.556	475.19
394.78	474.19
395.005	498.19
395.229	506.19
395.454	493.19
395.678	512.19
395.903	521.19
396.127	545.19
396.352	537.19
396.576	509.19
396.801	506.19
397.025	502.19
397.249	500.19
397.474	536.19
397.698	516.19
397.922	525.19
398.147	544.19
398.371	552.19
398.595	538.19
398.82	554.19
399.044	586.19
399.268	637.19
399.492	657.19
399.717	728.19
399.941	758.19
400.165	742.19
400.389	710.19
400.613	653.19
400.837	604.19
401.062	593.19
401.286	564.19
401.51	559.19
401.734	568.19
401.958	569.19
402.182	572.19
402.406	584.19
402.63	591.19
402.854	589.19
403.078	596.19
403.302	591.19
403.526	589.19
403.75	616.19
403.974	603.19
404.198	586.19
404.422	604.19
404.645	599.19
404.869	608.19
405.093	635.19
405.317	658.19
405.541	694.19
405.765	652.19
405.988	629.19
406.212	658.19
406.436	646.19
406.66	653.19
406.883	639.19
407.107	694.19
407.331	722.19
407.555	766.19
407.778	750.19
408.002	705.19
408.226	656.19
408.449	668.19
408.673	640.19
408.896	669.19
409.12	710.19
409.344	660.19
409.567	602.19
409.791	600.19
410.014	578.19
410.238	612.19
410.461	617.19
410.685	590.19
410.908	617.19
411.132	626.19
411.355	654.19
411.578	638.19
411.802	591.19
412.025	581.19
412.249	602.19
412.472	606.19
412.695	641.19
412.919	640.19
413.142	576.19
413.365	569.19
413.589	579.19
413.812	594.19
414.035	571.19
414.258	569.19
414.482	538.19
414.705	562.19
414.928	550.19
415.151	563.19
415.374	552.19
415.597	570.19
415.821	564.19
416.044	565.19
416.267	568.19
416.49	572.19
416.713	558.19
416.936	556.19
417.159	553.19
417.382	540.19
417.605	533.19
417.828	556.19
418.051	599.19
418.274	558.19
418.497	564.19
418.72	573.19
418.943	565.19
419.166	606.19
419.389	621.19
419.611	609.19
419.834	589.19
420.057	619.19
420.28	590.19
420.503	566.19
420.726	580.19
420.948	582.19
421.171	588.19
421.394	630.19
421.617	604.19
421.839	571.19
422.062	594.19
422.285	597.19
422.507	643.19
422.73	696.19
422.953	677.19
423.175	624.19
423.398	602.19
423.621	619.19
423.843	606.19
424.066	631.19
424.288	630.19
424.511	636.19
424.733	685.19
424.956	728.19
425.178	717.19
425.401	697.19
425.623	729.19
425.846	635.19
426.068	588.19
426.291	581.19
426.513	595.19
426.735	603.19
426.958	617.19
427.18	725.19
427.402	806.19
427.625	882.19
427.847	765.19
428.069	660.19
428.292	613.19
428.514	568.19
428.736	572.19
428.958	575.19
429.181	544.19
429.403	551.19
429.625	548.19
429.847	576.19
430.069	629.19
430.292	636.19
430.514	583.19
430.736	555.19
430.958	541.19
431.18	525.19
431.402	517.19
431.624	526.19
431.846	523.19
432.068	545.19
432.29	508.19
432.512	533.19
432.734	544.19
432.956	518.19
433.178	529.19
433.4	530.19
433.622	546.19
433.844	541.19
434.066	505.19
434.287	509.19
434.509	541.19
434.731	559.19
434.953	561.19
435.175	570.19
435.397	590.19
435.618	617.19
435.84	637.19
436.062	666.19
436.284	762.19
436.505	617.19
436.727	565.19
436.949	571.19
437.17	546.19
437.392	545.19
437.614	547.19
437.835	551.19
438.057	658.19
438.278	724.19
438.5	745.19
438.721	818.19
438.943	777.19
439.165	614.19
439.386	584.19
439.608	583.19
439.829	598.19
440.05	615.19
440.272	653.19
440.493	607.19
440.715	569.19
440.936	577.19
441.158	571.19
441.379	576.19
441.6	572.19
441.822	582.19
442.043	637.19
442.264	691.19
442.486	748.19
442.707	647.19
442.928	613.19
443.149	633.19
443.371	627.19
443.592	672.19
443.813	745.19
444.034	805.19
444.255	680.19
444.476	629.19
444.698	631.19
444.919	641.19
445.14	766.19
445.361	668.19
445.582	636.19
445.803	678.19
446.024	772.19
446.245	781.19
446.466	707.19
446.687	638.19
446.908	584.19
447.129	572.19
447.35	552.19
447.571	556.19
447.792	538.19
448.013	513.19
448.234	554.19
448.455	608.19
448.675	668.19
448.896	793.19
449.117	692.19
449.338	654.19
449.559	716.19
449.779	836.19
450	670.19
450.221	588.19
450.442	550.19
450.662	513.19
450.883	517.19
451.104	530.19
451.324	518.19
451.545	505.19
451.766	504.19
451.986	475.19
452.207	474.19
452.428	481.19
452.648	465.19
452.869	494.19
453.089	501.19
453.31	512.19
453.53	500.19
453.751	489.19
453.971	480.19
454.192	504.19
454.412	470.19
454.633	468.19
454.853	470.19
455.073	489.19
455.294	523.19
455.514	532.19
455.734	553.19
455.955	499.19
456.175	458.19
456.395	475.19
456.616	448.19
456.836	453.19
457.056	443.19
457.276	437.19
457.497	459.19
457.717	464.19
457.937	470.19
458.157	479.19
458.377	480.19
458.598	509.19
458.818	540.19
459.038	590.19
459.258	631.19
459.478	552.19
459.698	549.19
459.918	533.19
460.138	545.19
460.358	562.19
460.578	566.19
460.798	562.19
461.018	554.19
461.238	556.19
461.458	564.19
461.678	571.19
461.898	557.19
462.118	543.19
462.338	584.19
462.558	608.19
462.777	614.19
462.997	643.19
463.217	648.19
463.437	676.19
463.657	641.19
463.876	628.19
464.096	619.19
464.316	630.19
464.536	626.19
464.755	606.19
464.975	607.19
465.195	609.19
465.414	662.19
465.634	585.19
465.854	542.19
466.073	519.19
466.293	489.19
466.512	492.19
466.732	488.19
466.951	520.19
467.171	513.19
467.391	530.19
467.61	516.19
467.829	526.19
468.049	521.19
468.268	515.19
468.488	497.19
468.707	494.19
468.927	488.19
469.146	503.19
469.365	486.19
469.585	486.19
469.804	498.19
470.023	512.19
470.243	497.19
470.462	519.19
470.681	533.19
470.901	533.19
471.12	515.19
471.339	507.19
471.558	497.19
471.777	508.19
471.997	497.19
472.216	508.19
472.435	530.19
472.654	512.19
472.873	484.19
473.092	513.19
473.311	501.19
473.53	490.19
473.749	518.19
473.968	538.19
474.187	617.19
474.406	635.19
474.625	537.19
474.844	514.19
475.063	506.19
475.282	481.19
475.501	517.19
475.72	541.19
475.939	488.19
476.158	524.19
476.377	521.19
476.596	532.19
476.814	519.19
477.033	550.19
477.252	533.19
477.471	536.19
477.69	549.19
477.908	550.19
478.127	550.19
478.346	558.19
478.564	580.19
478.783	589.19
479.002	598.19
479.22	607.19
479.439	614.19
479.658	601.19
479.876	608.19
480.095	603.19
480.313	649.19
480.532	640.19
480.751	638.19
480.969	634.19
481.188	672.19
481.406	654.19
481.624	619.19
481.843	605.19
482.061	580.19
482.28	588.19
482.498	580.19
482.717	569.19
482.935	584.19
483.153	590.19
483.372	581.19
483.59	591.19
483.808	584.19
484.027	570.19
484.245	571.19
484.463	568.19
484.681	598.19
484.9	600.19
485.118	602.19
485.336	588.19
485.554	617.19
485.772	579.19
485.99	610.19
486.209	603.19
486.427	617.19
486.645	621.19
486.863	625.19
487.081	616.19
487.299	620.19
487.517	632.19
487.735	612.19
487.953	616.19
488.171	616.19
488.389	614.19
488.607	604.19
488.825	648.19
489.043	621.19
489.261	606.19
489.479	620.19
489.696	633.19
489.914	644.19
490.132	658.19
490.35	650.19
490.568	644.19
490.786	647.19
491.003	680.19
491.221	650.19
491.439	680.19
491.657	678.19
491.874	673.19
492.092	690.19
492.31	712.19
492.527	735.19
492.745	709.19
492.963	733.19
493.18	746.19
493.398	718.19
493.615	737.19
493.833	723.19
494.05	701.19
494.268	719.19
494.485	746.19
494.703	705.19
494.92	747.19
495.138	721.19
495.355	740.19
495.573	709.19
495.79	739.19
496.008	757.19
496.225	708.19
496.442	737.19
496.66	740.19
496.877	759.19
497.094	766.19
497.312	782.19
497.529	771.19
497.746	774.19
497.963	789.19
498.181	798.19
498.398	827.19
498.615	870.19
498.832	871.19
499.049	919.19
499.267	957.19
499.484	1001.19
499.701	1032.19
499.918	1079.19
500.135	1172.19
500.352	1252.19
500.569	1266.19
500.786	1314.19
501.003	1248.19
501.22	1195.19
501.437	1120.19
501.654	1046.19
