Data from 1973.PennyLincolnUp.Lamp.En5.5.200Scan.071719.P1.Changed Mount._HRD10591_15-44-05-852.txt Node
Date: Thu Jul 18 15:44:05 EDT 2019
User: cochatt
Spectrometer: HR+D1059
Trigger mode: 1
Integration Time (sec): 1.000000E-1
Scans to average: 1
Electric dark correction enabled: true
Nonlinearity correction enabled: false
Boxcar width: 0
XAxis mode: Wavelengths
Number of Pixels in Spectrum: 2048
>>>>>Begin Spectral Data<<<<<
223.165	-9.94
223.4	-9.94
223.635	-9.94
223.869	-9.94
224.104	-22.94
224.338	-10.94
224.573	-14.94
224.808	-7.94
225.042	-19.94
225.277	-15.94
225.511	-3.94
225.746	1.06
225.98	2.06
226.215	18.06
226.449	13.06
226.683	25.06
226.918	36.06
227.152	21.06
227.387	29.06
227.621	29.06
227.856	53.06
228.09	43.06
228.324	39.06
228.559	45.06
228.793	51.06
229.027	94.06
229.262	97.06
229.496	121.06
229.73	121.06
229.964	137.06
230.199	115.06
230.433	118.06
230.667	105.06
230.901	118.06
231.136	118.06
231.37	110.06
231.604	106.06
231.838	112.06
232.072	111.06
232.306	104.06
232.541	120.06
232.775	112.06
233.009	98.06
233.243	114.06
233.477	124.06
233.711	112.06
233.945	104.06
234.179	116.06
234.413	110.06
234.647	128.06
234.881	120.06
235.115	123.06
235.349	125.06
235.583	118.06
235.817	109.06
236.051	134.06
236.285	120.06
236.519	118.06
236.753	120.06
236.987	130.06
237.221	176.06
237.455	194.06
237.689	152.06
237.922	144.06
238.156	126.06
238.39	136.06
238.624	122.06
238.858	139.06
239.091	121.06
239.325	110.06
239.559	119.06
239.793	116.06
240.027	132.06
240.26	140.06
240.494	138.06
240.728	152.06
240.961	141.06
241.195	146.06
241.429	141.06
241.662	125.06
241.896	131.06
242.13	131.06
242.363	124.06
242.597	142.06
242.83	157.06
243.064	147.06
243.298	150.06
243.531	132.06
243.765	126.06
243.998	140.06
244.232	141.06
244.465	145.06
244.699	135.06
244.932	134.06
245.166	146.06
245.399	171.06
245.633	135.06
245.866	142.06
246.099	140.06
246.333	146.06
246.566	142.06
246.8	157.06
247.033	140.06
247.266	151.06
247.5	155.06
247.733	177.06
247.966	155.06
248.2	162.06
248.433	177.06
248.666	168.06
248.899	178.06
249.133	176.06
249.366	193.06
249.599	174.06
249.832	171.06
250.066	160.06
250.299	173.06
250.532	184.06
250.765	192.06
250.998	212.06
251.231	209.06
251.465	201.06
251.698	206.06
251.931	190.06
252.164	189.06
252.397	196.06
252.63	186.06
252.863	198.06
253.096	201.06
253.329	221.06
253.562	213.06
253.795	200.06
254.028	205.06
254.261	222.06
254.494	197.06
254.727	238.06
254.96	263.06
255.193	245.06
255.426	226.06
255.659	207.06
255.892	212.06
256.124	214.06
256.357	209.06
256.59	214.06
256.823	212.06
257.056	189.06
257.289	198.06
257.521	188.06
257.754	206.06
257.987	183.06
258.22	212.06
258.452	211.06
258.685	201.06
258.918	202.06
259.151	187.06
259.383	204.06
259.616	225.06
259.849	218.06
260.081	235.06
260.314	249.06
260.547	252.06
260.779	229.06
261.012	219.06
261.244	231.06
261.477	228.06
261.71	212.06
261.942	238.06
262.175	234.06
262.407	224.06
262.64	197.06
262.872	201.06
263.105	210.06
263.337	213.06
263.57	224.06
263.802	209.06
264.035	214.06
264.267	226.06
264.499	216.06
264.732	230.06
264.964	214.06
265.197	216.06
265.429	221.06
265.661	203.06
265.894	220.06
266.126	223.06
266.358	206.06
266.591	220.06
266.823	228.06
267.055	236.06
267.287	244.06
267.52	240.06
267.752	240.06
267.984	241.06
268.216	234.06
268.448	244.06
268.681	221.06
268.913	248.06
269.145	250.06
269.377	270.06
269.609	265.06
269.841	268.06
270.073	265.06
270.306	264.06
270.538	296.06
270.77	292.06
271.002	274.06
271.234	280.06
271.466	295.06
271.698	300.06
271.93	300.06
272.162	306.06
272.394	302.06
272.626	289.06
272.858	277.06
273.09	270.06
273.322	258.06
273.553	258.06
273.785	275.06
274.017	252.06
274.249	255.06
274.481	270.06
274.713	245.06
274.945	250.06
275.176	265.06
275.408	253.06
275.64	263.06
275.872	257.06
276.104	278.06
276.335	270.06
276.567	269.06
276.799	285.06
277.031	297.06
277.262	312.06
277.494	310.06
277.726	321.06
277.957	301.06
278.189	278.06
278.421	288.06
278.652	277.06
278.884	273.06
279.115	297.06
279.347	286.06
279.579	268.06
279.81	268.06
280.042	270.06
280.273	268.06
280.505	269.06
280.736	282.06
280.968	274.06
281.199	268.06
281.431	263.06
281.662	284.06
281.894	292.06
282.125	289.06
282.356	272.06
282.588	291.06
282.819	294.06
283.051	294.06
283.282	286.06
283.513	300.06
283.745	293.06
283.976	313.06
284.207	301.06
284.439	321.06
284.67	276.06
284.901	293.06
285.132	303.06
285.364	298.06
285.595	281.06
285.826	296.06
286.057	288.06
286.288	286.06
286.52	297.06
286.751	308.06
286.982	306.06
287.213	283.06
287.444	293.06
287.675	306.06
287.906	327.06
288.138	310.06
288.369	292.06
288.6	325.06
288.831	306.06
289.062	330.06
289.293	305.06
289.524	321.06
289.755	293.06
289.986	318.06
290.217	306.06
290.448	301.06
290.679	318.06
290.91	323.06
291.141	302.06
291.371	317.06
291.602	311.06
291.833	308.06
292.064	308.06
292.295	307.06
292.526	307.06
292.757	311.06
292.987	297.06
293.218	300.06
293.449	319.06
293.68	323.06
293.91	328.06
294.141	311.06
294.372	322.06
294.603	324.06
294.833	323.06
295.064	304.06
295.295	308.06
295.525	337.06
295.756	331.06
295.987	313.06
296.217	322.06
296.448	334.06
296.679	317.06
296.909	318.06
297.14	324.06
297.37	325.06
297.601	310.06
297.831	321.06
298.062	320.06
298.292	332.06
298.523	335.06
298.753	327.06
298.984	321.06
299.214	323.06
299.445	321.06
299.675	330.06
299.905	306.06
300.136	324.06
300.366	340.06
300.597	325.06
300.827	320.06
301.057	365.06
301.288	354.06
301.518	352.06
301.748	347.06
301.979	340.06
302.209	340.06
302.439	343.06
302.669	348.06
302.9	355.06
303.13	346.06
303.36	346.06
303.59	338.06
303.82	358.06
304.051	355.06
304.281	344.06
304.511	357.06
304.741	354.06
304.971	340.06
305.201	344.06
305.431	355.06
305.661	342.06
305.891	350.06
306.121	345.06
306.352	363.06
306.582	343.06
306.812	329.06
307.042	354.06
307.272	341.06
307.502	355.06
307.731	365.06
307.961	352.06
308.191	350.06
308.421	344.06
308.651	371.06
308.881	352.06
309.111	338.06
309.341	349.06
309.571	370.06
309.8	346.06
310.03	364.06
310.26	355.06
310.49	371.06
310.72	373.06
310.949	378.06
311.179	389.06
311.409	361.06
311.639	370.06
311.868	371.06
312.098	365.06
312.328	364.06
312.557	388.06
312.787	399.06
313.017	408.06
313.246	385.06
313.476	375.06
313.706	378.06
313.935	382.06
314.165	400.06
314.394	407.06
314.624	392.06
314.853	378.06
315.083	377.06
315.312	385.06
315.542	375.06
315.771	384.06
316.001	360.06
316.23	370.06
316.46	387.06
316.689	366.06
316.919	382.06
317.148	378.06
317.377	392.06
317.607	389.06
317.836	368.06
318.065	378.06
318.295	373.06
318.524	394.06
318.753	377.06
318.983	383.06
319.212	382.06
319.441	408.06
319.67	384.06
319.9	388.06
320.129	387.06
320.358	394.06
320.587	393.06
320.816	376.06
321.046	408.06
321.275	377.06
321.504	390.06
321.733	378.06
321.962	415.06
322.191	380.06
322.42	407.06
322.649	412.06
322.878	418.06
323.108	409.06
323.337	439.06
323.566	453.06
323.795	449.06
324.024	469.06
324.253	549.06
324.482	662.06
324.71	976.06
324.939	1369.06
325.168	1229.06
325.397	697.06
325.626	520.06
325.855	477.06
326.084	445.06
326.313	470.06
326.542	445.06
326.77	465.06
326.999	522.06
327.228	660.06
327.457	909.06
327.686	1084.06
327.914	767.06
328.143	576.06
328.372	531.06
328.6	520.06
328.829	490.06
329.058	506.06
329.287	489.06
329.515	483.06
329.744	469.06
329.972	466.06
330.201	475.06
330.43	492.06
330.658	489.06
330.887	532.06
331.115	516.06
331.344	469.06
331.572	474.06
331.801	495.06
332.03	455.06
332.258	472.06
332.486	464.06
332.715	461.06
332.943	465.06
333.172	500.06
333.4	477.06
333.629	491.06
333.857	499.06
334.085	500.06
334.314	516.06
334.542	530.06
334.771	541.06
334.999	510.06
335.227	474.06
335.455	477.06
335.684	485.06
335.912	466.06
336.14	464.06
336.369	420.06
336.597	465.06
336.825	469.06
337.053	463.06
337.281	459.06
337.51	444.06
337.738	440.06
337.966	446.06
338.194	458.06
338.422	459.06
338.65	430.06
338.878	454.06
339.106	445.06
339.334	421.06
339.562	432.06
339.79	445.06
340.018	413.06
340.246	422.06
340.474	422.06
340.702	433.06
340.93	403.06
341.158	421.06
341.386	415.06
341.614	432.06
341.842	427.06
342.07	413.06
342.298	412.06
342.526	424.06
342.754	409.06
342.981	428.06
343.209	416.06
343.437	443.06
343.665	443.06
343.893	469.06
344.12	459.06
344.348	486.06
344.576	449.06
344.804	446.06
345.031	444.06
345.259	434.06
345.487	417.06
345.714	416.06
345.942	409.06
346.17	423.06
346.397	427.06
346.625	421.06
346.853	401.06
347.08	413.06
347.308	408.06
347.535	412.06
347.763	429.06
347.99	428.06
348.218	417.06
348.445	417.06
348.673	422.06
348.9	401.06
349.128	426.06
349.355	405.06
349.583	397.06
349.81	387.06
350.037	374.06
350.265	411.06
350.492	416.06
350.72	402.06
350.947	396.06
351.174	441.06
351.402	408.06
351.629	398.06
351.856	398.06
352.083	388.06
352.311	396.06
352.538	421.06
352.765	418.06
352.992	411.06
353.22	401.06
353.447	380.06
353.674	386.06
353.901	400.06
354.128	382.06
354.355	390.06
354.583	401.06
354.81	398.06
355.037	392.06
355.264	384.06
355.491	386.06
355.718	402.06
355.945	384.06
356.172	399.06
356.399	380.06
356.626	384.06
356.853	382.06
357.08	390.06
357.307	404.06
357.534	406.06
357.761	395.06
357.988	395.06
358.215	381.06
358.441	398.06
358.668	381.06
358.895	395.06
359.122	380.06
359.349	419.06
359.576	409.06
359.802	411.06
360.029	421.06
360.256	437.06
360.483	429.06
360.709	388.06
360.936	409.06
361.163	389.06
361.39	404.06
361.616	408.06
361.843	398.06
362.07	404.06
362.296	402.06
362.523	389.06
362.749	410.06
362.976	399.06
363.203	401.06
363.429	390.06
363.656	422.06
363.882	407.06
364.109	404.06
364.335	380.06
364.562	397.06
364.788	400.06
365.015	385.06
365.241	395.06
365.468	416.06
365.694	413.06
365.92	416.06
366.147	418.06
366.373	405.06
366.599	389.06
366.826	378.06
367.052	393.06
367.278	391.06
367.505	396.06
367.731	403.06
367.957	412.06
368.184	414.06
368.41	408.06
368.636	412.06
368.862	412.06
369.089	388.06
369.315	412.06
369.541	393.06
369.767	410.06
369.993	408.06
370.219	383.06
370.445	396.06
370.672	392.06
370.898	401.06
371.124	407.06
371.35	404.06
371.576	408.06
371.802	426.06
372.028	402.06
372.254	381.06
372.48	404.06
372.706	403.06
372.932	409.06
373.158	418.06
373.384	423.06
373.61	412.06
373.835	399.06
374.061	413.06
374.287	398.06
374.513	420.06
374.739	447.06
374.965	441.06
375.191	413.06
375.416	413.06
375.642	413.06
375.868	412.06
376.094	418.06
376.319	417.06
376.545	409.06
376.771	407.06
376.997	418.06
377.222	390.06
377.448	412.06
377.674	419.06
377.899	413.06
378.125	413.06
378.35	416.06
378.576	395.06
378.802	394.06
379.027	407.06
379.253	404.06
379.478	406.06
379.704	394.06
379.929	407.06
380.155	390.06
380.38	395.06
380.606	410.06
380.831	396.06
381.057	424.06
381.282	412.06
381.507	383.06
381.733	413.06
381.958	409.06
382.184	421.06
382.409	419.06
382.634	402.06
382.86	434.06
383.085	425.06
383.31	424.06
383.535	416.06
383.761	406.06
383.986	424.06
384.211	425.06
384.436	428.06
384.662	444.06
384.887	461.06
385.112	435.06
385.337	444.06
385.562	466.06
385.787	459.06
386.013	450.06
386.238	459.06
386.463	463.06
386.688	461.06
386.913	458.06
387.138	455.06
387.363	456.06
387.588	453.06
387.813	444.06
388.038	442.06
388.263	456.06
388.488	466.06
388.713	473.06
388.938	460.06
389.163	466.06
389.387	469.06
389.612	473.06
389.837	461.06
390.062	462.06
390.287	469.06
390.512	462.06
390.736	458.06
390.961	446.06
391.186	455.06
391.411	465.06
391.636	495.06
391.86	476.06
392.085	489.06
392.31	476.06
392.534	491.06
392.759	492.06
392.984	472.06
393.208	487.06
393.433	470.06
393.658	444.06
393.882	476.06
394.107	456.06
394.331	468.06
394.556	469.06
394.78	454.06
395.005	483.06
395.229	482.06
395.454	500.06
395.678	500.06
395.903	497.06
396.127	516.06
396.352	499.06
396.576	498.06
396.801	506.06
397.025	466.06
397.249	512.06
397.474	515.06
397.698	512.06
397.922	485.06
398.147	507.06
398.371	529.06
398.595	530.06
398.82	526.06
399.044	540.06
399.268	591.06
399.492	632.06
399.717	669.06
399.941	704.06
400.165	675.06
400.389	680.06
400.613	619.06
400.837	572.06
401.062	554.06
401.286	548.06
401.51	552.06
401.734	522.06
401.958	540.06
402.182	556.06
402.406	539.06
402.63	558.06
402.854	549.06
403.078	562.06
403.302	552.06
403.526	576.06
403.75	578.06
403.974	581.06
404.198	577.06
404.422	579.06
404.645	576.06
404.869	583.06
405.093	604.06
405.317	628.06
405.541	661.06
405.765	621.06
405.988	588.06
406.212	599.06
406.436	594.06
406.66	608.06
406.883	611.06
407.107	612.06
407.331	681.06
407.555	738.06
407.778	739.06
408.002	662.06
408.226	625.06
408.449	621.06
408.673	590.06
408.896	644.06
409.12	640.06
409.344	636.06
409.567	574.06
409.791	571.06
410.014	572.06
410.238	560.06
410.461	560.06
410.685	571.06
410.908	576.06
411.132	602.06
411.355	608.06
411.578	590.06
411.802	558.06
412.025	568.06
412.249	544.06
412.472	592.06
412.695	610.06
412.919	597.06
413.142	560.06
413.365	576.06
413.589	547.06
413.812	546.06
414.035	515.06
414.258	510.06
414.482	544.06
414.705	543.06
414.928	532.06
415.151	526.06
415.374	526.06
415.597	516.06
415.821	525.06
416.044	541.06
416.267	531.06
416.49	515.06
416.713	502.06
416.936	550.06
417.159	537.06
417.382	537.06
417.605	515.06
417.828	530.06
418.051	534.06
418.274	531.06
418.497	531.06
418.72	515.06
418.943	525.06
419.166	568.06
419.389	594.06
419.611	562.06
419.834	561.06
420.057	540.06
420.28	561.06
420.503	534.06
420.726	547.06
420.948	548.06
421.171	583.06
421.394	608.06
421.617	563.06
421.839	569.06
422.062	537.06
422.285	550.06
422.507	591.06
422.73	627.06
422.953	660.06
423.175	582.06
423.398	568.06
423.621	570.06
423.843	581.06
424.066	580.06
424.288	562.06
424.511	588.06
424.733	612.06
424.956	681.06
425.178	671.06
425.401	662.06
425.623	644.06
425.846	614.06
426.068	549.06
426.291	552.06
426.513	568.06
426.735	562.06
426.958	556.06
427.18	638.06
427.402	764.06
427.625	815.06
427.847	700.06
428.069	624.06
428.292	576.06
428.514	527.06
428.736	512.06
428.958	520.06
429.181	492.06
429.403	492.06
429.625	519.06
429.847	532.06
430.069	584.06
430.292	610.06
430.514	540.06
430.736	533.06
430.958	504.06
431.18	507.06
431.402	516.06
431.624	503.06
431.846	493.06
432.068	486.06
432.29	538.06
432.512	502.06
432.734	484.06
432.956	473.06
433.178	491.06
433.4	510.06
433.622	485.06
433.844	496.06
434.066	505.06
434.287	524.06
434.509	484.06
434.731	512.06
434.953	525.06
435.175	530.06
435.397	565.06
435.618	567.06
435.84	582.06
436.062	668.06
436.284	709.06
436.505	592.06
436.727	539.06
436.949	516.06
437.17	526.06
437.392	509.06
437.614	524.06
437.835	544.06
438.057	603.06
438.278	669.06
438.5	675.06
438.721	749.06
438.943	730.06
439.165	592.06
439.386	533.06
439.608	544.06
439.829	546.06
440.05	549.06
440.272	581.06
440.493	575.06
440.715	532.06
440.936	544.06
441.158	515.06
441.379	531.06
441.6	548.06
441.822	549.06
442.043	592.06
442.264	644.06
442.486	696.06
442.707	608.06
442.928	554.06
443.149	585.06
443.371	564.06
443.592	621.06
443.813	708.06
444.034	752.06
444.255	667.06
444.476	594.06
444.698	596.06
444.919	610.06
445.14	673.06
445.361	634.06
445.582	594.06
445.803	662.06
446.024	680.06
446.245	712.06
446.466	647.06
446.687	568.06
446.908	552.06
447.129	536.06
447.35	513.06
447.571	497.06
447.792	495.06
448.013	498.06
448.234	494.06
448.455	534.06
448.675	630.06
448.896	728.06
449.117	620.06
449.338	583.06
449.559	676.06
449.779	752.06
450	606.06
450.221	540.06
450.442	489.06
450.662	475.06
450.883	482.06
451.104	489.06
451.324	484.06
451.545	472.06
451.766	478.06
451.986	465.06
452.207	468.06
452.428	445.06
452.648	473.06
452.869	450.06
453.089	475.06
453.31	464.06
453.53	443.06
453.751	425.06
453.971	441.06
454.192	456.06
454.412	473.06
454.633	457.06
454.853	430.06
455.073	446.06
455.294	476.06
455.514	517.06
455.734	484.06
455.955	419.06
456.175	428.06
456.395	432.06
456.616	440.06
456.836	442.06
457.056	417.06
457.276	452.06
457.497	440.06
457.717	426.06
457.937	438.06
458.157	453.06
458.377	469.06
458.598	470.06
458.818	502.06
459.038	568.06
459.258	595.06
459.478	534.06
459.698	492.06
459.918	497.06
460.138	499.06
460.358	517.06
460.578	537.06
460.798	542.06
461.018	530.06
461.238	536.06
461.458	528.06
461.678	544.06
461.898	534.06
462.118	524.06
462.338	554.06
462.558	582.06
462.777	597.06
462.997	612.06
463.217	631.06
463.437	638.06
463.657	592.06
463.876	571.06
464.096	581.06
464.316	590.06
464.536	586.06
464.755	561.06
464.975	554.06
465.195	564.06
465.414	592.06
465.634	514.06
465.854	505.06
466.073	508.06
466.293	488.06
466.512	481.06
466.732	470.06
466.951	476.06
467.171	461.06
467.391	493.06
467.61	457.06
467.829	478.06
468.049	476.06
468.268	489.06
468.488	477.06
468.707	450.06
468.927	465.06
469.146	469.06
469.365	449.06
469.585	473.06
469.804	467.06
470.023	488.06
470.243	472.06
470.462	480.06
470.681	489.06
470.901	501.06
471.12	477.06
471.339	484.06
471.558	488.06
471.777	489.06
471.997	463.06
472.216	461.06
472.435	492.06
472.654	476.06
472.873	490.06
473.092	474.06
473.311	470.06
473.53	472.06
473.749	469.06
473.968	500.06
474.187	567.06
474.406	602.06
474.625	516.06
474.844	476.06
475.063	493.06
475.282	494.06
475.501	474.06
475.72	506.06
475.939	501.06
476.158	508.06
476.377	482.06
476.596	478.06
476.814	493.06
477.033	496.06
477.252	506.06
477.471	522.06
477.69	502.06
477.908	538.06
478.127	542.06
478.346	525.06
478.564	538.06
478.783	548.06
479.002	556.06
479.22	567.06
479.439	584.06
479.658	554.06
479.876	572.06
480.095	590.06
480.313	604.06
480.532	615.06
480.751	581.06
480.969	580.06
481.188	621.06
481.406	627.06
481.624	574.06
481.843	542.06
482.061	556.06
482.28	561.06
482.498	534.06
482.717	553.06
482.935	533.06
483.153	569.06
483.372	564.06
483.59	550.06
483.808	542.06
484.027	538.06
484.245	537.06
484.463	551.06
484.681	564.06
484.9	552.06
485.118	553.06
485.336	584.06
485.554	584.06
485.772	561.06
485.99	562.06
486.209	572.06
486.427	577.06
486.645	589.06
486.863	590.06
487.081	585.06
487.299	578.06
487.517	583.06
487.735	595.06
487.953	603.06
488.171	576.06
488.389	565.06
488.607	576.06
488.825	570.06
489.043	555.06
489.261	578.06
489.479	595.06
489.696	608.06
489.914	609.06
490.132	605.06
490.35	613.06
490.568	594.06
490.786	614.06
491.003	628.06
491.221	630.06
491.439	657.06
491.657	642.06
491.874	692.06
492.092	692.06
492.31	672.06
492.527	656.06
492.745	658.06
492.963	668.06
493.18	667.06
493.398	678.06
493.615	677.06
493.833	681.06
494.05	689.06
494.268	676.06
494.485	666.06
494.703	678.06
494.92	694.06
495.138	660.06
495.355	673.06
495.573	674.06
495.79	700.06
496.008	676.06
496.225	692.06
496.442	675.06
496.66	678.06
496.877	709.06
497.094	679.06
497.312	688.06
497.529	709.06
497.746	721.06
497.963	722.06
498.181	776.06
498.398	774.06
498.615	791.06
498.832	789.06
499.049	861.06
499.267	889.06
499.484	922.06
499.701	973.06
499.918	1045.06
500.135	1136.06
500.352	1204.06
500.569	1230.06
500.786	1204.06
501.003	1186.06
501.22	1108.06
501.437	1046.06
501.654	983.06
