Data from 1973.PennyLincolnUp.Lamp.En5.5.200Scan.071719.P1.Changed Mount._HRD10591_15-44-52-852.txt Node
Date: Thu Jul 18 15:44:52 EDT 2019
User: cochatt
Spectrometer: HR+D1059
Trigger mode: 1
Integration Time (sec): 1.000000E-1
Scans to average: 1
Electric dark correction enabled: true
Nonlinearity correction enabled: false
Boxcar width: 0
XAxis mode: Wavelengths
Number of Pixels in Spectrum: 2048
>>>>>Begin Spectral Data<<<<<
223.165	-1
223.4	-1
223.635	-1
223.869	-23
224.104	-11
224.338	-11
224.573	-19
224.808	-14
225.042	-10
225.277	-4
225.511	7
225.746	4
225.98	7
226.215	12
226.449	16
226.683	18
226.918	1
227.152	28
227.387	29
227.621	35
227.856	43
228.09	36
228.324	48
228.559	60
228.793	69
229.027	87
229.262	100
229.496	113
229.73	102
229.964	136
230.199	125
230.433	118
230.667	103
230.901	117
231.136	113
231.37	118
231.604	119
231.838	98
232.072	117
232.306	127
232.541	113
232.775	102
233.009	99
233.243	104
233.477	125
233.711	107
233.945	110
234.179	111
234.413	117
234.647	102
234.881	119
235.115	116
235.349	123
235.583	121
235.817	114
236.051	110
236.285	113
236.519	126
236.753	114
236.987	127
237.221	165
237.455	199
237.689	164
237.922	126
238.156	125
238.39	129
238.624	130
238.858	119
239.091	137
239.325	133
239.559	115
239.793	119
240.027	138
240.26	130
240.494	149
240.728	140
240.961	151
241.195	141
241.429	152
241.662	144
241.896	144
242.13	136
242.363	146
242.597	133
242.83	143
243.064	140
243.298	131
243.531	127
243.765	151
243.998	146
244.232	142
244.465	135
244.699	152
244.932	152
245.166	155
245.399	154
245.633	172
245.866	150
246.099	152
246.333	148
246.566	149
246.8	154
247.033	166
247.266	168
247.5	173
247.733	161
247.966	171
248.2	171
248.433	171
248.666	168
248.899	179
249.133	179
249.366	191
249.599	199
249.832	192
250.066	177
250.299	183
250.532	214
250.765	206
250.998	206
251.231	214
251.465	207
251.698	212
251.931	210
252.164	211
252.397	183
252.63	198
252.863	201
253.096	219
253.329	217
253.562	232
253.795	197
254.028	211
254.261	215
254.494	207
254.727	250
254.96	259
255.193	258
255.426	235
255.659	217
255.892	218
256.124	209
256.357	232
256.59	214
256.823	201
257.056	200
257.289	219
257.521	209
257.754	217
257.987	207
258.22	212
258.452	205
258.685	219
258.918	205
259.151	206
259.383	212
259.616	223
259.849	235
260.081	239
260.314	242
260.547	256
260.779	248
261.012	227
261.244	214
261.477	200
261.71	228
261.942	229
262.175	213
262.407	232
262.64	231
262.872	201
263.105	227
263.337	236
263.57	221
263.802	216
264.035	231
264.267	215
264.499	241
264.732	239
264.964	226
265.197	232
265.429	230
265.661	212
265.894	225
266.126	237
266.358	232
266.591	227
266.823	222
267.055	229
267.287	235
267.52	236
267.752	244
267.984	228
268.216	230
268.448	222
268.681	245
268.913	257
269.145	262
269.377	285
269.609	277
269.841	274
270.073	274
270.306	285
270.538	335
270.77	317
271.002	308
271.234	290
271.466	309
271.698	297
271.93	300
272.162	307
272.394	321
272.626	299
272.858	313
273.09	281
273.322	272
273.553	282
273.785	283
274.017	278
274.249	278
274.481	270
274.713	277
274.945	277
275.176	271
275.408	271
275.64	265
275.872	280
276.104	279
276.335	281
276.567	277
276.799	311
277.031	315
277.262	322
277.494	330
277.726	302
277.957	298
278.189	272
278.421	287
278.652	289
278.884	283
279.115	291
279.347	287
279.579	299
279.81	287
280.042	278
280.273	281
280.505	297
280.736	273
280.968	279
281.199	303
281.431	278
281.662	285
281.894	281
282.125	286
282.356	305
282.588	295
282.819	320
283.051	286
283.282	282
283.513	308
283.745	309
283.976	299
284.207	312
284.439	319
284.67	297
284.901	312
285.132	310
285.364	306
285.595	300
285.826	305
286.057	309
286.288	315
286.52	305
286.751	305
286.982	318
287.213	309
287.444	319
287.675	328
287.906	329
288.138	333
288.369	328
288.6	329
288.831	315
289.062	321
289.293	326
289.524	321
289.755	322
289.986	317
290.217	302
290.448	317
290.679	307
290.91	337
291.141	319
291.371	325
291.602	328
291.833	320
292.064	337
292.295	312
292.526	339
292.757	325
292.987	311
293.218	311
293.449	313
293.68	332
293.91	338
294.141	314
294.372	302
294.603	325
294.833	317
295.064	324
295.295	309
295.525	331
295.756	330
295.987	334
296.217	330
296.448	346
296.679	339
296.909	329
297.14	334
297.37	330
297.601	333
297.831	330
298.062	342
298.292	346
298.523	362
298.753	350
298.984	333
299.214	347
299.445	336
299.675	347
299.905	356
300.136	341
300.366	339
300.597	347
300.827	337
301.057	345
301.288	350
301.518	371
301.748	362
301.979	355
302.209	337
302.439	382
302.669	351
302.9	362
303.13	369
303.36	385
303.59	372
303.82	366
304.051	359
304.281	379
304.511	355
304.741	363
304.971	371
305.201	347
305.431	362
305.661	367
305.891	354
306.121	369
306.352	369
306.582	354
306.812	350
307.042	380
307.272	358
307.502	358
307.731	374
307.961	371
308.191	366
308.421	362
308.651	356
308.881	371
309.111	371
309.341	348
309.571	365
309.8	379
310.03	398
310.26	402
310.49	408
310.72	391
310.949	363
311.179	388
311.409	411
311.639	402
311.868	385
312.098	394
312.328	395
312.557	407
312.787	429
313.017	409
313.246	387
313.476	385
313.706	402
313.935	402
314.165	413
314.394	412
314.624	403
314.853	413
315.083	410
315.312	396
315.542	393
315.771	395
316.001	397
316.23	383
316.46	401
316.689	414
316.919	408
317.148	398
317.377	423
317.607	404
317.836	397
318.065	385
318.295	399
318.524	380
318.753	409
318.983	400
319.212	372
319.441	386
319.67	405
319.9	396
320.129	398
320.358	426
320.587	413
320.816	406
321.046	399
321.275	412
321.504	426
321.733	422
321.962	389
322.191	424
322.42	426
322.649	409
322.878	436
323.108	447
323.337	457
323.566	474
323.795	464
324.024	511
324.253	565
324.482	732
324.71	1022
324.939	1457
325.168	1299
325.397	715
325.626	551
325.855	463
326.084	470
326.313	482
326.542	473
326.77	505
326.999	558
327.228	677
327.457	949
327.686	1155
327.914	803
328.143	579
328.372	543
328.6	515
328.829	487
329.058	498
329.287	534
329.515	500
329.744	487
329.972	491
330.201	492
330.43	527
330.658	529
330.887	532
331.115	516
331.344	493
331.572	469
331.801	482
332.03	480
332.258	494
332.486	470
332.715	465
332.943	512
333.172	479
333.4	521
333.629	510
333.857	541
334.085	526
334.314	539
334.542	552
334.771	569
334.999	537
335.227	510
335.455	500
335.684	482
335.912	487
336.14	465
336.369	472
336.597	486
336.825	473
337.053	471
337.281	460
337.51	461
337.738	487
337.966	468
338.194	481
338.422	463
338.65	458
338.878	454
339.106	456
339.334	454
339.562	451
339.79	437
340.018	458
340.246	441
340.474	460
340.702	451
340.93	446
341.158	458
341.386	455
341.614	437
341.842	455
342.07	453
342.298	454
342.526	428
342.754	430
342.981	438
343.209	440
343.437	455
343.665	452
343.893	484
344.12	482
344.348	487
344.576	463
344.804	477
345.031	469
345.259	441
345.487	467
345.714	446
345.942	424
346.17	440
346.397	432
346.625	428
346.853	429
347.08	439
347.308	445
347.535	442
347.763	435
347.99	435
348.218	458
348.445	438
348.673	435
348.9	448
349.128	433
349.355	416
349.583	423
349.81	408
350.037	419
350.265	413
350.492	429
350.72	424
350.947	426
351.174	433
351.402	414
351.629	418
351.856	425
352.083	430
352.311	444
352.538	426
352.765	436
352.992	421
353.22	434
353.447	431
353.674	434
353.901	398
354.128	408
354.355	418
354.583	418
354.81	419
355.037	415
355.264	425
355.491	400
355.718	409
355.945	414
356.172	427
356.399	412
356.626	409
356.853	422
357.08	419
357.307	397
357.534	423
357.761	385
357.988	409
358.215	394
358.441	406
358.668	409
358.895	395
359.122	397
359.349	427
359.576	410
359.802	419
360.029	422
360.256	461
360.483	437
360.709	435
360.936	417
361.163	421
361.39	424
361.616	418
361.843	430
362.07	428
362.296	422
362.523	421
362.749	417
362.976	406
363.203	407
363.429	404
363.656	426
363.882	423
364.109	402
364.335	423
364.562	424
364.788	421
365.015	423
365.241	412
365.468	400
365.694	403
365.92	422
366.147	392
366.373	408
366.599	421
366.826	409
367.052	427
367.278	412
367.505	422
367.731	431
367.957	405
368.184	423
368.41	404
368.636	428
368.862	423
369.089	436
369.315	407
369.541	429
369.767	409
369.993	414
370.219	416
370.445	430
370.672	412
370.898	414
371.124	413
371.35	412
371.576	414
371.802	419
372.028	403
372.254	415
372.48	422
372.706	434
372.932	447
373.158	431
373.384	422
373.61	431
373.835	417
374.061	433
374.287	425
374.513	430
374.739	455
374.965	442
375.191	445
375.416	442
375.642	423
375.868	435
376.094	457
376.319	423
376.545	426
376.771	430
376.997	429
377.222	415
377.448	425
377.674	425
377.899	421
378.125	425
378.35	419
378.576	420
378.802	425
379.027	416
379.253	428
379.478	419
379.704	426
379.929	431
380.155	439
380.38	425
380.606	429
380.831	426
381.057	409
381.282	420
381.507	434
381.733	428
381.958	427
382.184	417
382.409	448
382.634	423
382.86	429
383.085	440
383.31	433
383.535	458
383.761	448
383.986	461
384.211	445
384.436	466
384.662	478
384.887	474
385.112	469
385.337	464
385.562	500
385.787	483
386.013	488
386.238	508
386.463	489
386.688	501
386.913	461
387.138	484
387.363	469
387.588	486
387.813	468
388.038	493
388.263	451
388.488	490
388.713	484
388.938	479
389.163	463
389.387	469
389.612	446
389.837	482
390.062	472
390.287	466
390.512	487
390.736	468
390.961	457
391.186	484
391.411	483
391.636	497
391.86	510
392.085	499
392.31	506
392.534	491
392.759	491
392.984	490
393.208	486
393.433	492
393.658	479
393.882	468
394.107	482
394.331	480
394.556	485
394.78	481
395.005	486
395.229	503
395.454	515
395.678	498
395.903	504
396.127	520
396.352	515
396.576	493
396.801	485
397.025	506
397.249	499
397.474	533
397.698	503
397.922	540
398.147	532
398.371	550
398.595	526
398.82	529
399.044	572
399.268	629
399.492	678
399.717	741
399.941	727
400.165	724
400.389	696
400.613	630
400.837	629
401.062	574
401.286	597
401.51	566
401.734	572
401.958	571
402.182	594
402.406	559
402.63	581
402.854	562
403.078	590
403.302	595
403.526	613
403.75	613
403.974	617
404.198	597
404.422	596
404.645	595
404.869	607
405.093	630
405.317	649
405.541	684
405.765	630
405.988	610
406.212	608
406.436	599
406.66	657
406.883	629
407.107	634
407.331	698
407.555	731
407.778	765
408.002	706
408.226	639
408.449	641
408.673	633
408.896	650
409.12	695
409.344	638
409.567	601
409.791	601
410.014	585
410.238	573
410.461	586
410.685	602
410.908	603
411.132	618
411.355	649
411.578	621
411.802	603
412.025	579
412.249	593
412.472	616
412.695	626
412.919	631
413.142	587
413.365	565
413.589	571
413.812	597
414.035	554
414.258	569
414.482	553
414.705	534
414.928	562
415.151	534
415.374	556
415.597	539
415.821	556
416.044	578
416.267	538
416.49	547
416.713	533
416.936	551
417.159	549
417.382	558
417.605	563
417.828	541
418.051	554
418.274	562
418.497	558
418.72	565
418.943	543
419.166	573
419.389	617
419.611	601
419.834	590
420.057	596
420.28	609
420.503	574
420.726	550
420.948	572
421.171	612
421.394	647
421.617	591
421.839	558
422.062	591
422.285	583
422.507	609
422.73	697
422.953	647
423.175	614
423.398	582
423.621	606
423.843	599
424.066	593
424.288	604
424.511	602
424.733	669
424.956	716
425.178	685
425.401	672
425.623	694
425.846	617
426.068	589
426.291	596
426.513	610
426.735	595
426.958	627
427.18	670
427.402	773
427.625	829
427.847	711
428.069	654
428.292	596
428.514	565
428.736	536
428.958	555
429.181	545
429.403	543
429.625	559
429.847	565
430.069	611
430.292	638
430.514	545
430.736	537
430.958	529
431.18	510
431.402	518
431.624	520
431.846	516
432.068	512
432.29	531
432.512	539
432.734	522
432.956	529
433.178	533
433.4	505
433.622	534
433.844	503
434.066	504
434.287	497
434.509	542
434.731	562
434.953	542
435.175	569
435.397	594
435.618	600
435.84	574
436.062	691
436.284	703
436.505	605
436.727	577
436.949	521
437.17	539
437.392	547
437.614	564
437.835	551
438.057	628
438.278	701
438.5	699
438.721	778
438.943	737
439.165	607
439.386	583
439.608	570
439.829	577
440.05	577
440.272	608
440.493	582
440.715	567
440.936	541
441.158	531
441.379	551
441.6	558
441.822	563
442.043	625
442.264	682
442.486	737
442.707	636
442.928	599
443.149	605
443.371	613
443.592	642
443.813	709
444.034	798
444.255	675
444.476	616
444.698	631
444.919	649
445.14	718
445.361	673
445.582	618
445.803	665
446.024	702
446.245	723
446.466	671
446.687	610
446.908	577
447.129	538
447.35	531
447.571	517
447.792	524
448.013	525
448.234	539
448.455	575
448.675	643
448.896	737
449.117	637
449.338	616
449.559	711
449.779	786
450	634
450.221	569
450.442	504
450.662	506
450.883	498
451.104	525
451.324	479
451.545	483
451.766	503
451.986	476
452.207	484
452.428	465
452.648	461
452.869	454
453.089	483
453.31	483
453.53	464
453.751	476
453.971	475
454.192	485
454.412	467
454.633	440
454.853	466
455.073	464
455.294	484
455.514	536
455.734	525
455.955	453
456.175	460
456.395	428
456.616	457
456.836	480
457.056	457
457.276	453
457.497	468
457.717	460
457.937	451
458.157	465
458.377	468
458.598	469
458.818	517
459.038	577
459.258	588
459.478	539
459.698	535
459.918	534
460.138	531
460.358	519
460.578	539
460.798	551
461.018	558
461.238	572
461.458	552
461.678	551
461.898	572
462.118	556
462.338	587
462.558	595
462.777	607
462.997	629
463.217	641
463.437	644
463.657	609
463.876	595
464.096	605
464.316	608
464.536	577
464.755	587
464.975	589
465.195	611
465.414	631
465.634	564
465.854	513
466.073	519
466.293	528
466.512	519
466.732	506
466.951	514
467.171	491
467.391	496
467.61	499
467.829	488
468.049	505
468.268	503
468.488	475
468.707	487
468.927	474
469.146	483
469.365	477
469.585	493
469.804	477
470.023	492
470.243	506
470.462	535
470.681	495
470.901	519
471.12	495
471.339	503
471.558	497
471.777	521
471.997	510
472.216	496
472.435	506
472.654	492
472.873	495
473.092	472
473.311	492
473.53	513
473.749	501
473.968	528
474.187	595
474.406	609
474.625	550
474.844	507
475.063	492
475.282	517
475.501	500
475.72	519
475.939	509
476.158	502
476.377	513
476.596	518
476.814	531
477.033	510
477.252	517
477.471	513
477.69	544
477.908	532
478.127	557
478.346	552
478.564	568
478.783	577
479.002	576
479.22	578
479.439	578
479.658	586
479.876	589
480.095	587
480.313	628
480.532	617
480.751	651
480.969	627
481.188	631
481.406	638
481.624	622
481.843	589
482.061	600
482.28	588
482.498	599
482.717	562
482.935	568
483.153	578
483.372	561
483.59	556
483.808	562
484.027	577
484.245	591
484.463	565
484.681	598
484.9	565
485.118	571
485.336	597
485.554	597
485.772	615
485.99	595
486.209	587
486.427	602
486.645	595
486.863	614
487.081	626
487.299	585
487.517	605
487.735	591
487.953	601
488.171	613
488.389	612
488.607	612
488.825	600
489.043	628
489.261	614
489.479	607
489.696	629
489.914	616
490.132	625
490.35	627
490.568	641
490.786	635
491.003	655
491.221	638
491.439	664
491.657	689
491.874	659
492.092	701
492.31	678
492.527	683
492.745	704
492.963	677
493.18	696
493.398	729
493.615	689
493.833	717
494.05	715
494.268	719
494.485	710
494.703	704
494.92	706
495.138	712
495.355	707
495.573	688
495.79	697
496.008	703
496.225	707
496.442	707
496.66	725
496.877	711
497.094	725
497.312	710
497.529	738
497.746	747
497.963	775
498.181	795
498.398	817
498.615	841
498.832	850
499.049	894
499.267	920
499.484	946
499.701	1042
499.918	1098
500.135	1140
500.352	1194
500.569	1269
500.786	1236
501.003	1222
501.22	1171
501.437	1113
501.654	1047
501.871	961
502.088	947
502.305	893
502.522	863
502.739	854
502.956	838
503.172	748
503.389	762
503.606	768
503.823	762
504.04	778
504.256	742
504.473	765
504.69	755
504.907	739
505.123	722
505.34	711
505.557	669
505.773	666
505.99	678
506.207	662
506.423	677
506.64	670
506.856	651
507.073	661
507.289	619
507.506	621
507.722	647
507.939	632
508.155	663
508.372	623
508.588	601
508.805	615
509.021	626
509.238	643
509.454	633
509.67	662
509.887	621
510.103	622
510.319	616
510.536	666
510.752	956
510.968	782
511.184	595
511.401	600
511.617	608
511.833	617
512.049	600
512.265	586
512.481	574
512.698	606
512.914	582
513.13	572
513.346	580
513.562	584
513.778	573
513.994	601
514.21	590
514.426	613
514.642	621
514.858	613
515.074	652
515.29	732
515.506	929
515.721	805
515.937	656
516.153	619
516.369	629
516.585	613
516.801	630
517.016	638
517.232	643
517.448	665
517.664	680
517.879	683
518.095	678
518.311	672
518.527	632
518.742	627
518.958	625
519.173	617
519.389	585
519.605	600
519.82	587
520.036	625
520.251	623
520.467	623
520.682	615
520.898	613
521.113	613
521.329	635
521.544	665
521.76	778
521.975	1128
522.19	1127
522.406	704
522.621	600
522.836	580
523.052	568
523.267	558
523.482	530
523.698	516
523.913	525
524.128	536
524.343	510
524.559	515
524.774	518
524.989	521
525.204	523
525.419	507
525.634	530
525.849	509
526.064	501
526.28	514
526.495	497
526.71	489
526.925	479
527.14	501
527.355	485
527.57	520
527.785	497
527.999	493
528.214	505
528.429	505
528.644	497
528.859	518
529.074	500
529.289	503
529.503	556
529.718	527
529.933	518
530.148	500
530.363	518
530.577	470
530.792	477
531.007	485
531.221	482
531.436	490
531.651	477
531.865	490
532.08	491
532.295	488
532.509	490
532.724	473
532.938	500
533.153	489
533.367	476
533.582	495
533.796	492
534.011	487
534.225	483
534.44	465
534.654	479
534.868	475
535.083	479
535.297	483
535.511	487
535.726	493
535.94	461
536.154	469
536.369	466
536.583	462
536.797	473
537.011	467
537.225	459
537.44	474
537.654	464
537.868	467
538.082	475
538.296	450
538.51	453
538.724	453
538.938	470
539.153	478
539.367	451
539.581	447
539.795	453
540.009	455
540.222	442
540.436	445
540.65	459
540.864	459
541.078	468
541.292	462
541.506	444
541.72	454
541.934	453
542.147	446
542.361	444
542.575	455
542.789	457
543.002	456
543.216	440
543.43	457
543.644	447
543.857	474
544.071	454
544.285	480
544.498	467
544.712	469
544.925	460
545.139	457
545.352	450
545.566	447
545.779	463
545.993	474
546.206	459
546.42	485
546.633	460
546.847	469
547.06	462
547.274	470
547.487	454
547.7	455
547.914	462
548.127	473
548.34	457
548.554	472
548.767	449
548.98	450
549.193	460
549.407	447
549.62	467
549.833	450
550.046	451
550.259	461
550.473	460
550.686	474
550.899	457
551.112	444
551.325	457
551.538	457
551.751	470
551.964	451
552.177	461
552.39	442
552.603	463
552.816	474
553.029	461
553.242	492
553.455	475
553.667	519
553.88	486
554.093	480
554.306	442
554.519	471
554.732	463
554.944	423
555.157	450
555.37	434
555.583	408
555.795	417
556.008	437
556.221	422
556.433	421
556.646	441
556.859	412
557.071	401
557.284	417
557.496	415
557.709	387
557.921	401
558.134	409
558.346	419
558.559	405
558.771	426
558.984	394
559.196	384
559.409	398
559.621	425
559.833	388
560.046	401
560.258	401
560.47	421
560.683	399
560.895	410
561.107	388
561.32	379
561.532	398
561.744	399
561.956	401
562.168	389
562.381	396
562.593	412
562.805	379
563.017	400
563.229	401
