Data from 1973.PennyLincolnUp.Lamp.En5.5.200Scan.071719.P1.Changed Mount._HRD10591_15-43-39-851.txt Node
Date: Thu Jul 18 15:43:39 EDT 2019
User: cochatt
Spectrometer: HR+D1059
Trigger mode: 1
Integration Time (sec): 1.000000E-1
Scans to average: 1
Electric dark correction enabled: true
Nonlinearity correction enabled: false
Boxcar width: 0
XAxis mode: Wavelengths
Number of Pixels in Spectrum: 2048
>>>>>Begin Spectral Data<<<<<
223.165	-7.25
223.4	-7.25
223.635	-7.25
223.869	-28.25
224.104	-14.25
224.338	-16.25
224.573	-11.25
224.808	-9.25
225.042	-18.25
225.277	-7.25
225.511	9.75
225.746	2.75
225.98	12.75
226.215	13.75
226.449	-1.25
226.683	16.75
226.918	20.75
227.152	36.75
227.387	35.75
227.621	30.75
227.856	34.75
228.09	44.75
228.324	54.75
228.559	55.75
228.793	58.75
229.027	98.75
229.262	102.75
229.496	105.75
229.73	124.75
229.964	133.75
230.199	112.75
230.433	102.75
230.667	94.75
230.901	115.75
231.136	97.75
231.37	119.75
231.604	130.75
231.838	121.75
232.072	116.75
232.306	116.75
232.541	108.75
232.775	120.75
233.009	122.75
233.243	108.75
233.477	137.75
233.711	117.75
233.945	119.75
234.179	126.75
234.413	122.75
234.647	104.75
234.881	111.75
235.115	119.75
235.349	138.75
235.583	127.75
235.817	124.75
236.051	120.75
236.285	135.75
236.519	122.75
236.753	123.75
236.987	144.75
237.221	166.75
237.455	204.75
237.689	160.75
237.922	132.75
238.156	130.75
238.39	115.75
238.624	123.75
238.858	130.75
239.091	132.75
239.325	124.75
239.559	139.75
239.793	132.75
240.027	134.75
240.26	133.75
240.494	138.75
240.728	147.75
240.961	138.75
241.195	137.75
241.429	141.75
241.662	124.75
241.896	139.75
242.13	119.75
242.363	147.75
242.597	142.75
242.83	144.75
243.064	132.75
243.298	143.75
243.531	146.75
243.765	124.75
243.998	136.75
244.232	132.75
244.465	136.75
244.699	141.75
244.932	148.75
245.166	129.75
245.399	147.75
245.633	142.75
245.866	144.75
246.099	153.75
246.333	144.75
246.566	154.75
246.8	146.75
247.033	162.75
247.266	159.75
247.5	148.75
247.733	170.75
247.966	175.75
248.2	167.75
248.433	165.75
248.666	155.75
248.899	175.75
249.133	195.75
249.366	191.75
249.599	185.75
249.832	161.75
250.066	193.75
250.299	168.75
250.532	180.75
250.765	192.75
250.998	212.75
251.231	225.75
251.465	210.75
251.698	198.75
251.931	189.75
252.164	185.75
252.397	193.75
252.63	199.75
252.863	197.75
253.096	206.75
253.329	216.75
253.562	208.75
253.795	214.75
254.028	215.75
254.261	216.75
254.494	223.75
254.727	230.75
254.96	242.75
255.193	246.75
255.426	233.75
255.659	221.75
255.892	224.75
256.124	216.75
256.357	211.75
256.59	220.75
256.823	217.75
257.056	215.75
257.289	214.75
257.521	209.75
257.754	205.75
257.987	194.75
258.22	208.75
258.452	216.75
258.685	202.75
258.918	224.75
259.151	200.75
259.383	204.75
259.616	230.75
259.849	218.75
260.081	237.75
260.314	247.75
260.547	238.75
260.779	242.75
261.012	219.75
261.244	210.75
261.477	216.75
261.71	208.75
261.942	214.75
262.175	235.75
262.407	225.75
262.64	211.75
262.872	214.75
263.105	216.75
263.337	241.75
263.57	215.75
263.802	208.75
264.035	221.75
264.267	215.75
264.499	223.75
264.732	227.75
264.964	221.75
265.197	206.75
265.429	215.75
265.661	220.75
265.894	208.75
266.126	214.75
266.358	208.75
266.591	234.75
266.823	233.75
267.055	223.75
267.287	236.75
267.52	240.75
267.752	225.75
267.984	220.75
268.216	234.75
268.448	234.75
268.681	231.75
268.913	260.75
269.145	246.75
269.377	266.75
269.609	266.75
269.841	266.75
270.073	247.75
270.306	279.75
270.538	290.75
270.77	296.75
271.002	303.75
271.234	287.75
271.466	293.75
271.698	302.75
271.93	289.75
272.162	302.75
272.394	295.75
272.626	277.75
272.858	300.75
273.09	263.75
273.322	268.75
273.553	280.75
273.785	258.75
274.017	264.75
274.249	263.75
274.481	247.75
274.713	273.75
274.945	260.75
275.176	257.75
275.408	250.75
275.64	266.75
275.872	259.75
276.104	283.75
276.335	277.75
276.567	282.75
276.799	276.75
277.031	298.75
277.262	308.75
277.494	313.75
277.726	297.75
277.957	301.75
278.189	284.75
278.421	263.75
278.652	275.75
278.884	272.75
279.115	258.75
279.347	269.75
279.579	286.75
279.81	278.75
280.042	277.75
280.273	283.75
280.505	276.75
280.736	280.75
280.968	281.75
281.199	273.75
281.431	279.75
281.662	283.75
281.894	290.75
282.125	272.75
282.356	302.75
282.588	289.75
282.819	295.75
283.051	302.75
283.282	294.75
283.513	307.75
283.745	304.75
283.976	282.75
284.207	296.75
284.439	296.75
284.67	310.75
284.901	292.75
285.132	296.75
285.364	286.75
285.595	295.75
285.826	284.75
286.057	301.75
286.288	285.75
286.52	311.75
286.751	314.75
286.982	286.75
287.213	316.75
287.444	307.75
287.675	299.75
287.906	317.75
288.138	296.75
288.369	296.75
288.6	301.75
288.831	301.75
289.062	312.75
289.293	316.75
289.524	311.75
289.755	302.75
289.986	301.75
290.217	316.75
290.448	318.75
290.679	310.75
290.91	316.75
291.141	309.75
291.371	301.75
291.602	304.75
291.833	315.75
292.064	319.75
292.295	312.75
292.526	300.75
292.757	299.75
292.987	293.75
293.218	309.75
293.449	322.75
293.68	309.75
293.91	294.75
294.141	313.75
294.372	317.75
294.603	308.75
294.833	328.75
295.064	325.75
295.295	308.75
295.525	300.75
295.756	311.75
295.987	309.75
296.217	338.75
296.448	330.75
296.679	334.75
296.909	311.75
297.14	308.75
297.37	333.75
297.601	331.75
297.831	317.75
298.062	315.75
298.292	320.75
298.523	320.75
298.753	320.75
298.984	354.75
299.214	319.75
299.445	331.75
299.675	320.75
299.905	347.75
300.136	336.75
300.366	331.75
300.597	323.75
300.827	333.75
301.057	347.75
301.288	330.75
301.518	367.75
301.748	332.75
301.979	326.75
302.209	338.75
302.439	337.75
302.669	354.75
302.9	335.75
303.13	330.75
303.36	346.75
303.59	372.75
303.82	342.75
304.051	349.75
304.281	359.75
304.511	340.75
304.741	343.75
304.971	338.75
305.201	350.75
305.431	364.75
305.661	344.75
305.891	332.75
306.121	354.75
306.352	341.75
306.582	335.75
306.812	360.75
307.042	350.75
307.272	352.75
307.502	346.75
307.731	335.75
307.961	350.75
308.191	361.75
308.421	334.75
308.651	343.75
308.881	340.75
309.111	334.75
309.341	360.75
309.571	333.75
309.8	366.75
310.03	379.75
310.26	363.75
310.49	357.75
310.72	378.75
310.949	366.75
311.179	388.75
311.409	386.75
311.639	359.75
311.868	376.75
312.098	374.75
312.328	378.75
312.557	379.75
312.787	385.75
313.017	382.75
313.246	390.75
313.476	359.75
313.706	378.75
313.935	382.75
314.165	383.75
314.394	394.75
314.624	392.75
314.853	388.75
315.083	385.75
315.312	398.75
315.542	372.75
315.771	379.75
316.001	387.75
316.23	376.75
316.46	372.75
316.689	394.75
316.919	372.75
317.148	377.75
317.377	371.75
317.607	383.75
317.836	387.75
318.065	382.75
318.295	374.75
318.524	367.75
318.753	374.75
318.983	386.75
319.212	375.75
319.441	400.75
319.67	387.75
319.9	378.75
320.129	374.75
320.358	386.75
320.587	395.75
320.816	382.75
321.046	404.75
321.275	371.75
321.504	393.75
321.733	377.75
321.962	378.75
322.191	388.75
322.42	420.75
322.649	416.75
322.878	392.75
323.108	404.75
323.337	420.75
323.566	413.75
323.795	452.75
324.024	463.75
324.253	528.75
324.482	647.75
324.71	907.75
324.939	1319.75
325.168	1168.75
325.397	659.75
325.626	500.75
325.855	472.75
326.084	449.75
326.313	444.75
326.542	445.75
326.77	475.75
326.999	492.75
327.228	621.75
327.457	879.75
327.686	1004.75
327.914	727.75
328.143	520.75
328.372	462.75
328.6	471.75
328.829	457.75
329.058	478.75
329.287	490.75
329.515	474.75
329.744	455.75
329.972	451.75
330.201	470.75
330.43	478.75
330.658	483.75
330.887	493.75
331.115	496.75
331.344	470.75
331.572	452.75
331.801	467.75
332.03	456.75
332.258	453.75
332.486	443.75
332.715	444.75
332.943	459.75
333.172	439.75
333.4	451.75
333.629	488.75
333.857	490.75
334.085	485.75
334.314	506.75
334.542	514.75
334.771	527.75
334.999	527.75
335.227	479.75
335.455	478.75
335.684	450.75
335.912	461.75
336.14	462.75
336.369	445.75
336.597	450.75
336.825	459.75
337.053	450.75
337.281	434.75
337.51	448.75
337.738	435.75
337.966	445.75
338.194	458.75
338.422	455.75
338.65	458.75
338.878	455.75
339.106	434.75
339.334	431.75
339.562	420.75
339.79	398.75
340.018	434.75
340.246	439.75
340.474	437.75
340.702	447.75
340.93	430.75
341.158	410.75
341.386	434.75
341.614	442.75
341.842	439.75
342.07	405.75
342.298	425.75
342.526	416.75
342.754	412.75
342.981	420.75
343.209	424.75
343.437	439.75
343.665	420.75
343.893	448.75
344.12	454.75
344.348	460.75
344.576	450.75
344.804	446.75
345.031	459.75
345.259	445.75
345.487	447.75
345.714	417.75
345.942	418.75
346.17	406.75
346.397	422.75
346.625	416.75
346.853	421.75
347.08	419.75
347.308	420.75
347.535	389.75
347.763	420.75
347.99	429.75
348.218	422.75
348.445	405.75
348.673	436.75
348.9	410.75
349.128	426.75
349.355	408.75
349.583	436.75
349.81	407.75
350.037	412.75
350.265	376.75
350.492	405.75
350.72	403.75
350.947	390.75
351.174	408.75
351.402	411.75
351.629	395.75
351.856	408.75
352.083	400.75
352.311	416.75
352.538	428.75
352.765	416.75
352.992	411.75
353.22	404.75
353.447	402.75
353.674	404.75
353.901	412.75
354.128	397.75
354.355	380.75
354.583	412.75
354.81	387.75
355.037	387.75
355.264	391.75
355.491	400.75
355.718	393.75
355.945	367.75
356.172	385.75
356.399	399.75
356.626	390.75
356.853	386.75
357.08	397.75
357.307	389.75
357.534	405.75
357.761	406.75
357.988	394.75
358.215	387.75
358.441	384.75
358.668	395.75
358.895	388.75
359.122	396.75
359.349	386.75
359.576	398.75
359.802	415.75
360.029	437.75
360.256	436.75
360.483	428.75
360.709	411.75
360.936	383.75
361.163	395.75
361.39	400.75
361.616	410.75
361.843	399.75
362.07	404.75
362.296	396.75
362.523	380.75
362.749	398.75
362.976	424.75
363.203	410.75
363.429	372.75
363.656	400.75
363.882	394.75
364.109	409.75
364.335	394.75
364.562	392.75
364.788	408.75
365.015	388.75
365.241	372.75
365.468	397.75
365.694	397.75
365.92	414.75
366.147	403.75
366.373	400.75
366.599	404.75
366.826	379.75
367.052	413.75
367.278	393.75
367.505	397.75
367.731	410.75
367.957	384.75
368.184	399.75
368.41	392.75
368.636	412.75
368.862	402.75
369.089	406.75
369.315	401.75
369.541	391.75
369.767	407.75
369.993	401.75
370.219	412.75
370.445	408.75
370.672	411.75
370.898	401.75
371.124	405.75
371.35	418.75
371.576	416.75
371.802	422.75
372.028	416.75
372.254	392.75
372.48	402.75
372.706	440.75
372.932	422.75
373.158	374.75
373.384	446.75
373.61	438.75
373.835	401.75
374.061	401.75
374.287	402.75
374.513	427.75
374.739	416.75
374.965	415.75
375.191	429.75
375.416	436.75
375.642	402.75
375.868	430.75
376.094	402.75
376.319	413.75
376.545	405.75
376.771	424.75
376.997	390.75
377.222	426.75
377.448	407.75
377.674	408.75
377.899	401.75
378.125	413.75
378.35	430.75
378.576	389.75
378.802	408.75
379.027	441.75
379.253	423.75
379.478	400.75
379.704	425.75
379.929	406.75
380.155	414.75
380.38	391.75
380.606	386.75
380.831	423.75
381.057	412.75
381.282	412.75
381.507	430.75
381.733	413.75
381.958	399.75
382.184	419.75
382.409	408.75
382.634	430.75
382.86	419.75
383.085	413.75
383.31	405.75
383.535	433.75
383.761	430.75
383.986	430.75
384.211	459.75
384.436	444.75
384.662	444.75
384.887	455.75
385.112	451.75
385.337	476.75
385.562	475.75
385.787	459.75
386.013	462.75
386.238	481.75
386.463	452.75
386.688	478.75
386.913	468.75
387.138	479.75
387.363	473.75
387.588	464.75
387.813	443.75
388.038	466.75
388.263	471.75
388.488	482.75
388.713	458.75
388.938	460.75
389.163	482.75
389.387	461.75
389.612	454.75
389.837	455.75
390.062	455.75
390.287	455.75
390.512	444.75
390.736	450.75
390.961	471.75
391.186	451.75
391.411	474.75
391.636	466.75
391.86	498.75
392.085	500.75
392.31	486.75
392.534	486.75
392.759	476.75
392.984	486.75
393.208	489.75
393.433	452.75
393.658	477.75
393.882	438.75
394.107	485.75
394.331	476.75
394.556	465.75
394.78	475.75
395.005	460.75
395.229	478.75
395.454	487.75
395.678	484.75
395.903	496.75
396.127	522.75
396.352	520.75
396.576	471.75
396.801	486.75
397.025	480.75
397.249	508.75
397.474	496.75
397.698	526.75
397.922	502.75
398.147	515.75
398.371	541.75
398.595	547.75
398.82	526.75
399.044	555.75
399.268	595.75
399.492	628.75
399.717	687.75
399.941	707.75
400.165	691.75
400.389	664.75
400.613	610.75
400.837	560.75
401.062	564.75
401.286	543.75
401.51	523.75
401.734	549.75
401.958	551.75
402.182	526.75
402.406	559.75
402.63	533.75
402.854	582.75
403.078	538.75
403.302	558.75
403.526	562.75
403.75	581.75
403.974	573.75
404.198	583.75
404.422	575.75
404.645	597.75
404.869	596.75
405.093	591.75
405.317	624.75
405.541	631.75
405.765	606.75
405.988	576.75
406.212	570.75
406.436	594.75
406.66	605.75
406.883	611.75
407.107	626.75
407.331	682.75
407.555	717.75
407.778	704.75
408.002	674.75
408.226	613.75
408.449	602.75
408.673	579.75
408.896	630.75
409.12	671.75
409.344	628.75
409.567	614.75
409.791	566.75
410.014	580.75
410.238	546.75
410.461	581.75
410.685	553.75
410.908	565.75
411.132	594.75
411.355	635.75
411.578	592.75
411.802	542.75
412.025	550.75
412.249	560.75
412.472	576.75
412.695	608.75
412.919	592.75
413.142	563.75
413.365	555.75
413.589	554.75
413.812	539.75
414.035	544.75
414.258	532.75
414.482	539.75
414.705	565.75
414.928	503.75
415.151	559.75
415.374	524.75
415.597	504.75
415.821	539.75
416.044	542.75
416.267	512.75
416.49	511.75
416.713	518.75
416.936	502.75
417.159	522.75
417.382	520.75
417.605	543.75
417.828	516.75
418.051	546.75
418.274	537.75
418.497	528.75
418.72	534.75
418.943	547.75
419.166	554.75
419.389	584.75
419.611	572.75
419.834	580.75
420.057	567.75
420.28	582.75
420.503	540.75
420.726	547.75
420.948	589.75
421.171	582.75
421.394	596.75
421.617	572.75
421.839	538.75
422.062	546.75
422.285	549.75
422.507	619.75
422.73	664.75
422.953	651.75
423.175	593.75
423.398	546.75
423.621	553.75
423.843	589.75
424.066	586.75
424.288	600.75
424.511	596.75
424.733	619.75
424.956	672.75
425.178	674.75
425.401	666.75
425.623	696.75
425.846	582.75
426.068	562.75
426.291	568.75
426.513	548.75
426.735	542.75
426.958	592.75
427.18	633.75
427.402	758.75
427.625	833.75
427.847	674.75
428.069	634.75
428.292	580.75
428.514	520.75
428.736	513.75
428.958	515.75
429.181	506.75
429.403	530.75
429.625	508.75
429.847	535.75
430.069	597.75
430.292	598.75
430.514	533.75
430.736	522.75
430.958	520.75
431.18	504.75
431.402	495.75
431.624	501.75
431.846	490.75
432.068	500.75
432.29	476.75
432.512	486.75
432.734	510.75
432.956	486.75
433.178	514.75
433.4	511.75
433.622	475.75
433.844	502.75
434.066	485.75
434.287	496.75
434.509	526.75
434.731	533.75
434.953	546.75
435.175	534.75
435.397	574.75
435.618	563.75
435.84	572.75
436.062	635.75
436.284	688.75
436.505	588.75
436.727	544.75
436.949	538.75
437.17	535.75
437.392	503.75
437.614	518.75
437.835	538.75
438.057	602.75
438.278	695.75
438.5	703.75
438.721	752.75
438.943	730.75
439.165	581.75
439.386	548.75
439.608	565.75
439.829	532.75
440.05	568.75
440.272	591.75
440.493	556.75
440.715	530.75
440.936	531.75
441.158	504.75
441.379	523.75
441.6	568.75
441.822	562.75
442.043	592.75
442.264	654.75
442.486	681.75
442.707	611.75
442.928	571.75
443.149	583.75
443.371	595.75
443.592	602.75
443.813	694.75
444.034	726.75
444.255	651.75
444.476	593.75
444.698	592.75
444.919	633.75
445.14	673.75
445.361	618.75
445.582	604.75
445.803	616.75
446.024	663.75
446.245	710.75
446.466	652.75
446.687	566.75
446.908	552.75
447.129	537.75
447.35	501.75
447.571	505.75
447.792	494.75
448.013	492.75
448.234	515.75
448.455	567.75
448.675	648.75
448.896	742.75
449.117	632.75
449.338	603.75
449.559	683.75
449.779	794.75
450	644.75
450.221	518.75
450.442	498.75
450.662	501.75
450.883	507.75
451.104	508.75
451.324	492.75
451.545	487.75
451.766	475.75
451.986	440.75
452.207	446.75
452.428	442.75
452.648	469.75
452.869	472.75
453.089	439.75
453.31	457.75
453.53	446.75
453.751	452.75
453.971	439.75
454.192	447.75
454.412	440.75
454.633	454.75
454.853	437.75
455.073	454.75
455.294	470.75
455.514	513.75
455.734	518.75
455.955	466.75
456.175	450.75
456.395	435.75
456.616	427.75
456.836	422.75
457.056	436.75
457.276	421.75
457.497	445.75
457.717	424.75
457.937	429.75
458.157	457.75
458.377	445.75
458.598	467.75
458.818	495.75
459.038	532.75
459.258	580.75
459.478	519.75
459.698	515.75
459.918	507.75
460.138	500.75
460.358	537.75
460.578	524.75
460.798	546.75
461.018	554.75
461.238	538.75
461.458	514.75
461.678	537.75
461.898	532.75
462.118	538.75
462.338	567.75
462.558	560.75
462.777	588.75
462.997	609.75
463.217	647.75
463.437	615.75
463.657	638.75
463.876	584.75
464.096	562.75
464.316	578.75
464.536	559.75
464.755	568.75
464.975	586.75
465.195	580.75
465.414	590.75
465.634	538.75
465.854	503.75
466.073	510.75
466.293	500.75
466.512	482.75
466.732	470.75
466.951	473.75
467.171	472.75
467.391	475.75
467.61	476.75
467.829	487.75
468.049	475.75
468.268	468.75
468.488	468.75
468.707	467.75
468.927	450.75
469.146	442.75
469.365	462.75
469.585	477.75
469.804	485.75
470.023	485.75
470.243	476.75
470.462	491.75
470.681	515.75
470.901	493.75
471.12	492.75
471.339	484.75
471.558	500.75
471.777	492.75
471.997	470.75
472.216	484.75
472.435	495.75
472.654	492.75
472.873	466.75
473.092	471.75
473.311	471.75
473.53	475.75
473.749	451.75
473.968	518.75
474.187	568.75
474.406	568.75
474.625	515.75
474.844	478.75
475.063	474.75
475.282	498.75
475.501	500.75
475.72	494.75
475.939	470.75
476.158	495.75
476.377	490.75
476.596	480.75
476.814	502.75
477.033	508.75
477.252	504.75
477.471	506.75
477.69	537.75
477.908	522.75
478.127	532.75
478.346	531.75
478.564	547.75
478.783	541.75
479.002	562.75
479.22	554.75
479.439	553.75
479.658	599.75
479.876	573.75
480.095	598.75
480.313	601.75
480.532	593.75
480.751	585.75
480.969	612.75
481.188	611.75
481.406	596.75
481.624	598.75
481.843	570.75
482.061	562.75
482.28	552.75
482.498	569.75
482.717	557.75
482.935	556.75
483.153	564.75
483.372	530.75
483.59	554.75
483.808	546.75
484.027	554.75
484.245	543.75
484.463	578.75
484.681	580.75
484.9	548.75
485.118	566.75
485.336	567.75
485.554	590.75
485.772	580.75
485.99	576.75
486.209	583.75
486.427	575.75
486.645	594.75
486.863	589.75
487.081	587.75
487.299	592.75
487.517	586.75
487.735	610.75
487.953	579.75
488.171	584.75
488.389	597.75
488.607	596.75
488.825	605.75
489.043	563.75
489.261	610.75
489.479	610.75
489.696	621.75
489.914	582.75
490.132	599.75
490.35	612.75
490.568	610.75
490.786	629.75
491.003	622.75
491.221	634.75
491.439	641.75
491.657	639.75
491.874	666.75
492.092	643.75
492.31	662.75
492.527	675.75
492.745	659.75
492.963	652.75
493.18	672.75
493.398	687.75
493.615	679.75
493.833	674.75
494.05	698.75
494.268	684.75
494.485	669.75
494.703	679.75
494.92	688.75
495.138	686.75
495.355	667.75
495.573	687.75
495.79	691.75
496.008	672.75
496.225	705.75
496.442	706.75
496.66	709.75
496.877	700.75
497.094	684.75
497.312	720.75
497.529	707.75
497.746	715.75
497.963	735.75
498.181	766.75
498.398	770.75
498.615	825.75
498.832	825.75
499.049	872.75
499.267	905.75
499.484	966.75
499.701	994.75
499.918	1043.75
500.135	1132.75
500.352	1220.75
500.569	1267.75
500.786	1243.75
501.003	1202.75
501.22	1162.75
501.437	1058.75
501.654	1022.75
