Data from 1973.PennyLincolnUp.Lamp.En5.5.200Scan.071719.P1.Changed Mount._HRD10591_15-45-16-852.txt Node
Date: Thu Jul 18 15:45:16 EDT 2019
User: cochatt
Spectrometer: HR+D1059
Trigger mode: 1
Integration Time (sec): 1.000000E-1
Scans to average: 1
Electric dark correction enabled: true
Nonlinearity correction enabled: false
Boxcar width: 0
XAxis mode: Wavelengths
Number of Pixels in Spectrum: 2048
>>>>>Begin Spectral Data<<<<<
223.165	-8.06
223.4	-8.06
223.635	-8.06
223.869	-14.06
224.104	-13.06
224.338	-18.06
224.573	-21.06
224.808	-6.06
225.042	-16.06
225.277	1.94
225.511	-4.06
225.746	0.94
225.98	-3.06
226.215	8.94
226.449	20.94
226.683	5.94
226.918	29.94
227.152	34.94
227.387	37.94
227.621	32.94
227.856	52.94
228.09	50.94
228.324	50.94
228.559	66.94
228.793	84.94
229.027	119.94
229.262	88.94
229.496	107.94
229.73	116.94
229.964	130.94
230.199	116.94
230.433	121.94
230.667	111.94
230.901	107.94
231.136	116.94
231.37	110.94
231.604	124.94
231.838	119.94
232.072	129.94
232.306	122.94
232.541	108.94
232.775	119.94
233.009	107.94
233.243	126.94
233.477	108.94
233.711	120.94
233.945	118.94
234.179	110.94
234.413	120.94
234.647	118.94
234.881	120.94
235.115	110.94
235.349	126.94
235.583	127.94
235.817	126.94
236.051	134.94
236.285	138.94
236.519	143.94
236.753	134.94
236.987	142.94
237.221	165.94
237.455	200.94
237.689	185.94
237.922	144.94
238.156	130.94
238.39	134.94
238.624	139.94
238.858	122.94
239.091	118.94
239.325	129.94
239.559	136.94
239.793	128.94
240.027	147.94
240.26	162.94
240.494	139.94
240.728	146.94
240.961	151.94
241.195	156.94
241.429	141.94
241.662	142.94
241.896	131.94
242.13	131.94
242.363	134.94
242.597	138.94
242.83	146.94
243.064	144.94
243.298	139.94
243.531	145.94
243.765	148.94
243.998	129.94
244.232	142.94
244.465	152.94
244.699	153.94
244.932	153.94
245.166	164.94
245.399	160.94
245.633	156.94
245.866	142.94
246.099	145.94
246.333	143.94
246.566	168.94
246.8	147.94
247.033	146.94
247.266	154.94
247.5	148.94
247.733	170.94
247.966	177.94
248.2	182.94
248.433	171.94
248.666	158.94
248.899	186.94
249.133	187.94
249.366	204.94
249.599	189.94
249.832	196.94
250.066	182.94
250.299	172.94
250.532	198.94
250.765	204.94
250.998	219.94
251.231	234.94
251.465	227.94
251.698	200.94
251.931	204.94
252.164	185.94
252.397	211.94
252.63	191.94
252.863	213.94
253.096	228.94
253.329	216.94
253.562	226.94
253.795	214.94
254.028	225.94
254.261	215.94
254.494	232.94
254.727	245.94
254.96	270.94
255.193	258.94
255.426	242.94
255.659	245.94
255.892	248.94
256.124	244.94
256.357	235.94
256.59	219.94
256.823	211.94
257.056	205.94
257.289	221.94
257.521	232.94
257.754	219.94
257.987	206.94
258.22	212.94
258.452	246.94
258.685	220.94
258.918	226.94
259.151	221.94
259.383	226.94
259.616	231.94
259.849	226.94
260.081	218.94
260.314	258.94
260.547	249.94
260.779	230.94
261.012	253.94
261.244	238.94
261.477	242.94
261.71	246.94
261.942	234.94
262.175	246.94
262.407	231.94
262.64	216.94
262.872	236.94
263.105	232.94
263.337	246.94
263.57	219.94
263.802	226.94
264.035	238.94
264.267	227.94
264.499	213.94
264.732	215.94
264.964	237.94
265.197	226.94
265.429	228.94
265.661	235.94
265.894	227.94
266.126	242.94
266.358	239.94
266.591	231.94
266.823	235.94
267.055	239.94
267.287	239.94
267.52	219.94
267.752	244.94
267.984	264.94
268.216	254.94
268.448	255.94
268.681	249.94
268.913	266.94
269.145	281.94
269.377	288.94
269.609	295.94
269.841	285.94
270.073	291.94
270.306	313.94
270.538	309.94
270.77	330.94
271.002	330.94
271.234	314.94
271.466	301.94
271.698	325.94
271.93	316.94
272.162	323.94
272.394	325.94
272.626	313.94
272.858	305.94
273.09	287.94
273.322	289.94
273.553	285.94
273.785	288.94
274.017	299.94
274.249	294.94
274.481	296.94
274.713	301.94
274.945	290.94
275.176	296.94
275.408	284.94
275.64	281.94
275.872	271.94
276.104	276.94
276.335	297.94
276.567	278.94
276.799	285.94
277.031	302.94
277.262	333.94
277.494	322.94
277.726	334.94
277.957	303.94
278.189	296.94
278.421	296.94
278.652	294.94
278.884	290.94
279.115	294.94
279.347	290.94
279.579	291.94
279.81	281.94
280.042	281.94
280.273	309.94
280.505	301.94
280.736	292.94
280.968	286.94
281.199	281.94
281.431	289.94
281.662	307.94
281.894	292.94
282.125	300.94
282.356	327.94
282.588	323.94
282.819	306.94
283.051	315.94
283.282	296.94
283.513	312.94
283.745	307.94
283.976	296.94
284.207	310.94
284.439	302.94
284.67	301.94
284.901	308.94
285.132	291.94
285.364	310.94
285.595	299.94
285.826	314.94
286.057	319.94
286.288	324.94
286.52	292.94
286.751	298.94
286.982	325.94
287.213	314.94
287.444	325.94
287.675	319.94
287.906	332.94
288.138	341.94
288.369	331.94
288.6	330.94
288.831	355.94
289.062	330.94
289.293	342.94
289.524	326.94
289.755	329.94
289.986	311.94
290.217	311.94
290.448	339.94
290.679	328.94
290.91	322.94
291.141	322.94
291.371	349.94
291.602	322.94
291.833	334.94
292.064	321.94
292.295	324.94
292.526	341.94
292.757	326.94
292.987	324.94
293.218	328.94
293.449	326.94
293.68	343.94
293.91	317.94
294.141	313.94
294.372	316.94
294.603	331.94
294.833	339.94
295.064	325.94
295.295	338.94
295.525	351.94
295.756	320.94
295.987	331.94
296.217	352.94
296.448	359.94
296.679	346.94
296.909	334.94
297.14	335.94
297.37	342.94
297.601	326.94
297.831	347.94
298.062	351.94
298.292	337.94
298.523	370.94
298.753	355.94
298.984	352.94
299.214	333.94
299.445	342.94
299.675	354.94
299.905	343.94
300.136	350.94
300.366	345.94
300.597	348.94
300.827	369.94
301.057	361.94
301.288	367.94
301.518	373.94
301.748	363.94
301.979	372.94
302.209	356.94
302.439	370.94
302.669	348.94
302.9	365.94
303.13	357.94
303.36	373.94
303.59	360.94
303.82	370.94
304.051	374.94
304.281	378.94
304.511	382.94
304.741	350.94
304.971	367.94
305.201	357.94
305.431	354.94
305.661	373.94
305.891	370.94
306.121	355.94
306.352	370.94
306.582	351.94
306.812	377.94
307.042	354.94
307.272	361.94
307.502	374.94
307.731	370.94
307.961	383.94
308.191	374.94
308.421	376.94
308.651	374.94
308.881	365.94
309.111	386.94
309.341	384.94
309.571	388.94
309.8	381.94
310.03	378.94
310.26	372.94
310.49	382.94
310.72	395.94
310.949	406.94
311.179	418.94
311.409	398.94
311.639	410.94
311.868	413.94
312.098	397.94
312.328	409.94
312.557	419.94
312.787	405.94
313.017	424.94
313.246	414.94
313.476	392.94
313.706	392.94
313.935	403.94
314.165	420.94
314.394	420.94
314.624	424.94
314.853	399.94
315.083	400.94
315.312	408.94
315.542	407.94
315.771	401.94
316.001	391.94
316.23	421.94
316.46	415.94
316.689	398.94
316.919	395.94
317.148	397.94
317.377	418.94
317.607	405.94
317.836	400.94
318.065	416.94
318.295	400.94
318.524	409.94
318.753	392.94
318.983	412.94
319.212	404.94
319.441	398.94
319.67	415.94
319.9	392.94
320.129	408.94
320.358	415.94
320.587	414.94
320.816	424.94
321.046	414.94
321.275	426.94
321.504	411.94
321.733	430.94
321.962	399.94
322.191	426.94
322.42	436.94
322.649	452.94
322.878	451.94
323.108	455.94
323.337	475.94
323.566	467.94
323.795	515.94
324.024	513.94
324.253	596.94
324.482	761.94
324.71	1096.94
324.939	1516.94
325.168	1379.94
325.397	755.94
325.626	587.94
325.855	534.94
326.084	492.94
326.313	486.94
326.542	487.94
326.77	522.94
326.999	578.94
327.228	743.94
327.457	998.94
327.686	1207.94
327.914	850.94
328.143	612.94
328.372	529.94
328.6	552.94
328.829	524.94
329.058	546.94
329.287	552.94
329.515	520.94
329.744	516.94
329.972	526.94
330.201	521.94
330.43	545.94
330.658	551.94
330.887	572.94
331.115	562.94
331.344	510.94
331.572	508.94
331.801	488.94
332.03	510.94
332.258	503.94
332.486	514.94
332.715	496.94
332.943	487.94
333.172	503.94
333.4	511.94
333.629	550.94
333.857	531.94
334.085	536.94
334.314	546.94
334.542	546.94
334.771	559.94
334.999	546.94
335.227	500.94
335.455	509.94
335.684	514.94
335.912	504.94
336.14	487.94
336.369	486.94
336.597	483.94
336.825	493.94
337.053	500.94
337.281	480.94
337.51	484.94
337.738	482.94
337.966	499.94
338.194	491.94
338.422	476.94
338.65	470.94
338.878	490.94
339.106	474.94
339.334	459.94
339.562	460.94
339.79	476.94
340.018	453.94
340.246	442.94
340.474	467.94
340.702	438.94
340.93	452.94
341.158	447.94
341.386	439.94
341.614	474.94
341.842	463.94
342.07	448.94
342.298	429.94
342.526	461.94
342.754	459.94
342.981	442.94
343.209	470.94
343.437	453.94
343.665	474.94
343.893	490.94
344.12	527.94
344.348	485.94
344.576	482.94
344.804	468.94
345.031	478.94
345.259	491.94
345.487	461.94
345.714	467.94
345.942	461.94
346.17	454.94
346.397	428.94
346.625	436.94
346.853	449.94
347.08	450.94
347.308	455.94
347.535	438.94
347.763	441.94
347.99	455.94
348.218	457.94
348.445	454.94
348.673	440.94
348.9	457.94
349.128	452.94
349.355	431.94
349.583	429.94
349.81	423.94
350.037	441.94
350.265	426.94
350.492	417.94
350.72	415.94
350.947	427.94
351.174	443.94
351.402	442.94
351.629	438.94
351.856	443.94
352.083	442.94
352.311	425.94
352.538	446.94
352.765	460.94
352.992	434.94
353.22	414.94
353.447	429.94
353.674	432.94
353.901	436.94
354.128	418.94
354.355	419.94
354.583	410.94
354.81	422.94
355.037	426.94
355.264	420.94
355.491	408.94
355.718	414.94
355.945	416.94
356.172	429.94
356.399	423.94
356.626	418.94
356.853	426.94
357.08	415.94
357.307	411.94
357.534	415.94
357.761	392.94
357.988	422.94
358.215	420.94
358.441	424.94
358.668	421.94
358.895	414.94
359.122	427.94
359.349	423.94
359.576	424.94
359.802	450.94
360.029	450.94
360.256	452.94
360.483	438.94
360.709	460.94
360.936	454.94
361.163	422.94
361.39	437.94
361.616	443.94
361.843	430.94
362.07	429.94
362.296	435.94
362.523	416.94
362.749	438.94
362.976	430.94
363.203	424.94
363.429	427.94
363.656	415.94
363.882	429.94
364.109	438.94
364.335	410.94
364.562	419.94
364.788	416.94
365.015	429.94
365.241	428.94
365.468	425.94
365.694	435.94
365.92	434.94
366.147	415.94
366.373	429.94
366.599	429.94
366.826	427.94
367.052	401.94
367.278	389.94
367.505	414.94
367.731	431.94
367.957	422.94
368.184	419.94
368.41	425.94
368.636	428.94
368.862	435.94
369.089	432.94
369.315	414.94
369.541	418.94
369.767	436.94
369.993	430.94
370.219	453.94
370.445	440.94
370.672	433.94
370.898	438.94
371.124	424.94
371.35	427.94
371.576	428.94
371.802	444.94
372.028	426.94
372.254	434.94
372.48	420.94
372.706	422.94
372.932	435.94
373.158	440.94
373.384	433.94
373.61	426.94
373.835	445.94
374.061	422.94
374.287	448.94
374.513	454.94
374.739	451.94
374.965	447.94
375.191	463.94
375.416	440.94
375.642	441.94
375.868	453.94
376.094	443.94
376.319	421.94
376.545	418.94
376.771	420.94
376.997	419.94
377.222	423.94
377.448	448.94
377.674	420.94
377.899	430.94
378.125	428.94
378.35	438.94
378.576	427.94
378.802	424.94
379.027	416.94
379.253	428.94
379.478	432.94
379.704	417.94
379.929	431.94
380.155	445.94
380.38	425.94
380.606	431.94
380.831	438.94
381.057	432.94
381.282	431.94
381.507	439.94
381.733	446.94
381.958	441.94
382.184	422.94
382.409	438.94
382.634	419.94
382.86	455.94
383.085	429.94
383.31	445.94
383.535	447.94
383.761	467.94
383.986	467.94
384.211	462.94
384.436	462.94
384.662	484.94
384.887	479.94
385.112	468.94
385.337	476.94
385.562	476.94
385.787	473.94
386.013	501.94
386.238	488.94
386.463	512.94
386.688	471.94
386.913	479.94
387.138	471.94
387.363	484.94
387.588	512.94
387.813	481.94
388.038	477.94
388.263	499.94
388.488	474.94
388.713	504.94
388.938	512.94
389.163	517.94
389.387	494.94
389.612	484.94
389.837	504.94
390.062	472.94
390.287	472.94
390.512	472.94
390.736	482.94
390.961	496.94
391.186	505.94
391.411	508.94
391.636	500.94
391.86	518.94
392.085	534.94
392.31	516.94
392.534	514.94
392.759	500.94
392.984	515.94
393.208	487.94
393.433	528.94
393.658	495.94
393.882	492.94
394.107	505.94
394.331	520.94
394.556	504.94
394.78	518.94
395.005	490.94
395.229	504.94
395.454	542.94
395.678	532.94
395.903	525.94
396.127	557.94
396.352	532.94
396.576	501.94
396.801	537.94
397.025	494.94
397.249	501.94
397.474	520.94
397.698	529.94
397.922	544.94
398.147	552.94
398.371	541.94
398.595	571.94
398.82	563.94
399.044	595.94
399.268	610.94
399.492	676.94
399.717	721.94
399.941	741.94
400.165	726.94
400.389	715.94
400.613	653.94
400.837	604.94
401.062	611.94
401.286	560.94
401.51	599.94
401.734	552.94
401.958	559.94
402.182	554.94
402.406	590.94
402.63	635.94
402.854	590.94
403.078	611.94
403.302	623.94
403.526	602.94
403.75	595.94
403.974	616.94
404.198	630.94
404.422	606.94
404.645	615.94
404.869	635.94
405.093	635.94
405.317	685.94
405.541	686.94
405.765	656.94
405.988	636.94
406.212	636.94
406.436	649.94
406.66	646.94
406.883	646.94
407.107	654.94
407.331	699.94
407.555	768.94
407.778	782.94
408.002	707.94
408.226	686.94
408.449	668.94
408.673	611.94
408.896	699.94
409.12	680.94
409.344	672.94
409.567	611.94
409.791	621.94
410.014	619.94
410.238	620.94
410.461	601.94
410.685	611.94
410.908	608.94
411.132	638.94
411.355	676.94
411.578	648.94
411.802	613.94
412.025	592.94
412.249	589.94
412.472	613.94
412.695	664.94
412.919	650.94
413.142	600.94
413.365	564.94
413.589	579.94
413.812	562.94
414.035	560.94
414.258	574.94
414.482	555.94
414.705	580.94
414.928	591.94
415.151	555.94
415.374	575.94
415.597	579.94
415.821	559.94
416.044	577.94
416.267	546.94
416.49	553.94
416.713	577.94
416.936	546.94
417.159	552.94
417.382	565.94
417.605	570.94
417.828	580.94
418.051	605.94
418.274	568.94
418.497	571.94
418.72	562.94
418.943	587.94
419.166	619.94
419.389	639.94
419.611	618.94
419.834	599.94
420.057	590.94
420.28	602.94
420.503	587.94
420.726	588.94
420.948	584.94
421.171	637.94
421.394	660.94
421.617	569.94
421.839	573.94
422.062	601.94
422.285	621.94
422.507	634.94
422.73	675.94
422.953	686.94
423.175	632.94
423.398	596.94
423.621	619.94
423.843	618.94
424.066	629.94
424.288	602.94
424.511	636.94
424.733	642.94
424.956	739.94
425.178	715.94
425.401	718.94
425.623	745.94
425.846	671.94
426.068	602.94
426.291	598.94
426.513	590.94
426.735	589.94
426.958	635.94
427.18	700.94
427.402	820.94
427.625	888.94
427.847	738.94
428.069	677.94
428.292	619.94
428.514	596.94
428.736	568.94
428.958	546.94
429.181	554.94
429.403	544.94
429.625	562.94
429.847	578.94
430.069	642.94
430.292	635.94
430.514	558.94
430.736	546.94
430.958	542.94
431.18	510.94
431.402	532.94
431.624	512.94
431.846	507.94
432.068	542.94
432.29	531.94
432.512	545.94
432.734	557.94
432.956	541.94
433.178	531.94
433.4	535.94
433.622	529.94
433.844	540.94
434.066	522.94
434.287	544.94
434.509	571.94
434.731	568.94
434.953	587.94
435.175	577.94
435.397	611.94
435.618	582.94
435.84	633.94
436.062	681.94
436.284	754.94
436.505	640.94
436.727	601.94
436.949	558.94
437.17	550.94
437.392	554.94
437.614	556.94
437.835	562.94
438.057	643.94
438.278	723.94
438.5	733.94
438.721	803.94
438.943	758.94
439.165	640.94
439.386	598.94
439.608	593.94
439.829	590.94
440.05	609.94
440.272	632.94
440.493	604.94
440.715	588.94
440.936	573.94
441.158	559.94
441.379	557.94
441.6	579.94
441.822	603.94
442.043	643.94
442.264	708.94
442.486	746.94
442.707	674.94
442.928	596.94
443.149	615.94
443.371	648.94
443.592	665.94
443.813	748.94
444.034	825.94
444.255	708.94
444.476	642.94
444.698	634.94
444.919	656.94
445.14	757.94
445.361	712.94
445.582	648.94
445.803	650.94
446.024	756.94
446.245	783.94
446.466	685.94
446.687	616.94
446.908	604.94
447.129	565.94
447.35	538.94
447.571	564.94
447.792	528.94
448.013	540.94
448.234	546.94
448.455	583.94
448.675	690.94
448.896	762.94
449.117	660.94
449.338	646.94
449.559	733.94
449.779	832.94
450	686.94
450.221	591.94
450.442	534.94
450.662	526.94
450.883	530.94
451.104	534.94
451.324	525.94
451.545	520.94
451.766	514.94
451.986	489.94
452.207	489.94
452.428	480.94
452.648	478.94
452.869	485.94
453.089	470.94
453.31	488.94
453.53	505.94
453.751	483.94
453.971	481.94
454.192	515.94
454.412	489.94
454.633	498.94
454.853	465.94
455.073	478.94
455.294	497.94
455.514	552.94
455.734	547.94
455.955	470.94
456.175	470.94
456.395	459.94
456.616	440.94
456.836	463.94
457.056	464.94
457.276	452.94
457.497	454.94
457.717	479.94
457.937	492.94
458.157	485.94
458.377	482.94
458.598	499.94
458.818	526.94
459.038	588.94
459.258	615.94
459.478	560.94
459.698	534.94
459.918	510.94
460.138	521.94
460.358	551.94
460.578	582.94
460.798	556.94
461.018	571.94
461.238	563.94
461.458	542.94
461.678	566.94
461.898	575.94
462.118	559.94
462.338	601.94
462.558	564.94
462.777	608.94
462.997	622.94
463.217	674.94
463.437	664.94
463.657	657.94
463.876	632.94
464.096	631.94
464.316	596.94
464.536	612.94
464.755	599.94
464.975	620.94
465.195	617.94
465.414	636.94
465.634	576.94
465.854	550.94
466.073	550.94
466.293	508.94
466.512	518.94
466.732	524.94
466.951	524.94
467.171	503.94
467.391	512.94
467.61	521.94
467.829	518.94
468.049	498.94
468.268	513.94
468.488	500.94
468.707	494.94
468.927	488.94
469.146	496.94
469.365	511.94
469.585	493.94
469.804	512.94
470.023	517.94
470.243	512.94
470.462	541.94
470.681	544.94
470.901	501.94
471.12	514.94
471.339	526.94
471.558	517.94
471.777	519.94
471.997	487.94
472.216	510.94
472.435	533.94
472.654	505.94
472.873	512.94
473.092	502.94
473.311	511.94
473.53	502.94
473.749	502.94
473.968	536.94
474.187	638.94
474.406	662.94
474.625	551.94
474.844	518.94
475.063	521.94
475.282	499.94
475.501	520.94
475.72	530.94
475.939	526.94
476.158	503.94
476.377	491.94
476.596	518.94
476.814	527.94
477.033	523.94
477.252	555.94
477.471	540.94
477.69	554.94
477.908	555.94
478.127	595.94
478.346	565.94
478.564	586.94
478.783	572.94
479.002	579.94
479.22	584.94
479.439	584.94
479.658	590.94
479.876	616.94
480.095	631.94
480.313	641.94
480.532	649.94
480.751	617.94
480.969	622.94
481.188	636.94
481.406	682.94
481.624	614.94
481.843	615.94
482.061	596.94
482.28	578.94
482.498	581.94
482.717	564.94
482.935	584.94
483.153	589.94
483.372	591.94
483.59	573.94
483.808	585.94
484.027	581.94
484.245	598.94
484.463	595.94
484.681	593.94
484.9	587.94
485.118	582.94
485.336	582.94
485.554	585.94
485.772	593.94
485.99	587.94
486.209	619.94
486.427	632.94
486.645	626.94
486.863	645.94
487.081	642.94
487.299	631.94
487.517	624.94
487.735	633.94
487.953	620.94
488.171	611.94
488.389	621.94
488.607	633.94
488.825	638.94
489.043	628.94
489.261	633.94
489.479	633.94
489.696	660.94
489.914	632.94
490.132	652.94
490.35	649.94
490.568	679.94
490.786	676.94
491.003	656.94
491.221	676.94
491.439	684.94
491.657	689.94
491.874	714.94
492.092	708.94
492.31	712.94
492.527	744.94
492.745	718.94
492.963	713.94
493.18	716.94
493.398	726.94
493.615	730.94
493.833	717.94
494.05	742.94
494.268	717.94
494.485	732.94
494.703	728.94
494.92	723.94
495.138	732.94
495.355	738.94
495.573	754.94
495.79	712.94
496.008	751.94
496.225	747.94
496.442	746.94
496.66	746.94
496.877	762.94
497.094	738.94
497.312	738.94
497.529	769.94
497.746	815.94
497.963	780.94
498.181	829.94
498.398	810.94
498.615	838.94
498.832	902.94
499.049	926.94
499.267	946.94
499.484	1003.94
499.701	1029.94
499.918	1106.94
500.135	1173.94
500.352	1245.94
500.569	1315.94
500.786	1325.94
501.003	1274.94
501.22	1210.94
501.437	1156.94
501.654	1050.94
