Data from 1973.PennyLincolnUp.Lamp.En5.5.200Scan.071719.P1.Changed Mount._HRD10591_15-45-39-853.txt Node
Date: Thu Jul 18 15:45:39 EDT 2019
User: cochatt
Spectrometer: HR+D1059
Trigger mode: 1
Integration Time (sec): 1.000000E-1
Scans to average: 1
Electric dark correction enabled: true
Nonlinearity correction enabled: false
Boxcar width: 0
XAxis mode: Wavelengths
Number of Pixels in Spectrum: 2048
>>>>>Begin Spectral Data<<<<<
223.165	-23.94
223.4	-23.94
223.635	-23.94
223.869	-27.94
224.104	-14.94
224.338	-10.94
224.573	-11.94
224.808	-10.94
225.042	6.06
225.277	-2.94
225.511	-11.94
225.746	-1.94
225.98	4.06
226.215	15.06
226.449	9.06
226.683	26.06
226.918	27.06
227.152	30.06
227.387	42.06
227.621	43.06
227.856	50.06
228.09	32.06
228.324	37.06
228.559	56.06
228.793	63.06
229.027	118.06
229.262	105.06
229.496	112.06
229.73	128.06
229.964	152.06
230.199	141.06
230.433	124.06
230.667	92.06
230.901	113.06
231.136	117.06
231.37	120.06
231.604	125.06
231.838	107.06
232.072	118.06
232.306	102.06
232.541	91.06
232.775	116.06
233.009	115.06
233.243	121.06
233.477	113.06
233.711	123.06
233.945	116.06
234.179	122.06
234.413	119.06
234.647	133.06
234.881	122.06
235.115	106.06
235.349	125.06
235.583	128.06
235.817	122.06
236.051	139.06
236.285	121.06
236.519	131.06
236.753	140.06
236.987	144.06
237.221	172.06
237.455	216.06
237.689	166.06
237.922	132.06
238.156	127.06
238.39	141.06
238.624	127.06
238.858	145.06
239.091	117.06
239.325	128.06
239.559	121.06
239.793	150.06
240.027	135.06
240.26	139.06
240.494	162.06
240.728	148.06
240.961	142.06
241.195	150.06
241.429	153.06
241.662	148.06
241.896	149.06
242.13	143.06
242.363	146.06
242.597	152.06
242.83	137.06
243.064	149.06
243.298	147.06
243.531	152.06
243.765	161.06
243.998	155.06
244.232	160.06
244.465	146.06
244.699	143.06
244.932	159.06
245.166	146.06
245.399	141.06
245.633	152.06
245.866	154.06
246.099	149.06
246.333	152.06
246.566	158.06
246.8	157.06
247.033	184.06
247.266	165.06
247.5	157.06
247.733	153.06
247.966	181.06
248.2	181.06
248.433	164.06
248.666	176.06
248.899	184.06
249.133	186.06
249.366	216.06
249.599	197.06
249.832	181.06
250.066	198.06
250.299	198.06
250.532	197.06
250.765	207.06
250.998	222.06
251.231	212.06
251.465	210.06
251.698	208.06
251.931	194.06
252.164	199.06
252.397	194.06
252.63	182.06
252.863	196.06
253.096	215.06
253.329	214.06
253.562	241.06
253.795	222.06
254.028	214.06
254.261	216.06
254.494	225.06
254.727	239.06
254.96	278.06
255.193	271.06
255.426	254.06
255.659	223.06
255.892	226.06
256.124	233.06
256.357	254.06
256.59	234.06
256.823	204.06
257.056	204.06
257.289	220.06
257.521	240.06
257.754	223.06
257.987	210.06
258.22	223.06
258.452	202.06
258.685	225.06
258.918	221.06
259.151	215.06
259.383	225.06
259.616	231.06
259.849	218.06
260.081	252.06
260.314	248.06
260.547	267.06
260.779	244.06
261.012	240.06
261.244	233.06
261.477	243.06
261.71	230.06
261.942	231.06
262.175	231.06
262.407	237.06
262.64	228.06
262.872	239.06
263.105	242.06
263.337	226.06
263.57	226.06
263.802	218.06
264.035	218.06
264.267	229.06
264.499	232.06
264.732	238.06
264.964	254.06
265.197	244.06
265.429	227.06
265.661	222.06
265.894	244.06
266.126	238.06
266.358	222.06
266.591	225.06
266.823	232.06
267.055	232.06
267.287	238.06
267.52	237.06
267.752	245.06
267.984	251.06
268.216	265.06
268.448	265.06
268.681	259.06
268.913	264.06
269.145	260.06
269.377	282.06
269.609	311.06
269.841	257.06
270.073	267.06
270.306	305.06
270.538	324.06
270.77	333.06
271.002	298.06
271.234	316.06
271.466	299.06
271.698	322.06
271.93	322.06
272.162	320.06
272.394	306.06
272.626	307.06
272.858	303.06
273.09	295.06
273.322	292.06
273.553	300.06
273.785	289.06
274.017	287.06
274.249	299.06
274.481	283.06
274.713	284.06
274.945	293.06
275.176	284.06
275.408	282.06
275.64	285.06
275.872	269.06
276.104	286.06
276.335	288.06
276.567	295.06
276.799	305.06
277.031	313.06
277.262	325.06
277.494	311.06
277.726	316.06
277.957	307.06
278.189	304.06
278.421	299.06
278.652	303.06
278.884	296.06
279.115	280.06
279.347	285.06
279.579	281.06
279.81	278.06
280.042	313.06
280.273	300.06
280.505	287.06
280.736	302.06
280.968	293.06
281.199	294.06
281.431	295.06
281.662	294.06
281.894	298.06
282.125	293.06
282.356	297.06
282.588	326.06
282.819	336.06
283.051	297.06
283.282	289.06
283.513	318.06
283.745	309.06
283.976	327.06
284.207	294.06
284.439	313.06
284.67	329.06
284.901	319.06
285.132	314.06
285.364	332.06
285.595	304.06
285.826	308.06
286.057	297.06
286.288	284.06
286.52	308.06
286.751	314.06
286.982	338.06
287.213	304.06
287.444	317.06
287.675	333.06
287.906	326.06
288.138	331.06
288.369	325.06
288.6	312.06
288.831	344.06
289.062	322.06
289.293	339.06
289.524	314.06
289.755	315.06
289.986	329.06
290.217	343.06
290.448	331.06
290.679	301.06
290.91	339.06
291.141	319.06
291.371	330.06
291.602	330.06
291.833	324.06
292.064	329.06
292.295	329.06
292.526	326.06
292.757	332.06
292.987	335.06
293.218	322.06
293.449	332.06
293.68	316.06
293.91	316.06
294.141	329.06
294.372	341.06
294.603	325.06
294.833	343.06
295.064	324.06
295.295	324.06
295.525	319.06
295.756	324.06
295.987	334.06
296.217	350.06
296.448	365.06
296.679	327.06
296.909	334.06
297.14	329.06
297.37	332.06
297.601	334.06
297.831	334.06
298.062	336.06
298.292	330.06
298.523	338.06
298.753	348.06
298.984	351.06
299.214	335.06
299.445	337.06
299.675	339.06
299.905	334.06
300.136	353.06
300.366	342.06
300.597	350.06
300.827	364.06
301.057	368.06
301.288	349.06
301.518	344.06
301.748	363.06
301.979	369.06
302.209	367.06
302.439	365.06
302.669	354.06
302.9	354.06
303.13	353.06
303.36	364.06
303.59	370.06
303.82	386.06
304.051	394.06
304.281	381.06
304.511	365.06
304.741	375.06
304.971	390.06
305.201	373.06
305.431	363.06
305.661	367.06
305.891	355.06
306.121	366.06
306.352	376.06
306.582	363.06
306.812	360.06
307.042	359.06
307.272	358.06
307.502	374.06
307.731	374.06
307.961	373.06
308.191	371.06
308.421	366.06
308.651	400.06
308.881	379.06
309.111	378.06
309.341	380.06
309.571	380.06
309.8	371.06
310.03	383.06
310.26	397.06
310.49	392.06
310.72	390.06
310.949	406.06
311.179	409.06
311.409	401.06
311.639	392.06
311.868	396.06
312.098	385.06
312.328	412.06
312.557	410.06
312.787	419.06
313.017	427.06
313.246	409.06
313.476	398.06
313.706	388.06
313.935	412.06
314.165	418.06
314.394	443.06
314.624	426.06
314.853	396.06
315.083	398.06
315.312	416.06
315.542	407.06
315.771	412.06
316.001	392.06
316.23	404.06
316.46	405.06
316.689	404.06
316.919	414.06
317.148	399.06
317.377	418.06
317.607	425.06
317.836	403.06
318.065	400.06
318.295	398.06
318.524	407.06
318.753	388.06
318.983	394.06
319.212	416.06
319.441	417.06
319.67	429.06
319.9	420.06
320.129	391.06
320.358	414.06
320.587	420.06
320.816	415.06
321.046	418.06
321.275	432.06
321.504	428.06
321.733	409.06
321.962	424.06
322.191	429.06
322.42	427.06
322.649	446.06
322.878	444.06
323.108	460.06
323.337	468.06
323.566	492.06
323.795	505.06
324.024	512.06
324.253	588.06
324.482	782.06
324.71	1109.06
324.939	1524.06
325.168	1386.06
325.397	782.06
325.626	574.06
325.855	502.06
326.084	500.06
326.313	471.06
326.542	478.06
326.77	514.06
326.999	551.06
327.228	709.06
327.457	1014.06
327.686	1206.06
327.914	856.06
328.143	644.06
328.372	566.06
328.6	541.06
328.829	537.06
329.058	523.06
329.287	526.06
329.515	515.06
329.744	506.06
329.972	504.06
330.201	518.06
330.43	553.06
330.658	546.06
330.887	560.06
331.115	570.06
331.344	503.06
331.572	495.06
331.801	501.06
332.03	492.06
332.258	502.06
332.486	500.06
332.715	482.06
332.943	514.06
333.172	507.06
333.4	522.06
333.629	525.06
333.857	543.06
334.085	548.06
334.314	558.06
334.542	541.06
334.771	577.06
334.999	539.06
335.227	501.06
335.455	506.06
335.684	505.06
335.912	492.06
336.14	508.06
336.369	480.06
336.597	494.06
336.825	491.06
337.053	473.06
337.281	493.06
337.51	496.06
337.738	488.06
337.966	478.06
338.194	498.06
338.422	471.06
338.65	456.06
338.878	473.06
339.106	465.06
339.334	484.06
339.562	474.06
339.79	450.06
340.018	465.06
340.246	475.06
340.474	462.06
340.702	446.06
340.93	442.06
341.158	453.06
341.386	465.06
341.614	461.06
341.842	444.06
342.07	463.06
342.298	454.06
342.526	434.06
342.754	450.06
342.981	459.06
343.209	427.06
343.437	447.06
343.665	463.06
343.893	486.06
344.12	536.06
344.348	504.06
344.576	488.06
344.804	476.06
345.031	477.06
345.259	473.06
345.487	461.06
345.714	471.06
345.942	460.06
346.17	430.06
346.397	441.06
346.625	442.06
346.853	445.06
347.08	419.06
347.308	436.06
347.535	454.06
347.763	464.06
347.99	452.06
348.218	448.06
348.445	450.06
348.673	447.06
348.9	449.06
349.128	429.06
349.355	445.06
349.583	424.06
349.81	432.06
350.037	424.06
350.265	442.06
350.492	444.06
350.72	412.06
350.947	418.06
351.174	425.06
351.402	449.06
351.629	436.06
351.856	446.06
352.083	456.06
352.311	451.06
352.538	431.06
352.765	440.06
352.992	420.06
353.22	429.06
353.447	422.06
353.674	433.06
353.901	421.06
354.128	404.06
354.355	416.06
354.583	421.06
354.81	414.06
355.037	419.06
355.264	417.06
355.491	436.06
355.718	437.06
355.945	412.06
356.172	418.06
356.399	412.06
356.626	424.06
356.853	414.06
357.08	381.06
357.307	403.06
357.534	416.06
357.761	430.06
357.988	427.06
358.215	448.06
358.441	404.06
358.668	418.06
358.895	429.06
359.122	428.06
359.349	428.06
359.576	430.06
359.802	444.06
360.029	470.06
360.256	465.06
360.483	474.06
360.709	444.06
360.936	446.06
361.163	440.06
361.39	445.06
361.616	436.06
361.843	412.06
362.07	436.06
362.296	446.06
362.523	431.06
362.749	428.06
362.976	422.06
363.203	431.06
363.429	412.06
363.656	414.06
363.882	416.06
364.109	414.06
364.335	424.06
364.562	424.06
364.788	426.06
365.015	418.06
365.241	416.06
365.468	438.06
365.694	424.06
365.92	426.06
366.147	413.06
366.373	420.06
366.599	409.06
366.826	426.06
367.052	421.06
367.278	412.06
367.505	430.06
367.731	422.06
367.957	414.06
368.184	412.06
368.41	425.06
368.636	456.06
368.862	430.06
369.089	429.06
369.315	431.06
369.541	442.06
369.767	422.06
369.993	429.06
370.219	433.06
370.445	440.06
370.672	416.06
370.898	436.06
371.124	425.06
371.35	447.06
371.576	420.06
371.802	434.06
372.028	444.06
372.254	445.06
372.48	421.06
372.706	446.06
372.932	430.06
373.158	426.06
373.384	434.06
373.61	430.06
373.835	450.06
374.061	435.06
374.287	446.06
374.513	444.06
374.739	431.06
374.965	432.06
375.191	438.06
375.416	440.06
375.642	450.06
375.868	432.06
376.094	431.06
376.319	440.06
376.545	420.06
376.771	429.06
376.997	429.06
377.222	437.06
377.448	412.06
377.674	421.06
377.899	446.06
378.125	432.06
378.35	412.06
378.576	433.06
378.802	434.06
379.027	431.06
379.253	442.06
379.478	428.06
379.704	436.06
379.929	425.06
380.155	428.06
380.38	420.06
380.606	410.06
380.831	439.06
381.057	440.06
381.282	419.06
381.507	410.06
381.733	443.06
381.958	439.06
382.184	433.06
382.409	449.06
382.634	425.06
382.86	442.06
383.085	463.06
383.31	438.06
383.535	451.06
383.761	465.06
383.986	464.06
384.211	477.06
384.436	464.06
384.662	479.06
384.887	463.06
385.112	465.06
385.337	449.06
385.562	462.06
385.787	477.06
386.013	483.06
386.238	479.06
386.463	490.06
386.688	490.06
386.913	473.06
387.138	475.06
387.363	491.06
387.588	484.06
387.813	465.06
388.038	490.06
388.263	502.06
388.488	466.06
388.713	483.06
388.938	482.06
389.163	479.06
389.387	496.06
389.612	481.06
389.837	457.06
390.062	478.06
390.287	461.06
390.512	468.06
390.736	472.06
390.961	481.06
391.186	477.06
391.411	494.06
391.636	505.06
391.86	519.06
392.085	523.06
392.31	505.06
392.534	487.06
392.759	487.06
392.984	505.06
393.208	482.06
393.433	492.06
393.658	490.06
393.882	491.06
394.107	490.06
394.331	508.06
394.556	500.06
394.78	500.06
395.005	510.06
395.229	501.06
395.454	500.06
395.678	513.06
395.903	528.06
396.127	530.06
396.352	537.06
396.576	496.06
396.801	495.06
397.025	492.06
397.249	525.06
397.474	518.06
397.698	545.06
397.922	534.06
398.147	576.06
398.371	545.06
398.595	570.06
398.82	570.06
399.044	587.06
399.268	597.06
399.492	653.06
399.717	720.06
399.941	753.06
400.165	728.06
400.389	746.06
400.613	649.06
400.837	606.06
401.062	582.06
401.286	598.06
401.51	592.06
401.734	573.06
401.958	576.06
402.182	597.06
402.406	577.06
402.63	597.06
402.854	605.06
403.078	572.06
403.302	586.06
403.526	613.06
403.75	605.06
403.974	605.06
404.198	601.06
404.422	606.06
404.645	633.06
404.869	604.06
405.093	622.06
405.317	682.06
405.541	710.06
405.765	640.06
405.988	609.06
406.212	629.06
406.436	632.06
406.66	621.06
406.883	628.06
407.107	654.06
407.331	721.06
407.555	774.06
407.778	784.06
408.002	717.06
408.226	674.06
408.449	646.06
408.673	649.06
408.896	674.06
409.12	680.06
409.344	679.06
409.567	601.06
409.791	598.06
410.014	594.06
410.238	582.06
410.461	599.06
410.685	597.06
410.908	606.06
411.132	639.06
411.355	672.06
411.578	650.06
411.802	614.06
412.025	608.06
412.249	594.06
412.472	599.06
412.695	650.06
412.919	623.06
413.142	586.06
413.365	580.06
413.589	577.06
413.812	567.06
414.035	543.06
414.258	550.06
414.482	571.06
414.705	569.06
414.928	574.06
415.151	561.06
415.374	565.06
415.597	547.06
415.821	553.06
416.044	560.06
416.267	546.06
416.49	568.06
416.713	551.06
416.936	556.06
417.159	555.06
417.382	554.06
417.605	563.06
417.828	536.06
418.051	589.06
418.274	585.06
418.497	555.06
418.72	564.06
418.943	562.06
419.166	605.06
419.389	626.06
419.611	604.06
419.834	614.06
420.057	600.06
420.28	609.06
420.503	562.06
420.726	571.06
420.948	618.06
421.171	609.06
421.394	641.06
421.617	605.06
421.839	584.06
422.062	572.06
422.285	625.06
422.507	639.06
422.73	697.06
422.953	672.06
423.175	622.06
423.398	610.06
423.621	593.06
423.843	605.06
424.066	629.06
424.288	631.06
424.511	644.06
424.733	678.06
424.956	729.06
425.178	701.06
425.401	693.06
425.623	705.06
425.846	640.06
426.068	594.06
426.291	606.06
426.513	591.06
426.735	622.06
426.958	636.06
427.18	675.06
427.402	784.06
427.625	854.06
427.847	751.06
428.069	652.06
428.292	598.06
428.514	576.06
428.736	561.06
428.958	552.06
429.181	549.06
429.403	531.06
429.625	559.06
429.847	579.06
430.069	650.06
430.292	620.06
430.514	542.06
430.736	526.06
430.958	542.06
431.18	542.06
431.402	542.06
431.624	520.06
431.846	525.06
432.068	531.06
432.29	540.06
432.512	535.06
432.734	552.06
432.956	526.06
433.178	548.06
433.4	549.06
433.622	542.06
433.844	545.06
434.066	520.06
434.287	527.06
434.509	534.06
434.731	576.06
434.953	581.06
435.175	595.06
435.397	588.06
435.618	599.06
435.84	632.06
436.062	692.06
436.284	753.06
436.505	639.06
436.727	565.06
436.949	564.06
437.17	570.06
437.392	546.06
437.614	545.06
437.835	570.06
438.057	645.06
438.278	736.06
438.5	732.06
438.721	802.06
438.943	761.06
439.165	600.06
439.386	577.06
439.608	590.06
439.829	590.06
440.05	602.06
440.272	652.06
440.493	624.06
440.715	590.06
440.936	565.06
441.158	560.06
441.379	552.06
441.6	578.06
441.822	604.06
442.043	631.06
442.264	720.06
442.486	736.06
442.707	662.06
442.928	603.06
443.149	616.06
443.371	631.06
443.592	677.06
443.813	742.06
444.034	822.06
444.255	704.06
444.476	638.06
444.698	628.06
444.919	632.06
445.14	743.06
445.361	674.06
445.582	648.06
445.803	668.06
446.024	759.06
446.245	753.06
446.466	700.06
446.687	632.06
446.908	588.06
447.129	572.06
447.35	553.06
447.571	531.06
447.792	522.06
448.013	541.06
448.234	542.06
448.455	580.06
448.675	674.06
448.896	786.06
449.117	674.06
449.338	644.06
449.559	715.06
449.779	829.06
450	662.06
450.221	558.06
450.442	524.06
450.662	534.06
450.883	540.06
451.104	565.06
451.324	512.06
451.545	511.06
451.766	491.06
451.986	479.06
452.207	496.06
452.428	466.06
452.648	477.06
452.869	489.06
453.089	497.06
453.31	485.06
453.53	481.06
453.751	496.06
453.971	488.06
454.192	474.06
454.412	476.06
454.633	485.06
454.853	479.06
455.073	460.06
455.294	488.06
455.514	544.06
455.734	528.06
455.955	497.06
456.175	470.06
456.395	456.06
456.616	451.06
456.836	461.06
457.056	456.06
457.276	454.06
457.497	448.06
457.717	466.06
457.937	476.06
458.157	446.06
458.377	459.06
458.598	480.06
458.818	524.06
459.038	582.06
459.258	609.06
459.478	580.06
459.698	554.06
459.918	528.06
460.138	535.06
460.358	587.06
460.578	553.06
460.798	569.06
461.018	554.06
461.238	545.06
461.458	568.06
461.678	562.06
461.898	569.06
462.118	557.06
462.338	582.06
462.558	598.06
462.777	600.06
462.997	644.06
463.217	656.06
463.437	670.06
463.657	611.06
463.876	627.06
464.096	630.06
464.316	581.06
464.536	630.06
464.755	609.06
464.975	604.06
465.195	592.06
465.414	620.06
465.634	596.06
465.854	541.06
466.073	518.06
466.293	512.06
466.512	528.06
466.732	489.06
466.951	511.06
467.171	520.06
467.391	493.06
467.61	511.06
467.829	492.06
468.049	524.06
468.268	510.06
468.488	480.06
468.707	475.06
468.927	497.06
469.146	500.06
469.365	507.06
469.585	481.06
469.804	510.06
470.023	521.06
470.243	502.06
470.462	524.06
470.681	526.06
470.901	530.06
471.12	516.06
471.339	528.06
471.558	537.06
471.777	530.06
471.997	508.06
472.216	491.06
472.435	526.06
472.654	506.06
472.873	492.06
473.092	521.06
473.311	514.06
473.53	514.06
473.749	501.06
473.968	548.06
474.187	606.06
474.406	626.06
474.625	541.06
474.844	520.06
475.063	481.06
475.282	492.06
475.501	515.06
475.72	518.06
475.939	510.06
476.158	512.06
476.377	519.06
476.596	523.06
476.814	512.06
477.033	526.06
477.252	537.06
477.471	552.06
477.69	530.06
477.908	553.06
478.127	564.06
478.346	568.06
478.564	573.06
478.783	585.06
479.002	578.06
479.22	580.06
479.439	615.06
479.658	594.06
479.876	592.06
480.095	630.06
480.313	641.06
480.532	632.06
480.751	656.06
480.969	629.06
481.188	664.06
481.406	646.06
481.624	633.06
481.843	596.06
482.061	607.06
482.28	589.06
482.498	576.06
482.717	551.06
482.935	580.06
483.153	596.06
483.372	591.06
483.59	593.06
483.808	606.06
484.027	602.06
484.245	577.06
484.463	578.06
484.681	592.06
484.9	598.06
485.118	586.06
485.336	606.06
485.554	601.06
485.772	608.06
485.99	594.06
486.209	616.06
486.427	634.06
486.645	608.06
486.863	629.06
487.081	607.06
487.299	612.06
487.517	608.06
487.735	600.06
487.953	616.06
488.171	612.06
488.389	632.06
488.607	625.06
488.825	646.06
489.043	605.06
489.261	645.06
489.479	648.06
489.696	633.06
489.914	634.06
490.132	652.06
490.35	648.06
490.568	647.06
490.786	661.06
491.003	644.06
491.221	694.06
491.439	684.06
491.657	693.06
491.874	702.06
492.092	702.06
492.31	717.06
492.527	699.06
492.745	716.06
492.963	718.06
493.18	710.06
493.398	689.06
493.615	723.06
493.833	726.06
494.05	734.06
494.268	744.06
494.485	743.06
494.703	729.06
494.92	743.06
495.138	733.06
495.355	746.06
495.573	713.06
495.79	720.06
496.008	728.06
496.225	729.06
496.442	722.06
496.66	741.06
496.877	744.06
497.094	771.06
497.312	756.06
497.529	771.06
497.746	776.06
497.963	783.06
498.181	794.06
498.398	828.06
498.615	860.06
498.832	895.06
499.049	900.06
499.267	937.06
499.484	975.06
499.701	1043.06
499.918	1110.06
500.135	1153.06
500.352	1268.06
500.569	1273.06
500.786	1326.06
501.003	1263.06
501.22	1146.06
501.437	1115.06
501.654	1079.06
