Data from 1973.PennyLincolnUp.Lamp.En5.5.200Scan.071719.P1.Changed Mount._HRD10591_15-45-50-853.txt Node
Date: Thu Jul 18 15:45:50 EDT 2019
User: cochatt
Spectrometer: HR+D1059
Trigger mode: 1
Integration Time (sec): 1.000000E-1
Scans to average: 1
Electric dark correction enabled: true
Nonlinearity correction enabled: false
Boxcar width: 0
XAxis mode: Wavelengths
Number of Pixels in Spectrum: 2048
>>>>>Begin Spectral Data<<<<<
223.165	-18.25
223.4	-18.25
223.635	-18.25
223.869	-17.25
224.104	-16.25
224.338	-11.25
224.573	-7.25
224.808	-12.25
225.042	-9.25
225.277	-4.25
225.511	-13.25
225.746	6.75
225.98	5.75
226.215	7.75
226.449	17.75
226.683	18.75
226.918	15.75
227.152	36.75
227.387	56.75
227.621	46.75
227.856	40.75
228.09	44.75
228.324	44.75
228.559	57.75
228.793	58.75
229.027	89.75
229.262	90.75
229.496	99.75
229.73	119.75
229.964	150.75
230.199	122.75
230.433	98.75
230.667	114.75
230.901	118.75
231.136	113.75
231.37	107.75
231.604	112.75
231.838	97.75
232.072	116.75
232.306	117.75
232.541	121.75
232.775	126.75
233.009	116.75
233.243	101.75
233.477	111.75
233.711	122.75
233.945	130.75
234.179	118.75
234.413	108.75
234.647	106.75
234.881	110.75
235.115	109.75
235.349	119.75
235.583	123.75
235.817	125.75
236.051	124.75
236.285	121.75
236.519	121.75
236.753	127.75
236.987	152.75
237.221	174.75
237.455	212.75
237.689	175.75
237.922	151.75
238.156	114.75
238.39	122.75
238.624	121.75
238.858	129.75
239.091	116.75
239.325	134.75
239.559	119.75
239.793	129.75
240.027	124.75
240.26	139.75
240.494	138.75
240.728	158.75
240.961	148.75
241.195	142.75
241.429	141.75
241.662	143.75
241.896	138.75
242.13	123.75
242.363	120.75
242.597	136.75
242.83	131.75
243.064	126.75
243.298	122.75
243.531	141.75
243.765	153.75
243.998	136.75
244.232	156.75
244.465	139.75
244.699	146.75
244.932	137.75
245.166	130.75
245.399	138.75
245.633	156.75
245.866	145.75
246.099	146.75
246.333	162.75
246.566	145.75
246.8	152.75
247.033	164.75
247.266	156.75
247.5	170.75
247.733	173.75
247.966	163.75
248.2	169.75
248.433	187.75
248.666	153.75
248.899	195.75
249.133	194.75
249.366	214.75
249.599	200.75
249.832	178.75
250.066	178.75
250.299	174.75
250.532	187.75
250.765	200.75
250.998	198.75
251.231	223.75
251.465	220.75
251.698	190.75
251.931	199.75
252.164	196.75
252.397	222.75
252.63	199.75
252.863	209.75
253.096	224.75
253.329	231.75
253.562	224.75
253.795	216.75
254.028	229.75
254.261	226.75
254.494	210.75
254.727	256.75
254.96	268.75
255.193	265.75
255.426	244.75
255.659	236.75
255.892	233.75
256.124	244.75
256.357	241.75
256.59	226.75
256.823	205.75
257.056	203.75
257.289	206.75
257.521	218.75
257.754	211.75
257.987	232.75
258.22	211.75
258.452	209.75
258.685	206.75
258.918	214.75
259.151	204.75
259.383	223.75
259.616	217.75
259.849	226.75
260.081	244.75
260.314	249.75
260.547	249.75
260.779	254.75
261.012	247.75
261.244	225.75
261.477	232.75
261.71	221.75
261.942	224.75
262.175	226.75
262.407	238.75
262.64	215.75
262.872	232.75
263.105	230.75
263.337	235.75
263.57	232.75
263.802	227.75
264.035	235.75
264.267	225.75
264.499	227.75
264.732	214.75
264.964	226.75
265.197	227.75
265.429	209.75
265.661	231.75
265.894	222.75
266.126	223.75
266.358	221.75
266.591	231.75
266.823	250.75
267.055	251.75
267.287	254.75
267.52	251.75
267.752	249.75
267.984	249.75
268.216	239.75
268.448	247.75
268.681	254.75
268.913	256.75
269.145	288.75
269.377	298.75
269.609	298.75
269.841	269.75
270.073	293.75
270.306	306.75
270.538	326.75
270.77	316.75
271.002	308.75
271.234	275.75
271.466	295.75
271.698	316.75
271.93	330.75
272.162	337.75
272.394	334.75
272.626	329.75
272.858	307.75
273.09	310.75
273.322	289.75
273.553	264.75
273.785	291.75
274.017	293.75
274.249	275.75
274.481	282.75
274.713	274.75
274.945	284.75
275.176	291.75
275.408	286.75
275.64	297.75
275.872	276.75
276.104	260.75
276.335	287.75
276.567	290.75
276.799	298.75
277.031	324.75
277.262	338.75
277.494	339.75
277.726	318.75
277.957	322.75
278.189	309.75
278.421	306.75
278.652	293.75
278.884	302.75
279.115	291.75
279.347	282.75
279.579	302.75
279.81	281.75
280.042	273.75
280.273	303.75
280.505	303.75
280.736	291.75
280.968	295.75
281.199	283.75
281.431	274.75
281.662	298.75
281.894	281.75
282.125	294.75
282.356	299.75
282.588	319.75
282.819	332.75
283.051	304.75
283.282	299.75
283.513	298.75
283.745	307.75
283.976	301.75
284.207	318.75
284.439	321.75
284.67	321.75
284.901	312.75
285.132	310.75
285.364	326.75
285.595	317.75
285.826	303.75
286.057	311.75
286.288	318.75
286.52	319.75
286.751	295.75
286.982	318.75
287.213	321.75
287.444	324.75
287.675	315.75
287.906	324.75
288.138	322.75
288.369	333.75
288.6	354.75
288.831	344.75
289.062	321.75
289.293	313.75
289.524	325.75
289.755	322.75
289.986	330.75
290.217	320.75
290.448	328.75
290.679	321.75
290.91	344.75
291.141	324.75
291.371	330.75
291.602	321.75
291.833	327.75
292.064	314.75
292.295	348.75
292.526	322.75
292.757	332.75
292.987	318.75
293.218	341.75
293.449	324.75
293.68	332.75
293.91	320.75
294.141	312.75
294.372	332.75
294.603	320.75
294.833	348.75
295.064	329.75
295.295	345.75
295.525	355.75
295.756	320.75
295.987	340.75
296.217	339.75
296.448	345.75
296.679	370.75
296.909	336.75
297.14	345.75
297.37	338.75
297.601	316.75
297.831	364.75
298.062	373.75
298.292	339.75
298.523	348.75
298.753	331.75
298.984	342.75
299.214	342.75
299.445	352.75
299.675	350.75
299.905	345.75
300.136	350.75
300.366	358.75
300.597	339.75
300.827	366.75
301.057	368.75
301.288	381.75
301.518	378.75
301.748	374.75
301.979	384.75
302.209	368.75
302.439	358.75
302.669	358.75
302.9	375.75
303.13	372.75
303.36	376.75
303.59	390.75
303.82	374.75
304.051	361.75
304.281	378.75
304.511	386.75
304.741	367.75
304.971	374.75
305.201	363.75
305.431	349.75
305.661	364.75
305.891	368.75
306.121	354.75
306.352	370.75
306.582	365.75
306.812	383.75
307.042	380.75
307.272	350.75
307.502	366.75
307.731	352.75
307.961	373.75
308.191	376.75
308.421	380.75
308.651	372.75
308.881	354.75
309.111	384.75
309.341	376.75
309.571	389.75
309.8	375.75
310.03	401.75
310.26	392.75
310.49	414.75
310.72	401.75
310.949	403.75
311.179	418.75
311.409	420.75
311.639	402.75
311.868	401.75
312.098	391.75
312.328	408.75
312.557	437.75
312.787	418.75
313.017	410.75
313.246	422.75
313.476	400.75
313.706	418.75
313.935	428.75
314.165	419.75
314.394	412.75
314.624	411.75
314.853	398.75
315.083	428.75
315.312	429.75
315.542	430.75
315.771	417.75
316.001	404.75
316.23	404.75
316.46	421.75
316.689	419.75
316.919	428.75
317.148	413.75
317.377	424.75
317.607	412.75
317.836	425.75
318.065	402.75
318.295	412.75
318.524	404.75
318.753	415.75
318.983	415.75
319.212	421.75
319.441	412.75
319.67	421.75
319.9	402.75
320.129	414.75
320.358	402.75
320.587	400.75
320.816	423.75
321.046	423.75
321.275	434.75
321.504	406.75
321.733	426.75
321.962	412.75
322.191	452.75
322.42	446.75
322.649	458.75
322.878	458.75
323.108	466.75
323.337	464.75
323.566	462.75
323.795	502.75
324.024	528.75
324.253	627.75
324.482	779.75
324.71	1181.75
324.939	1621.75
325.168	1430.75
325.397	783.75
325.626	596.75
325.855	544.75
326.084	497.75
326.313	496.75
326.542	494.75
326.77	551.75
326.999	579.75
327.228	758.75
327.457	1061.75
327.686	1246.75
327.914	898.75
328.143	646.75
328.372	570.75
328.6	555.75
328.829	533.75
329.058	550.75
329.287	544.75
329.515	538.75
329.744	498.75
329.972	498.75
330.201	534.75
330.43	553.75
330.658	553.75
330.887	562.75
331.115	545.75
331.344	530.75
331.572	496.75
331.801	520.75
332.03	522.75
332.258	514.75
332.486	514.75
332.715	482.75
332.943	511.75
333.172	527.75
333.4	512.75
333.629	528.75
333.857	536.75
334.085	561.75
334.314	558.75
334.542	560.75
334.771	578.75
334.999	543.75
335.227	504.75
335.455	518.75
335.684	520.75
335.912	515.75
336.14	530.75
336.369	513.75
336.597	520.75
336.825	514.75
337.053	479.75
337.281	475.75
337.51	498.75
337.738	494.75
337.966	497.75
338.194	488.75
338.422	476.75
338.65	448.75
338.878	485.75
339.106	464.75
339.334	486.75
339.562	469.75
339.79	462.75
340.018	457.75
340.246	466.75
340.474	482.75
340.702	483.75
340.93	458.75
341.158	451.75
341.386	475.75
341.614	475.75
341.842	466.75
342.07	457.75
342.298	450.75
342.526	471.75
342.754	457.75
342.981	485.75
343.209	445.75
343.437	456.75
343.665	472.75
343.893	502.75
344.12	518.75
344.348	489.75
344.576	487.75
344.804	520.75
345.031	484.75
345.259	488.75
345.487	468.75
345.714	451.75
345.942	456.75
346.17	478.75
346.397	471.75
346.625	453.75
346.853	457.75
347.08	428.75
347.308	442.75
347.535	453.75
347.763	458.75
347.99	448.75
348.218	464.75
348.445	473.75
348.673	456.75
348.9	442.75
349.128	445.75
349.355	434.75
349.583	425.75
349.81	438.75
350.037	446.75
350.265	428.75
350.492	439.75
350.72	422.75
350.947	435.75
351.174	450.75
351.402	439.75
351.629	427.75
351.856	441.75
352.083	446.75
352.311	462.75
352.538	438.75
352.765	438.75
352.992	427.75
353.22	430.75
353.447	423.75
353.674	437.75
353.901	437.75
354.128	446.75
354.355	449.75
354.583	430.75
354.81	394.75
355.037	422.75
355.264	425.75
355.491	402.75
355.718	429.75
355.945	412.75
356.172	430.75
356.399	416.75
356.626	440.75
356.853	419.75
357.08	397.75
357.307	425.75
357.534	441.75
357.761	408.75
357.988	416.75
358.215	410.75
358.441	408.75
358.668	435.75
358.895	420.75
359.122	424.75
359.349	441.75
359.576	432.75
359.802	454.75
360.029	467.75
360.256	471.75
360.483	472.75
360.709	455.75
360.936	440.75
361.163	441.75
361.39	419.75
361.616	432.75
361.843	443.75
362.07	433.75
362.296	453.75
362.523	444.75
362.749	439.75
362.976	432.75
363.203	451.75
363.429	409.75
363.656	428.75
363.882	412.75
364.109	437.75
364.335	448.75
364.562	432.75
364.788	417.75
365.015	422.75
365.241	422.75
365.468	423.75
365.694	436.75
365.92	421.75
366.147	414.75
366.373	430.75
366.599	427.75
366.826	450.75
367.052	430.75
367.278	433.75
367.505	413.75
367.731	421.75
367.957	419.75
368.184	415.75
368.41	421.75
368.636	432.75
368.862	440.75
369.089	447.75
369.315	422.75
369.541	427.75
369.767	433.75
369.993	433.75
370.219	431.75
370.445	445.75
370.672	431.75
370.898	411.75
371.124	449.75
371.35	426.75
371.576	425.75
371.802	422.75
372.028	424.75
372.254	454.75
372.48	455.75
372.706	415.75
372.932	434.75
373.158	434.75
373.384	446.75
373.61	464.75
373.835	439.75
374.061	441.75
374.287	456.75
374.513	466.75
374.739	452.75
374.965	478.75
375.191	462.75
375.416	458.75
375.642	435.75
375.868	464.75
376.094	426.75
376.319	450.75
376.545	462.75
376.771	435.75
376.997	433.75
377.222	442.75
377.448	434.75
377.674	438.75
377.899	426.75
378.125	444.75
378.35	436.75
378.576	438.75
378.802	435.75
379.027	438.75
379.253	422.75
379.478	446.75
379.704	439.75
379.929	437.75
380.155	451.75
380.38	424.75
380.606	426.75
380.831	424.75
381.057	436.75
381.282	435.75
381.507	445.75
381.733	424.75
381.958	434.75
382.184	432.75
382.409	444.75
382.634	440.75
382.86	450.75
383.085	467.75
383.31	444.75
383.535	481.75
383.761	474.75
383.986	479.75
384.211	462.75
384.436	489.75
384.662	482.75
384.887	466.75
385.112	488.75
385.337	471.75
385.562	483.75
385.787	505.75
386.013	494.75
386.238	502.75
386.463	487.75
386.688	498.75
386.913	487.75
387.138	477.75
387.363	494.75
387.588	486.75
387.813	471.75
388.038	494.75
388.263	501.75
388.488	480.75
388.713	492.75
388.938	490.75
389.163	502.75
389.387	519.75
389.612	470.75
389.837	494.75
390.062	482.75
390.287	485.75
390.512	483.75
390.736	496.75
390.961	486.75
391.186	499.75
391.411	510.75
391.636	515.75
391.86	510.75
392.085	520.75
392.31	531.75
392.534	518.75
392.759	503.75
392.984	504.75
393.208	504.75
393.433	478.75
393.658	467.75
393.882	498.75
394.107	500.75
394.331	521.75
394.556	503.75
394.78	497.75
395.005	495.75
395.229	503.75
395.454	510.75
395.678	524.75
395.903	533.75
396.127	539.75
396.352	534.75
396.576	528.75
396.801	531.75
397.025	542.75
397.249	531.75
397.474	528.75
397.698	535.75
397.922	535.75
398.147	585.75
398.371	553.75
398.595	561.75
398.82	585.75
399.044	591.75
399.268	632.75
399.492	664.75
399.717	732.75
399.941	775.75
400.165	754.75
400.389	723.75
400.613	666.75
400.837	607.75
401.062	594.75
401.286	578.75
401.51	586.75
401.734	579.75
401.958	594.75
402.182	587.75
402.406	609.75
402.63	592.75
402.854	596.75
403.078	607.75
403.302	597.75
403.526	627.75
403.75	622.75
403.974	633.75
404.198	614.75
404.422	638.75
404.645	625.75
404.869	612.75
405.093	642.75
405.317	680.75
405.541	676.75
405.765	668.75
405.988	633.75
406.212	656.75
406.436	638.75
406.66	652.75
406.883	629.75
407.107	673.75
407.331	729.75
407.555	800.75
407.778	800.75
408.002	746.75
408.226	702.75
408.449	672.75
408.673	644.75
408.896	666.75
409.12	719.75
409.344	705.75
409.567	624.75
409.791	617.75
410.014	614.75
410.238	586.75
410.461	597.75
410.685	597.75
410.908	611.75
411.132	649.75
411.355	690.75
411.578	640.75
411.802	622.75
412.025	634.75
412.249	594.75
412.472	651.75
412.695	654.75
412.919	648.75
413.142	592.75
413.365	598.75
413.589	582.75
413.812	585.75
414.035	575.75
414.258	554.75
414.482	580.75
414.705	578.75
414.928	583.75
415.151	573.75
415.374	560.75
415.597	563.75
415.821	552.75
416.044	576.75
416.267	569.75
416.49	565.75
416.713	589.75
416.936	555.75
417.159	589.75
417.382	570.75
417.605	563.75
417.828	588.75
418.051	619.75
418.274	582.75
418.497	550.75
418.72	586.75
418.943	568.75
419.166	572.75
419.389	643.75
419.611	638.75
419.834	619.75
420.057	614.75
420.28	587.75
420.503	578.75
420.726	583.75
420.948	591.75
421.171	651.75
421.394	649.75
421.617	613.75
421.839	594.75
422.062	584.75
422.285	603.75
422.507	656.75
422.73	690.75
422.953	691.75
423.175	627.75
423.398	622.75
423.621	601.75
423.843	632.75
424.066	626.75
424.288	642.75
424.511	655.75
424.733	679.75
424.956	741.75
425.178	744.75
425.401	714.75
425.623	737.75
425.846	650.75
426.068	601.75
426.291	596.75
426.513	608.75
426.735	636.75
426.958	631.75
427.18	698.75
427.402	816.75
427.625	896.75
427.847	770.75
428.069	684.75
428.292	630.75
428.514	580.75
428.736	555.75
428.958	575.75
429.181	570.75
429.403	553.75
429.625	558.75
429.847	580.75
430.069	642.75
430.292	642.75
430.514	584.75
430.736	574.75
430.958	563.75
431.18	524.75
431.402	549.75
431.624	521.75
431.846	544.75
432.068	500.75
432.29	542.75
432.512	559.75
432.734	531.75
432.956	544.75
433.178	550.75
433.4	559.75
433.622	524.75
433.844	543.75
434.066	538.75
434.287	530.75
434.509	567.75
434.731	555.75
434.953	560.75
435.175	590.75
435.397	597.75
435.618	610.75
435.84	650.75
436.062	702.75
436.284	767.75
436.505	672.75
436.727	616.75
436.949	571.75
437.17	574.75
437.392	517.75
437.614	570.75
437.835	584.75
438.057	665.75
438.278	757.75
438.5	759.75
438.721	830.75
438.943	804.75
439.165	640.75
439.386	608.75
439.608	617.75
439.829	606.75
440.05	615.75
440.272	626.75
440.493	614.75
440.715	600.75
440.936	577.75
441.158	566.75
441.379	547.75
441.6	584.75
441.822	600.75
442.043	661.75
442.264	735.75
442.486	728.75
442.707	638.75
442.928	632.75
443.149	633.75
443.371	643.75
443.592	686.75
443.813	765.75
444.034	819.75
444.255	676.75
444.476	634.75
444.698	640.75
444.919	663.75
445.14	731.75
445.361	698.75
445.582	636.75
445.803	695.75
446.024	748.75
446.245	776.75
446.466	713.75
446.687	632.75
446.908	597.75
447.129	574.75
447.35	556.75
447.571	534.75
447.792	543.75
448.013	563.75
448.234	559.75
448.455	586.75
448.675	710.75
448.896	807.75
449.117	695.75
449.338	662.75
449.559	737.75
449.779	832.75
450	670.75
450.221	581.75
450.442	558.75
450.662	542.75
450.883	552.75
451.104	558.75
451.324	526.75
451.545	496.75
451.766	506.75
451.986	504.75
452.207	496.75
452.428	483.75
452.648	473.75
452.869	473.75
453.089	500.75
453.31	530.75
453.53	489.75
453.751	499.75
453.971	506.75
454.192	517.75
454.412	502.75
454.633	494.75
454.853	482.75
455.073	466.75
455.294	495.75
455.514	566.75
455.734	550.75
455.955	495.75
456.175	455.75
456.395	451.75
456.616	452.75
456.836	459.75
457.056	478.75
457.276	467.75
457.497	488.75
457.717	453.75
457.937	491.75
458.157	474.75
458.377	510.75
458.598	513.75
458.818	536.75
459.038	617.75
459.258	629.75
459.478	604.75
459.698	549.75
459.918	538.75
460.138	548.75
460.358	563.75
460.578	568.75
460.798	579.75
461.018	564.75
461.238	594.75
461.458	581.75
461.678	583.75
461.898	589.75
462.118	572.75
462.338	589.75
462.558	630.75
462.777	607.75
462.997	632.75
463.217	682.75
463.437	662.75
463.657	668.75
463.876	628.75
464.096	625.75
464.316	642.75
464.536	615.75
464.755	638.75
464.975	632.75
465.195	624.75
465.414	637.75
465.634	615.75
465.854	571.75
466.073	569.75
466.293	546.75
466.512	537.75
466.732	522.75
466.951	511.75
467.171	514.75
467.391	522.75
467.61	522.75
467.829	523.75
468.049	544.75
468.268	503.75
468.488	487.75
468.707	497.75
468.927	515.75
469.146	488.75
469.365	496.75
469.585	501.75
469.804	522.75
470.023	530.75
470.243	503.75
470.462	518.75
470.681	529.75
470.901	533.75
471.12	547.75
471.339	535.75
471.558	510.75
471.777	534.75
471.997	532.75
472.216	524.75
472.435	547.75
472.654	511.75
472.873	527.75
473.092	523.75
473.311	512.75
473.53	501.75
473.749	509.75
473.968	555.75
474.187	636.75
474.406	664.75
474.625	567.75
474.844	524.75
475.063	534.75
475.282	520.75
475.501	515.75
475.72	529.75
475.939	536.75
476.158	524.75
476.377	546.75
476.596	525.75
476.814	536.75
477.033	522.75
477.252	534.75
477.471	534.75
477.69	547.75
477.908	556.75
478.127	584.75
478.346	578.75
478.564	604.75
478.783	578.75
479.002	612.75
479.22	593.75
479.439	615.75
479.658	613.75
479.876	629.75
480.095	624.75
480.313	649.75
480.532	644.75
480.751	663.75
480.969	660.75
481.188	662.75
481.406	670.75
481.624	628.75
481.843	608.75
482.061	613.75
482.28	611.75
482.498	572.75
482.717	603.75
482.935	582.75
483.153	584.75
483.372	602.75
483.59	609.75
483.808	574.75
484.027	610.75
484.245	596.75
484.463	618.75
484.681	617.75
484.9	613.75
485.118	612.75
485.336	601.75
485.554	616.75
485.772	626.75
485.99	630.75
486.209	616.75
486.427	612.75
486.645	624.75
486.863	642.75
487.081	657.75
487.299	613.75
487.517	627.75
487.735	624.75
487.953	638.75
488.171	623.75
488.389	638.75
488.607	608.75
488.825	622.75
489.043	670.75
489.261	640.75
489.479	661.75
489.696	660.75
489.914	628.75
490.132	655.75
490.35	683.75
490.568	682.75
490.786	671.75
491.003	696.75
491.221	710.75
491.439	690.75
491.657	702.75
491.874	699.75
492.092	716.75
492.31	724.75
492.527	732.75
492.745	708.75
492.963	746.75
493.18	720.75
493.398	726.75
493.615	771.75
493.833	744.75
494.05	758.75
494.268	767.75
494.485	740.75
494.703	756.75
494.92	743.75
495.138	764.75
495.355	746.75
495.573	755.75
495.79	745.75
496.008	752.75
496.225	740.75
496.442	731.75
496.66	771.75
496.877	742.75
497.094	762.75
497.312	771.75
497.529	769.75
497.746	809.75
497.963	815.75
498.181	854.75
498.398	850.75
498.615	868.75
498.832	936.75
499.049	946.75
499.267	965.75
499.484	1000.75
499.701	1072.75
499.918	1164.75
500.135	1228.75
500.352	1317.75
500.569	1359.75
500.786	1321.75
501.003	1286.75
501.22	1242.75
501.437	1145.75
501.654	1094.75
