Data from 1973.PennyLincolnUp.Lamp.En5.5.200Scan.071719.P1.Changed Mount._HRD10591_15-44-28-853.txt Node
Date: Thu Jul 18 15:44:28 EDT 2019
User: cochatt
Spectrometer: HR+D1059
Trigger mode: 1
Integration Time (sec): 1.000000E-1
Scans to average: 1
Electric dark correction enabled: true
Nonlinearity correction enabled: false
Boxcar width: 0
XAxis mode: Wavelengths
Number of Pixels in Spectrum: 2048
>>>>>Begin Spectral Data<<<<<
223.165	-7.5
223.4	-7.5
223.635	-7.5
223.869	-15.5
224.104	-23.5
224.338	-25.5
224.573	-19.5
224.808	-5.5
225.042	-9.5
225.277	-3.5
225.511	5.5
225.746	3.5
225.98	15.5
226.215	14.5
226.449	8.5
226.683	14.5
226.918	13.5
227.152	34.5
227.387	42.5
227.621	27.5
227.856	53.5
228.09	31.5
228.324	41.5
228.559	65.5
228.793	69.5
229.027	91.5
229.262	120.5
229.496	106.5
229.73	113.5
229.964	132.5
230.199	121.5
230.433	120.5
230.667	96.5
230.901	109.5
231.136	94.5
231.37	116.5
231.604	104.5
231.838	107.5
232.072	109.5
232.306	120.5
232.541	117.5
232.775	119.5
233.009	116.5
233.243	119.5
233.477	113.5
233.711	123.5
233.945	118.5
234.179	115.5
234.413	116.5
234.647	106.5
234.881	112.5
235.115	122.5
235.349	131.5
235.583	112.5
235.817	120.5
236.051	133.5
236.285	124.5
236.519	147.5
236.753	128.5
236.987	128.5
237.221	158.5
237.455	194.5
237.689	172.5
237.922	135.5
238.156	126.5
238.39	142.5
238.624	110.5
238.858	116.5
239.091	112.5
239.325	117.5
239.559	132.5
239.793	137.5
240.027	125.5
240.26	133.5
240.494	148.5
240.728	146.5
240.961	133.5
241.195	155.5
241.429	130.5
241.662	146.5
241.896	132.5
242.13	144.5
242.363	106.5
242.597	136.5
242.83	145.5
243.064	154.5
243.298	150.5
243.531	147.5
243.765	140.5
243.998	141.5
244.232	136.5
244.465	132.5
244.699	133.5
244.932	145.5
245.166	152.5
245.399	142.5
245.633	140.5
245.866	150.5
246.099	156.5
246.333	148.5
246.566	152.5
246.8	157.5
247.033	142.5
247.266	164.5
247.5	165.5
247.733	183.5
247.966	179.5
248.2	173.5
248.433	167.5
248.666	177.5
248.899	185.5
249.133	186.5
249.366	191.5
249.599	204.5
249.832	180.5
250.066	187.5
250.299	182.5
250.532	177.5
250.765	205.5
250.998	212.5
251.231	230.5
251.465	217.5
251.698	196.5
251.931	190.5
252.164	182.5
252.397	180.5
252.63	201.5
252.863	204.5
253.096	208.5
253.329	218.5
253.562	227.5
253.795	226.5
254.028	216.5
254.261	213.5
254.494	211.5
254.727	213.5
254.96	266.5
255.193	249.5
255.426	233.5
255.659	244.5
255.892	226.5
256.124	242.5
256.357	229.5
256.59	222.5
256.823	216.5
257.056	210.5
257.289	206.5
257.521	203.5
257.754	214.5
257.987	215.5
258.22	206.5
258.452	209.5
258.685	217.5
258.918	204.5
259.151	216.5
259.383	207.5
259.616	225.5
259.849	229.5
260.081	242.5
260.314	243.5
260.547	265.5
260.779	233.5
261.012	235.5
261.244	236.5
261.477	210.5
261.71	226.5
261.942	211.5
262.175	233.5
262.407	230.5
262.64	215.5
262.872	212.5
263.105	216.5
263.337	231.5
263.57	218.5
263.802	217.5
264.035	236.5
264.267	213.5
264.499	232.5
264.732	237.5
264.964	216.5
265.197	220.5
265.429	219.5
265.661	207.5
265.894	216.5
266.126	228.5
266.358	230.5
266.591	220.5
266.823	225.5
267.055	239.5
267.287	227.5
267.52	221.5
267.752	231.5
267.984	243.5
268.216	232.5
268.448	242.5
268.681	260.5
268.913	224.5
269.145	263.5
269.377	288.5
269.609	274.5
269.841	269.5
270.073	286.5
270.306	308.5
270.538	313.5
270.77	321.5
271.002	324.5
271.234	286.5
271.466	279.5
271.698	300.5
271.93	308.5
272.162	323.5
272.394	311.5
272.626	301.5
272.858	275.5
273.09	286.5
273.322	278.5
273.553	284.5
273.785	278.5
274.017	277.5
274.249	288.5
274.481	279.5
274.713	291.5
274.945	280.5
275.176	264.5
275.408	271.5
275.64	265.5
275.872	281.5
276.104	281.5
276.335	301.5
276.567	298.5
276.799	304.5
277.031	295.5
277.262	316.5
277.494	310.5
277.726	299.5
277.957	299.5
278.189	286.5
278.421	288.5
278.652	269.5
278.884	289.5
279.115	287.5
279.347	269.5
279.579	280.5
279.81	287.5
280.042	281.5
280.273	291.5
280.505	277.5
280.736	275.5
280.968	278.5
281.199	302.5
281.431	276.5
281.662	288.5
281.894	286.5
282.125	278.5
282.356	309.5
282.588	326.5
282.819	293.5
283.051	292.5
283.282	279.5
283.513	295.5
283.745	304.5
283.976	317.5
284.207	307.5
284.439	323.5
284.67	308.5
284.901	308.5
285.132	293.5
285.364	299.5
285.595	300.5
285.826	311.5
286.057	311.5
286.288	288.5
286.52	290.5
286.751	285.5
286.982	297.5
287.213	309.5
287.444	299.5
287.675	316.5
287.906	315.5
288.138	353.5
288.369	347.5
288.6	326.5
288.831	340.5
289.062	320.5
289.293	313.5
289.524	324.5
289.755	331.5
289.986	336.5
290.217	338.5
290.448	309.5
290.679	308.5
290.91	299.5
291.141	306.5
291.371	326.5
291.602	326.5
291.833	303.5
292.064	331.5
292.295	320.5
292.526	295.5
292.757	317.5
292.987	310.5
293.218	315.5
293.449	329.5
293.68	310.5
293.91	318.5
294.141	311.5
294.372	326.5
294.603	308.5
294.833	318.5
295.064	312.5
295.295	330.5
295.525	330.5
295.756	324.5
295.987	320.5
296.217	323.5
296.448	343.5
296.679	349.5
296.909	348.5
297.14	323.5
297.37	329.5
297.601	340.5
297.831	310.5
298.062	344.5
298.292	346.5
298.523	350.5
298.753	349.5
298.984	329.5
299.214	341.5
299.445	335.5
299.675	340.5
299.905	332.5
300.136	341.5
300.366	335.5
300.597	344.5
300.827	344.5
301.057	337.5
301.288	340.5
301.518	343.5
301.748	357.5
301.979	353.5
302.209	360.5
302.439	356.5
302.669	354.5
302.9	365.5
303.13	370.5
303.36	380.5
303.59	360.5
303.82	353.5
304.051	349.5
304.281	369.5
304.511	340.5
304.741	377.5
304.971	358.5
305.201	348.5
305.431	354.5
305.661	352.5
305.891	357.5
306.121	385.5
306.352	367.5
306.582	355.5
306.812	357.5
307.042	364.5
307.272	349.5
307.502	353.5
307.731	354.5
307.961	365.5
308.191	349.5
308.421	355.5
308.651	352.5
308.881	363.5
309.111	354.5
309.341	356.5
309.571	372.5
309.8	369.5
310.03	383.5
310.26	386.5
310.49	364.5
310.72	378.5
310.949	404.5
311.179	393.5
311.409	386.5
311.639	361.5
311.868	380.5
312.098	393.5
312.328	405.5
312.557	400.5
312.787	413.5
313.017	405.5
313.246	404.5
313.476	378.5
313.706	392.5
313.935	396.5
314.165	395.5
314.394	388.5
314.624	423.5
314.853	398.5
315.083	397.5
315.312	379.5
315.542	388.5
315.771	398.5
316.001	399.5
316.23	368.5
316.46	360.5
316.689	387.5
316.919	402.5
317.148	398.5
317.377	410.5
317.607	408.5
317.836	396.5
318.065	394.5
318.295	408.5
318.524	396.5
318.753	386.5
318.983	375.5
319.212	382.5
319.441	404.5
319.67	403.5
319.9	390.5
320.129	391.5
320.358	379.5
320.587	392.5
320.816	419.5
321.046	420.5
321.275	408.5
321.504	403.5
321.733	408.5
321.962	419.5
322.191	422.5
322.42	433.5
322.649	428.5
322.878	423.5
323.108	448.5
323.337	459.5
323.566	468.5
323.795	475.5
324.024	504.5
324.253	532.5
324.482	730.5
324.71	1074.5
324.939	1476.5
325.168	1334.5
325.397	734.5
325.626	535.5
325.855	474.5
326.084	478.5
326.313	458.5
326.542	468.5
326.77	519.5
326.999	548.5
327.228	678.5
327.457	939.5
327.686	1132.5
327.914	806.5
328.143	582.5
328.372	514.5
328.6	534.5
328.829	511.5
329.058	499.5
329.287	511.5
329.515	487.5
329.744	484.5
329.972	454.5
330.201	496.5
330.43	523.5
330.658	528.5
330.887	542.5
331.115	540.5
331.344	511.5
331.572	484.5
331.801	492.5
332.03	479.5
332.258	480.5
332.486	474.5
332.715	459.5
332.943	480.5
333.172	513.5
333.4	484.5
333.629	494.5
333.857	514.5
334.085	530.5
334.314	518.5
334.542	546.5
334.771	524.5
334.999	499.5
335.227	508.5
335.455	491.5
335.684	496.5
335.912	492.5
336.14	464.5
336.369	478.5
336.597	486.5
336.825	481.5
337.053	482.5
337.281	483.5
337.51	467.5
337.738	470.5
337.966	472.5
338.194	452.5
338.422	461.5
338.65	461.5
338.878	457.5
339.106	432.5
339.334	450.5
339.562	428.5
339.79	454.5
340.018	429.5
340.246	444.5
340.474	450.5
340.702	444.5
340.93	451.5
341.158	445.5
341.386	452.5
341.614	436.5
341.842	440.5
342.07	450.5
342.298	425.5
342.526	445.5
342.754	427.5
342.981	445.5
343.209	443.5
343.437	446.5
343.665	462.5
343.893	468.5
344.12	484.5
344.348	485.5
344.576	480.5
344.804	454.5
345.031	470.5
345.259	465.5
345.487	430.5
345.714	440.5
345.942	443.5
346.17	440.5
346.397	412.5
346.625	416.5
346.853	408.5
347.08	432.5
347.308	436.5
347.535	445.5
347.763	420.5
347.99	423.5
348.218	442.5
348.445	425.5
348.673	435.5
348.9	457.5
349.128	424.5
349.355	424.5
349.583	413.5
349.81	420.5
350.037	397.5
350.265	412.5
350.492	414.5
350.72	403.5
350.947	408.5
351.174	421.5
351.402	424.5
351.629	422.5
351.856	416.5
352.083	450.5
352.311	444.5
352.538	413.5
352.765	429.5
352.992	441.5
353.22	418.5
353.447	411.5
353.674	417.5
353.901	410.5
354.128	403.5
354.355	413.5
354.583	402.5
354.81	416.5
355.037	393.5
355.264	400.5
355.491	415.5
355.718	397.5
355.945	405.5
356.172	394.5
356.399	409.5
356.626	397.5
356.853	394.5
357.08	413.5
357.307	408.5
357.534	401.5
357.761	398.5
357.988	437.5
358.215	422.5
358.441	392.5
358.668	388.5
358.895	405.5
359.122	398.5
359.349	415.5
359.576	413.5
359.802	428.5
360.029	433.5
360.256	444.5
360.483	448.5
360.709	429.5
360.936	428.5
361.163	403.5
361.39	421.5
361.616	430.5
361.843	432.5
362.07	417.5
362.296	410.5
362.523	430.5
362.749	430.5
362.976	404.5
363.203	417.5
363.429	407.5
363.656	418.5
363.882	416.5
364.109	396.5
364.335	408.5
364.562	409.5
364.788	415.5
365.015	417.5
365.241	386.5
365.468	401.5
365.694	424.5
365.92	404.5
366.147	413.5
366.373	419.5
366.599	393.5
366.826	396.5
367.052	417.5
367.278	400.5
367.505	419.5
367.731	436.5
367.957	404.5
368.184	403.5
368.41	407.5
368.636	436.5
368.862	424.5
369.089	414.5
369.315	392.5
369.541	417.5
369.767	425.5
369.993	410.5
370.219	397.5
370.445	416.5
370.672	402.5
370.898	419.5
371.124	407.5
371.35	401.5
371.576	438.5
371.802	404.5
372.028	404.5
372.254	433.5
372.48	430.5
372.706	423.5
372.932	437.5
373.158	423.5
373.384	404.5
373.61	426.5
373.835	422.5
374.061	427.5
374.287	408.5
374.513	419.5
374.739	426.5
374.965	432.5
375.191	436.5
375.416	429.5
375.642	422.5
375.868	417.5
376.094	412.5
376.319	439.5
376.545	435.5
376.771	412.5
376.997	416.5
377.222	436.5
377.448	414.5
377.674	435.5
377.899	418.5
378.125	416.5
378.35	396.5
378.576	430.5
378.802	405.5
379.027	422.5
379.253	409.5
379.478	420.5
379.704	409.5
379.929	414.5
380.155	423.5
380.38	413.5
380.606	425.5
380.831	412.5
381.057	412.5
381.282	414.5
381.507	408.5
381.733	410.5
381.958	412.5
382.184	422.5
382.409	413.5
382.634	444.5
382.86	407.5
383.085	424.5
383.31	415.5
383.535	441.5
383.761	427.5
383.986	465.5
384.211	460.5
384.436	460.5
384.662	454.5
384.887	444.5
385.112	468.5
385.337	461.5
385.562	478.5
385.787	467.5
386.013	479.5
386.238	483.5
386.463	474.5
386.688	489.5
386.913	478.5
387.138	474.5
387.363	478.5
387.588	455.5
387.813	468.5
388.038	473.5
388.263	465.5
388.488	482.5
388.713	466.5
388.938	466.5
389.163	462.5
389.387	482.5
389.612	461.5
389.837	464.5
390.062	476.5
390.287	484.5
390.512	469.5
390.736	488.5
390.961	475.5
391.186	463.5
391.411	456.5
391.636	484.5
391.86	489.5
392.085	503.5
392.31	474.5
392.534	490.5
392.759	496.5
392.984	488.5
393.208	488.5
393.433	473.5
393.658	489.5
393.882	490.5
394.107	478.5
394.331	450.5
394.556	488.5
394.78	485.5
395.005	506.5
395.229	483.5
395.454	502.5
395.678	504.5
395.903	498.5
396.127	537.5
396.352	530.5
396.576	503.5
396.801	476.5
397.025	477.5
397.249	512.5
397.474	522.5
397.698	522.5
397.922	521.5
398.147	531.5
398.371	531.5
398.595	530.5
398.82	545.5
399.044	569.5
399.268	584.5
399.492	652.5
399.717	699.5
399.941	735.5
400.165	706.5
400.389	687.5
400.613	630.5
400.837	588.5
401.062	572.5
401.286	569.5
401.51	553.5
401.734	549.5
401.958	554.5
402.182	543.5
402.406	557.5
402.63	573.5
402.854	561.5
403.078	579.5
403.302	578.5
403.526	585.5
403.75	598.5
403.974	588.5
404.198	586.5
404.422	602.5
404.645	576.5
404.869	610.5
405.093	609.5
405.317	645.5
405.541	681.5
405.765	646.5
405.988	611.5
406.212	614.5
406.436	611.5
406.66	625.5
406.883	630.5
407.107	658.5
407.331	700.5
407.555	733.5
407.778	757.5
408.002	681.5
408.226	658.5
408.449	653.5
408.673	631.5
408.896	648.5
409.12	694.5
409.344	656.5
409.567	583.5
409.791	586.5
410.014	575.5
410.238	592.5
410.461	582.5
410.685	578.5
410.908	587.5
411.132	615.5
411.355	625.5
411.578	620.5
411.802	585.5
412.025	594.5
412.249	574.5
412.472	588.5
412.695	636.5
412.919	609.5
413.142	570.5
413.365	560.5
413.589	554.5
413.812	565.5
414.035	534.5
414.258	560.5
414.482	545.5
414.705	534.5
414.928	553.5
415.151	556.5
415.374	550.5
415.597	561.5
415.821	501.5
416.044	537.5
416.267	566.5
416.49	541.5
416.713	542.5
416.936	509.5
417.159	514.5
417.382	552.5
417.605	561.5
417.828	560.5
418.051	550.5
418.274	550.5
418.497	554.5
418.72	571.5
418.943	551.5
419.166	581.5
419.389	604.5
419.611	602.5
419.834	566.5
420.057	571.5
420.28	565.5
420.503	554.5
420.726	566.5
420.948	589.5
421.171	599.5
421.394	603.5
421.617	569.5
421.839	560.5
422.062	557.5
422.285	560.5
422.507	597.5
422.73	698.5
422.953	650.5
423.175	633.5
423.398	590.5
423.621	589.5
423.843	585.5
424.066	614.5
424.288	597.5
424.511	613.5
424.733	658.5
424.956	734.5
425.178	677.5
425.401	693.5
425.623	714.5
425.846	636.5
426.068	589.5
426.291	564.5
426.513	588.5
426.735	574.5
426.958	613.5
427.18	677.5
427.402	781.5
427.625	834.5
427.847	719.5
428.069	633.5
428.292	608.5
428.514	564.5
428.736	524.5
428.958	532.5
429.181	527.5
429.403	535.5
429.625	528.5
429.847	554.5
430.069	633.5
430.292	603.5
430.514	556.5
430.736	527.5
430.958	524.5
431.18	522.5
431.402	540.5
431.624	506.5
431.846	539.5
432.068	521.5
432.29	498.5
432.512	506.5
432.734	531.5
432.956	520.5
433.178	541.5
433.4	500.5
433.622	521.5
433.844	515.5
434.066	521.5
434.287	510.5
434.509	540.5
434.731	546.5
434.953	551.5
435.175	544.5
435.397	570.5
435.618	586.5
435.84	590.5
436.062	650.5
436.284	703.5
436.505	629.5
436.727	552.5
436.949	553.5
437.17	527.5
437.392	514.5
437.614	545.5
437.835	549.5
438.057	613.5
438.278	735.5
438.5	734.5
438.721	774.5
438.943	736.5
439.165	606.5
439.386	562.5
439.608	595.5
439.829	588.5
440.05	573.5
440.272	621.5
440.493	593.5
440.715	568.5
440.936	542.5
441.158	516.5
441.379	528.5
441.6	549.5
441.822	573.5
442.043	578.5
442.264	661.5
442.486	706.5
442.707	611.5
442.928	591.5
443.149	580.5
443.371	609.5
443.592	637.5
443.813	716.5
444.034	795.5
444.255	666.5
444.476	649.5
444.698	631.5
444.919	617.5
445.14	733.5
445.361	689.5
445.582	620.5
445.803	638.5
446.024	723.5
446.245	732.5
446.466	651.5
446.687	600.5
446.908	560.5
447.129	513.5
447.35	530.5
447.571	526.5
447.792	514.5
448.013	512.5
448.234	532.5
448.455	572.5
448.675	668.5
448.896	769.5
449.117	659.5
449.338	637.5
449.559	725.5
449.779	777.5
450	648.5
450.221	565.5
450.442	518.5
450.662	512.5
450.883	510.5
451.104	524.5
451.324	507.5
451.545	488.5
451.766	471.5
451.986	466.5
452.207	464.5
452.428	465.5
452.648	475.5
452.869	448.5
453.089	451.5
453.31	473.5
453.53	478.5
453.751	458.5
453.971	466.5
454.192	482.5
454.412	475.5
454.633	446.5
454.853	450.5
455.073	443.5
455.294	491.5
455.514	540.5
455.734	518.5
455.955	459.5
456.175	448.5
456.395	428.5
456.616	439.5
456.836	451.5
457.056	444.5
457.276	435.5
457.497	455.5
457.717	443.5
457.937	433.5
458.157	424.5
458.377	440.5
458.598	462.5
458.818	514.5
459.038	553.5
459.258	595.5
459.478	526.5
459.698	510.5
459.918	520.5
460.138	503.5
460.358	526.5
460.578	549.5
460.798	560.5
461.018	574.5
461.238	547.5
461.458	560.5
461.678	528.5
461.898	542.5
462.118	538.5
462.338	554.5
462.558	573.5
462.777	563.5
462.997	605.5
463.217	635.5
463.437	634.5
463.657	615.5
463.876	597.5
464.096	606.5
464.316	609.5
464.536	592.5
464.755	588.5
464.975	569.5
465.195	597.5
465.414	606.5
465.634	560.5
465.854	521.5
466.073	498.5
466.293	504.5
466.512	483.5
466.732	492.5
466.951	502.5
467.171	496.5
467.391	487.5
467.61	481.5
467.829	509.5
468.049	493.5
468.268	504.5
468.488	479.5
468.707	476.5
468.927	470.5
469.146	462.5
469.365	488.5
469.585	459.5
469.804	485.5
470.023	508.5
470.243	477.5
470.462	502.5
470.681	522.5
470.901	498.5
471.12	505.5
471.339	477.5
471.558	512.5
471.777	483.5
471.997	470.5
472.216	466.5
472.435	538.5
472.654	496.5
472.873	475.5
473.092	473.5
473.311	481.5
473.53	488.5
473.749	473.5
473.968	509.5
474.187	582.5
474.406	601.5
474.625	531.5
474.844	497.5
475.063	487.5
475.282	494.5
475.501	506.5
475.72	496.5
475.939	524.5
476.158	502.5
476.377	519.5
476.596	510.5
476.814	516.5
477.033	518.5
477.252	529.5
477.471	528.5
477.69	519.5
477.908	510.5
478.127	538.5
478.346	570.5
478.564	536.5
478.783	558.5
479.002	569.5
479.22	593.5
479.439	586.5
479.658	581.5
479.876	569.5
480.095	618.5
480.313	618.5
480.532	629.5
480.751	615.5
480.969	630.5
481.188	637.5
481.406	627.5
481.624	583.5
481.843	574.5
482.061	553.5
482.28	580.5
482.498	596.5
482.717	544.5
482.935	564.5
483.153	564.5
483.372	555.5
483.59	546.5
483.808	548.5
484.027	558.5
484.245	574.5
484.463	547.5
484.681	571.5
484.9	581.5
485.118	588.5
485.336	568.5
485.554	589.5
485.772	564.5
485.99	568.5
486.209	578.5
486.427	590.5
486.645	601.5
486.863	590.5
487.081	588.5
487.299	593.5
487.517	580.5
487.735	582.5
487.953	588.5
488.171	578.5
488.389	611.5
488.607	580.5
488.825	597.5
489.043	618.5
489.261	625.5
489.479	613.5
489.696	603.5
489.914	632.5
490.132	612.5
490.35	619.5
490.568	646.5
490.786	634.5
491.003	651.5
491.221	636.5
491.439	661.5
491.657	662.5
491.874	664.5
492.092	677.5
492.31	681.5
492.527	673.5
492.745	690.5
492.963	694.5
493.18	699.5
493.398	697.5
493.615	702.5
493.833	707.5
494.05	713.5
494.268	713.5
494.485	706.5
494.703	722.5
494.92	677.5
495.138	724.5
495.355	720.5
495.573	721.5
495.79	716.5
496.008	731.5
496.225	729.5
496.442	709.5
496.66	700.5
496.877	708.5
497.094	743.5
497.312	740.5
497.529	754.5
497.746	754.5
497.963	761.5
498.181	782.5
498.398	804.5
498.615	795.5
498.832	839.5
499.049	871.5
499.267	911.5
499.484	928.5
499.701	1022.5
499.918	1083.5
500.135	1165.5
500.352	1236.5
500.569	1252.5
500.786	1251.5
501.003	1210.5
501.22	1138.5
501.437	1113.5
501.654	1038.5
501.871	993.5
502.088	941.5
502.305	906.5
502.522	847.5
502.739	844.5
502.956	792.5
503.172	788.5
503.389	761.5
503.606	758.5
503.823	746.5
504.04	744.5
504.256	725.5
504.473	740.5
504.69	738.5
504.907	715.5
505.123	720.5
505.34	690.5
505.557	660.5
505.773	704.5
505.99	713.5
506.207	646.5
506.423	676.5
506.64	656.5
506.856	644.5
507.073	660.5
507.289	652.5
507.506	621.5
507.722	632.5
507.939	633.5
508.155	632.5
508.372	613.5
508.588	621.5
508.805	627.5
509.021	609.5
509.238	632.5
509.454	639.5
509.67	616.5
509.887	585.5
510.103	605.5
510.319	614.5
510.536	658.5
510.752	889.5
510.968	772.5
511.184	604.5
511.401	590.5
511.617	591.5
511.833	590.5
512.049	572.5
512.265	591.5
512.481	579.5
512.698	568.5
512.914	554.5
513.13	588.5
513.346	561.5
513.562	576.5
513.778	572.5
513.994	564.5
514.21	598.5
514.426	619.5
514.642	617.5
514.858	629.5
515.074	648.5
515.29	731.5
515.506	909.5
515.721	781.5
515.937	660.5
516.153	630.5
516.369	589.5
516.585	638.5
516.801	624.5
517.016	632.5
517.232	646.5
517.448	645.5
517.664	660.5
517.879	654.5
518.095	662.5
518.311	666.5
518.527	625.5
518.742	636.5
518.958	628.5
519.173	619.5
519.389	594.5
519.605	610.5
