Data from 1973.PennyLincolnUp.Lamp.En5.5.200Scan.071719.P1.Changed Mount._HRD10591_15-44-58-853.txt Node
Date: Thu Jul 18 15:44:58 EDT 2019
User: cochatt
Spectrometer: HR+D1059
Trigger mode: 1
Integration Time (sec): 1.000000E-1
Scans to average: 1
Electric dark correction enabled: true
Nonlinearity correction enabled: false
Boxcar width: 0
XAxis mode: Wavelengths
Number of Pixels in Spectrum: 2048
>>>>>Begin Spectral Data<<<<<
223.165	-6.88
223.4	-6.88
223.635	-6.88
223.869	-17.88
224.104	-26.88
224.338	-11.88
224.573	-11.88
224.808	-14.88
225.042	-14.88
225.277	-4.88
225.511	-4.88
225.746	6.12
225.98	1.12
226.215	5.12
226.449	11.12
226.683	21.12
226.918	32.12
227.152	38.12
227.387	52.12
227.621	34.12
227.856	33.12
228.09	55.12
228.324	39.12
228.559	57.12
228.793	62.12
229.027	76.12
229.262	109.12
229.496	93.12
229.73	127.12
229.964	127.12
230.199	122.12
230.433	112.12
230.667	99.12
230.901	109.12
231.136	119.12
231.37	115.12
231.604	109.12
231.838	118.12
232.072	113.12
232.306	115.12
232.541	133.12
232.775	115.12
233.009	123.12
233.243	127.12
233.477	108.12
233.711	105.12
233.945	114.12
234.179	115.12
234.413	117.12
234.647	118.12
234.881	116.12
235.115	124.12
235.349	103.12
235.583	122.12
235.817	118.12
236.051	115.12
236.285	114.12
236.519	114.12
236.753	134.12
236.987	145.12
237.221	142.12
237.455	211.12
237.689	184.12
237.922	118.12
238.156	135.12
238.39	135.12
238.624	131.12
238.858	124.12
239.091	133.12
239.325	130.12
239.559	146.12
239.793	125.12
240.027	142.12
240.26	145.12
240.494	147.12
240.728	158.12
240.961	159.12
241.195	141.12
241.429	144.12
241.662	141.12
241.896	139.12
242.13	157.12
242.363	141.12
242.597	129.12
242.83	152.12
243.064	139.12
243.298	119.12
243.531	131.12
243.765	149.12
243.998	137.12
244.232	147.12
244.465	148.12
244.699	150.12
244.932	158.12
245.166	152.12
245.399	141.12
245.633	133.12
245.866	158.12
246.099	151.12
246.333	151.12
246.566	154.12
246.8	167.12
247.033	158.12
247.266	163.12
247.5	173.12
247.733	180.12
247.966	171.12
248.2	186.12
248.433	177.12
248.666	180.12
248.899	189.12
249.133	189.12
249.366	193.12
249.599	208.12
249.832	188.12
250.066	187.12
250.299	170.12
250.532	169.12
250.765	205.12
250.998	219.12
251.231	200.12
251.465	223.12
251.698	215.12
251.931	191.12
252.164	210.12
252.397	202.12
252.63	214.12
252.863	200.12
253.096	219.12
253.329	220.12
253.562	213.12
253.795	220.12
254.028	212.12
254.261	213.12
254.494	209.12
254.727	237.12
254.96	269.12
255.193	261.12
255.426	251.12
255.659	241.12
255.892	214.12
256.124	217.12
256.357	220.12
256.59	215.12
256.823	217.12
257.056	226.12
257.289	202.12
257.521	228.12
257.754	212.12
257.987	205.12
258.22	226.12
258.452	232.12
258.685	205.12
258.918	214.12
259.151	212.12
259.383	214.12
259.616	227.12
259.849	216.12
260.081	239.12
260.314	233.12
260.547	258.12
260.779	230.12
261.012	250.12
261.244	234.12
261.477	234.12
261.71	223.12
261.942	245.12
262.175	233.12
262.407	224.12
262.64	218.12
262.872	216.12
263.105	222.12
263.337	214.12
263.57	230.12
263.802	221.12
264.035	211.12
264.267	231.12
264.499	216.12
264.732	230.12
264.964	219.12
265.197	227.12
265.429	226.12
265.661	217.12
265.894	238.12
266.126	225.12
266.358	229.12
266.591	225.12
266.823	251.12
267.055	237.12
267.287	253.12
267.52	237.12
267.752	250.12
267.984	243.12
268.216	242.12
268.448	259.12
268.681	256.12
268.913	264.12
269.145	272.12
269.377	277.12
269.609	277.12
269.841	261.12
270.073	277.12
270.306	281.12
270.538	313.12
270.77	298.12
271.002	318.12
271.234	308.12
271.466	306.12
271.698	347.12
271.93	289.12
272.162	292.12
272.394	327.12
272.626	301.12
272.858	294.12
273.09	271.12
273.322	278.12
273.553	290.12
273.785	270.12
274.017	269.12
274.249	291.12
274.481	282.12
274.713	295.12
274.945	291.12
275.176	285.12
275.408	277.12
275.64	270.12
275.872	283.12
276.104	294.12
276.335	280.12
276.567	279.12
276.799	285.12
277.031	312.12
277.262	317.12
277.494	325.12
277.726	318.12
277.957	300.12
278.189	301.12
278.421	286.12
278.652	299.12
278.884	278.12
279.115	277.12
279.347	297.12
279.579	300.12
279.81	290.12
280.042	290.12
280.273	286.12
280.505	293.12
280.736	296.12
280.968	291.12
281.199	289.12
281.431	279.12
281.662	306.12
281.894	284.12
282.125	303.12
282.356	313.12
282.588	313.12
282.819	322.12
283.051	319.12
283.282	284.12
283.513	302.12
283.745	318.12
283.976	307.12
284.207	305.12
284.439	318.12
284.67	292.12
284.901	317.12
285.132	297.12
285.364	324.12
285.595	295.12
285.826	294.12
286.057	300.12
286.288	307.12
286.52	300.12
286.751	311.12
286.982	305.12
287.213	315.12
287.444	319.12
287.675	326.12
287.906	346.12
288.138	347.12
288.369	341.12
288.6	327.12
288.831	331.12
289.062	330.12
289.293	334.12
289.524	338.12
289.755	321.12
289.986	316.12
290.217	320.12
290.448	311.12
290.679	317.12
290.91	313.12
291.141	324.12
291.371	323.12
291.602	326.12
291.833	327.12
292.064	336.12
292.295	342.12
292.526	327.12
292.757	315.12
292.987	334.12
293.218	317.12
293.449	321.12
293.68	337.12
293.91	328.12
294.141	323.12
294.372	313.12
294.603	313.12
294.833	314.12
295.064	315.12
295.295	330.12
295.525	320.12
295.756	319.12
295.987	321.12
296.217	369.12
296.448	344.12
296.679	342.12
296.909	317.12
297.14	323.12
297.37	331.12
297.601	335.12
297.831	346.12
298.062	340.12
298.292	353.12
298.523	346.12
298.753	354.12
298.984	339.12
299.214	346.12
299.445	347.12
299.675	340.12
299.905	338.12
300.136	349.12
300.366	361.12
300.597	343.12
300.827	364.12
301.057	360.12
301.288	361.12
301.518	379.12
301.748	355.12
301.979	369.12
302.209	373.12
302.439	361.12
302.669	368.12
302.9	367.12
303.13	381.12
303.36	359.12
303.59	367.12
303.82	367.12
304.051	363.12
304.281	385.12
304.511	358.12
304.741	346.12
304.971	360.12
305.201	380.12
305.431	356.12
305.661	375.12
305.891	353.12
306.121	360.12
306.352	360.12
306.582	357.12
306.812	352.12
307.042	363.12
307.272	365.12
307.502	366.12
307.731	350.12
307.961	363.12
308.191	355.12
308.421	345.12
308.651	371.12
308.881	338.12
309.111	385.12
309.341	378.12
309.571	357.12
309.8	419.12
310.03	393.12
310.26	381.12
310.49	381.12
310.72	408.12
310.949	393.12
311.179	409.12
311.409	387.12
311.639	383.12
311.868	411.12
312.098	399.12
312.328	393.12
312.557	400.12
312.787	428.12
313.017	408.12
313.246	398.12
313.476	397.12
313.706	383.12
313.935	413.12
314.165	402.12
314.394	412.12
314.624	390.12
314.853	409.12
315.083	403.12
315.312	380.12
315.542	379.12
315.771	373.12
316.001	422.12
316.23	407.12
316.46	405.12
316.689	389.12
316.919	413.12
317.148	420.12
317.377	406.12
317.607	399.12
317.836	385.12
318.065	402.12
318.295	396.12
318.524	391.12
318.753	382.12
318.983	413.12
319.212	406.12
319.441	407.12
319.67	397.12
319.9	399.12
320.129	419.12
320.358	400.12
320.587	405.12
320.816	409.12
321.046	400.12
321.275	424.12
321.504	414.12
321.733	399.12
321.962	403.12
322.191	400.12
322.42	435.12
322.649	430.12
322.878	437.12
323.108	457.12
323.337	459.12
323.566	461.12
323.795	460.12
324.024	510.12
324.253	543.12
324.482	738.12
324.71	1074.12
324.939	1465.12
325.168	1309.12
325.397	745.12
325.626	538.12
325.855	519.12
326.084	473.12
326.313	474.12
326.542	454.12
326.77	495.12
326.999	556.12
327.228	713.12
327.457	970.12
327.686	1151.12
327.914	846.12
328.143	598.12
328.372	551.12
328.6	522.12
328.829	517.12
329.058	513.12
329.287	510.12
329.515	499.12
329.744	504.12
329.972	502.12
330.201	492.12
330.43	522.12
330.658	528.12
330.887	543.12
331.115	543.12
331.344	481.12
331.572	483.12
331.801	493.12
332.03	500.12
332.258	491.12
332.486	477.12
332.715	493.12
332.943	490.12
333.172	507.12
333.4	518.12
333.629	486.12
333.857	528.12
334.085	532.12
334.314	542.12
334.542	557.12
334.771	549.12
334.999	529.12
335.227	508.12
335.455	523.12
335.684	497.12
335.912	499.12
336.14	489.12
336.369	467.12
336.597	486.12
336.825	472.12
337.053	489.12
337.281	493.12
337.51	477.12
337.738	481.12
337.966	491.12
338.194	464.12
338.422	474.12
338.65	473.12
338.878	441.12
339.106	469.12
339.334	447.12
339.562	473.12
339.79	451.12
340.018	459.12
340.246	457.12
340.474	465.12
340.702	448.12
340.93	456.12
341.158	456.12
341.386	451.12
341.614	458.12
341.842	464.12
342.07	443.12
342.298	462.12
342.526	451.12
342.754	447.12
342.981	449.12
343.209	431.12
343.437	459.12
343.665	466.12
343.893	468.12
344.12	489.12
344.348	501.12
344.576	483.12
344.804	481.12
345.031	468.12
345.259	483.12
345.487	458.12
345.714	439.12
345.942	447.12
346.17	442.12
346.397	435.12
346.625	442.12
346.853	443.12
347.08	443.12
347.308	418.12
347.535	432.12
347.763	425.12
347.99	439.12
348.218	424.12
348.445	435.12
348.673	423.12
348.9	445.12
349.128	439.12
349.355	421.12
349.583	430.12
349.81	418.12
350.037	407.12
350.265	420.12
350.492	419.12
350.72	412.12
350.947	407.12
351.174	425.12
351.402	419.12
351.629	426.12
351.856	441.12
352.083	424.12
352.311	421.12
352.538	415.12
352.765	436.12
352.992	443.12
353.22	428.12
353.447	417.12
353.674	406.12
353.901	416.12
354.128	414.12
354.355	397.12
354.583	408.12
354.81	413.12
355.037	412.12
355.264	397.12
355.491	398.12
355.718	386.12
355.945	402.12
356.172	397.12
356.399	400.12
356.626	417.12
356.853	422.12
357.08	416.12
357.307	399.12
357.534	418.12
357.761	421.12
357.988	415.12
358.215	429.12
358.441	414.12
358.668	423.12
358.895	414.12
359.122	408.12
359.349	435.12
359.576	433.12
359.802	435.12
360.029	444.12
360.256	452.12
360.483	447.12
360.709	437.12
360.936	435.12
361.163	423.12
361.39	399.12
361.616	394.12
361.843	425.12
362.07	427.12
362.296	426.12
362.523	409.12
362.749	414.12
362.976	427.12
363.203	421.12
363.429	404.12
363.656	422.12
363.882	406.12
364.109	435.12
364.335	415.12
364.562	427.12
364.788	419.12
365.015	397.12
365.241	415.12
365.468	444.12
365.694	426.12
365.92	425.12
366.147	413.12
366.373	399.12
366.599	431.12
366.826	413.12
367.052	403.12
367.278	419.12
367.505	419.12
367.731	423.12
367.957	425.12
368.184	428.12
368.41	429.12
368.636	434.12
368.862	451.12
369.089	449.12
369.315	423.12
369.541	414.12
369.767	410.12
369.993	419.12
370.219	389.12
370.445	408.12
370.672	423.12
370.898	433.12
371.124	409.12
371.35	419.12
371.576	413.12
371.802	413.12
372.028	424.12
372.254	428.12
372.48	435.12
372.706	433.12
372.932	434.12
373.158	449.12
373.384	433.12
373.61	439.12
373.835	439.12
374.061	430.12
374.287	426.12
374.513	434.12
374.739	443.12
374.965	441.12
375.191	436.12
375.416	459.12
375.642	430.12
375.868	437.12
376.094	433.12
376.319	445.12
376.545	430.12
376.771	415.12
376.997	423.12
377.222	407.12
377.448	407.12
377.674	406.12
377.899	433.12
378.125	424.12
378.35	401.12
378.576	403.12
378.802	418.12
379.027	414.12
379.253	434.12
379.478	411.12
379.704	417.12
379.929	408.12
380.155	443.12
380.38	425.12
380.606	428.12
380.831	429.12
381.057	430.12
381.282	442.12
381.507	434.12
381.733	449.12
381.958	423.12
382.184	421.12
382.409	430.12
382.634	431.12
382.86	463.12
383.085	466.12
383.31	451.12
383.535	452.12
383.761	473.12
383.986	459.12
384.211	459.12
384.436	453.12
384.662	481.12
384.887	475.12
385.112	476.12
385.337	471.12
385.562	466.12
385.787	464.12
386.013	486.12
386.238	465.12
386.463	469.12
386.688	471.12
386.913	479.12
387.138	474.12
387.363	466.12
387.588	477.12
387.813	462.12
388.038	479.12
388.263	473.12
388.488	474.12
388.713	475.12
388.938	491.12
389.163	474.12
389.387	466.12
389.612	470.12
389.837	474.12
390.062	462.12
390.287	482.12
390.512	467.12
390.736	486.12
390.961	503.12
391.186	471.12
391.411	493.12
391.636	494.12
391.86	507.12
392.085	519.12
392.31	527.12
392.534	514.12
392.759	502.12
392.984	497.12
393.208	495.12
393.433	484.12
393.658	478.12
393.882	489.12
394.107	473.12
394.331	477.12
394.556	491.12
394.78	500.12
395.005	510.12
395.229	497.12
395.454	495.12
395.678	523.12
395.903	506.12
396.127	534.12
396.352	522.12
396.576	517.12
396.801	511.12
397.025	501.12
397.249	514.12
397.474	531.12
397.698	538.12
397.922	550.12
398.147	549.12
398.371	517.12
398.595	538.12
398.82	561.12
399.044	577.12
399.268	622.12
399.492	671.12
399.717	734.12
399.941	723.12
400.165	719.12
400.389	693.12
400.613	667.12
400.837	605.12
401.062	569.12
401.286	579.12
401.51	544.12
401.734	569.12
401.958	560.12
402.182	564.12
402.406	582.12
402.63	579.12
402.854	574.12
403.078	577.12
403.302	597.12
403.526	596.12
403.75	611.12
403.974	620.12
404.198	587.12
404.422	626.12
404.645	589.12
404.869	613.12
405.093	621.12
405.317	656.12
405.541	702.12
405.765	642.12
405.988	595.12
406.212	614.12
406.436	637.12
406.66	638.12
406.883	618.12
407.107	655.12
407.331	698.12
407.555	755.12
407.778	742.12
408.002	684.12
408.226	669.12
408.449	634.12
408.673	636.12
408.896	658.12
409.12	683.12
409.344	643.12
409.567	615.12
409.791	614.12
410.014	591.12
410.238	575.12
410.461	602.12
410.685	596.12
410.908	591.12
411.132	636.12
411.355	638.12
411.578	643.12
411.802	571.12
412.025	572.12
412.249	595.12
412.472	618.12
412.695	636.12
412.919	604.12
413.142	596.12
413.365	570.12
413.589	589.12
413.812	572.12
414.035	555.12
414.258	565.12
414.482	563.12
414.705	563.12
414.928	581.12
415.151	549.12
415.374	571.12
415.597	539.12
415.821	542.12
416.044	569.12
416.267	558.12
416.49	548.12
416.713	547.12
416.936	546.12
417.159	538.12
417.382	561.12
417.605	563.12
417.828	544.12
418.051	581.12
418.274	557.12
418.497	533.12
418.72	546.12
418.943	567.12
419.166	581.12
419.389	625.12
419.611	602.12
419.834	595.12
420.057	594.12
420.28	597.12
420.503	563.12
420.726	547.12
420.948	564.12
421.171	602.12
421.394	627.12
421.617	597.12
421.839	553.12
422.062	582.12
422.285	576.12
422.507	609.12
422.73	690.12
422.953	675.12
423.175	603.12
423.398	621.12
423.621	598.12
423.843	617.12
424.066	612.12
424.288	591.12
424.511	622.12
424.733	661.12
424.956	716.12
425.178	701.12
425.401	675.12
425.623	713.12
425.846	637.12
426.068	581.12
426.291	570.12
426.513	573.12
426.735	574.12
426.958	622.12
427.18	685.12
427.402	817.12
427.625	851.12
427.847	731.12
428.069	654.12
428.292	603.12
428.514	581.12
428.736	563.12
428.958	555.12
429.181	534.12
429.403	554.12
429.625	548.12
429.847	557.12
430.069	629.12
430.292	597.12
430.514	556.12
430.736	535.12
430.958	539.12
431.18	537.12
431.402	519.12
431.624	519.12
431.846	530.12
432.068	515.12
432.29	542.12
432.512	501.12
432.734	512.12
432.956	547.12
433.178	542.12
433.4	525.12
433.622	533.12
433.844	533.12
434.066	525.12
434.287	523.12
434.509	546.12
434.731	555.12
434.953	538.12
435.175	571.12
435.397	596.12
435.618	619.12
435.84	604.12
436.062	701.12
436.284	731.12
436.505	646.12
436.727	574.12
436.949	573.12
437.17	565.12
437.392	553.12
437.614	542.12
437.835	563.12
438.057	621.12
438.278	695.12
438.5	703.12
438.721	797.12
438.943	748.12
439.165	640.12
439.386	602.12
439.608	584.12
439.829	551.12
440.05	566.12
440.272	591.12
440.493	584.12
440.715	544.12
440.936	553.12
441.158	577.12
441.379	559.12
441.6	578.12
441.822	602.12
442.043	590.12
442.264	670.12
442.486	715.12
442.707	620.12
442.928	606.12
443.149	631.12
443.371	612.12
443.592	651.12
443.813	733.12
444.034	785.12
444.255	683.12
444.476	634.12
444.698	638.12
444.919	624.12
445.14	753.12
445.361	687.12
445.582	633.12
445.803	649.12
446.024	728.12
446.245	726.12
446.466	686.12
446.687	597.12
446.908	580.12
447.129	532.12
447.35	543.12
447.571	525.12
447.792	509.12
448.013	540.12
448.234	524.12
448.455	565.12
448.675	651.12
448.896	737.12
449.117	660.12
449.338	631.12
449.559	709.12
449.779	817.12
450	665.12
450.221	571.12
450.442	543.12
450.662	515.12
450.883	513.12
451.104	516.12
451.324	524.12
451.545	499.12
451.766	484.12
451.986	471.12
452.207	472.12
452.428	473.12
452.648	482.12
452.869	481.12
453.089	475.12
453.31	492.12
453.53	458.12
453.751	467.12
453.971	470.12
454.192	481.12
454.412	471.12
454.633	463.12
454.853	475.12
455.073	471.12
455.294	482.12
455.514	548.12
455.734	521.12
455.955	470.12
456.175	471.12
456.395	450.12
456.616	466.12
456.836	443.12
457.056	453.12
457.276	445.12
457.497	435.12
457.717	463.12
457.937	475.12
458.157	457.12
458.377	478.12
458.598	473.12
458.818	527.12
459.038	583.12
459.258	611.12
459.478	537.12
459.698	531.12
459.918	530.12
460.138	545.12
460.358	554.12
460.578	555.12
460.798	548.12
461.018	569.12
461.238	552.12
461.458	550.12
461.678	563.12
461.898	567.12
462.118	578.12
462.338	587.12
462.558	603.12
462.777	596.12
462.997	661.12
463.217	662.12
463.437	663.12
463.657	602.12
463.876	614.12
464.096	607.12
464.316	602.12
464.536	629.12
464.755	601.12
464.975	599.12
465.195	599.12
465.414	614.12
465.634	570.12
465.854	550.12
466.073	503.12
466.293	521.12
466.512	483.12
466.732	499.12
466.951	508.12
467.171	492.12
467.391	500.12
467.61	501.12
467.829	533.12
468.049	522.12
468.268	481.12
468.488	474.12
468.707	490.12
468.927	463.12
469.146	470.12
469.365	475.12
469.585	488.12
469.804	491.12
470.023	510.12
470.243	503.12
470.462	507.12
470.681	519.12
470.901	521.12
471.12	497.12
471.339	533.12
471.558	482.12
471.777	493.12
471.997	477.12
472.216	507.12
472.435	521.12
472.654	523.12
472.873	493.12
473.092	517.12
473.311	499.12
473.53	497.12
473.749	474.12
473.968	533.12
474.187	597.12
474.406	610.12
474.625	532.12
474.844	522.12
475.063	486.12
475.282	501.12
475.501	501.12
475.72	493.12
475.939	513.12
476.158	515.12
476.377	521.12
476.596	493.12
476.814	516.12
477.033	533.12
477.252	521.12
477.471	539.12
477.69	519.12
477.908	552.12
478.127	559.12
478.346	571.12
478.564	566.12
478.783	550.12
479.002	569.12
479.22	575.12
479.439	585.12
479.658	594.12
479.876	598.12
480.095	619.12
480.313	631.12
480.532	641.12
480.751	608.12
480.969	627.12
481.188	660.12
481.406	640.12
481.624	605.12
481.843	581.12
482.061	570.12
482.28	564.12
482.498	591.12
482.717	602.12
482.935	582.12
483.153	566.12
483.372	581.12
483.59	571.12
483.808	573.12
484.027	553.12
484.245	562.12
484.463	587.12
484.681	575.12
484.9	598.12
485.118	583.12
485.336	593.12
485.554	600.12
485.772	619.12
485.99	600.12
486.209	603.12
486.427	600.12
486.645	605.12
486.863	615.12
487.081	623.12
487.299	610.12
487.517	604.12
487.735	595.12
487.953	617.12
488.171	592.12
488.389	604.12
488.607	600.12
488.825	584.12
489.043	596.12
489.261	631.12
489.479	621.12
489.696	629.12
489.914	611.12
490.132	636.12
490.35	647.12
490.568	656.12
490.786	653.12
491.003	653.12
491.221	669.12
491.439	679.12
491.657	670.12
491.874	683.12
492.092	692.12
492.31	685.12
492.527	677.12
492.745	682.12
492.963	698.12
493.18	707.12
493.398	681.12
493.615	711.12
493.833	724.12
494.05	709.12
494.268	716.12
494.485	707.12
494.703	718.12
494.92	716.12
495.138	718.12
495.355	702.12
495.573	718.12
495.79	712.12
496.008	733.12
496.225	695.12
496.442	720.12
496.66	710.12
496.877	722.12
497.094	716.12
497.312	760.12
497.529	754.12
497.746	758.12
497.963	766.12
498.181	793.12
498.398	814.12
498.615	854.12
498.832	866.12
499.049	891.12
499.267	928.12
499.484	973.12
499.701	1037.12
499.918	1071.12
500.135	1187.12
500.352	1249.12
500.569	1292.12
500.786	1242.12
501.003	1259.12
501.22	1211.12
501.437	1100.12
501.654	1056.12
