Data from 1973.PennyLincolnUp.Lamp.En5.5.200Scan.071719.P1.Changed Mount._HRD10591_15-43-43-852.txt Node
Date: Thu Jul 18 15:43:43 EDT 2019
User: cochatt
Spectrometer: HR+D1059
Trigger mode: 1
Integration Time (sec): 1.000000E-1
Scans to average: 1
Electric dark correction enabled: true
Nonlinearity correction enabled: false
Boxcar width: 0
XAxis mode: Wavelengths
Number of Pixels in Spectrum: 2048
>>>>>Begin Spectral Data<<<<<
223.165	-13.88
223.4	-13.88
223.635	-13.88
223.869	-21.88
224.104	-29.88
224.338	-23.88
224.573	-15.88
224.808	-8.88
225.042	-16.88
225.277	-4.88
225.511	-0.88
225.746	6.12
225.98	-1.88
226.215	14.12
226.449	16.12
226.683	27.12
226.918	38.12
227.152	37.12
227.387	33.12
227.621	32.12
227.856	61.12
228.09	56.12
228.324	47.12
228.559	42.12
228.793	42.12
229.027	84.12
229.262	101.12
229.496	106.12
229.73	116.12
229.964	134.12
230.199	124.12
230.433	95.12
230.667	105.12
230.901	110.12
231.136	106.12
231.37	102.12
231.604	106.12
231.838	111.12
232.072	109.12
232.306	96.12
232.541	107.12
232.775	111.12
233.009	110.12
233.243	108.12
233.477	112.12
233.711	118.12
233.945	116.12
234.179	106.12
234.413	113.12
234.647	114.12
234.881	104.12
235.115	116.12
235.349	116.12
235.583	126.12
235.817	124.12
236.051	119.12
236.285	126.12
236.519	117.12
236.753	136.12
236.987	132.12
237.221	160.12
237.455	182.12
237.689	155.12
237.922	142.12
238.156	122.12
238.39	118.12
238.624	119.12
238.858	126.12
239.091	118.12
239.325	110.12
239.559	112.12
239.793	119.12
240.027	127.12
240.26	133.12
240.494	146.12
240.728	152.12
240.961	126.12
241.195	138.12
241.429	140.12
241.662	127.12
241.896	117.12
242.13	131.12
242.363	132.12
242.597	131.12
242.83	143.12
243.064	128.12
243.298	144.12
243.531	138.12
243.765	131.12
243.998	132.12
244.232	134.12
244.465	134.12
244.699	142.12
244.932	157.12
245.166	148.12
245.399	140.12
245.633	134.12
245.866	129.12
246.099	151.12
246.333	154.12
246.566	157.12
246.8	154.12
247.033	142.12
247.266	160.12
247.5	159.12
247.733	174.12
247.966	169.12
248.2	164.12
248.433	148.12
248.666	151.12
248.899	170.12
249.133	176.12
249.366	175.12
249.599	175.12
249.832	153.12
250.066	172.12
250.299	192.12
250.532	185.12
250.765	200.12
250.998	198.12
251.231	205.12
251.465	191.12
251.698	189.12
251.931	204.12
252.164	202.12
252.397	179.12
252.63	180.12
252.863	183.12
253.096	179.12
253.329	207.12
253.562	196.12
253.795	206.12
254.028	205.12
254.261	192.12
254.494	216.12
254.727	221.12
254.96	238.12
255.193	233.12
255.426	217.12
255.659	202.12
255.892	208.12
256.124	212.12
256.357	200.12
256.59	214.12
256.823	210.12
257.056	200.12
257.289	202.12
257.521	205.12
257.754	197.12
257.987	201.12
258.22	190.12
258.452	210.12
258.685	193.12
258.918	191.12
259.151	195.12
259.383	220.12
259.616	204.12
259.849	214.12
260.081	216.12
260.314	242.12
260.547	234.12
260.779	231.12
261.012	226.12
261.244	217.12
261.477	223.12
261.71	222.12
261.942	219.12
262.175	230.12
262.407	202.12
262.64	222.12
262.872	207.12
263.105	216.12
263.337	208.12
263.57	203.12
263.802	211.12
264.035	206.12
264.267	218.12
264.499	208.12
264.732	198.12
264.964	216.12
265.197	216.12
265.429	208.12
265.661	213.12
265.894	227.12
266.126	220.12
266.358	211.12
266.591	225.12
266.823	215.12
267.055	235.12
267.287	234.12
267.52	235.12
267.752	216.12
267.984	204.12
268.216	226.12
268.448	215.12
268.681	232.12
268.913	249.12
269.145	250.12
269.377	252.12
269.609	273.12
269.841	276.12
270.073	266.12
270.306	272.12
270.538	291.12
270.77	306.12
271.002	273.12
271.234	264.12
271.466	274.12
271.698	264.12
271.93	281.12
272.162	300.12
272.394	290.12
272.626	280.12
272.858	273.12
273.09	272.12
273.322	281.12
273.553	264.12
273.785	265.12
274.017	262.12
274.249	267.12
274.481	270.12
274.713	276.12
274.945	247.12
275.176	248.12
275.408	259.12
275.64	248.12
275.872	265.12
276.104	251.12
276.335	253.12
276.567	253.12
276.799	283.12
277.031	280.12
277.262	308.12
277.494	312.12
277.726	284.12
277.957	268.12
278.189	272.12
278.421	277.12
278.652	254.12
278.884	264.12
279.115	258.12
279.347	258.12
279.579	271.12
279.81	283.12
280.042	263.12
280.273	268.12
280.505	268.12
280.736	265.12
280.968	269.12
281.199	265.12
281.431	276.12
281.662	278.12
281.894	262.12
282.125	274.12
282.356	295.12
282.588	288.12
282.819	306.12
283.051	266.12
283.282	277.12
283.513	287.12
283.745	276.12
283.976	303.12
284.207	279.12
284.439	289.12
284.67	294.12
284.901	285.12
285.132	287.12
285.364	281.12
285.595	316.12
285.826	299.12
286.057	284.12
286.288	303.12
286.52	307.12
286.751	290.12
286.982	284.12
287.213	300.12
287.444	295.12
287.675	293.12
287.906	300.12
288.138	314.12
288.369	315.12
288.6	308.12
288.831	290.12
289.062	318.12
289.293	306.12
289.524	318.12
289.755	285.12
289.986	304.12
290.217	302.12
290.448	290.12
290.679	309.12
290.91	294.12
291.141	312.12
291.371	303.12
291.602	286.12
291.833	286.12
292.064	309.12
292.295	313.12
292.526	306.12
292.757	303.12
292.987	293.12
293.218	296.12
293.449	303.12
293.68	308.12
293.91	310.12
294.141	318.12
294.372	320.12
294.603	288.12
294.833	313.12
295.064	295.12
295.295	310.12
295.525	306.12
295.756	306.12
295.987	318.12
296.217	317.12
296.448	330.12
296.679	306.12
296.909	308.12
297.14	328.12
297.37	307.12
297.601	335.12
297.831	308.12
298.062	318.12
298.292	302.12
298.523	323.12
298.753	318.12
298.984	311.12
299.214	315.12
299.445	308.12
299.675	323.12
299.905	319.12
300.136	313.12
300.366	320.12
300.597	339.12
300.827	351.12
301.057	317.12
301.288	323.12
301.518	329.12
301.748	332.12
301.979	354.12
302.209	332.12
302.439	345.12
302.669	317.12
302.9	324.12
303.13	339.12
303.36	345.12
303.59	354.12
303.82	351.12
304.051	333.12
304.281	351.12
304.511	330.12
304.741	346.12
304.971	331.12
305.201	350.12
305.431	343.12
305.661	330.12
305.891	328.12
306.121	339.12
306.352	339.12
306.582	322.12
306.812	325.12
307.042	342.12
307.272	331.12
307.502	340.12
307.731	344.12
307.961	331.12
308.191	337.12
308.421	346.12
308.651	331.12
308.881	339.12
309.111	344.12
309.341	336.12
309.571	348.12
309.8	350.12
310.03	350.12
310.26	352.12
310.49	343.12
310.72	372.12
310.949	354.12
311.179	382.12
311.409	362.12
311.639	350.12
311.868	359.12
312.098	360.12
312.328	365.12
312.557	357.12
312.787	379.12
313.017	376.12
313.246	381.12
313.476	374.12
313.706	359.12
313.935	383.12
314.165	391.12
314.394	383.12
314.624	381.12
314.853	366.12
315.083	361.12
315.312	384.12
315.542	376.12
315.771	359.12
316.001	370.12
316.23	362.12
316.46	382.12
316.689	380.12
316.919	367.12
317.148	380.12
317.377	377.12
317.607	380.12
317.836	378.12
318.065	363.12
318.295	366.12
318.524	373.12
318.753	356.12
318.983	370.12
319.212	342.12
319.441	367.12
319.67	358.12
319.9	362.12
320.129	365.12
320.358	389.12
320.587	353.12
320.816	384.12
321.046	384.12
321.275	399.12
321.504	393.12
321.733	381.12
321.962	374.12
322.191	374.12
322.42	380.12
322.649	418.12
322.878	410.12
323.108	419.12
323.337	410.12
323.566	398.12
323.795	422.12
324.024	433.12
324.253	496.12
324.482	642.12
324.71	877.12
324.939	1238.12
325.168	1100.12
325.397	626.12
325.626	473.12
325.855	461.12
326.084	423.12
326.313	406.12
326.542	439.12
326.77	450.12
326.999	502.12
327.228	609.12
327.457	831.12
327.686	988.12
327.914	687.12
328.143	525.12
328.372	462.12
328.6	457.12
328.829	472.12
329.058	471.12
329.287	447.12
329.515	445.12
329.744	440.12
329.972	454.12
330.201	436.12
330.43	446.12
330.658	474.12
330.887	499.12
331.115	464.12
331.344	439.12
331.572	446.12
331.801	450.12
332.03	452.12
332.258	441.12
332.486	442.12
332.715	438.12
332.943	447.12
333.172	457.12
333.4	460.12
333.629	458.12
333.857	475.12
334.085	495.12
334.314	501.12
334.542	501.12
334.771	491.12
334.999	482.12
335.227	456.12
335.455	472.12
335.684	440.12
335.912	455.12
336.14	456.12
336.369	457.12
336.597	467.12
336.825	456.12
337.053	440.12
337.281	438.12
337.51	424.12
337.738	422.12
337.966	444.12
338.194	457.12
338.422	427.12
338.65	429.12
338.878	435.12
339.106	418.12
339.334	427.12
339.562	418.12
339.79	416.12
340.018	421.12
340.246	423.12
340.474	419.12
340.702	437.12
340.93	425.12
341.158	432.12
341.386	440.12
341.614	444.12
341.842	416.12
342.07	442.12
342.298	412.12
342.526	412.12
342.754	399.12
342.981	408.12
343.209	436.12
343.437	413.12
343.665	430.12
343.893	431.12
344.12	464.12
344.348	466.12
344.576	444.12
344.804	427.12
345.031	442.12
345.259	422.12
345.487	432.12
345.714	405.12
345.942	415.12
346.17	411.12
346.397	404.12
346.625	409.12
346.853	405.12
347.08	401.12
347.308	386.12
347.535	397.12
347.763	397.12
347.99	399.12
348.218	413.12
348.445	406.12
348.673	397.12
348.9	394.12
349.128	398.12
349.355	376.12
349.583	392.12
349.81	387.12
350.037	393.12
350.265	388.12
350.492	389.12
350.72	388.12
350.947	384.12
351.174	410.12
351.402	394.12
351.629	382.12
351.856	385.12
352.083	412.12
352.311	398.12
352.538	390.12
352.765	394.12
352.992	392.12
353.22	381.12
353.447	386.12
353.674	396.12
353.901	402.12
354.128	399.12
354.355	378.12
354.583	399.12
354.81	400.12
355.037	396.12
355.264	381.12
355.491	362.12
355.718	414.12
355.945	380.12
356.172	379.12
356.399	391.12
356.626	371.12
356.853	357.12
357.08	394.12
357.307	376.12
357.534	377.12
357.761	372.12
357.988	386.12
358.215	388.12
358.441	379.12
358.668	377.12
358.895	400.12
359.122	394.12
359.349	406.12
359.576	400.12
359.802	400.12
360.029	417.12
360.256	416.12
360.483	399.12
360.709	404.12
360.936	394.12
361.163	396.12
361.39	380.12
361.616	410.12
361.843	377.12
362.07	412.12
362.296	393.12
362.523	398.12
362.749	384.12
362.976	383.12
363.203	366.12
363.429	389.12
363.656	393.12
363.882	378.12
364.109	412.12
364.335	395.12
364.562	383.12
364.788	392.12
365.015	394.12
365.241	381.12
365.468	387.12
365.694	402.12
365.92	404.12
366.147	375.12
366.373	395.12
366.599	409.12
366.826	399.12
367.052	362.12
367.278	380.12
367.505	398.12
367.731	390.12
367.957	398.12
368.184	381.12
368.41	405.12
368.636	413.12
368.862	408.12
369.089	399.12
369.315	395.12
369.541	379.12
369.767	380.12
369.993	409.12
370.219	382.12
370.445	392.12
370.672	392.12
370.898	407.12
371.124	387.12
371.35	410.12
371.576	407.12
371.802	420.12
372.028	421.12
372.254	414.12
372.48	377.12
372.706	396.12
372.932	406.12
373.158	413.12
373.384	401.12
373.61	406.12
373.835	411.12
374.061	403.12
374.287	410.12
374.513	408.12
374.739	418.12
374.965	430.12
375.191	443.12
375.416	420.12
375.642	414.12
375.868	418.12
376.094	383.12
376.319	414.12
376.545	389.12
376.771	392.12
376.997	400.12
377.222	398.12
377.448	398.12
377.674	405.12
377.899	386.12
378.125	404.12
378.35	400.12
378.576	397.12
378.802	378.12
379.027	392.12
379.253	413.12
379.478	400.12
379.704	412.12
379.929	388.12
380.155	397.12
380.38	418.12
380.606	408.12
380.831	412.12
381.057	415.12
381.282	416.12
381.507	398.12
381.733	417.12
381.958	387.12
382.184	392.12
382.409	412.12
382.634	418.12
382.86	407.12
383.085	432.12
383.31	402.12
383.535	418.12
383.761	400.12
383.986	431.12
384.211	463.12
384.436	439.12
384.662	441.12
384.887	422.12
385.112	442.12
385.337	463.12
385.562	447.12
385.787	466.12
386.013	478.12
386.238	475.12
386.463	443.12
386.688	448.12
386.913	442.12
387.138	451.12
387.363	449.12
387.588	450.12
387.813	456.12
388.038	456.12
388.263	464.12
388.488	454.12
388.713	449.12
388.938	459.12
389.163	471.12
389.387	468.12
389.612	441.12
389.837	438.12
390.062	459.12
390.287	456.12
390.512	445.12
390.736	460.12
390.961	452.12
391.186	441.12
391.411	461.12
391.636	459.12
391.86	491.12
392.085	470.12
392.31	476.12
392.534	475.12
392.759	465.12
392.984	468.12
393.208	474.12
393.433	454.12
393.658	442.12
393.882	465.12
394.107	452.12
394.331	472.12
394.556	463.12
394.78	475.12
395.005	482.12
395.229	475.12
395.454	474.12
395.678	487.12
395.903	486.12
396.127	493.12
396.352	499.12
396.576	485.12
396.801	478.12
397.025	483.12
397.249	474.12
397.474	475.12
397.698	498.12
397.922	496.12
398.147	502.12
398.371	538.12
398.595	529.12
398.82	535.12
399.044	543.12
399.268	575.12
399.492	610.12
399.717	670.12
399.941	700.12
400.165	690.12
400.389	674.12
400.613	590.12
400.837	554.12
401.062	555.12
401.286	513.12
401.51	534.12
401.734	558.12
401.958	526.12
402.182	524.12
402.406	543.12
402.63	516.12
402.854	542.12
403.078	549.12
403.302	568.12
403.526	556.12
403.75	557.12
403.974	562.12
404.198	564.12
404.422	581.12
404.645	571.12
404.869	583.12
405.093	588.12
405.317	614.12
405.541	634.12
405.765	595.12
405.988	559.12
406.212	589.12
406.436	594.12
406.66	593.12
406.883	596.12
407.107	614.12
407.331	654.12
407.555	705.12
407.778	702.12
408.002	666.12
408.226	617.12
408.449	602.12
408.673	608.12
408.896	627.12
409.12	644.12
409.344	636.12
409.567	600.12
409.791	581.12
410.014	559.12
410.238	581.12
410.461	548.12
410.685	581.12
410.908	567.12
411.132	572.12
411.355	593.12
411.578	596.12
411.802	538.12
412.025	536.12
412.249	548.12
412.472	573.12
412.695	584.12
412.919	575.12
413.142	544.12
413.365	527.12
413.589	528.12
413.812	505.12
414.035	490.12
414.258	527.12
414.482	532.12
414.705	524.12
414.928	511.12
415.151	496.12
415.374	514.12
415.597	524.12
415.821	518.12
416.044	492.12
416.267	498.12
416.49	520.12
416.713	534.12
416.936	514.12
417.159	500.12
417.382	521.12
417.605	516.12
417.828	552.12
418.051	534.12
418.274	529.12
418.497	525.12
418.72	526.12
418.943	513.12
419.166	536.12
419.389	564.12
419.611	566.12
419.834	521.12
420.057	553.12
420.28	539.12
420.503	532.12
420.726	548.12
420.948	536.12
421.171	585.12
421.394	582.12
421.617	564.12
421.839	543.12
422.062	532.12
422.285	557.12
422.507	585.12
422.73	630.12
422.953	621.12
423.175	568.12
423.398	534.12
423.621	529.12
423.843	577.12
424.066	566.12
424.288	558.12
424.511	582.12
424.733	608.12
424.956	668.12
425.178	654.12
425.401	624.12
425.623	662.12
425.846	580.12
426.068	541.12
426.291	541.12
426.513	549.12
426.735	534.12
426.958	575.12
427.18	621.12
427.402	743.12
427.625	798.12
427.847	702.12
428.069	615.12
428.292	546.12
428.514	534.12
428.736	494.12
428.958	518.12
429.181	475.12
429.403	487.12
429.625	502.12
429.847	528.12
430.069	575.12
430.292	589.12
430.514	514.12
430.736	507.12
430.958	489.12
431.18	508.12
431.402	463.12
431.624	506.12
431.846	481.12
432.068	506.12
432.29	504.12
432.512	488.12
432.734	492.12
432.956	493.12
433.178	489.12
433.4	474.12
433.622	506.12
433.844	488.12
434.066	466.12
434.287	485.12
434.509	491.12
434.731	518.12
434.953	508.12
435.175	508.12
435.397	537.12
435.618	547.12
435.84	558.12
436.062	631.12
436.284	674.12
436.505	579.12
436.727	510.12
436.949	510.12
437.17	519.12
437.392	495.12
437.614	518.12
437.835	518.12
438.057	606.12
438.278	652.12
438.5	649.12
438.721	732.12
438.943	719.12
439.165	578.12
439.386	546.12
439.608	537.12
439.829	525.12
440.05	557.12
440.272	580.12
440.493	551.12
440.715	514.12
440.936	522.12
441.158	531.12
441.379	539.12
441.6	524.12
441.822	546.12
442.043	587.12
442.264	640.12
442.486	677.12
442.707	588.12
442.928	540.12
443.149	564.12
443.371	584.12
443.592	632.12
443.813	688.12
444.034	731.12
444.255	618.12
444.476	572.12
444.698	584.12
444.919	590.12
445.14	661.12
445.361	601.12
445.582	601.12
445.803	599.12
446.024	690.12
446.245	683.12
446.466	623.12
446.687	549.12
446.908	562.12
447.129	518.12
447.35	503.12
447.571	507.12
447.792	484.12
448.013	491.12
448.234	481.12
448.455	523.12
448.675	614.12
448.896	721.12
449.117	606.12
449.338	558.12
449.559	676.12
449.779	750.12
450	600.12
450.221	515.12
450.442	502.12
450.662	484.12
450.883	500.12
451.104	476.12
451.324	470.12
451.545	446.12
451.766	443.12
451.986	445.12
452.207	458.12
452.428	436.12
452.648	453.12
452.869	446.12
453.089	444.12
453.31	464.12
453.53	442.12
453.751	449.12
453.971	442.12
454.192	444.12
454.412	445.12
454.633	416.12
454.853	444.12
455.073	421.12
455.294	446.12
455.514	516.12
455.734	498.12
455.955	428.12
456.175	415.12
456.395	408.12
456.616	428.12
456.836	436.12
457.056	414.12
457.276	399.12
457.497	429.12
457.717	426.12
457.937	430.12
458.157	428.12
458.377	427.12
458.598	428.12
458.818	471.12
459.038	531.12
459.258	540.12
459.478	503.12
459.698	457.12
459.918	490.12
460.138	494.12
460.358	512.12
460.578	507.12
460.798	528.12
461.018	526.12
461.238	522.12
461.458	516.12
461.678	494.12
461.898	533.12
462.118	504.12
462.338	524.12
462.558	549.12
462.777	544.12
462.997	582.12
463.217	612.12
463.437	610.12
463.657	568.12
463.876	559.12
464.096	562.12
464.316	561.12
464.536	564.12
464.755	558.12
464.975	534.12
465.195	533.12
465.414	549.12
465.634	528.12
465.854	506.12
466.073	482.12
466.293	482.12
466.512	464.12
466.732	465.12
466.951	468.12
467.171	446.12
467.391	461.12
467.61	460.12
467.829	468.12
468.049	473.12
468.268	448.12
468.488	454.12
468.707	442.12
468.927	429.12
469.146	450.12
469.365	455.12
469.585	469.12
469.804	451.12
470.023	486.12
470.243	466.12
470.462	490.12
470.681	481.12
470.901	484.12
471.12	485.12
471.339	473.12
471.558	496.12
471.777	469.12
471.997	440.12
472.216	462.12
472.435	455.12
472.654	466.12
472.873	472.12
473.092	459.12
473.311	437.12
473.53	472.12
473.749	482.12
473.968	501.12
474.187	542.12
474.406	574.12
474.625	488.12
474.844	473.12
475.063	451.12
475.282	464.12
475.501	479.12
475.72	490.12
475.939	468.12
476.158	463.12
476.377	468.12
476.596	475.12
476.814	479.12
477.033	500.12
477.252	484.12
477.471	499.12
477.69	494.12
477.908	510.12
478.127	528.12
478.346	523.12
478.564	526.12
478.783	532.12
479.002	548.12
479.22	554.12
479.439	544.12
479.658	575.12
479.876	567.12
480.095	568.12
480.313	587.12
480.532	589.12
480.751	572.12
480.969	588.12
481.188	609.12
481.406	593.12
481.624	568.12
481.843	524.12
482.061	537.12
482.28	540.12
482.498	550.12
482.717	538.12
482.935	552.12
483.153	514.12
483.372	536.12
483.59	560.12
483.808	516.12
484.027	509.12
484.245	557.12
484.463	544.12
484.681	547.12
484.9	533.12
485.118	555.12
485.336	539.12
485.554	556.12
485.772	558.12
485.99	549.12
486.209	574.12
486.427	564.12
486.645	564.12
486.863	557.12
487.081	558.12
487.299	574.12
487.517	567.12
487.735	553.12
487.953	562.12
488.171	558.12
488.389	575.12
488.607	559.12
488.825	571.12
489.043	548.12
489.261	574.12
489.479	586.12
489.696	599.12
489.914	579.12
490.132	597.12
490.35	579.12
490.568	592.12
490.786	605.12
491.003	623.12
491.221	620.12
491.439	615.12
491.657	627.12
491.874	636.12
492.092	653.12
492.31	631.12
492.527	655.12
492.745	650.12
492.963	649.12
493.18	663.12
493.398	633.12
493.615	665.12
493.833	675.12
494.05	680.12
494.268	652.12
494.485	646.12
494.703	643.12
494.92	642.12
495.138	668.12
495.355	646.12
495.573	651.12
495.79	670.12
496.008	648.12
496.225	662.12
496.442	667.12
496.66	670.12
496.877	653.12
497.094	680.12
497.312	697.12
497.529	699.12
497.746	731.12
497.963	730.12
498.181	741.12
498.398	760.12
498.615	766.12
498.832	822.12
499.049	843.12
499.267	880.12
499.484	893.12
499.701	962.12
499.918	987.12
500.135	1040.12
500.352	1151.12
500.569	1146.12
500.786	1213.12
501.003	1163.12
501.22	1074.12
501.437	1048.12
501.654	998.12
