Data from 1973.PennyLincolnUp.Lamp.En5.5.200Scan.071719.P1.Changed Mount._HRD10591_15-44-11-852.txt Node
Date: Thu Jul 18 15:44:11 EDT 2019
User: cochatt
Spectrometer: HR+D1059
Trigger mode: 1
Integration Time (sec): 1.000000E-1
Scans to average: 1
Electric dark correction enabled: true
Nonlinearity correction enabled: false
Boxcar width: 0
XAxis mode: Wavelengths
Number of Pixels in Spectrum: 2048
>>>>>Begin Spectral Data<<<<<
223.165	-21.06
223.4	-21.06
223.635	-21.06
223.869	-10.06
224.104	-30.06
224.338	-6.06
224.573	-14.06
224.808	-3.06
225.042	-9.06
225.277	-19.06
225.511	-15.06
225.746	-3.06
225.98	16.94
226.215	23.94
226.449	14.94
226.683	23.94
226.918	29.94
227.152	20.94
227.387	18.94
227.621	40.94
227.856	48.94
228.09	52.94
228.324	68.94
228.559	60.94
228.793	84.94
229.027	96.94
229.262	110.94
229.496	106.94
229.73	132.94
229.964	144.94
230.199	132.94
230.433	113.94
230.667	109.94
230.901	117.94
231.136	116.94
231.37	121.94
231.604	116.94
231.838	100.94
232.072	114.94
232.306	117.94
232.541	105.94
232.775	114.94
233.009	126.94
233.243	112.94
233.477	122.94
233.711	113.94
233.945	106.94
234.179	119.94
234.413	109.94
234.647	121.94
234.881	131.94
235.115	119.94
235.349	122.94
235.583	127.94
235.817	128.94
236.051	111.94
236.285	126.94
236.519	124.94
236.753	122.94
236.987	151.94
237.221	172.94
237.455	184.94
237.689	175.94
237.922	130.94
238.156	122.94
238.39	129.94
238.624	120.94
238.858	126.94
239.091	138.94
239.325	130.94
239.559	146.94
239.793	141.94
240.027	137.94
240.26	142.94
240.494	157.94
240.728	143.94
240.961	158.94
241.195	161.94
241.429	144.94
241.662	136.94
241.896	135.94
242.13	154.94
242.363	153.94
242.597	129.94
242.83	154.94
243.064	146.94
243.298	148.94
243.531	130.94
243.765	136.94
243.998	149.94
244.232	150.94
244.465	145.94
244.699	166.94
244.932	161.94
245.166	154.94
245.399	152.94
245.633	157.94
245.866	149.94
246.099	152.94
246.333	167.94
246.566	163.94
246.8	167.94
247.033	147.94
247.266	127.94
247.5	150.94
247.733	184.94
247.966	188.94
248.2	183.94
248.433	184.94
248.666	189.94
248.899	185.94
249.133	201.94
249.366	192.94
249.599	193.94
249.832	185.94
250.066	177.94
250.299	189.94
250.532	190.94
250.765	196.94
250.998	212.94
251.231	231.94
251.465	198.94
251.698	206.94
251.931	198.94
252.164	188.94
252.397	191.94
252.63	202.94
252.863	209.94
253.096	214.94
253.329	206.94
253.562	226.94
253.795	200.94
254.028	196.94
254.261	201.94
254.494	239.94
254.727	237.94
254.96	241.94
255.193	252.94
255.426	229.94
255.659	230.94
255.892	226.94
256.124	217.94
256.357	231.94
256.59	212.94
256.823	224.94
257.056	208.94
257.289	206.94
257.521	207.94
257.754	224.94
257.987	210.94
258.22	216.94
258.452	226.94
258.685	211.94
258.918	224.94
259.151	215.94
259.383	213.94
259.616	207.94
259.849	211.94
260.081	239.94
260.314	261.94
260.547	252.94
260.779	237.94
261.012	225.94
261.244	244.94
261.477	234.94
261.71	230.94
261.942	233.94
262.175	231.94
262.407	227.94
262.64	208.94
262.872	229.94
263.105	213.94
263.337	229.94
263.57	212.94
263.802	225.94
264.035	218.94
264.267	219.94
264.499	219.94
264.732	220.94
264.964	228.94
265.197	223.94
265.429	216.94
265.661	229.94
265.894	216.94
266.126	222.94
266.358	215.94
266.591	216.94
266.823	241.94
267.055	225.94
267.287	249.94
267.52	239.94
267.752	228.94
267.984	244.94
268.216	251.94
268.448	238.94
268.681	259.94
268.913	272.94
269.145	270.94
269.377	280.94
269.609	277.94
269.841	274.94
270.073	266.94
270.306	292.94
270.538	290.94
270.77	315.94
271.002	280.94
271.234	275.94
271.466	294.94
271.698	294.94
271.93	301.94
272.162	311.94
272.394	309.94
272.626	294.94
272.858	275.94
273.09	289.94
273.322	275.94
273.553	282.94
273.785	266.94
274.017	262.94
274.249	285.94
274.481	273.94
274.713	273.94
274.945	298.94
275.176	273.94
275.408	274.94
275.64	265.94
275.872	254.94
276.104	284.94
276.335	278.94
276.567	290.94
276.799	303.94
277.031	316.94
277.262	328.94
277.494	311.94
277.726	294.94
277.957	312.94
278.189	281.94
278.421	278.94
278.652	280.94
278.884	294.94
279.115	275.94
279.347	286.94
279.579	297.94
279.81	300.94
280.042	296.94
280.273	285.94
280.505	265.94
280.736	287.94
280.968	308.94
281.199	289.94
281.431	295.94
281.662	305.94
281.894	290.94
282.125	311.94
282.356	311.94
282.588	304.94
282.819	301.94
283.051	304.94
283.282	298.94
283.513	292.94
283.745	293.94
283.976	314.94
284.207	301.94
284.439	309.94
284.67	296.94
284.901	304.94
285.132	307.94
285.364	296.94
285.595	295.94
285.826	302.94
286.057	298.94
286.288	295.94
286.52	313.94
286.751	298.94
286.982	304.94
287.213	312.94
287.444	311.94
287.675	305.94
287.906	313.94
288.138	302.94
288.369	324.94
288.6	338.94
288.831	317.94
289.062	329.94
289.293	328.94
289.524	318.94
289.755	317.94
289.986	315.94
290.217	324.94
290.448	328.94
290.679	315.94
290.91	322.94
291.141	323.94
291.371	318.94
291.602	335.94
291.833	322.94
292.064	334.94
292.295	333.94
292.526	318.94
292.757	323.94
292.987	312.94
293.218	314.94
293.449	323.94
293.68	332.94
293.91	321.94
294.141	330.94
294.372	305.94
294.603	322.94
294.833	323.94
295.064	320.94
295.295	320.94
295.525	321.94
295.756	330.94
295.987	322.94
296.217	337.94
296.448	348.94
296.679	335.94
296.909	315.94
297.14	334.94
297.37	348.94
297.601	328.94
297.831	330.94
298.062	325.94
298.292	321.94
298.523	330.94
298.753	348.94
298.984	340.94
299.214	350.94
299.445	342.94
299.675	335.94
299.905	337.94
300.136	336.94
300.366	353.94
300.597	336.94
300.827	343.94
301.057	359.94
301.288	370.94
301.518	342.94
301.748	364.94
301.979	360.94
302.209	333.94
302.439	374.94
302.669	368.94
302.9	357.94
303.13	361.94
303.36	363.94
303.59	370.94
303.82	362.94
304.051	375.94
304.281	367.94
304.511	340.94
304.741	351.94
304.971	351.94
305.201	363.94
305.431	355.94
305.661	368.94
305.891	347.94
306.121	360.94
306.352	374.94
306.582	367.94
306.812	377.94
307.042	358.94
307.272	352.94
307.502	367.94
307.731	352.94
307.961	366.94
308.191	362.94
308.421	382.94
308.651	361.94
308.881	358.94
309.111	368.94
309.341	380.94
309.571	365.94
309.8	364.94
310.03	384.94
310.26	380.94
310.49	364.94
310.72	392.94
310.949	399.94
311.179	394.94
311.409	383.94
311.639	394.94
311.868	386.94
312.098	364.94
312.328	380.94
312.557	380.94
312.787	401.94
313.017	393.94
313.246	402.94
313.476	400.94
313.706	386.94
313.935	382.94
314.165	416.94
314.394	413.94
314.624	406.94
314.853	398.94
315.083	396.94
315.312	389.94
315.542	394.94
315.771	406.94
316.001	397.94
316.23	394.94
316.46	367.94
316.689	376.94
316.919	385.94
317.148	401.94
317.377	405.94
317.607	386.94
317.836	386.94
318.065	381.94
318.295	392.94
318.524	409.94
318.753	401.94
318.983	406.94
319.212	388.94
319.441	401.94
319.67	414.94
319.9	381.94
320.129	407.94
320.358	402.94
320.587	394.94
320.816	398.94
321.046	418.94
321.275	400.94
321.504	400.94
321.733	410.94
321.962	416.94
322.191	417.94
322.42	437.94
322.649	424.94
322.878	440.94
323.108	444.94
323.337	448.94
323.566	465.94
323.795	450.94
324.024	496.94
324.253	551.94
324.482	729.94
324.71	1032.94
324.939	1427.94
325.168	1284.94
325.397	692.94
325.626	516.94
325.855	466.94
326.084	478.94
326.313	475.94
326.542	471.94
326.77	486.94
326.999	539.94
327.228	650.94
327.457	958.94
327.686	1129.94
327.914	791.94
328.143	568.94
328.372	538.94
328.6	531.94
328.829	506.94
329.058	504.94
329.287	526.94
329.515	492.94
329.744	491.94
329.972	488.94
330.201	481.94
330.43	502.94
330.658	524.94
330.887	543.94
331.115	537.94
331.344	491.94
331.572	476.94
331.801	493.94
332.03	470.94
332.258	499.94
332.486	486.94
332.715	468.94
332.943	478.94
333.172	474.94
333.4	487.94
333.629	512.94
333.857	536.94
334.085	517.94
334.314	540.94
334.542	551.94
334.771	537.94
334.999	527.94
335.227	498.94
335.455	486.94
335.684	487.94
335.912	489.94
336.14	484.94
336.369	480.94
336.597	485.94
336.825	488.94
337.053	472.94
337.281	449.94
337.51	455.94
337.738	472.94
337.966	470.94
338.194	463.94
338.422	460.94
338.65	461.94
338.878	454.94
339.106	461.94
339.334	443.94
339.562	448.94
339.79	449.94
340.018	448.94
340.246	443.94
340.474	433.94
340.702	450.94
340.93	443.94
341.158	441.94
341.386	449.94
341.614	461.94
341.842	439.94
342.07	452.94
342.298	444.94
342.526	415.94
342.754	448.94
342.981	444.94
343.209	440.94
343.437	451.94
343.665	464.94
343.893	467.94
344.12	486.94
344.348	508.94
344.576	468.94
344.804	470.94
345.031	459.94
345.259	444.94
345.487	449.94
345.714	448.94
345.942	448.94
346.17	456.94
346.397	444.94
346.625	406.94
346.853	419.94
347.08	400.94
347.308	438.94
347.535	426.94
347.763	434.94
347.99	439.94
348.218	426.94
348.445	434.94
348.673	424.94
348.9	408.94
349.128	439.94
349.355	415.94
349.583	426.94
349.81	408.94
350.037	424.94
350.265	409.94
350.492	401.94
350.72	408.94
350.947	414.94
351.174	424.94
351.402	406.94
351.629	428.94
351.856	425.94
352.083	430.94
352.311	435.94
352.538	433.94
352.765	420.94
352.992	433.94
353.22	415.94
353.447	405.94
353.674	408.94
353.901	406.94
354.128	422.94
354.355	402.94
354.583	398.94
354.81	403.94
355.037	396.94
355.264	415.94
355.491	397.94
355.718	394.94
355.945	393.94
356.172	410.94
356.399	392.94
356.626	400.94
356.853	378.94
357.08	395.94
357.307	402.94
357.534	400.94
357.761	402.94
357.988	408.94
358.215	394.94
358.441	413.94
358.668	410.94
358.895	411.94
359.122	408.94
359.349	425.94
359.576	419.94
359.802	434.94
360.029	417.94
360.256	428.94
360.483	441.94
360.709	410.94
360.936	410.94
361.163	425.94
361.39	410.94
361.616	395.94
361.843	396.94
362.07	417.94
362.296	432.94
362.523	440.94
362.749	410.94
362.976	413.94
363.203	419.94
363.429	402.94
363.656	398.94
363.882	420.94
364.109	399.94
364.335	410.94
364.562	418.94
364.788	436.94
365.015	396.94
365.241	421.94
365.468	409.94
365.694	411.94
365.92	420.94
366.147	393.94
366.373	411.94
366.599	417.94
366.826	411.94
367.052	410.94
367.278	413.94
367.505	419.94
367.731	426.94
367.957	394.94
368.184	400.94
368.41	415.94
368.636	412.94
368.862	407.94
369.089	417.94
369.315	428.94
369.541	415.94
369.767	424.94
369.993	396.94
370.219	405.94
370.445	424.94
370.672	432.94
370.898	417.94
371.124	403.94
371.35	414.94
371.576	415.94
371.802	414.94
372.028	422.94
372.254	419.94
372.48	436.94
372.706	427.94
372.932	422.94
373.158	420.94
373.384	405.94
373.61	425.94
373.835	436.94
374.061	418.94
374.287	420.94
374.513	409.94
374.739	432.94
374.965	442.94
375.191	430.94
375.416	445.94
375.642	436.94
375.868	431.94
376.094	428.94
376.319	422.94
376.545	421.94
376.771	428.94
376.997	436.94
377.222	416.94
377.448	417.94
377.674	422.94
377.899	410.94
378.125	418.94
378.35	431.94
378.576	430.94
378.802	424.94
379.027	424.94
379.253	409.94
379.478	432.94
379.704	416.94
379.929	403.94
380.155	433.94
380.38	438.94
380.606	420.94
380.831	402.94
381.057	435.94
381.282	428.94
381.507	425.94
381.733	431.94
381.958	435.94
382.184	424.94
382.409	410.94
382.634	449.94
382.86	431.94
383.085	431.94
383.31	424.94
383.535	449.94
383.761	453.94
383.986	444.94
384.211	448.94
384.436	486.94
384.662	454.94
384.887	463.94
385.112	453.94
385.337	462.94
385.562	465.94
385.787	459.94
386.013	486.94
386.238	470.94
386.463	490.94
386.688	471.94
386.913	474.94
387.138	476.94
387.363	483.94
387.588	479.94
387.813	490.94
388.038	464.94
388.263	460.94
388.488	488.94
388.713	457.94
388.938	473.94
389.163	470.94
389.387	468.94
389.612	457.94
389.837	462.94
390.062	459.94
390.287	467.94
390.512	476.94
390.736	468.94
390.961	464.94
391.186	460.94
391.411	499.94
391.636	515.94
391.86	515.94
392.085	503.94
392.31	486.94
392.534	508.94
392.759	501.94
392.984	486.94
393.208	468.94
393.433	489.94
393.658	482.94
393.882	479.94
394.107	486.94
394.331	507.94
394.556	500.94
394.78	476.94
395.005	480.94
395.229	497.94
395.454	520.94
395.678	510.94
395.903	498.94
396.127	520.94
396.352	532.94
396.576	517.94
396.801	503.94
397.025	494.94
397.249	496.94
397.474	517.94
397.698	486.94
397.922	519.94
398.147	530.94
398.371	533.94
398.595	528.94
398.82	558.94
399.044	579.94
399.268	610.94
399.492	666.94
399.717	684.94
399.941	737.94
400.165	705.94
400.389	698.94
400.613	639.94
400.837	585.94
401.062	581.94
401.286	582.94
401.51	561.94
401.734	562.94
401.958	574.94
402.182	567.94
402.406	558.94
402.63	570.94
402.854	574.94
403.078	587.94
403.302	598.94
403.526	581.94
403.75	572.94
403.974	601.94
404.198	584.94
404.422	589.94
404.645	583.94
404.869	621.94
405.093	609.94
405.317	649.94
405.541	683.94
405.765	661.94
405.988	588.94
406.212	619.94
406.436	599.94
406.66	607.94
406.883	616.94
407.107	638.94
407.331	676.94
407.555	742.94
407.778	773.94
408.002	693.94
408.226	642.94
408.449	628.94
408.673	604.94
408.896	645.94
409.12	688.94
409.344	644.94
409.567	600.94
409.791	576.94
410.014	562.94
410.238	578.94
410.461	568.94
410.685	579.94
410.908	600.94
411.132	613.94
411.355	648.94
411.578	639.94
411.802	570.94
412.025	601.94
412.249	605.94
412.472	618.94
412.695	620.94
412.919	613.94
413.142	556.94
413.365	553.94
413.589	559.94
413.812	538.94
414.035	538.94
414.258	558.94
414.482	530.94
414.705	545.94
414.928	557.94
415.151	538.94
415.374	550.94
415.597	541.94
415.821	527.94
416.044	540.94
416.267	552.94
416.49	543.94
416.713	550.94
416.936	549.94
417.159	538.94
417.382	565.94
417.605	556.94
417.828	548.94
418.051	568.94
418.274	573.94
418.497	545.94
418.72	573.94
418.943	548.94
419.166	561.94
419.389	596.94
419.611	604.94
419.834	570.94
420.057	583.94
420.28	585.94
420.503	573.94
420.726	546.94
420.948	582.94
421.171	586.94
421.394	621.94
421.617	569.94
421.839	519.94
422.062	558.94
422.285	574.94
422.507	621.94
422.73	684.94
422.953	646.94
423.175	604.94
423.398	591.94
423.621	575.94
423.843	622.94
424.066	609.94
424.288	606.94
424.511	600.94
424.733	644.94
424.956	718.94
425.178	686.94
425.401	684.94
425.623	689.94
425.846	621.94
426.068	557.94
426.291	587.94
426.513	570.94
426.735	579.94
426.958	603.94
427.18	679.94
427.402	776.94
427.625	842.94
427.847	757.94
428.069	647.94
428.292	585.94
428.514	560.94
428.736	549.94
428.958	545.94
429.181	519.94
429.403	530.94
429.625	517.94
429.847	571.94
430.069	591.94
430.292	601.94
430.514	538.94
430.736	526.94
430.958	510.94
431.18	504.94
431.402	526.94
431.624	487.94
431.846	492.94
432.068	505.94
432.29	504.94
432.512	501.94
432.734	510.94
432.956	522.94
433.178	524.94
433.4	518.94
433.622	539.94
433.844	523.94
434.066	513.94
434.287	494.94
434.509	534.94
434.731	537.94
434.953	545.94
435.175	560.94
435.397	561.94
435.618	567.94
435.84	614.94
436.062	684.94
436.284	718.94
436.505	613.94
436.727	557.94
436.949	539.94
437.17	537.94
437.392	534.94
437.614	525.94
437.835	552.94
438.057	616.94
438.278	690.94
438.5	673.94
438.721	780.94
438.943	751.94
439.165	602.94
439.386	572.94
439.608	560.94
439.829	579.94
440.05	574.94
440.272	586.94
440.493	597.94
440.715	557.94
440.936	549.94
441.158	550.94
441.379	535.94
441.6	576.94
441.822	581.94
442.043	592.94
442.264	658.94
442.486	698.94
442.707	632.94
442.928	581.94
443.149	602.94
443.371	626.94
443.592	652.94
443.813	713.94
444.034	780.94
444.255	679.94
444.476	637.94
444.698	621.94
444.919	631.94
445.14	687.94
445.361	634.94
445.582	619.94
445.803	644.94
446.024	713.94
446.245	731.94
446.466	696.94
446.687	577.94
446.908	560.94
447.129	525.94
447.35	519.94
447.571	533.94
447.792	516.94
448.013	527.94
448.234	510.94
448.455	566.94
448.675	641.94
448.896	759.94
449.117	642.94
449.338	628.94
449.559	700.94
449.779	777.94
450	662.94
450.221	572.94
450.442	538.94
450.662	507.94
450.883	516.94
451.104	519.94
451.324	510.94
451.545	496.94
451.766	478.94
451.986	463.94
452.207	455.94
452.428	474.94
452.648	454.94
452.869	462.94
453.089	472.94
453.31	472.94
453.53	478.94
453.751	462.94
453.971	463.94
454.192	485.94
454.412	470.94
454.633	480.94
454.853	466.94
455.073	477.94
455.294	459.94
455.514	523.94
455.734	520.94
455.955	461.94
456.175	474.94
456.395	452.94
456.616	441.94
456.836	435.94
457.056	456.94
457.276	430.94
457.497	450.94
457.717	460.94
457.937	447.94
458.157	455.94
458.377	452.94
458.598	456.94
458.818	505.94
459.038	548.94
459.258	564.94
459.478	532.94
459.698	509.94
459.918	514.94
460.138	547.94
460.358	517.94
460.578	566.94
460.798	549.94
461.018	549.94
461.238	551.94
461.458	546.94
461.678	554.94
461.898	534.94
462.118	552.94
462.338	566.94
462.558	586.94
462.777	596.94
462.997	604.94
463.217	637.94
463.437	632.94
463.657	622.94
463.876	604.94
464.096	613.94
464.316	583.94
464.536	605.94
464.755	602.94
464.975	605.94
465.195	586.94
465.414	584.94
465.634	563.94
465.854	536.94
466.073	518.94
466.293	504.94
466.512	503.94
466.732	492.94
466.951	490.94
467.171	486.94
467.391	486.94
467.61	478.94
467.829	494.94
468.049	492.94
468.268	484.94
468.488	475.94
468.707	489.94
468.927	481.94
469.146	472.94
469.365	487.94
469.585	475.94
469.804	486.94
470.023	492.94
470.243	494.94
470.462	505.94
470.681	506.94
470.901	534.94
471.12	518.94
471.339	503.94
471.558	489.94
471.777	501.94
471.997	476.94
472.216	471.94
472.435	504.94
472.654	503.94
472.873	498.94
473.092	468.94
473.311	472.94
473.53	477.94
473.749	495.94
473.968	526.94
474.187	586.94
474.406	611.94
474.625	543.94
474.844	478.94
475.063	485.94
475.282	491.94
475.501	488.94
475.72	495.94
475.939	497.94
476.158	492.94
476.377	516.94
476.596	522.94
476.814	519.94
477.033	534.94
477.252	506.94
477.471	506.94
477.69	537.94
477.908	540.94
478.127	546.94
478.346	534.94
478.564	553.94
478.783	559.94
479.002	562.94
479.22	580.94
479.439	582.94
479.658	587.94
479.876	596.94
480.095	610.94
480.313	615.94
480.532	620.94
480.751	604.94
480.969	599.94
481.188	611.94
481.406	644.94
481.624	608.94
481.843	589.94
482.061	557.94
482.28	572.94
482.498	559.94
482.717	551.94
482.935	565.94
483.153	560.94
483.372	557.94
483.59	574.94
483.808	568.94
484.027	553.94
484.245	547.94
484.463	561.94
484.681	572.94
484.9	606.94
485.118	582.94
485.336	576.94
485.554	572.94
485.772	583.94
485.99	581.94
486.209	572.94
486.427	605.94
486.645	591.94
486.863	595.94
487.081	601.94
487.299	583.94
487.517	591.94
487.735	589.94
487.953	606.94
488.171	602.94
488.389	586.94
488.607	581.94
488.825	611.94
489.043	614.94
489.261	602.94
489.479	616.94
489.696	607.94
489.914	631.94
490.132	624.94
490.35	618.94
490.568	667.94
490.786	652.94
491.003	631.94
491.221	663.94
491.439	676.94
491.657	677.94
491.874	682.94
492.092	701.94
492.31	706.94
492.527	692.94
492.745	666.94
492.963	700.94
493.18	703.94
493.398	697.94
493.615	693.94
493.833	712.94
494.05	703.94
494.268	676.94
494.485	686.94
494.703	706.94
494.92	696.94
495.138	720.94
495.355	706.94
495.573	725.94
495.79	708.94
496.008	706.94
496.225	702.94
496.442	717.94
496.66	704.94
496.877	720.94
497.094	720.94
497.312	731.94
497.529	742.94
497.746	748.94
497.963	747.94
498.181	763.94
498.398	800.94
498.615	816.94
498.832	841.94
499.049	892.94
499.267	918.94
499.484	968.94
499.701	1025.94
499.918	1085.94
500.135	1140.94
500.352	1273.94
500.569	1286.94
500.786	1258.94
501.003	1226.94
501.22	1154.94
501.437	1098.94
501.654	1013.94
