Data from 1973.PennyLincolnUp.Lamp.En5.5.200Scan.071719.P1.Changed Mount._HRD10591_15-45-25-853.txt Node
Date: Thu Jul 18 15:45:25 EDT 2019
User: cochatt
Spectrometer: HR+D1059
Trigger mode: 1
Integration Time (sec): 1.000000E-1
Scans to average: 1
Electric dark correction enabled: true
Nonlinearity correction enabled: false
Boxcar width: 0
XAxis mode: Wavelengths
Number of Pixels in Spectrum: 2048
>>>>>Begin Spectral Data<<<<<
223.165	-26.31
223.4	-26.31
223.635	-26.31
223.869	-21.31
224.104	2.69
224.338	-11.31
224.573	-19.31
224.808	-0.31
225.042	-5.31
225.277	-8.31
225.511	6.69
225.746	-9.31
225.98	2.69
226.215	15.69
226.449	11.69
226.683	23.69
226.918	18.69
227.152	19.69
227.387	36.69
227.621	33.69
227.856	51.69
228.09	56.69
228.324	49.69
228.559	59.69
228.793	51.69
229.027	104.69
229.262	121.69
229.496	125.69
229.73	122.69
229.964	142.69
230.199	137.69
230.433	111.69
230.667	116.69
230.901	121.69
231.136	130.69
231.37	120.69
231.604	115.69
231.838	107.69
232.072	116.69
232.306	118.69
232.541	98.69
232.775	113.69
233.009	122.69
233.243	114.69
233.477	125.69
233.711	136.69
233.945	104.69
234.179	114.69
234.413	124.69
234.647	122.69
234.881	135.69
235.115	122.69
235.349	120.69
235.583	118.69
235.817	111.69
236.051	120.69
236.285	126.69
236.519	130.69
236.753	134.69
236.987	140.69
237.221	186.69
237.455	215.69
237.689	166.69
237.922	142.69
238.156	121.69
238.39	137.69
238.624	121.69
238.858	144.69
239.091	130.69
239.325	135.69
239.559	128.69
239.793	130.69
240.027	135.69
240.26	136.69
240.494	154.69
240.728	142.69
240.961	148.69
241.195	147.69
241.429	145.69
241.662	138.69
241.896	136.69
242.13	141.69
242.363	136.69
242.597	140.69
242.83	149.69
243.064	148.69
243.298	142.69
243.531	136.69
243.765	144.69
243.998	147.69
244.232	134.69
244.465	148.69
244.699	150.69
244.932	142.69
245.166	147.69
245.399	157.69
245.633	154.69
245.866	149.69
246.099	157.69
246.333	149.69
246.566	159.69
246.8	165.69
247.033	167.69
247.266	164.69
247.5	167.69
247.733	172.69
247.966	184.69
248.2	199.69
248.433	187.69
248.666	183.69
248.899	194.69
249.133	202.69
249.366	199.69
249.599	190.69
249.832	184.69
250.066	195.69
250.299	188.69
250.532	208.69
250.765	213.69
250.998	228.69
251.231	228.69
251.465	199.69
251.698	210.69
251.931	198.69
252.164	184.69
252.397	198.69
252.63	204.69
252.863	202.69
253.096	208.69
253.329	215.69
253.562	237.69
253.795	225.69
254.028	212.69
254.261	232.69
254.494	230.69
254.727	258.69
254.96	268.69
255.193	270.69
255.426	262.69
255.659	238.69
255.892	238.69
256.124	251.69
256.357	236.69
256.59	233.69
256.823	227.69
257.056	211.69
257.289	218.69
257.521	216.69
257.754	214.69
257.987	219.69
258.22	222.69
258.452	203.69
258.685	227.69
258.918	214.69
259.151	204.69
259.383	225.69
259.616	232.69
259.849	251.69
260.081	251.69
260.314	240.69
260.547	264.69
260.779	253.69
261.012	229.69
261.244	231.69
261.477	227.69
261.71	219.69
261.942	227.69
262.175	245.69
262.407	209.69
262.64	246.69
262.872	234.69
263.105	233.69
263.337	224.69
263.57	228.69
263.802	249.69
264.035	209.69
264.267	234.69
264.499	238.69
264.732	243.69
264.964	224.69
265.197	234.69
265.429	230.69
265.661	222.69
265.894	230.69
266.126	238.69
266.358	230.69
266.591	253.69
266.823	243.69
267.055	250.69
267.287	258.69
267.52	238.69
267.752	250.69
267.984	246.69
268.216	243.69
268.448	248.69
268.681	269.69
268.913	290.69
269.145	276.69
269.377	287.69
269.609	293.69
269.841	283.69
270.073	295.69
270.306	303.69
270.538	298.69
270.77	300.69
271.002	315.69
271.234	300.69
271.466	291.69
271.698	310.69
271.93	343.69
272.162	328.69
272.394	329.69
272.626	282.69
272.858	300.69
273.09	310.69
273.322	281.69
273.553	296.69
273.785	274.69
274.017	268.69
274.249	276.69
274.481	293.69
274.713	294.69
274.945	295.69
275.176	291.69
275.408	271.69
275.64	294.69
275.872	286.69
276.104	275.69
276.335	298.69
276.567	286.69
276.799	292.69
277.031	315.69
277.262	312.69
277.494	314.69
277.726	325.69
277.957	312.69
278.189	307.69
278.421	298.69
278.652	291.69
278.884	283.69
279.115	299.69
279.347	308.69
279.579	268.69
279.81	284.69
280.042	275.69
280.273	287.69
280.505	292.69
280.736	296.69
280.968	279.69
281.199	290.69
281.431	278.69
281.662	294.69
281.894	295.69
282.125	292.69
282.356	299.69
282.588	323.69
282.819	318.69
283.051	310.69
283.282	295.69
283.513	306.69
283.745	296.69
283.976	314.69
284.207	316.69
284.439	316.69
284.67	306.69
284.901	314.69
285.132	315.69
285.364	293.69
285.595	311.69
285.826	313.69
286.057	333.69
286.288	318.69
286.52	334.69
286.751	311.69
286.982	309.69
287.213	313.69
287.444	309.69
287.675	324.69
287.906	328.69
288.138	332.69
288.369	349.69
288.6	340.69
288.831	311.69
289.062	339.69
289.293	321.69
289.524	337.69
289.755	310.69
289.986	324.69
290.217	341.69
290.448	339.69
290.679	344.69
290.91	348.69
291.141	328.69
291.371	315.69
291.602	331.69
291.833	328.69
292.064	307.69
292.295	336.69
292.526	346.69
292.757	323.69
292.987	316.69
293.218	304.69
293.449	338.69
293.68	340.69
293.91	329.69
294.141	323.69
294.372	315.69
294.603	315.69
294.833	320.69
295.064	316.69
295.295	333.69
295.525	329.69
295.756	342.69
295.987	340.69
296.217	362.69
296.448	359.69
296.679	353.69
296.909	339.69
297.14	346.69
297.37	328.69
297.601	339.69
297.831	328.69
298.062	335.69
298.292	330.69
298.523	357.69
298.753	341.69
298.984	356.69
299.214	357.69
299.445	336.69
299.675	343.69
299.905	356.69
300.136	355.69
300.366	335.69
300.597	359.69
300.827	357.69
301.057	365.69
301.288	384.69
301.518	358.69
301.748	374.69
301.979	343.69
302.209	347.69
302.439	364.69
302.669	355.69
302.9	365.69
303.13	364.69
303.36	382.69
303.59	371.69
303.82	392.69
304.051	383.69
304.281	380.69
304.511	382.69
304.741	356.69
304.971	376.69
305.201	378.69
305.431	350.69
305.661	377.69
305.891	344.69
306.121	370.69
306.352	357.69
306.582	372.69
306.812	367.69
307.042	361.69
307.272	366.69
307.502	366.69
307.731	366.69
307.961	376.69
308.191	360.69
308.421	392.69
308.651	374.69
308.881	372.69
309.111	374.69
309.341	365.69
309.571	384.69
309.8	402.69
310.03	390.69
310.26	385.69
310.49	399.69
310.72	406.69
310.949	405.69
311.179	410.69
311.409	398.69
311.639	391.69
311.868	400.69
312.098	401.69
312.328	400.69
312.557	426.69
312.787	435.69
313.017	423.69
313.246	412.69
313.476	414.69
313.706	406.69
313.935	406.69
314.165	414.69
314.394	424.69
314.624	421.69
314.853	406.69
315.083	434.69
315.312	429.69
315.542	401.69
315.771	391.69
316.001	411.69
316.23	404.69
316.46	398.69
316.689	405.69
316.919	400.69
317.148	412.69
317.377	428.69
317.607	427.69
317.836	415.69
318.065	419.69
318.295	405.69
318.524	401.69
318.753	413.69
318.983	411.69
319.212	400.69
319.441	410.69
319.67	420.69
319.9	421.69
320.129	404.69
320.358	408.69
320.587	421.69
320.816	418.69
321.046	414.69
321.275	417.69
321.504	432.69
321.733	418.69
321.962	419.69
322.191	416.69
322.42	443.69
322.649	442.69
322.878	438.69
323.108	444.69
323.337	465.69
323.566	479.69
323.795	518.69
324.024	525.69
324.253	605.69
324.482	777.69
324.71	1141.69
324.939	1599.69
325.168	1411.69
325.397	783.69
325.626	584.69
325.855	525.69
326.084	498.69
326.313	518.69
326.542	500.69
326.77	519.69
326.999	577.69
327.228	737.69
327.457	995.69
327.686	1227.69
327.914	859.69
328.143	635.69
328.372	576.69
328.6	540.69
328.829	556.69
329.058	522.69
329.287	560.69
329.515	531.69
329.744	524.69
329.972	519.69
330.201	516.69
330.43	540.69
330.658	557.69
330.887	553.69
331.115	558.69
331.344	517.69
331.572	514.69
331.801	509.69
332.03	515.69
332.258	506.69
332.486	496.69
332.715	501.69
332.943	495.69
333.172	493.69
333.4	538.69
333.629	541.69
333.857	535.69
334.085	538.69
334.314	518.69
334.542	556.69
334.771	572.69
334.999	529.69
335.227	511.69
335.455	533.69
335.684	515.69
335.912	507.69
336.14	496.69
336.369	491.69
336.597	502.69
336.825	510.69
337.053	490.69
337.281	503.69
337.51	496.69
337.738	488.69
337.966	480.69
338.194	484.69
338.422	488.69
338.65	479.69
338.878	472.69
339.106	457.69
339.334	483.69
339.562	473.69
339.79	458.69
340.018	472.69
340.246	466.69
340.474	494.69
340.702	466.69
340.93	446.69
341.158	439.69
341.386	459.69
341.614	462.69
341.842	459.69
342.07	479.69
342.298	454.69
342.526	458.69
342.754	443.69
342.981	444.69
343.209	432.69
343.437	452.69
343.665	472.69
343.893	483.69
344.12	495.69
344.348	494.69
344.576	494.69
344.804	500.69
345.031	486.69
345.259	460.69
345.487	463.69
345.714	466.69
345.942	452.69
346.17	451.69
346.397	447.69
346.625	443.69
346.853	449.69
347.08	429.69
347.308	450.69
347.535	454.69
347.763	452.69
347.99	428.69
348.218	440.69
348.445	458.69
348.673	444.69
348.9	449.69
349.128	423.69
349.355	435.69
349.583	427.69
349.81	425.69
350.037	416.69
350.265	415.69
350.492	423.69
350.72	420.69
350.947	428.69
351.174	430.69
351.402	432.69
351.629	430.69
351.856	431.69
352.083	442.69
352.311	440.69
352.538	455.69
352.765	434.69
352.992	439.69
353.22	443.69
353.447	427.69
353.674	469.69
353.901	423.69
354.128	417.69
354.355	416.69
354.583	396.69
354.81	428.69
355.037	422.69
355.264	429.69
355.491	432.69
355.718	436.69
355.945	421.69
356.172	410.69
356.399	439.69
356.626	406.69
356.853	426.69
357.08	425.69
357.307	428.69
357.534	431.69
357.761	428.69
357.988	430.69
358.215	400.69
358.441	396.69
358.668	420.69
358.895	429.69
359.122	423.69
359.349	411.69
359.576	425.69
359.802	431.69
360.029	469.69
360.256	487.69
360.483	436.69
360.709	431.69
360.936	451.69
361.163	456.69
361.39	428.69
361.616	444.69
361.843	435.69
362.07	432.69
362.296	428.69
362.523	439.69
362.749	456.69
362.976	450.69
363.203	415.69
363.429	430.69
363.656	412.69
363.882	426.69
364.109	424.69
364.335	438.69
364.562	414.69
364.788	431.69
365.015	435.69
365.241	422.69
365.468	437.69
365.694	418.69
365.92	428.69
366.147	446.69
366.373	437.69
366.599	419.69
366.826	411.69
367.052	422.69
367.278	402.69
367.505	411.69
367.731	429.69
367.957	412.69
368.184	421.69
368.41	440.69
368.636	439.69
368.862	449.69
369.089	445.69
369.315	444.69
369.541	429.69
369.767	425.69
369.993	431.69
370.219	413.69
370.445	431.69
370.672	405.69
370.898	417.69
371.124	436.69
371.35	444.69
371.576	427.69
371.802	430.69
372.028	437.69
372.254	442.69
372.48	451.69
372.706	441.69
372.932	422.69
373.158	436.69
373.384	435.69
373.61	429.69
373.835	423.69
374.061	415.69
374.287	430.69
374.513	456.69
374.739	449.69
374.965	464.69
375.191	457.69
375.416	464.69
375.642	430.69
375.868	454.69
376.094	443.69
376.319	444.69
376.545	423.69
376.771	438.69
376.997	425.69
377.222	430.69
377.448	427.69
377.674	436.69
377.899	423.69
378.125	416.69
378.35	431.69
378.576	427.69
378.802	439.69
379.027	453.69
379.253	415.69
379.478	425.69
379.704	415.69
379.929	429.69
380.155	436.69
380.38	424.69
380.606	422.69
380.831	430.69
381.057	428.69
381.282	418.69
381.507	408.69
381.733	421.69
381.958	430.69
382.184	459.69
382.409	434.69
382.634	427.69
382.86	449.69
383.085	457.69
383.31	457.69
383.535	458.69
383.761	476.69
383.986	468.69
384.211	448.69
384.436	464.69
384.662	474.69
384.887	482.69
385.112	479.69
385.337	482.69
385.562	492.69
385.787	499.69
386.013	516.69
386.238	473.69
386.463	509.69
386.688	493.69
386.913	476.69
387.138	493.69
387.363	484.69
387.588	491.69
387.813	483.69
388.038	472.69
388.263	490.69
388.488	476.69
388.713	491.69
388.938	501.69
389.163	493.69
389.387	496.69
389.612	472.69
389.837	503.69
390.062	497.69
390.287	499.69
390.512	460.69
390.736	486.69
390.961	485.69
391.186	481.69
391.411	495.69
391.636	511.69
391.86	525.69
392.085	508.69
392.31	526.69
392.534	518.69
392.759	508.69
392.984	495.69
393.208	508.69
393.433	520.69
393.658	494.69
393.882	506.69
394.107	490.69
394.331	501.69
394.556	504.69
394.78	488.69
395.005	487.69
395.229	509.69
395.454	528.69
395.678	528.69
395.903	528.69
396.127	529.69
396.352	520.69
396.576	514.69
396.801	513.69
397.025	513.69
397.249	505.69
397.474	521.69
397.698	509.69
397.922	560.69
398.147	559.69
398.371	542.69
398.595	563.69
398.82	552.69
399.044	593.69
399.268	619.69
399.492	656.69
399.717	724.69
399.941	751.69
400.165	737.69
400.389	735.69
400.613	652.69
400.837	626.69
401.062	585.69
401.286	590.69
401.51	569.69
401.734	581.69
401.958	582.69
402.182	601.69
402.406	584.69
402.63	581.69
402.854	581.69
403.078	593.69
403.302	598.69
403.526	613.69
403.75	624.69
403.974	625.69
404.198	606.69
404.422	642.69
404.645	610.69
404.869	633.69
405.093	625.69
405.317	679.69
405.541	711.69
405.765	642.69
405.988	621.69
406.212	640.69
406.436	633.69
406.66	649.69
406.883	666.69
407.107	684.69
407.331	681.69
407.555	786.69
407.778	756.69
408.002	713.69
408.226	672.69
408.449	660.69
408.673	636.69
408.896	680.69
409.12	700.69
409.344	676.69
409.567	628.69
409.791	610.69
410.014	609.69
410.238	600.69
410.461	592.69
410.685	603.69
410.908	594.69
411.132	639.69
411.355	642.69
411.578	639.69
411.802	592.69
412.025	603.69
412.249	618.69
412.472	619.69
412.695	651.69
412.919	640.69
413.142	602.69
413.365	578.69
413.589	579.69
413.812	564.69
414.035	571.69
414.258	547.69
414.482	556.69
414.705	580.69
414.928	581.69
415.151	573.69
415.374	573.69
415.597	565.69
415.821	541.69
416.044	564.69
416.267	557.69
416.49	583.69
416.713	554.69
416.936	573.69
417.159	557.69
417.382	567.69
417.605	538.69
417.828	570.69
418.051	585.69
418.274	592.69
418.497	575.69
418.72	579.69
418.943	572.69
419.166	591.69
419.389	620.69
419.611	593.69
419.834	610.69
420.057	593.69
420.28	597.69
420.503	597.69
420.726	582.69
420.948	582.69
421.171	661.69
421.394	654.69
421.617	574.69
421.839	556.69
422.062	587.69
422.285	599.69
422.507	615.69
422.73	688.69
422.953	664.69
423.175	640.69
423.398	599.69
423.621	592.69
423.843	652.69
424.066	648.69
424.288	614.69
424.511	642.69
424.733	655.69
424.956	745.69
425.178	706.69
425.401	717.69
425.623	721.69
425.846	644.69
426.068	605.69
426.291	578.69
426.513	596.69
426.735	622.69
426.958	628.69
427.18	703.69
427.402	823.69
427.625	880.69
427.847	743.69
428.069	662.69
428.292	617.69
428.514	578.69
428.736	573.69
428.958	552.69
429.181	545.69
429.403	535.69
429.625	545.69
429.847	592.69
430.069	662.69
430.292	650.69
430.514	543.69
430.736	550.69
430.958	557.69
431.18	535.69
431.402	529.69
431.624	514.69
431.846	521.69
432.068	551.69
432.29	524.69
432.512	518.69
432.734	537.69
432.956	534.69
433.178	537.69
433.4	543.69
433.622	554.69
433.844	564.69
434.066	537.69
434.287	551.69
434.509	572.69
434.731	562.69
434.953	562.69
435.175	575.69
435.397	590.69
435.618	600.69
435.84	631.69
436.062	690.69
436.284	755.69
436.505	659.69
436.727	575.69
436.949	553.69
437.17	542.69
437.392	555.69
437.614	548.69
437.835	563.69
438.057	639.69
438.278	746.69
438.5	746.69
438.721	795.69
438.943	806.69
439.165	630.69
439.386	603.69
439.608	600.69
439.829	570.69
440.05	615.69
440.272	644.69
440.493	595.69
440.715	582.69
440.936	589.69
441.158	568.69
441.379	564.69
441.6	589.69
441.822	600.69
442.043	630.69
442.264	719.69
442.486	719.69
442.707	653.69
442.928	609.69
443.149	605.69
443.371	623.69
443.592	667.69
443.813	750.69
444.034	820.69
444.255	688.69
444.476	657.69
444.698	642.69
444.919	662.69
445.14	735.69
445.361	647.69
445.582	661.69
445.803	668.69
446.024	751.69
446.245	739.69
446.466	701.69
446.687	641.69
446.908	590.69
447.129	568.69
447.35	535.69
447.571	558.69
447.792	542.69
448.013	551.69
448.234	565.69
448.455	596.69
448.675	702.69
448.896	791.69
449.117	674.69
449.338	648.69
449.559	719.69
449.779	830.69
450	666.69
450.221	569.69
450.442	528.69
450.662	523.69
450.883	521.69
451.104	542.69
451.324	515.69
451.545	496.69
451.766	498.69
451.986	484.69
452.207	502.69
452.428	474.69
452.648	482.69
452.869	476.69
453.089	474.69
453.31	493.69
453.53	505.69
453.751	495.69
453.971	487.69
454.192	483.69
454.412	499.69
454.633	485.69
454.853	472.69
455.073	472.69
455.294	503.69
455.514	549.69
455.734	552.69
455.955	480.69
456.175	481.69
456.395	471.69
456.616	452.69
456.836	474.69
457.056	479.69
457.276	451.69
457.497	453.69
457.717	459.69
457.937	479.69
458.157	465.69
458.377	472.69
458.598	523.69
458.818	548.69
459.038	591.69
459.258	612.69
459.478	555.69
459.698	528.69
459.918	538.69
460.138	561.69
460.358	562.69
460.578	557.69
460.798	539.69
461.018	566.69
461.238	553.69
461.458	555.69
461.678	560.69
461.898	568.69
462.118	540.69
462.338	609.69
462.558	584.69
462.777	597.69
462.997	642.69
463.217	628.69
463.437	677.69
463.657	648.69
463.876	633.69
464.096	596.69
464.316	614.69
464.536	623.69
464.755	612.69
464.975	602.69
465.195	630.69
465.414	645.69
465.634	578.69
465.854	548.69
466.073	528.69
466.293	528.69
466.512	500.69
466.732	509.69
466.951	512.69
467.171	508.69
467.391	512.69
467.61	529.69
467.829	507.69
468.049	518.69
468.268	512.69
468.488	508.69
468.707	496.69
468.927	493.69
469.146	473.69
469.365	501.69
469.585	493.69
469.804	504.69
470.023	509.69
470.243	519.69
470.462	525.69
470.681	535.69
470.901	534.69
471.12	521.69
471.339	504.69
471.558	522.69
471.777	505.69
471.997	516.69
472.216	518.69
472.435	531.69
472.654	494.69
472.873	536.69
473.092	490.69
473.311	488.69
473.53	499.69
473.749	518.69
473.968	544.69
474.187	623.69
474.406	636.69
474.625	540.69
474.844	516.69
475.063	507.69
475.282	506.69
475.501	500.69
475.72	529.69
475.939	510.69
476.158	509.69
476.377	508.69
476.596	500.69
476.814	532.69
477.033	525.69
477.252	524.69
477.471	559.69
477.69	567.69
477.908	570.69
478.127	564.69
478.346	590.69
478.564	596.69
478.783	581.69
479.002	591.69
479.22	578.69
479.439	579.69
479.658	606.69
479.876	602.69
480.095	615.69
480.313	646.69
480.532	617.69
480.751	617.69
480.969	618.69
481.188	660.69
481.406	680.69
481.624	627.69
481.843	593.69
482.061	596.69
482.28	604.69
482.498	599.69
482.717	599.69
482.935	585.69
483.153	574.69
483.372	589.69
483.59	571.69
483.808	577.69
484.027	589.69
484.245	590.69
484.463	592.69
484.681	587.69
484.9	582.69
485.118	605.69
485.336	613.69
485.554	612.69
485.772	590.69
485.99	620.69
486.209	587.69
486.427	616.69
486.645	591.69
486.863	606.69
487.081	638.69
487.299	633.69
487.517	621.69
487.735	604.69
487.953	630.69
488.171	626.69
488.389	621.69
488.607	626.69
488.825	609.69
489.043	632.69
489.261	639.69
489.479	634.69
489.696	645.69
489.914	657.69
490.132	648.69
490.35	648.69
490.568	650.69
490.786	664.69
491.003	677.69
491.221	674.69
491.439	661.69
491.657	675.69
491.874	707.69
492.092	690.69
492.31	711.69
492.527	706.69
492.745	714.69
492.963	717.69
493.18	717.69
493.398	737.69
493.615	701.69
493.833	745.69
494.05	730.69
494.268	715.69
494.485	728.69
494.703	706.69
494.92	742.69
495.138	720.69
495.355	744.69
495.573	725.69
495.79	723.69
496.008	728.69
496.225	744.69
496.442	734.69
496.66	759.69
496.877	734.69
497.094	754.69
497.312	754.69
497.529	780.69
497.746	771.69
497.963	783.69
498.181	829.69
498.398	827.69
498.615	850.69
498.832	882.69
499.049	921.69
499.267	957.69
499.484	1005.69
499.701	1076.69
499.918	1093.69
500.135	1190.69
500.352	1250.69
500.569	1299.69
500.786	1295.69
501.003	1284.69
501.22	1201.69
501.437	1153.69
501.654	1059.69
