Data from 1973.PennyLincolnUp.Lamp.En5.5.200Scan.071719.P1.Changed Mount._HRD10591_15-43-48-851.txt Node
Date: Thu Jul 18 15:43:48 EDT 2019
User: cochatt
Spectrometer: HR+D1059
Trigger mode: 1
Integration Time (sec): 1.000000E-1
Scans to average: 1
Electric dark correction enabled: true
Nonlinearity correction enabled: false
Boxcar width: 0
XAxis mode: Wavelengths
Number of Pixels in Spectrum: 2048
>>>>>Begin Spectral Data<<<<<
223.165	-0.62
223.4	-0.62
223.635	-0.62
223.869	-16.62
224.104	-22.62
224.338	-19.62
224.573	-16.62
224.808	-9.62
225.042	-15.62
225.277	-17.62
225.511	1.38
225.746	2.38
225.98	10.38
226.215	17.38
226.449	8.38
226.683	25.38
226.918	21.38
227.152	32.38
227.387	22.38
227.621	31.38
227.856	54.38
228.09	51.38
228.324	59.38
228.559	60.38
228.793	58.38
229.027	82.38
229.262	106.38
229.496	99.38
229.73	112.38
229.964	129.38
230.199	114.38
230.433	124.38
230.667	111.38
230.901	88.38
231.136	106.38
231.37	111.38
231.604	103.38
231.838	104.38
232.072	116.38
232.306	104.38
232.541	105.38
232.775	113.38
233.009	115.38
233.243	112.38
233.477	115.38
233.711	112.38
233.945	119.38
234.179	107.38
234.413	97.38
234.647	117.38
234.881	125.38
235.115	113.38
235.349	117.38
235.583	119.38
235.817	114.38
236.051	122.38
236.285	119.38
236.519	122.38
236.753	121.38
236.987	126.38
237.221	151.38
237.455	188.38
237.689	153.38
237.922	129.38
238.156	103.38
238.39	131.38
238.624	114.38
238.858	120.38
239.091	124.38
239.325	117.38
239.559	116.38
239.793	123.38
240.027	137.38
240.26	133.38
240.494	148.38
240.728	155.38
240.961	133.38
241.195	141.38
241.429	132.38
241.662	125.38
241.896	138.38
242.13	140.38
242.363	124.38
242.597	128.38
242.83	130.38
243.064	144.38
243.298	143.38
243.531	132.38
243.765	118.38
243.998	147.38
244.232	133.38
244.465	139.38
244.699	147.38
244.932	148.38
245.166	141.38
245.399	136.38
245.633	151.38
245.866	150.38
246.099	143.38
246.333	143.38
246.566	163.38
246.8	139.38
247.033	161.38
247.266	167.38
247.5	171.38
247.733	162.38
247.966	175.38
248.2	162.38
248.433	180.38
248.666	162.38
248.899	173.38
249.133	171.38
249.366	191.38
249.599	183.38
249.832	183.38
250.066	165.38
250.299	176.38
250.532	196.38
250.765	185.38
250.998	187.38
251.231	208.38
251.465	207.38
251.698	196.38
251.931	182.38
252.164	177.38
252.397	191.38
252.63	179.38
252.863	181.38
253.096	214.38
253.329	200.38
253.562	206.38
253.795	201.38
254.028	216.38
254.261	176.38
254.494	208.38
254.727	234.38
254.96	234.38
255.193	242.38
255.426	222.38
255.659	220.38
255.892	218.38
256.124	220.38
256.357	205.38
256.59	202.38
256.823	207.38
257.056	205.38
257.289	192.38
257.521	202.38
257.754	205.38
257.987	194.38
258.22	187.38
258.452	189.38
258.685	213.38
258.918	196.38
259.151	217.38
259.383	195.38
259.616	215.38
259.849	215.38
260.081	209.38
260.314	227.38
260.547	251.38
260.779	234.38
261.012	218.38
261.244	208.38
261.477	207.38
261.71	213.38
261.942	211.38
262.175	218.38
262.407	200.38
262.64	202.38
262.872	225.38
263.105	208.38
263.337	215.38
263.57	202.38
263.802	206.38
264.035	212.38
264.267	215.38
264.499	210.38
264.732	205.38
264.964	216.38
265.197	216.38
265.429	217.38
265.661	202.38
265.894	209.38
266.126	218.38
266.358	211.38
266.591	212.38
266.823	218.38
267.055	223.38
267.287	234.38
267.52	221.38
267.752	216.38
267.984	224.38
268.216	211.38
268.448	230.38
268.681	229.38
268.913	249.38
269.145	253.38
269.377	259.38
269.609	255.38
269.841	260.38
270.073	272.38
270.306	279.38
270.538	296.38
270.77	306.38
271.002	283.38
271.234	280.38
271.466	273.38
271.698	279.38
271.93	276.38
272.162	299.38
272.394	283.38
272.626	285.38
272.858	278.38
273.09	264.38
273.322	251.38
273.553	266.38
273.785	264.38
274.017	259.38
274.249	256.38
274.481	257.38
274.713	271.38
274.945	257.38
275.176	268.38
275.408	244.38
275.64	267.38
275.872	288.38
276.104	268.38
276.335	273.38
276.567	275.38
276.799	266.38
277.031	293.38
277.262	300.38
277.494	294.38
277.726	309.38
277.957	289.38
278.189	278.38
278.421	263.38
278.652	274.38
278.884	265.38
279.115	262.38
279.347	271.38
279.579	261.38
279.81	257.38
280.042	283.38
280.273	282.38
280.505	275.38
280.736	275.38
280.968	271.38
281.199	267.38
281.431	273.38
281.662	285.38
281.894	260.38
282.125	289.38
282.356	288.38
282.588	298.38
282.819	287.38
283.051	297.38
283.282	278.38
283.513	304.38
283.745	272.38
283.976	279.38
284.207	295.38
284.439	274.38
284.67	291.38
284.901	298.38
285.132	285.38
285.364	279.38
285.595	294.38
285.826	294.38
286.057	279.38
286.288	283.38
286.52	287.38
286.751	297.38
286.982	284.38
287.213	281.38
287.444	299.38
287.675	295.38
287.906	309.38
288.138	323.38
288.369	292.38
288.6	305.38
288.831	305.38
289.062	317.38
289.293	303.38
289.524	301.38
289.755	303.38
289.986	293.38
290.217	294.38
290.448	319.38
290.679	302.38
290.91	296.38
291.141	279.38
291.371	303.38
291.602	297.38
291.833	311.38
292.064	313.38
292.295	306.38
292.526	305.38
292.757	297.38
292.987	288.38
293.218	282.38
293.449	292.38
293.68	305.38
293.91	309.38
294.141	317.38
294.372	310.38
294.603	315.38
294.833	313.38
295.064	314.38
295.295	299.38
295.525	298.38
295.756	297.38
295.987	307.38
296.217	318.38
296.448	322.38
296.679	319.38
296.909	297.38
297.14	321.38
297.37	328.38
297.601	328.38
297.831	314.38
298.062	317.38
298.292	305.38
298.523	315.38
298.753	310.38
298.984	317.38
299.214	317.38
299.445	328.38
299.675	305.38
299.905	300.38
300.136	310.38
300.366	314.38
300.597	310.38
300.827	340.38
301.057	348.38
301.288	338.38
301.518	347.38
301.748	348.38
301.979	336.38
302.209	332.38
302.439	348.38
302.669	350.38
302.9	345.38
303.13	335.38
303.36	350.38
303.59	342.38
303.82	362.38
304.051	353.38
304.281	369.38
304.511	336.38
304.741	325.38
304.971	335.38
305.201	325.38
305.431	334.38
305.661	338.38
305.891	334.38
306.121	312.38
306.352	337.38
306.582	331.38
306.812	331.38
307.042	337.38
307.272	344.38
307.502	324.38
307.731	327.38
307.961	342.38
308.191	332.38
308.421	347.38
308.651	330.38
308.881	332.38
309.111	328.38
309.341	340.38
309.571	329.38
309.8	347.38
310.03	348.38
310.26	344.38
310.49	362.38
310.72	361.38
310.949	376.38
311.179	368.38
311.409	352.38
311.639	351.38
311.868	365.38
312.098	360.38
312.328	378.38
312.557	377.38
312.787	395.38
313.017	386.38
313.246	373.38
313.476	355.38
313.706	369.38
313.935	376.38
314.165	385.38
314.394	367.38
314.624	384.38
314.853	390.38
315.083	379.38
315.312	367.38
315.542	374.38
315.771	372.38
316.001	376.38
316.23	360.38
316.46	371.38
316.689	369.38
316.919	397.38
317.148	385.38
317.377	385.38
317.607	393.38
317.836	377.38
318.065	356.38
318.295	369.38
318.524	364.38
318.753	362.38
318.983	391.38
319.212	389.38
319.441	369.38
319.67	369.38
319.9	368.38
320.129	374.38
320.358	380.38
320.587	381.38
320.816	380.38
321.046	389.38
321.275	393.38
321.504	371.38
321.733	407.38
321.962	401.38
322.191	388.38
322.42	400.38
322.649	404.38
322.878	422.38
323.108	408.38
323.337	408.38
323.566	425.38
323.795	426.38
324.024	453.38
324.253	511.38
324.482	669.38
324.71	924.38
324.939	1313.38
325.168	1137.38
325.397	632.38
325.626	482.38
325.855	462.38
326.084	428.38
326.313	415.38
326.542	426.38
326.77	466.38
326.999	525.38
327.228	607.38
327.457	859.38
327.686	1010.38
327.914	712.38
328.143	523.38
328.372	481.38
328.6	481.38
328.829	462.38
329.058	474.38
329.287	464.38
329.515	458.38
329.744	449.38
329.972	439.38
330.201	456.38
330.43	475.38
330.658	502.38
330.887	514.38
331.115	490.38
331.344	462.38
331.572	441.38
331.801	465.38
332.03	453.38
332.258	436.38
332.486	468.38
332.715	464.38
332.943	468.38
333.172	453.38
333.4	479.38
333.629	472.38
333.857	487.38
334.085	495.38
334.314	480.38
334.542	519.38
334.771	522.38
334.999	484.38
335.227	463.38
335.455	485.38
335.684	471.38
335.912	481.38
336.14	436.38
336.369	439.38
336.597	467.38
336.825	456.38
337.053	451.38
337.281	443.38
337.51	427.38
337.738	443.38
337.966	439.38
338.194	427.38
338.422	446.38
338.65	438.38
338.878	441.38
339.106	409.38
339.334	430.38
339.562	423.38
339.79	425.38
340.018	454.38
340.246	406.38
340.474	419.38
340.702	416.38
340.93	415.38
341.158	410.38
341.386	442.38
341.614	419.38
341.842	422.38
342.07	421.38
342.298	405.38
342.526	423.38
342.754	409.38
342.981	405.38
343.209	426.38
343.437	433.38
343.665	429.38
343.893	440.38
344.12	470.38
344.348	448.38
344.576	456.38
344.804	470.38
345.031	447.38
345.259	424.38
345.487	429.38
345.714	424.38
345.942	418.38
346.17	400.38
346.397	412.38
346.625	432.38
346.853	417.38
347.08	401.38
347.308	404.38
347.535	416.38
347.763	392.38
347.99	403.38
348.218	415.38
348.445	404.38
348.673	408.38
348.9	396.38
349.128	404.38
349.355	402.38
349.583	385.38
349.81	398.38
350.037	400.38
350.265	409.38
350.492	392.38
350.72	389.38
350.947	410.38
351.174	407.38
351.402	386.38
351.629	401.38
351.856	393.38
352.083	400.38
352.311	407.38
352.538	406.38
352.765	393.38
352.992	412.38
353.22	388.38
353.447	389.38
353.674	397.38
353.901	373.38
354.128	380.38
354.355	389.38
354.583	381.38
354.81	385.38
355.037	398.38
355.264	383.38
355.491	404.38
355.718	407.38
355.945	378.38
356.172	401.38
356.399	375.38
356.626	397.38
356.853	378.38
357.08	375.38
357.307	387.38
357.534	355.38
357.761	383.38
357.988	406.38
358.215	389.38
358.441	400.38
358.668	384.38
358.895	393.38
359.122	418.38
359.349	387.38
359.576	393.38
359.802	411.38
360.029	426.38
360.256	413.38
360.483	415.38
360.709	411.38
360.936	405.38
361.163	395.38
361.39	391.38
361.616	393.38
361.843	363.38
362.07	379.38
362.296	395.38
362.523	405.38
362.749	391.38
362.976	401.38
363.203	400.38
363.429	380.38
363.656	382.38
363.882	386.38
364.109	384.38
364.335	389.38
364.562	383.38
364.788	392.38
365.015	383.38
365.241	405.38
365.468	389.38
365.694	387.38
365.92	373.38
366.147	410.38
366.373	405.38
366.599	376.38
366.826	387.38
367.052	371.38
367.278	393.38
367.505	375.38
367.731	393.38
367.957	387.38
368.184	386.38
368.41	399.38
368.636	394.38
368.862	399.38
369.089	393.38
369.315	385.38
369.541	387.38
369.767	385.38
369.993	385.38
370.219	370.38
370.445	393.38
370.672	386.38
370.898	396.38
371.124	386.38
371.35	415.38
371.576	384.38
371.802	404.38
372.028	415.38
372.254	425.38
372.48	420.38
372.706	411.38
372.932	387.38
373.158	398.38
373.384	390.38
373.61	405.38
373.835	404.38
374.061	414.38
374.287	415.38
374.513	416.38
374.739	426.38
374.965	421.38
375.191	423.38
375.416	412.38
375.642	406.38
375.868	405.38
376.094	410.38
376.319	409.38
376.545	389.38
376.771	429.38
376.997	407.38
377.222	388.38
377.448	424.38
377.674	413.38
377.899	419.38
378.125	389.38
378.35	412.38
378.576	391.38
378.802	394.38
379.027	395.38
379.253	389.38
379.478	397.38
379.704	391.38
379.929	401.38
380.155	406.38
380.38	402.38
380.606	417.38
380.831	391.38
381.057	395.38
381.282	401.38
381.507	391.38
381.733	405.38
381.958	399.38
382.184	402.38
382.409	415.38
382.634	421.38
382.86	416.38
383.085	410.38
383.31	416.38
383.535	403.38
383.761	427.38
383.986	437.38
384.211	418.38
384.436	427.38
384.662	419.38
384.887	425.38
385.112	450.38
385.337	453.38
385.562	459.38
385.787	474.38
386.013	455.38
386.238	467.38
386.463	460.38
386.688	454.38
386.913	466.38
387.138	454.38
387.363	460.38
387.588	451.38
387.813	451.38
388.038	444.38
388.263	433.38
388.488	438.38
388.713	445.38
388.938	451.38
389.163	438.38
389.387	474.38
389.612	455.38
389.837	444.38
390.062	445.38
390.287	456.38
390.512	460.38
390.736	440.38
390.961	435.38
391.186	447.38
391.411	455.38
391.636	465.38
391.86	483.38
392.085	483.38
392.31	487.38
392.534	480.38
392.759	452.38
392.984	460.38
393.208	472.38
393.433	460.38
393.658	464.38
393.882	460.38
394.107	458.38
394.331	455.38
394.556	454.38
394.78	460.38
395.005	452.38
395.229	466.38
395.454	470.38
395.678	501.38
395.903	493.38
396.127	507.38
396.352	506.38
396.576	479.38
396.801	462.38
397.025	461.38
397.249	478.38
397.474	477.38
397.698	481.38
397.922	490.38
398.147	517.38
398.371	527.38
398.595	513.38
398.82	529.38
399.044	540.38
399.268	567.38
399.492	609.38
399.717	654.38
399.941	677.38
400.165	684.38
400.389	648.38
400.613	605.38
400.837	555.38
401.062	560.38
401.286	537.38
401.51	543.38
401.734	539.38
401.958	513.38
402.182	530.38
402.406	519.38
402.63	519.38
402.854	531.38
403.078	539.38
403.302	555.38
403.526	562.38
403.75	588.38
403.974	572.38
404.198	567.38
404.422	561.38
404.645	568.38
404.869	551.38
405.093	614.38
405.317	605.38
405.541	660.38
405.765	590.38
405.988	564.38
406.212	573.38
406.436	597.38
406.66	588.38
406.883	591.38
407.107	624.38
407.331	672.38
407.555	717.38
407.778	714.38
408.002	650.38
408.226	604.38
408.449	627.38
408.673	611.38
408.896	615.38
409.12	645.38
409.344	610.38
409.567	588.38
409.791	573.38
410.014	569.38
410.238	547.38
410.461	557.38
410.685	531.38
410.908	571.38
411.132	588.38
411.355	600.38
411.578	580.38
411.802	557.38
412.025	550.38
412.249	546.38
412.472	584.38
412.695	585.38
412.919	607.38
413.142	541.38
413.365	531.38
413.589	536.38
413.812	532.38
414.035	524.38
414.258	533.38
414.482	528.38
414.705	519.38
414.928	551.38
415.151	532.38
415.374	514.38
415.597	505.38
415.821	521.38
416.044	534.38
416.267	497.38
416.49	507.38
416.713	499.38
416.936	516.38
417.159	515.38
417.382	520.38
417.605	522.38
417.828	543.38
418.051	559.38
418.274	507.38
418.497	524.38
418.72	520.38
418.943	505.38
419.166	541.38
419.389	585.38
419.611	543.38
419.834	564.38
420.057	554.38
420.28	543.38
420.503	515.38
420.726	547.38
420.948	556.38
421.171	584.38
421.394	596.38
421.617	522.38
421.839	552.38
422.062	539.38
422.285	549.38
422.507	597.38
422.73	684.38
422.953	630.38
423.175	557.38
423.398	522.38
423.621	568.38
423.843	577.38
424.066	598.38
424.288	543.38
424.511	570.38
424.733	609.38
424.956	673.38
425.178	653.38
425.401	657.38
425.623	671.38
425.846	593.38
426.068	538.38
426.291	572.38
426.513	532.38
426.735	547.38
426.958	554.38
427.18	634.38
427.402	745.38
427.625	787.38
427.847	665.38
428.069	607.38
428.292	531.38
428.514	525.38
428.736	497.38
428.958	498.38
429.181	514.38
429.403	535.38
429.625	500.38
429.847	535.38
430.069	589.38
430.292	575.38
430.514	531.38
430.736	485.38
430.958	488.38
431.18	487.38
431.402	498.38
431.624	481.38
431.846	469.38
432.068	471.38
432.29	509.38
432.512	468.38
432.734	497.38
432.956	487.38
433.178	499.38
433.4	504.38
433.622	519.38
433.844	490.38
434.066	491.38
434.287	501.38
434.509	479.38
434.731	519.38
434.953	500.38
435.175	533.38
435.397	537.38
435.618	565.38
435.84	562.38
436.062	643.38
436.284	678.38
436.505	599.38
436.727	528.38
436.949	526.38
437.17	510.38
437.392	500.38
437.614	516.38
437.835	526.38
438.057	591.38
438.278	661.38
438.5	658.38
438.721	728.38
438.943	716.38
439.165	588.38
439.386	548.38
439.608	529.38
439.829	517.38
440.05	545.38
440.272	577.38
440.493	545.38
440.715	539.38
440.936	495.38
441.158	517.38
441.379	502.38
441.6	521.38
441.822	532.38
442.043	572.38
442.264	653.38
442.486	699.38
442.707	604.38
442.928	548.38
443.149	538.38
443.371	565.38
443.592	614.38
443.813	700.38
444.034	724.38
444.255	634.38
444.476	590.38
444.698	586.38
444.919	595.38
445.14	665.38
445.361	614.38
445.582	587.38
445.803	603.38
446.024	673.38
446.245	695.38
446.466	644.38
446.687	585.38
446.908	535.38
447.129	516.38
447.35	487.38
447.571	500.38
447.792	463.38
448.013	467.38
448.234	478.38
448.455	531.38
448.675	607.38
448.896	740.38
449.117	616.38
449.338	572.38
449.559	671.38
449.779	757.38
450	597.38
450.221	504.38
450.442	479.38
450.662	477.38
450.883	476.38
451.104	480.38
451.324	468.38
451.545	465.38
451.766	459.38
451.986	448.38
452.207	428.38
452.428	443.38
452.648	419.38
452.869	461.38
453.089	435.38
453.31	459.38
453.53	430.38
453.751	444.38
453.971	449.38
454.192	428.38
454.412	435.38
454.633	435.38
454.853	434.38
455.073	434.38
455.294	461.38
455.514	499.38
455.734	495.38
455.955	421.38
456.175	427.38
456.395	410.38
456.616	411.38
456.836	417.38
457.056	413.38
457.276	423.38
457.497	435.38
457.717	431.38
457.937	417.38
458.157	449.38
458.377	433.38
458.598	461.38
458.818	475.38
459.038	533.38
459.258	582.38
459.478	536.38
459.698	492.38
459.918	486.38
460.138	504.38
460.358	521.38
460.578	531.38
460.798	500.38
461.018	515.38
461.238	554.38
461.458	528.38
461.678	505.38
461.898	517.38
462.118	522.38
462.338	539.38
462.558	559.38
462.777	554.38
462.997	577.38
463.217	605.38
463.437	615.38
463.657	592.38
463.876	576.38
464.096	587.38
464.316	563.38
464.536	565.38
464.755	560.38
464.975	544.38
465.195	559.38
465.414	575.38
465.634	532.38
465.854	499.38
466.073	487.38
466.293	473.38
466.512	472.38
466.732	496.38
466.951	461.38
467.171	459.38
467.391	470.38
467.61	441.38
467.829	473.38
468.049	481.38
468.268	480.38
468.488	446.38
468.707	457.38
468.927	471.38
469.146	451.38
469.365	456.38
469.585	467.38
469.804	476.38
470.023	491.38
470.243	484.38
470.462	492.38
470.681	479.38
470.901	486.38
471.12	468.38
471.339	459.38
471.558	468.38
471.777	463.38
471.997	450.38
472.216	476.38
472.435	477.38
472.654	467.38
472.873	483.38
473.092	465.38
473.311	476.38
473.53	453.38
473.749	462.38
473.968	496.38
474.187	567.38
474.406	596.38
474.625	503.38
474.844	475.38
475.063	452.38
475.282	471.38
475.501	479.38
475.72	476.38
475.939	470.38
476.158	476.38
476.377	497.38
476.596	498.38
476.814	509.38
477.033	509.38
477.252	492.38
477.471	514.38
477.69	521.38
477.908	497.38
478.127	539.38
478.346	519.38
478.564	535.38
478.783	527.38
479.002	531.38
479.22	550.38
479.439	561.38
479.658	566.38
479.876	564.38
480.095	562.38
480.313	602.38
480.532	596.38
480.751	593.38
480.969	593.38
481.188	582.38
481.406	602.38
481.624	572.38
481.843	562.38
482.061	550.38
482.28	533.38
482.498	518.38
482.717	515.38
482.935	529.38
483.153	529.38
483.372	539.38
483.59	563.38
483.808	548.38
484.027	529.38
484.245	535.38
484.463	540.38
484.681	515.38
484.9	540.38
485.118	559.38
485.336	540.38
485.554	558.38
485.772	560.38
485.99	571.38
486.209	563.38
486.427	554.38
486.645	567.38
486.863	564.38
487.081	569.38
487.299	580.38
487.517	579.38
487.735	572.38
487.953	553.38
488.171	582.38
488.389	576.38
488.607	565.38
488.825	575.38
489.043	587.38
489.261	570.38
489.479	562.38
489.696	594.38
489.914	593.38
490.132	604.38
490.35	614.38
490.568	609.38
490.786	593.38
491.003	611.38
491.221	611.38
491.439	607.38
491.657	628.38
491.874	647.38
492.092	639.38
492.31	661.38
492.527	641.38
492.745	626.38
492.963	659.38
493.18	668.38
493.398	661.38
493.615	637.38
493.833	640.38
494.05	647.38
494.268	662.38
494.485	659.38
494.703	668.38
494.92	649.38
495.138	640.38
495.355	663.38
495.573	669.38
495.79	665.38
496.008	672.38
496.225	678.38
496.442	691.38
496.66	701.38
496.877	684.38
497.094	672.38
497.312	708.38
497.529	698.38
497.746	710.38
497.963	710.38
498.181	726.38
498.398	761.38
498.615	783.38
498.832	798.38
499.049	850.38
499.267	884.38
499.484	900.38
499.701	970.38
499.918	1023.38
500.135	1085.38
500.352	1184.38
500.569	1211.38
500.786	1202.38
501.003	1158.38
501.22	1109.38
501.437	1061.38
501.654	982.38
