Data from 1973.PennyLincolnUp.Lamp.En5.5.200Scan.071719.P1.Changed Mount._HRD10591_15-44-34-852.txt Node
Date: Thu Jul 18 15:44:34 EDT 2019
User: cochatt
Spectrometer: HR+D1059
Trigger mode: 1
Integration Time (sec): 1.000000E-1
Scans to average: 1
Electric dark correction enabled: true
Nonlinearity correction enabled: false
Boxcar width: 0
XAxis mode: Wavelengths
Number of Pixels in Spectrum: 2048
>>>>>Begin Spectral Data<<<<<
223.165	-20.19
223.4	-20.19
223.635	-20.19
223.869	-11.19
224.104	-6.19
224.338	-8.19
224.573	-0.19
224.808	-1.19
225.042	-8.19
225.277	-13.19
225.511	-4.19
225.746	8.81
225.98	-13.19
226.215	-3.19
226.449	23.81
226.683	9.81
226.918	20.81
227.152	25.81
227.387	18.81
227.621	32.81
227.856	48.81
228.09	51.81
228.324	32.81
228.559	60.81
228.793	64.81
229.027	94.81
229.262	110.81
229.496	106.81
229.73	116.81
229.964	120.81
230.199	110.81
230.433	98.81
230.667	101.81
230.901	112.81
231.136	121.81
231.37	111.81
231.604	107.81
231.838	112.81
232.072	116.81
232.306	107.81
232.541	107.81
232.775	108.81
233.009	103.81
233.243	107.81
233.477	114.81
233.711	114.81
233.945	109.81
234.179	124.81
234.413	110.81
234.647	112.81
234.881	118.81
235.115	104.81
235.349	121.81
235.583	126.81
235.817	116.81
236.051	119.81
236.285	122.81
236.519	128.81
236.753	120.81
236.987	122.81
237.221	155.81
237.455	186.81
237.689	169.81
237.922	138.81
238.156	129.81
238.39	103.81
238.624	100.81
238.858	121.81
239.091	126.81
239.325	117.81
239.559	115.81
239.793	123.81
240.027	132.81
240.26	129.81
240.494	149.81
240.728	156.81
240.961	133.81
241.195	129.81
241.429	140.81
241.662	140.81
241.896	146.81
242.13	123.81
242.363	122.81
242.597	126.81
242.83	144.81
243.064	137.81
243.298	131.81
243.531	133.81
243.765	134.81
243.998	140.81
244.232	150.81
244.465	132.81
244.699	146.81
244.932	136.81
245.166	134.81
245.399	156.81
245.633	144.81
245.866	146.81
246.099	146.81
246.333	144.81
246.566	168.81
246.8	150.81
247.033	160.81
247.266	154.81
247.5	163.81
247.733	166.81
247.966	156.81
248.2	171.81
248.433	156.81
248.666	170.81
248.899	191.81
249.133	176.81
249.366	194.81
249.599	184.81
249.832	169.81
250.066	176.81
250.299	164.81
250.532	195.81
250.765	195.81
250.998	216.81
251.231	206.81
251.465	199.81
251.698	197.81
251.931	185.81
252.164	187.81
252.397	190.81
252.63	183.81
252.863	201.81
253.096	201.81
253.329	211.81
253.562	204.81
253.795	201.81
254.028	211.81
254.261	198.81
254.494	218.81
254.727	231.81
254.96	251.81
255.193	267.81
255.426	219.81
255.659	234.81
255.892	231.81
256.124	220.81
256.357	219.81
256.59	214.81
256.823	207.81
257.056	195.81
257.289	196.81
257.521	206.81
257.754	196.81
257.987	208.81
258.22	213.81
258.452	184.81
258.685	210.81
258.918	198.81
259.151	211.81
259.383	219.81
259.616	202.81
259.849	219.81
260.081	246.81
260.314	231.81
260.547	242.81
260.779	228.81
261.012	237.81
261.244	214.81
261.477	214.81
261.71	203.81
261.942	222.81
262.175	228.81
262.407	218.81
262.64	204.81
262.872	217.81
263.105	191.81
263.337	204.81
263.57	212.81
263.802	208.81
264.035	219.81
264.267	219.81
264.499	194.81
264.732	208.81
264.964	217.81
265.197	227.81
265.429	230.81
265.661	215.81
265.894	212.81
266.126	226.81
266.358	197.81
266.591	219.81
266.823	215.81
267.055	252.81
267.287	236.81
267.52	226.81
267.752	228.81
267.984	217.81
268.216	241.81
268.448	240.81
268.681	238.81
268.913	244.81
269.145	247.81
269.377	264.81
269.609	269.81
269.841	270.81
270.073	254.81
270.306	274.81
270.538	289.81
270.77	305.81
271.002	272.81
271.234	277.81
271.466	288.81
271.698	297.81
271.93	309.81
272.162	304.81
272.394	316.81
272.626	278.81
272.858	288.81
273.09	288.81
273.322	283.81
273.553	278.81
273.785	258.81
274.017	271.81
274.249	263.81
274.481	263.81
274.713	273.81
274.945	247.81
275.176	274.81
275.408	269.81
275.64	281.81
275.872	255.81
276.104	276.81
276.335	245.81
276.567	254.81
276.799	279.81
277.031	291.81
277.262	306.81
277.494	297.81
277.726	304.81
277.957	288.81
278.189	275.81
278.421	275.81
278.652	283.81
278.884	262.81
279.115	276.81
279.347	282.81
279.579	268.81
279.81	294.81
280.042	274.81
280.273	280.81
280.505	296.81
280.736	286.81
280.968	282.81
281.199	275.81
281.431	294.81
281.662	280.81
281.894	290.81
282.125	290.81
282.356	288.81
282.588	295.81
282.819	315.81
283.051	298.81
283.282	279.81
283.513	298.81
283.745	286.81
283.976	318.81
284.207	309.81
284.439	282.81
284.67	289.81
284.901	302.81
285.132	308.81
285.364	283.81
285.595	282.81
285.826	300.81
286.057	286.81
286.288	309.81
286.52	288.81
286.751	326.81
286.982	304.81
287.213	282.81
287.444	300.81
287.675	294.81
287.906	312.81
288.138	323.81
288.369	320.81
288.6	322.81
288.831	305.81
289.062	316.81
289.293	322.81
289.524	294.81
289.755	310.81
289.986	307.81
290.217	308.81
290.448	295.81
290.679	307.81
290.91	315.81
291.141	321.81
291.371	326.81
291.602	312.81
291.833	309.81
292.064	305.81
292.295	326.81
292.526	314.81
292.757	312.81
292.987	303.81
293.218	303.81
293.449	310.81
293.68	317.81
293.91	295.81
294.141	324.81
294.372	304.81
294.603	300.81
294.833	320.81
295.064	296.81
295.295	331.81
295.525	326.81
295.756	319.81
295.987	329.81
296.217	350.81
296.448	336.81
296.679	317.81
296.909	310.81
297.14	322.81
297.37	310.81
297.601	312.81
297.831	321.81
298.062	314.81
298.292	325.81
298.523	322.81
298.753	347.81
298.984	330.81
299.214	324.81
299.445	339.81
299.675	313.81
299.905	342.81
300.136	336.81
300.366	350.81
300.597	359.81
300.827	324.81
301.057	349.81
301.288	348.81
301.518	333.81
301.748	325.81
301.979	354.81
302.209	340.81
302.439	355.81
302.669	346.81
302.9	376.81
303.13	338.81
303.36	323.81
303.59	341.81
303.82	348.81
304.051	355.81
304.281	354.81
304.511	363.81
304.741	331.81
304.971	361.81
305.201	335.81
305.431	357.81
305.661	351.81
305.891	340.81
306.121	356.81
306.352	358.81
306.582	360.81
306.812	355.81
307.042	353.81
307.272	351.81
307.502	338.81
307.731	337.81
307.961	356.81
308.191	343.81
308.421	345.81
308.651	354.81
308.881	346.81
309.111	356.81
309.341	350.81
309.571	359.81
309.8	388.81
310.03	376.81
310.26	382.81
310.49	365.81
310.72	402.81
310.949	374.81
311.179	392.81
311.409	387.81
311.639	372.81
311.868	370.81
312.098	368.81
312.328	362.81
312.557	397.81
312.787	376.81
313.017	378.81
313.246	389.81
313.476	383.81
313.706	374.81
313.935	375.81
314.165	389.81
314.394	406.81
314.624	403.81
314.853	385.81
315.083	378.81
315.312	380.81
315.542	395.81
315.771	380.81
316.001	359.81
316.23	376.81
316.46	352.81
316.689	378.81
316.919	382.81
317.148	364.81
317.377	411.81
317.607	394.81
317.836	385.81
318.065	392.81
318.295	382.81
318.524	378.81
318.753	372.81
318.983	376.81
319.212	366.81
319.441	371.81
319.67	367.81
319.9	367.81
320.129	377.81
320.358	402.81
320.587	396.81
320.816	389.81
321.046	403.81
321.275	402.81
321.504	400.81
321.733	395.81
321.962	391.81
322.191	408.81
322.42	412.81
322.649	415.81
322.878	414.81
323.108	418.81
323.337	419.81
323.566	425.81
323.795	455.81
324.024	472.81
324.253	545.81
324.482	688.81
324.71	999.81
324.939	1378.81
325.168	1212.81
325.397	674.81
325.626	544.81
325.855	448.81
326.084	449.81
326.313	435.81
326.542	445.81
326.77	476.81
326.999	521.81
327.228	663.81
327.457	887.81
327.686	1095.81
327.914	761.81
328.143	558.81
328.372	522.81
328.6	469.81
328.829	476.81
329.058	486.81
329.287	479.81
329.515	492.81
329.744	479.81
329.972	478.81
330.201	469.81
330.43	490.81
330.658	519.81
330.887	533.81
331.115	528.81
331.344	485.81
331.572	469.81
331.801	469.81
332.03	480.81
332.258	475.81
332.486	460.81
332.715	460.81
332.943	466.81
333.172	480.81
333.4	502.81
333.629	480.81
333.857	520.81
334.085	501.81
334.314	495.81
334.542	510.81
334.771	535.81
334.999	501.81
335.227	481.81
335.455	475.81
335.684	463.81
335.912	476.81
336.14	473.81
336.369	459.81
336.597	458.81
336.825	490.81
337.053	457.81
337.281	454.81
337.51	453.81
337.738	456.81
337.966	445.81
338.194	461.81
338.422	463.81
338.65	450.81
338.878	459.81
339.106	433.81
339.334	435.81
339.562	453.81
339.79	436.81
340.018	432.81
340.246	434.81
340.474	422.81
340.702	430.81
340.93	442.81
341.158	452.81
341.386	421.81
341.614	428.81
341.842	414.81
342.07	448.81
342.298	445.81
342.526	443.81
342.754	437.81
342.981	426.81
343.209	425.81
343.437	431.81
343.665	440.81
343.893	471.81
344.12	483.81
344.348	475.81
344.576	459.81
344.804	456.81
345.031	451.81
345.259	463.81
345.487	448.81
345.714	428.81
345.942	419.81
346.17	428.81
346.397	407.81
346.625	418.81
346.853	411.81
347.08	413.81
347.308	418.81
347.535	417.81
347.763	415.81
347.99	403.81
348.218	415.81
348.445	421.81
348.673	423.81
348.9	410.81
349.128	411.81
349.355	426.81
349.583	409.81
349.81	421.81
350.037	418.81
350.265	411.81
350.492	419.81
350.72	423.81
350.947	401.81
351.174	418.81
351.402	417.81
351.629	387.81
351.856	411.81
352.083	412.81
352.311	406.81
352.538	407.81
352.765	418.81
352.992	417.81
353.22	401.81
353.447	391.81
353.674	414.81
353.901	392.81
354.128	402.81
354.355	403.81
354.583	387.81
354.81	381.81
355.037	419.81
355.264	398.81
355.491	402.81
355.718	399.81
355.945	366.81
356.172	392.81
356.399	395.81
356.626	400.81
356.853	408.81
357.08	403.81
357.307	403.81
357.534	409.81
357.761	396.81
357.988	391.81
358.215	398.81
358.441	378.81
358.668	394.81
358.895	393.81
359.122	416.81
359.349	412.81
359.576	400.81
359.802	422.81
360.029	411.81
360.256	438.81
360.483	444.81
360.709	400.81
360.936	415.81
361.163	399.81
361.39	395.81
361.616	413.81
361.843	400.81
362.07	389.81
362.296	400.81
362.523	412.81
362.749	404.81
362.976	394.81
363.203	393.81
363.429	404.81
363.656	418.81
363.882	387.81
364.109	397.81
364.335	406.81
364.562	406.81
364.788	385.81
365.015	394.81
365.241	404.81
365.468	409.81
365.694	408.81
365.92	410.81
366.147	397.81
366.373	406.81
366.599	385.81
366.826	388.81
367.052	371.81
367.278	384.81
367.505	394.81
367.731	412.81
367.957	405.81
368.184	393.81
368.41	381.81
368.636	403.81
368.862	418.81
369.089	394.81
369.315	377.81
369.541	379.81
369.767	398.81
369.993	408.81
370.219	399.81
370.445	397.81
370.672	396.81
370.898	415.81
371.124	388.81
371.35	388.81
371.576	411.81
371.802	395.81
372.028	425.81
372.254	419.81
372.48	410.81
372.706	416.81
372.932	418.81
373.158	422.81
373.384	427.81
373.61	401.81
373.835	431.81
374.061	420.81
374.287	421.81
374.513	442.81
374.739	421.81
374.965	428.81
375.191	428.81
375.416	421.81
375.642	405.81
375.868	424.81
376.094	400.81
376.319	431.81
376.545	410.81
376.771	407.81
376.997	402.81
377.222	422.81
377.448	408.81
377.674	382.81
377.899	407.81
378.125	378.81
378.35	388.81
378.576	402.81
378.802	394.81
379.027	420.81
379.253	396.81
379.478	396.81
379.704	414.81
379.929	427.81
380.155	378.81
380.38	431.81
380.606	411.81
380.831	391.81
381.057	421.81
381.282	410.81
381.507	408.81
381.733	407.81
381.958	408.81
382.184	399.81
382.409	432.81
382.634	414.81
382.86	417.81
383.085	412.81
383.31	440.81
383.535	443.81
383.761	437.81
383.986	428.81
384.211	434.81
384.436	451.81
384.662	440.81
384.887	461.81
385.112	463.81
385.337	462.81
385.562	444.81
385.787	441.81
386.013	465.81
386.238	465.81
386.463	495.81
386.688	445.81
386.913	454.81
387.138	449.81
387.363	471.81
387.588	442.81
387.813	465.81
388.038	440.81
388.263	465.81
388.488	444.81
388.713	467.81
388.938	464.81
389.163	455.81
389.387	489.81
389.612	451.81
389.837	439.81
390.062	452.81
390.287	451.81
390.512	474.81
390.736	448.81
390.961	463.81
391.186	456.81
391.411	474.81
391.636	467.81
391.86	475.81
392.085	489.81
392.31	484.81
392.534	492.81
392.759	478.81
392.984	479.81
393.208	480.81
393.433	476.81
393.658	475.81
393.882	473.81
394.107	455.81
394.331	483.81
394.556	469.81
394.78	476.81
395.005	464.81
395.229	475.81
395.454	486.81
395.678	487.81
395.903	502.81
396.127	497.81
396.352	499.81
396.576	487.81
396.801	470.81
397.025	497.81
397.249	486.81
397.474	472.81
397.698	497.81
397.922	514.81
398.147	510.81
398.371	519.81
398.595	529.81
398.82	530.81
399.044	543.81
399.268	592.81
399.492	630.81
399.717	679.81
399.941	696.81
400.165	726.81
400.389	671.81
400.613	631.81
400.837	576.81
401.062	582.81
401.286	556.81
401.51	548.81
401.734	542.81
401.958	559.81
402.182	548.81
402.406	556.81
402.63	574.81
402.854	549.81
403.078	575.81
403.302	580.81
403.526	569.81
403.75	594.81
403.974	566.81
404.198	552.81
404.422	591.81
404.645	549.81
404.869	611.81
405.093	608.81
405.317	632.81
405.541	662.81
405.765	628.81
405.988	601.81
406.212	599.81
406.436	597.81
406.66	609.81
406.883	590.81
407.107	638.81
407.331	672.81
407.555	711.81
407.778	729.81
408.002	664.81
408.226	644.81
408.449	602.81
408.673	605.81
408.896	642.81
409.12	689.81
409.344	624.81
409.567	597.81
409.791	592.81
410.014	566.81
410.238	569.81
410.461	562.81
410.685	583.81
410.908	564.81
411.132	625.81
411.355	645.81
411.578	600.81
411.802	566.81
412.025	541.81
412.249	570.81
412.472	588.81
412.695	620.81
412.919	600.81
413.142	576.81
413.365	554.81
413.589	544.81
413.812	544.81
414.035	518.81
414.258	527.81
414.482	543.81
414.705	548.81
414.928	536.81
415.151	530.81
415.374	528.81
415.597	519.81
415.821	520.81
416.044	523.81
416.267	521.81
416.49	530.81
416.713	518.81
416.936	510.81
417.159	538.81
417.382	531.81
417.605	545.81
417.828	565.81
418.051	535.81
418.274	538.81
418.497	544.81
418.72	534.81
418.943	538.81
419.166	571.81
419.389	574.81
419.611	577.81
419.834	546.81
420.057	578.81
420.28	537.81
420.503	542.81
420.726	563.81
420.948	570.81
421.171	605.81
421.394	595.81
421.617	572.81
421.839	545.81
422.062	518.81
422.285	551.81
422.507	592.81
422.73	647.81
422.953	633.81
423.175	601.81
423.398	556.81
423.621	560.81
423.843	584.81
424.066	578.81
424.288	581.81
424.511	570.81
424.733	637.81
424.956	688.81
425.178	657.81
425.401	665.81
425.623	688.81
425.846	592.81
426.068	570.81
426.291	567.81
426.513	545.81
426.735	567.81
426.958	598.81
427.18	646.81
427.402	750.81
427.625	825.81
427.847	705.81
428.069	627.81
428.292	551.81
428.514	530.81
428.736	523.81
428.958	522.81
429.181	528.81
429.403	496.81
429.625	547.81
429.847	547.81
430.069	593.81
430.292	600.81
430.514	546.81
430.736	496.81
430.958	534.81
431.18	491.81
431.402	513.81
431.624	488.81
431.846	491.81
432.068	520.81
432.29	489.81
432.512	498.81
432.734	507.81
432.956	484.81
433.178	518.81
433.4	521.81
433.622	482.81
433.844	498.81
434.066	498.81
434.287	522.81
434.509	526.81
434.731	526.81
434.953	539.81
435.175	569.81
435.397	557.81
435.618	559.81
435.84	581.81
436.062	667.81
436.284	694.81
436.505	601.81
436.727	542.81
436.949	528.81
437.17	506.81
437.392	518.81
437.614	499.81
437.835	516.81
438.057	609.81
438.278	707.81
438.5	669.81
438.721	731.81
438.943	722.81
439.165	590.81
439.386	564.81
439.608	543.81
439.829	534.81
440.05	567.81
440.272	575.81
440.493	573.81
440.715	539.81
440.936	536.81
441.158	539.81
441.379	530.81
441.6	547.81
441.822	554.81
442.043	594.81
442.264	647.81
442.486	686.81
442.707	608.81
442.928	567.81
443.149	578.81
443.371	598.81
443.592	608.81
443.813	692.81
444.034	750.81
444.255	668.81
444.476	577.81
444.698	591.81
444.919	601.81
445.14	724.81
445.361	662.81
445.582	605.81
445.803	630.81
446.024	683.81
446.245	706.81
446.466	648.81
446.687	586.81
446.908	566.81
447.129	528.81
447.35	524.81
447.571	502.81
447.792	486.81
448.013	507.81
448.234	506.81
448.455	555.81
448.675	634.81
448.896	742.81
449.117	631.81
449.338	609.81
449.559	681.81
449.779	771.81
450	636.81
450.221	522.81
450.442	507.81
450.662	493.81
450.883	467.81
451.104	491.81
451.324	491.81
451.545	474.81
451.766	447.81
451.986	455.81
452.207	443.81
452.428	449.81
452.648	448.81
452.869	439.81
453.089	456.81
453.31	467.81
453.53	459.81
453.751	451.81
453.971	445.81
454.192	440.81
454.412	443.81
454.633	438.81
454.853	443.81
455.073	453.81
455.294	467.81
455.514	503.81
455.734	530.81
455.955	466.81
456.175	450.81
456.395	410.81
456.616	442.81
456.836	423.81
457.056	446.81
457.276	422.81
457.497	420.81
457.717	455.81
457.937	427.81
458.157	436.81
458.377	441.81
458.598	466.81
458.818	481.81
459.038	561.81
459.258	585.81
459.478	551.81
459.698	518.81
459.918	497.81
460.138	513.81
460.358	536.81
460.578	552.81
460.798	537.81
461.018	528.81
461.238	510.81
461.458	537.81
461.678	557.81
461.898	535.81
462.118	536.81
462.338	554.81
462.558	580.81
462.777	576.81
462.997	586.81
463.217	599.81
463.437	617.81
463.657	591.81
463.876	566.81
464.096	596.81
464.316	577.81
464.536	588.81
464.755	559.81
464.975	548.81
465.195	581.81
465.414	609.81
465.634	539.81
465.854	517.81
466.073	506.81
466.293	497.81
466.512	495.81
466.732	476.81
466.951	479.81
467.171	471.81
467.391	479.81
467.61	476.81
467.829	464.81
468.049	470.81
468.268	485.81
468.488	488.81
468.707	456.81
468.927	477.81
469.146	459.81
469.365	471.81
469.585	464.81
469.804	479.81
470.023	475.81
470.243	487.81
470.462	509.81
470.681	484.81
470.901	511.81
471.12	466.81
471.339	473.81
471.558	498.81
471.777	488.81
471.997	491.81
472.216	476.81
472.435	506.81
472.654	495.81
472.873	466.81
473.092	464.81
473.311	457.81
473.53	472.81
473.749	496.81
473.968	517.81
474.187	598.81
474.406	619.81
474.625	504.81
474.844	498.81
475.063	476.81
475.282	468.81
475.501	483.81
475.72	471.81
475.939	497.81
476.158	479.81
476.377	464.81
476.596	489.81
476.814	527.81
477.033	484.81
477.252	504.81
477.471	520.81
477.69	516.81
477.908	531.81
478.127	536.81
478.346	544.81
478.564	538.81
478.783	524.81
479.002	563.81
479.22	570.81
479.439	561.81
479.658	567.81
479.876	582.81
480.095	600.81
480.313	614.81
480.532	614.81
480.751	608.81
480.969	599.81
481.188	632.81
481.406	648.81
481.624	583.81
481.843	574.81
482.061	567.81
482.28	550.81
482.498	566.81
482.717	550.81
482.935	561.81
483.153	570.81
483.372	553.81
483.59	553.81
483.808	527.81
484.027	558.81
484.245	539.81
484.463	551.81
484.681	569.81
484.9	547.81
485.118	537.81
485.336	528.81
485.554	539.81
485.772	564.81
485.99	571.81
486.209	565.81
486.427	560.81
486.645	571.81
486.863	568.81
487.081	558.81
487.299	592.81
487.517	595.81
487.735	580.81
487.953	584.81
488.171	572.81
488.389	588.81
488.607	584.81
488.825	596.81
489.043	590.81
489.261	619.81
489.479	593.81
489.696	569.81
489.914	603.81
490.132	594.81
490.35	601.81
490.568	614.81
490.786	623.81
491.003	613.81
491.221	629.81
491.439	640.81
491.657	629.81
491.874	642.81
492.092	646.81
492.31	672.81
492.527	677.81
492.745	665.81
492.963	686.81
493.18	678.81
493.398	678.81
493.615	689.81
493.833	698.81
494.05	703.81
494.268	690.81
494.485	651.81
494.703	688.81
494.92	683.81
495.138	679.81
495.355	681.81
495.573	691.81
495.79	689.81
496.008	692.81
496.225	690.81
496.442	665.81
496.66	684.81
496.877	697.81
497.094	707.81
497.312	719.81
497.529	690.81
497.746	730.81
497.963	736.81
498.181	794.81
498.398	784.81
498.615	799.81
498.832	832.81
499.049	852.81
499.267	887.81
499.484	914.81
499.701	1006.81
499.918	1050.81
500.135	1148.81
500.352	1177.81
500.569	1222.81
500.786	1225.81
501.003	1202.81
501.22	1112.81
501.437	1102.81
501.654	1023.81
