Data from 1973.PennyLincolnUp.Lamp.En5.5.200Scan.071719.P1.Changed Mount._HRD10591_15-44-45-852.txt Node
Date: Thu Jul 18 15:44:45 EDT 2019
User: cochatt
Spectrometer: HR+D1059
Trigger mode: 1
Integration Time (sec): 1.000000E-1
Scans to average: 1
Electric dark correction enabled: true
Nonlinearity correction enabled: false
Boxcar width: 0
XAxis mode: Wavelengths
Number of Pixels in Spectrum: 2048
>>>>>Begin Spectral Data<<<<<
223.165	-13.12
223.4	-13.12
223.635	-13.12
223.869	-16.12
224.104	-29.12
224.338	-9.12
224.573	-13.12
224.808	-12.12
225.042	-6.12
225.277	-0.12
225.511	-4.12
225.746	-12.12
225.98	2.88
226.215	17.88
226.449	17.88
226.683	20.88
226.918	26.88
227.152	28.88
227.387	33.88
227.621	40.88
227.856	42.88
228.09	49.88
228.324	44.88
228.559	53.88
228.793	67.88
229.027	101.88
229.262	111.88
229.496	126.88
229.73	133.88
229.964	143.88
230.199	118.88
230.433	100.88
230.667	102.88
230.901	113.88
231.136	118.88
231.37	125.88
231.604	107.88
231.838	115.88
232.072	122.88
232.306	119.88
232.541	117.88
232.775	113.88
233.009	108.88
233.243	118.88
233.477	121.88
233.711	113.88
233.945	102.88
234.179	124.88
234.413	107.88
234.647	117.88
234.881	117.88
235.115	126.88
235.349	120.88
235.583	131.88
235.817	120.88
236.051	124.88
236.285	116.88
236.519	126.88
236.753	129.88
236.987	133.88
237.221	164.88
237.455	201.88
237.689	173.88
237.922	122.88
238.156	125.88
238.39	124.88
238.624	110.88
238.858	131.88
239.091	111.88
239.325	123.88
239.559	117.88
239.793	122.88
240.027	128.88
240.26	142.88
240.494	145.88
240.728	153.88
240.961	137.88
241.195	141.88
241.429	135.88
241.662	128.88
241.896	145.88
242.13	139.88
242.363	136.88
242.597	147.88
242.83	167.88
243.064	134.88
243.298	135.88
243.531	138.88
243.765	143.88
243.998	149.88
244.232	138.88
244.465	131.88
244.699	150.88
244.932	163.88
245.166	145.88
245.399	153.88
245.633	149.88
245.866	158.88
246.099	158.88
246.333	145.88
246.566	158.88
246.8	147.88
247.033	163.88
247.266	162.88
247.5	172.88
247.733	161.88
247.966	173.88
248.2	158.88
248.433	167.88
248.666	183.88
248.899	160.88
249.133	184.88
249.366	198.88
249.599	187.88
249.832	177.88
250.066	190.88
250.299	165.88
250.532	193.88
250.765	203.88
250.998	211.88
251.231	214.88
251.465	201.88
251.698	213.88
251.931	197.88
252.164	189.88
252.397	201.88
252.63	211.88
252.863	205.88
253.096	228.88
253.329	224.88
253.562	214.88
253.795	221.88
254.028	223.88
254.261	202.88
254.494	236.88
254.727	242.88
254.96	267.88
255.193	259.88
255.426	247.88
255.659	226.88
255.892	224.88
256.124	217.88
256.357	225.88
256.59	213.88
256.823	203.88
257.056	229.88
257.289	210.88
257.521	210.88
257.754	204.88
257.987	211.88
258.22	191.88
258.452	193.88
258.685	213.88
258.918	193.88
259.151	228.88
259.383	218.88
259.616	224.88
259.849	232.88
260.081	221.88
260.314	259.88
260.547	262.88
260.779	231.88
261.012	242.88
261.244	244.88
261.477	252.88
261.71	233.88
261.942	221.88
262.175	230.88
262.407	218.88
262.64	212.88
262.872	224.88
263.105	218.88
263.337	211.88
263.57	230.88
263.802	217.88
264.035	225.88
264.267	224.88
264.499	221.88
264.732	235.88
264.964	216.88
265.197	241.88
265.429	224.88
265.661	209.88
265.894	225.88
266.126	230.88
266.358	220.88
266.591	245.88
266.823	234.88
267.055	230.88
267.287	225.88
267.52	245.88
267.752	246.88
267.984	232.88
268.216	233.88
268.448	249.88
268.681	257.88
268.913	260.88
269.145	266.88
269.377	279.88
269.609	277.88
269.841	275.88
270.073	272.88
270.306	291.88
270.538	288.88
270.77	314.88
271.002	305.88
271.234	293.88
271.466	298.88
271.698	299.88
271.93	314.88
272.162	337.88
272.394	325.88
272.626	315.88
272.858	283.88
273.09	291.88
273.322	281.88
273.553	264.88
273.785	285.88
274.017	274.88
274.249	281.88
274.481	271.88
274.713	277.88
274.945	282.88
275.176	266.88
275.408	282.88
275.64	285.88
275.872	286.88
276.104	275.88
276.335	278.88
276.567	269.88
276.799	297.88
277.031	302.88
277.262	334.88
277.494	326.88
277.726	313.88
277.957	315.88
278.189	306.88
278.421	301.88
278.652	277.88
278.884	275.88
279.115	297.88
279.347	302.88
279.579	295.88
279.81	286.88
280.042	287.88
280.273	276.88
280.505	289.88
280.736	296.88
280.968	276.88
281.199	287.88
281.431	304.88
281.662	309.88
281.894	312.88
282.125	279.88
282.356	309.88
282.588	321.88
282.819	331.88
283.051	293.88
283.282	285.88
283.513	290.88
283.745	301.88
283.976	294.88
284.207	291.88
284.439	315.88
284.67	300.88
284.901	289.88
285.132	308.88
285.364	296.88
285.595	300.88
285.826	322.88
286.057	307.88
286.288	312.88
286.52	309.88
286.751	312.88
286.982	315.88
287.213	313.88
287.444	312.88
287.675	318.88
287.906	323.88
288.138	313.88
288.369	335.88
288.6	311.88
288.831	330.88
289.062	325.88
289.293	325.88
289.524	315.88
289.755	335.88
289.986	303.88
290.217	319.88
290.448	334.88
290.679	317.88
290.91	317.88
291.141	294.88
291.371	328.88
291.602	320.88
291.833	322.88
292.064	335.88
292.295	308.88
292.526	316.88
292.757	330.88
292.987	310.88
293.218	308.88
293.449	315.88
293.68	316.88
293.91	311.88
294.141	312.88
294.372	309.88
294.603	338.88
294.833	321.88
295.064	325.88
295.295	331.88
295.525	314.88
295.756	335.88
295.987	334.88
296.217	329.88
296.448	351.88
296.679	341.88
296.909	322.88
297.14	317.88
297.37	345.88
297.601	344.88
297.831	327.88
298.062	321.88
298.292	343.88
298.523	327.88
298.753	338.88
298.984	359.88
299.214	331.88
299.445	314.88
299.675	335.88
299.905	365.88
300.136	357.88
300.366	348.88
300.597	321.88
300.827	351.88
301.057	362.88
301.288	365.88
301.518	335.88
301.748	346.88
301.979	338.88
302.209	358.88
302.439	352.88
302.669	371.88
302.9	347.88
303.13	369.88
303.36	359.88
303.59	366.88
303.82	372.88
304.051	376.88
304.281	369.88
304.511	352.88
304.741	373.88
304.971	362.88
305.201	361.88
305.431	361.88
305.661	369.88
305.891	367.88
306.121	375.88
306.352	366.88
306.582	361.88
306.812	354.88
307.042	369.88
307.272	352.88
307.502	348.88
307.731	348.88
307.961	369.88
308.191	367.88
308.421	357.88
308.651	349.88
308.881	364.88
309.111	377.88
309.341	371.88
309.571	366.88
309.8	368.88
310.03	388.88
310.26	381.88
310.49	376.88
310.72	408.88
310.949	404.88
311.179	412.88
311.409	391.88
311.639	387.88
311.868	375.88
312.098	394.88
312.328	395.88
312.557	413.88
312.787	415.88
313.017	411.88
313.246	392.88
313.476	392.88
313.706	401.88
313.935	389.88
314.165	422.88
314.394	412.88
314.624	415.88
314.853	387.88
315.083	393.88
315.312	382.88
315.542	416.88
315.771	408.88
316.001	389.88
316.23	376.88
316.46	391.88
316.689	382.88
316.919	403.88
317.148	407.88
317.377	414.88
317.607	402.88
317.836	405.88
318.065	391.88
318.295	397.88
318.524	407.88
318.753	394.88
318.983	400.88
319.212	387.88
319.441	388.88
319.67	412.88
319.9	413.88
320.129	405.88
320.358	385.88
320.587	395.88
320.816	401.88
321.046	397.88
321.275	422.88
321.504	415.88
321.733	383.88
321.962	422.88
322.191	411.88
322.42	444.88
322.649	456.88
322.878	417.88
323.108	431.88
323.337	454.88
323.566	447.88
323.795	491.88
324.024	521.88
324.253	590.88
324.482	747.88
324.71	1039.88
324.939	1484.88
325.168	1329.88
325.397	740.88
325.626	563.88
325.855	500.88
326.084	464.88
326.313	468.88
326.542	473.88
326.77	510.88
326.999	553.88
327.228	693.88
327.457	976.88
327.686	1171.88
327.914	842.88
328.143	592.88
328.372	532.88
328.6	537.88
328.829	511.88
329.058	507.88
329.287	524.88
329.515	509.88
329.744	489.88
329.972	496.88
330.201	509.88
330.43	526.88
330.658	532.88
330.887	545.88
331.115	522.88
331.344	523.88
331.572	481.88
331.801	478.88
332.03	486.88
332.258	474.88
332.486	490.88
332.715	478.88
332.943	490.88
333.172	508.88
333.4	511.88
333.629	507.88
333.857	535.88
334.085	512.88
334.314	563.88
334.542	579.88
334.771	558.88
334.999	536.88
335.227	511.88
335.455	508.88
335.684	489.88
335.912	493.88
336.14	501.88
336.369	472.88
336.597	488.88
336.825	476.88
337.053	493.88
337.281	472.88
337.51	476.88
337.738	471.88
337.966	464.88
338.194	478.88
338.422	458.88
338.65	465.88
338.878	450.88
339.106	443.88
339.334	444.88
339.562	444.88
339.79	460.88
340.018	441.88
340.246	459.88
340.474	451.88
340.702	447.88
340.93	447.88
341.158	445.88
341.386	447.88
341.614	457.88
341.842	446.88
342.07	449.88
342.298	432.88
342.526	442.88
342.754	441.88
342.981	429.88
343.209	447.88
343.437	453.88
343.665	467.88
343.893	490.88
344.12	490.88
344.348	496.88
344.576	480.88
344.804	487.88
345.031	471.88
345.259	448.88
345.487	439.88
345.714	440.88
345.942	447.88
346.17	443.88
346.397	445.88
346.625	449.88
346.853	439.88
347.08	447.88
347.308	438.88
347.535	425.88
347.763	437.88
347.99	425.88
348.218	449.88
348.445	437.88
348.673	447.88
348.9	434.88
349.128	433.88
349.355	425.88
349.583	418.88
349.81	423.88
350.037	426.88
350.265	427.88
350.492	418.88
350.72	428.88
350.947	411.88
351.174	443.88
351.402	430.88
351.629	429.88
351.856	423.88
352.083	425.88
352.311	435.88
352.538	441.88
352.765	444.88
352.992	429.88
353.22	420.88
353.447	435.88
353.674	411.88
353.901	399.88
354.128	415.88
354.355	404.88
354.583	409.88
354.81	422.88
355.037	393.88
355.264	414.88
355.491	394.88
355.718	417.88
355.945	408.88
356.172	406.88
356.399	403.88
356.626	412.88
356.853	411.88
357.08	427.88
357.307	415.88
357.534	400.88
357.761	406.88
357.988	398.88
358.215	445.88
358.441	409.88
358.668	408.88
358.895	419.88
359.122	435.88
359.349	422.88
359.576	410.88
359.802	445.88
360.029	459.88
360.256	449.88
360.483	425.88
360.709	425.88
360.936	426.88
361.163	421.88
361.39	432.88
361.616	421.88
361.843	425.88
362.07	425.88
362.296	410.88
362.523	426.88
362.749	436.88
362.976	408.88
363.203	436.88
363.429	403.88
363.656	430.88
363.882	397.88
364.109	418.88
364.335	417.88
364.562	422.88
364.788	419.88
365.015	425.88
365.241	430.88
365.468	415.88
365.694	422.88
365.92	414.88
366.147	419.88
366.373	426.88
366.599	415.88
366.826	418.88
367.052	394.88
367.278	404.88
367.505	407.88
367.731	421.88
367.957	420.88
368.184	417.88
368.41	416.88
368.636	418.88
368.862	425.88
369.089	438.88
369.315	439.88
369.541	403.88
369.767	435.88
369.993	408.88
370.219	418.88
370.445	407.88
370.672	398.88
370.898	418.88
371.124	449.88
371.35	432.88
371.576	434.88
371.802	407.88
372.028	403.88
372.254	403.88
372.48	415.88
372.706	444.88
372.932	426.88
373.158	439.88
373.384	423.88
373.61	415.88
373.835	430.88
374.061	418.88
374.287	418.88
374.513	427.88
374.739	455.88
374.965	443.88
375.191	459.88
375.416	430.88
375.642	419.88
375.868	429.88
376.094	448.88
376.319	427.88
376.545	413.88
376.771	426.88
376.997	428.88
377.222	401.88
377.448	424.88
377.674	439.88
377.899	435.88
378.125	446.88
378.35	421.88
378.576	427.88
378.802	407.88
379.027	412.88
379.253	418.88
379.478	406.88
379.704	407.88
379.929	423.88
380.155	432.88
380.38	434.88
380.606	415.88
380.831	417.88
381.057	433.88
381.282	435.88
381.507	435.88
381.733	430.88
381.958	422.88
382.184	430.88
382.409	438.88
382.634	453.88
382.86	428.88
383.085	413.88
383.31	441.88
383.535	450.88
383.761	417.88
383.986	438.88
384.211	453.88
384.436	460.88
384.662	477.88
384.887	470.88
385.112	464.88
385.337	483.88
385.562	476.88
385.787	471.88
386.013	469.88
386.238	485.88
386.463	499.88
386.688	498.88
386.913	478.88
387.138	474.88
387.363	475.88
387.588	467.88
387.813	463.88
388.038	467.88
388.263	472.88
388.488	469.88
388.713	481.88
388.938	479.88
389.163	482.88
389.387	465.88
389.612	474.88
389.837	478.88
390.062	483.88
390.287	458.88
390.512	463.88
390.736	460.88
390.961	474.88
391.186	482.88
391.411	481.88
391.636	491.88
391.86	513.88
392.085	505.88
392.31	522.88
392.534	514.88
392.759	479.88
392.984	487.88
393.208	478.88
393.433	511.88
393.658	484.88
393.882	465.88
394.107	468.88
394.331	479.88
394.556	478.88
394.78	497.88
395.005	477.88
395.229	481.88
395.454	492.88
395.678	498.88
395.903	519.88
396.127	558.88
396.352	551.88
396.576	490.88
396.801	495.88
397.025	511.88
397.249	499.88
397.474	515.88
397.698	527.88
397.922	529.88
398.147	521.88
398.371	543.88
398.595	563.88
398.82	561.88
399.044	579.88
399.268	616.88
399.492	650.88
399.717	692.88
399.941	718.88
400.165	725.88
400.389	690.88
400.613	667.88
400.837	605.88
401.062	576.88
401.286	579.88
401.51	561.88
401.734	557.88
401.958	579.88
402.182	564.88
402.406	559.88
402.63	571.88
402.854	590.88
403.078	601.88
403.302	591.88
403.526	606.88
403.75	587.88
403.974	604.88
404.198	612.88
404.422	602.88
404.645	596.88
404.869	587.88
405.093	604.88
405.317	662.88
405.541	667.88
405.765	622.88
405.988	591.88
406.212	606.88
406.436	628.88
406.66	667.88
406.883	647.88
407.107	661.88
407.331	701.88
407.555	749.88
407.778	745.88
408.002	681.88
408.226	664.88
408.449	642.88
408.673	625.88
408.896	632.88
409.12	663.88
409.344	642.88
409.567	589.88
409.791	597.88
410.014	590.88
410.238	573.88
410.461	582.88
410.685	589.88
410.908	587.88
411.132	630.88
411.355	641.88
411.578	637.88
411.802	597.88
412.025	578.88
412.249	601.88
412.472	614.88
412.695	629.88
412.919	615.88
413.142	574.88
413.365	577.88
413.589	573.88
413.812	565.88
414.035	537.88
414.258	581.88
414.482	552.88
414.705	563.88
414.928	567.88
415.151	533.88
415.374	565.88
415.597	536.88
415.821	544.88
416.044	548.88
416.267	534.88
416.49	532.88
416.713	536.88
416.936	534.88
417.159	553.88
417.382	561.88
417.605	573.88
417.828	557.88
418.051	604.88
418.274	553.88
418.497	561.88
418.72	547.88
418.943	553.88
419.166	591.88
419.389	628.88
419.611	618.88
419.834	587.88
420.057	589.88
420.28	585.88
420.503	552.88
420.726	548.88
420.948	569.88
421.171	600.88
421.394	637.88
421.617	577.88
421.839	583.88
422.062	569.88
422.285	586.88
422.507	621.88
422.73	670.88
422.953	649.88
423.175	604.88
423.398	587.88
423.621	598.88
423.843	609.88
424.066	611.88
424.288	618.88
424.511	633.88
424.733	637.88
424.956	706.88
425.178	691.88
425.401	685.88
425.623	701.88
425.846	631.88
426.068	578.88
426.291	589.88
426.513	577.88
426.735	593.88
426.958	607.88
427.18	666.88
427.402	792.88
427.625	871.88
427.847	732.88
428.069	663.88
428.292	601.88
428.514	550.88
428.736	548.88
428.958	542.88
429.181	514.88
429.403	520.88
429.625	541.88
429.847	543.88
430.069	606.88
430.292	608.88
430.514	540.88
430.736	538.88
430.958	550.88
431.18	535.88
431.402	539.88
431.624	549.88
431.846	514.88
432.068	520.88
432.29	513.88
432.512	530.88
432.734	523.88
432.956	519.88
433.178	525.88
433.4	518.88
433.622	528.88
433.844	503.88
434.066	517.88
434.287	529.88
434.509	543.88
434.731	532.88
434.953	560.88
435.175	576.88
435.397	588.88
435.618	569.88
435.84	595.88
436.062	663.88
436.284	724.88
436.505	611.88
436.727	568.88
436.949	535.88
437.17	529.88
437.392	536.88
437.614	542.88
437.835	557.88
438.057	626.88
438.278	720.88
438.5	730.88
438.721	787.88
438.943	748.88
439.165	647.88
439.386	571.88
439.608	570.88
439.829	557.88
440.05	580.88
440.272	606.88
440.493	590.88
440.715	565.88
440.936	559.88
441.158	543.88
441.379	551.88
441.6	573.88
441.822	597.88
442.043	629.88
442.264	701.88
442.486	729.88
442.707	639.88
442.928	614.88
443.149	606.88
443.371	627.88
443.592	659.88
443.813	724.88
444.034	805.88
444.255	685.88
444.476	633.88
444.698	650.88
444.919	643.88
445.14	726.88
445.361	683.88
445.582	618.88
445.803	654.88
446.024	741.88
446.245	720.88
446.466	673.88
446.687	605.88
446.908	575.88
447.129	550.88
447.35	546.88
447.571	522.88
447.792	492.88
448.013	521.88
448.234	534.88
448.455	578.88
448.675	677.88
448.896	762.88
449.117	664.88
449.338	635.88
449.559	705.88
449.779	814.88
450	661.88
450.221	563.88
450.442	499.88
450.662	512.88
450.883	509.88
451.104	516.88
451.324	499.88
451.545	491.88
451.766	494.88
451.986	478.88
452.207	457.88
452.428	465.88
452.648	484.88
452.869	488.88
453.089	462.88
453.31	506.88
453.53	476.88
453.751	468.88
453.971	463.88
454.192	467.88
454.412	467.88
454.633	453.88
454.853	447.88
455.073	460.88
455.294	487.88
455.514	525.88
455.734	543.88
455.955	476.88
456.175	456.88
456.395	439.88
456.616	445.88
456.836	428.88
457.056	443.88
457.276	455.88
457.497	449.88
457.717	446.88
457.937	469.88
458.157	467.88
458.377	477.88
458.598	483.88
458.818	530.88
459.038	569.88
459.258	590.88
459.478	543.88
459.698	515.88
459.918	525.88
460.138	548.88
460.358	530.88
460.578	541.88
460.798	543.88
461.018	555.88
461.238	544.88
461.458	554.88
461.678	532.88
461.898	561.88
462.118	550.88
462.338	569.88
462.558	581.88
462.777	576.88
462.997	614.88
463.217	617.88
463.437	633.88
463.657	618.88
463.876	584.88
464.096	601.88
464.316	614.88
464.536	605.88
464.755	598.88
464.975	589.88
465.195	585.88
465.414	611.88
465.634	554.88
465.854	533.88
466.073	520.88
466.293	515.88
466.512	504.88
466.732	476.88
466.951	488.88
467.171	478.88
467.391	496.88
467.61	525.88
467.829	519.88
468.049	503.88
468.268	499.88
468.488	468.88
468.707	481.88
468.927	482.88
469.146	489.88
469.365	490.88
469.585	490.88
469.804	517.88
470.023	494.88
470.243	520.88
470.462	503.88
470.681	521.88
470.901	513.88
471.12	503.88
471.339	511.88
471.558	507.88
471.777	476.88
471.997	490.88
472.216	486.88
472.435	526.88
472.654	506.88
472.873	488.88
473.092	486.88
473.311	492.88
473.53	472.88
473.749	490.88
473.968	513.88
474.187	590.88
474.406	635.88
474.625	540.88
474.844	494.88
475.063	492.88
475.282	486.88
475.501	496.88
475.72	495.88
475.939	508.88
476.158	475.88
476.377	500.88
476.596	489.88
476.814	501.88
477.033	517.88
477.252	511.88
477.471	533.88
477.69	544.88
477.908	523.88
478.127	547.88
478.346	556.88
478.564	563.88
478.783	568.88
479.002	555.88
479.22	583.88
479.439	601.88
479.658	581.88
479.876	613.88
480.095	597.88
480.313	634.88
480.532	651.88
480.751	605.88
480.969	626.88
481.188	651.88
481.406	659.88
481.624	641.88
481.843	622.88
482.061	582.88
482.28	557.88
482.498	568.88
482.717	573.88
482.935	545.88
483.153	555.88
483.372	569.88
483.59	573.88
483.808	564.88
484.027	555.88
484.245	565.88
484.463	573.88
484.681	590.88
484.9	585.88
485.118	588.88
485.336	570.88
485.554	587.88
485.772	606.88
485.99	575.88
486.209	584.88
486.427	592.88
486.645	604.88
486.863	616.88
487.081	610.88
487.299	627.88
487.517	614.88
487.735	591.88
487.953	617.88
488.171	618.88
488.389	611.88
488.607	595.88
488.825	608.88
489.043	611.88
489.261	613.88
489.479	592.88
489.696	628.88
489.914	639.88
490.132	625.88
490.35	627.88
490.568	666.88
490.786	648.88
491.003	655.88
491.221	661.88
491.439	665.88
491.657	696.88
491.874	693.88
492.092	657.88
492.31	697.88
492.527	681.88
492.745	682.88
492.963	672.88
493.18	696.88
493.398	709.88
493.615	705.88
493.833	695.88
494.05	698.88
494.268	707.88
494.485	711.88
494.703	710.88
494.92	701.88
495.138	700.88
495.355	701.88
495.573	712.88
495.79	713.88
496.008	715.88
496.225	687.88
496.442	706.88
496.66	731.88
496.877	718.88
497.094	729.88
497.312	755.88
497.529	761.88
497.746	743.88
497.963	765.88
498.181	801.88
498.398	831.88
498.615	829.88
498.832	847.88
499.049	892.88
499.267	932.88
499.484	996.88
499.701	1028.88
499.918	1065.88
500.135	1165.88
500.352	1260.88
500.569	1260.88
500.786	1286.88
501.003	1253.88
501.22	1167.88
501.437	1135.88
501.654	1047.88
