Data from 1973.PennyLincolnUp.Lamp.En5.5.200Scan.071719.P1.Changed Mount._HRD10591_15-45-34-853.txt Node
Date: Thu Jul 18 15:45:34 EDT 2019
User: cochatt
Spectrometer: HR+D1059
Trigger mode: 1
Integration Time (sec): 1.000000E-1
Scans to average: 1
Electric dark correction enabled: true
Nonlinearity correction enabled: false
Boxcar width: 0
XAxis mode: Wavelengths
Number of Pixels in Spectrum: 2048
>>>>>Begin Spectral Data<<<<<
223.165	-6.56
223.4	-6.56
223.635	-6.56
223.869	-10.56
224.104	-12.56
224.338	-17.56
224.573	-12.56
224.808	-14.56
225.042	-2.56
225.277	-4.56
225.511	-15.56
225.746	0.44
225.98	7.44
226.215	2.44
226.449	20.44
226.683	24.44
226.918	24.44
227.152	17.44
227.387	36.44
227.621	26.44
227.856	35.44
228.09	57.44
228.324	41.44
228.559	41.44
228.793	56.44
229.027	99.44
229.262	115.44
229.496	113.44
229.73	132.44
229.964	122.44
230.199	109.44
230.433	109.44
230.667	118.44
230.901	105.44
231.136	106.44
231.37	118.44
231.604	94.44
231.838	113.44
232.072	113.44
232.306	108.44
232.541	123.44
232.775	97.44
233.009	99.44
233.243	108.44
233.477	107.44
233.711	117.44
233.945	111.44
234.179	109.44
234.413	115.44
234.647	102.44
234.881	113.44
235.115	119.44
235.349	118.44
235.583	108.44
235.817	118.44
236.051	127.44
236.285	136.44
236.519	122.44
236.753	137.44
236.987	146.44
237.221	167.44
237.455	205.44
237.689	166.44
237.922	142.44
238.156	120.44
238.39	120.44
238.624	127.44
238.858	125.44
239.091	135.44
239.325	123.44
239.559	124.44
239.793	123.44
240.027	150.44
240.26	152.44
240.494	153.44
240.728	149.44
240.961	152.44
241.195	149.44
241.429	140.44
241.662	147.44
241.896	141.44
242.13	151.44
242.363	123.44
242.597	148.44
242.83	133.44
243.064	167.44
243.298	159.44
243.531	147.44
243.765	147.44
243.998	140.44
244.232	145.44
244.465	141.44
244.699	138.44
244.932	147.44
245.166	154.44
245.399	153.44
245.633	148.44
245.866	151.44
246.099	151.44
246.333	145.44
246.566	143.44
246.8	165.44
247.033	177.44
247.266	169.44
247.5	159.44
247.733	178.44
247.966	186.44
248.2	168.44
248.433	162.44
248.666	183.44
248.899	178.44
249.133	196.44
249.366	223.44
249.599	196.44
249.832	175.44
250.066	182.44
250.299	206.44
250.532	193.44
250.765	187.44
250.998	217.44
251.231	239.44
251.465	211.44
251.698	203.44
251.931	220.44
252.164	204.44
252.397	197.44
252.63	216.44
252.863	213.44
253.096	227.44
253.329	239.44
253.562	224.44
253.795	207.44
254.028	228.44
254.261	220.44
254.494	228.44
254.727	248.44
254.96	266.44
255.193	279.44
255.426	252.44
255.659	225.44
255.892	240.44
256.124	232.44
256.357	243.44
256.59	222.44
256.823	218.44
257.056	212.44
257.289	211.44
257.521	219.44
257.754	210.44
257.987	226.44
258.22	214.44
258.452	209.44
258.685	215.44
258.918	211.44
259.151	211.44
259.383	223.44
259.616	210.44
259.849	251.44
260.081	235.44
260.314	248.44
260.547	267.44
260.779	243.44
261.012	232.44
261.244	234.44
261.477	226.44
261.71	244.44
261.942	245.44
262.175	251.44
262.407	240.44
262.64	220.44
262.872	224.44
263.105	216.44
263.337	223.44
263.57	231.44
263.802	230.44
264.035	210.44
264.267	230.44
264.499	213.44
264.732	223.44
264.964	231.44
265.197	243.44
265.429	241.44
265.661	240.44
265.894	233.44
266.126	243.44
266.358	231.44
266.591	222.44
266.823	237.44
267.055	233.44
267.287	240.44
267.52	248.44
267.752	234.44
267.984	244.44
268.216	243.44
268.448	249.44
268.681	267.44
268.913	265.44
269.145	290.44
269.377	303.44
269.609	292.44
269.841	274.44
270.073	277.44
270.306	291.44
270.538	303.44
270.77	315.44
271.002	300.44
271.234	306.44
271.466	328.44
271.698	344.44
271.93	332.44
272.162	326.44
272.394	337.44
272.626	332.44
272.858	310.44
273.09	275.44
273.322	287.44
273.553	300.44
273.785	266.44
274.017	283.44
274.249	280.44
274.481	270.44
274.713	279.44
274.945	302.44
275.176	303.44
275.408	288.44
275.64	274.44
275.872	258.44
276.104	292.44
276.335	284.44
276.567	288.44
276.799	293.44
277.031	311.44
277.262	325.44
277.494	340.44
277.726	316.44
277.957	316.44
278.189	315.44
278.421	293.44
278.652	283.44
278.884	284.44
279.115	294.44
279.347	294.44
279.579	291.44
279.81	299.44
280.042	281.44
280.273	288.44
280.505	309.44
280.736	299.44
280.968	297.44
281.199	295.44
281.431	301.44
281.662	309.44
281.894	293.44
282.125	303.44
282.356	279.44
282.588	313.44
282.819	328.44
283.051	301.44
283.282	311.44
283.513	311.44
283.745	285.44
283.976	311.44
284.207	297.44
284.439	321.44
284.67	311.44
284.901	317.44
285.132	332.44
285.364	296.44
285.595	310.44
285.826	330.44
286.057	322.44
286.288	307.44
286.52	325.44
286.751	304.44
286.982	310.44
287.213	332.44
287.444	332.44
287.675	307.44
287.906	329.44
288.138	346.44
288.369	331.44
288.6	340.44
288.831	340.44
289.062	325.44
289.293	323.44
289.524	327.44
289.755	320.44
289.986	324.44
290.217	319.44
290.448	325.44
290.679	310.44
290.91	324.44
291.141	340.44
291.371	331.44
291.602	338.44
291.833	308.44
292.064	344.44
292.295	334.44
292.526	311.44
292.757	321.44
292.987	326.44
293.218	330.44
293.449	338.44
293.68	327.44
293.91	339.44
294.141	320.44
294.372	347.44
294.603	326.44
294.833	332.44
295.064	340.44
295.295	323.44
295.525	326.44
295.756	340.44
295.987	343.44
296.217	348.44
296.448	365.44
296.679	342.44
296.909	337.44
297.14	338.44
297.37	356.44
297.601	341.44
297.831	339.44
298.062	325.44
298.292	332.44
298.523	357.44
298.753	348.44
298.984	356.44
299.214	359.44
299.445	342.44
299.675	344.44
299.905	343.44
300.136	361.44
300.366	338.44
300.597	336.44
300.827	341.44
301.057	369.44
301.288	367.44
301.518	360.44
301.748	360.44
301.979	377.44
302.209	365.44
302.439	371.44
302.669	383.44
302.9	358.44
303.13	361.44
303.36	357.44
303.59	371.44
303.82	375.44
304.051	369.44
304.281	359.44
304.511	365.44
304.741	353.44
304.971	357.44
305.201	360.44
305.431	381.44
305.661	367.44
305.891	367.44
306.121	365.44
306.352	351.44
306.582	368.44
306.812	351.44
307.042	393.44
307.272	360.44
307.502	352.44
307.731	368.44
307.961	363.44
308.191	359.44
308.421	368.44
308.651	397.44
308.881	375.44
309.111	383.44
309.341	376.44
309.571	385.44
309.8	386.44
310.03	390.44
310.26	399.44
310.49	408.44
310.72	396.44
310.949	406.44
311.179	407.44
311.409	411.44
311.639	407.44
311.868	412.44
312.098	411.44
312.328	420.44
312.557	427.44
312.787	447.44
313.017	403.44
313.246	405.44
313.476	409.44
313.706	411.44
313.935	412.44
314.165	404.44
314.394	418.44
314.624	417.44
314.853	423.44
315.083	404.44
315.312	403.44
315.542	413.44
315.771	386.44
316.001	401.44
316.23	414.44
316.46	411.44
316.689	423.44
316.919	408.44
317.148	429.44
317.377	418.44
317.607	426.44
317.836	418.44
318.065	386.44
318.295	406.44
318.524	404.44
318.753	408.44
318.983	419.44
319.212	391.44
319.441	402.44
319.67	416.44
319.9	419.44
320.129	412.44
320.358	410.44
320.587	431.44
320.816	441.44
321.046	419.44
321.275	413.44
321.504	409.44
321.733	431.44
321.962	436.44
322.191	458.44
322.42	454.44
322.649	449.44
322.878	439.44
323.108	450.44
323.337	476.44
323.566	483.44
323.795	498.44
324.024	548.44
324.253	599.44
324.482	827.44
324.71	1159.44
324.939	1657.44
325.168	1484.44
325.397	808.44
325.626	612.44
325.855	540.44
326.084	508.44
326.313	504.44
326.542	489.44
326.77	533.44
326.999	596.44
327.228	768.44
327.457	1046.44
327.686	1285.44
327.914	895.44
328.143	647.44
328.372	591.44
328.6	571.44
328.829	553.44
329.058	575.44
329.287	554.44
329.515	531.44
329.744	527.44
329.972	501.44
330.201	532.44
330.43	537.44
330.658	542.44
330.887	570.44
331.115	573.44
331.344	511.44
331.572	489.44
331.801	494.44
332.03	504.44
332.258	514.44
332.486	513.44
332.715	498.44
332.943	511.44
333.172	524.44
333.4	525.44
333.629	533.44
333.857	548.44
334.085	555.44
334.314	555.44
334.542	594.44
334.771	576.44
334.999	538.44
335.227	503.44
335.455	520.44
335.684	501.44
335.912	506.44
336.14	488.44
336.369	487.44
336.597	521.44
336.825	491.44
337.053	496.44
337.281	474.44
337.51	457.44
337.738	481.44
337.966	481.44
338.194	500.44
338.422	495.44
338.65	467.44
338.878	482.44
339.106	452.44
339.334	466.44
339.562	467.44
339.79	460.44
340.018	476.44
340.246	476.44
340.474	487.44
340.702	492.44
340.93	460.44
341.158	451.44
341.386	476.44
341.614	467.44
341.842	479.44
342.07	463.44
342.298	481.44
342.526	458.44
342.754	449.44
342.981	458.44
343.209	443.44
343.437	465.44
343.665	489.44
343.893	521.44
344.12	497.44
344.348	508.44
344.576	473.44
344.804	475.44
345.031	479.44
345.259	483.44
345.487	443.44
345.714	477.44
345.942	459.44
346.17	465.44
346.397	448.44
346.625	435.44
346.853	426.44
347.08	453.44
347.308	448.44
347.535	452.44
347.763	470.44
347.99	460.44
348.218	444.44
348.445	432.44
348.673	455.44
348.9	450.44
349.128	451.44
349.355	423.44
349.583	445.44
349.81	439.44
350.037	419.44
350.265	423.44
350.492	429.44
350.72	426.44
350.947	444.44
351.174	450.44
351.402	441.44
351.629	434.44
351.856	455.44
352.083	444.44
352.311	460.44
352.538	450.44
352.765	433.44
352.992	427.44
353.22	437.44
353.447	447.44
353.674	439.44
353.901	425.44
354.128	418.44
354.355	419.44
354.583	426.44
354.81	415.44
355.037	437.44
355.264	407.44
355.491	399.44
355.718	423.44
355.945	397.44
356.172	421.44
356.399	395.44
356.626	437.44
356.853	420.44
357.08	416.44
357.307	403.44
357.534	408.44
357.761	413.44
357.988	412.44
358.215	436.44
358.441	428.44
358.668	428.44
358.895	428.44
359.122	432.44
359.349	428.44
359.576	435.44
359.802	448.44
360.029	454.44
360.256	487.44
360.483	460.44
360.709	449.44
360.936	445.44
361.163	427.44
361.39	440.44
361.616	456.44
361.843	423.44
362.07	435.44
362.296	429.44
362.523	426.44
362.749	456.44
362.976	429.44
363.203	425.44
363.429	426.44
363.656	434.44
363.882	413.44
364.109	421.44
364.335	426.44
364.562	423.44
364.788	428.44
365.015	440.44
365.241	420.44
365.468	418.44
365.694	427.44
365.92	435.44
366.147	425.44
366.373	433.44
366.599	443.44
366.826	426.44
367.052	436.44
367.278	421.44
367.505	422.44
367.731	439.44
367.957	411.44
368.184	423.44
368.41	452.44
368.636	451.44
368.862	453.44
369.089	442.44
369.315	432.44
369.541	427.44
369.767	425.44
369.993	438.44
370.219	434.44
370.445	452.44
370.672	408.44
370.898	420.44
371.124	451.44
371.35	454.44
371.576	436.44
371.802	440.44
372.028	440.44
372.254	445.44
372.48	437.44
372.706	460.44
372.932	452.44
373.158	444.44
373.384	435.44
373.61	439.44
373.835	450.44
374.061	451.44
374.287	440.44
374.513	450.44
374.739	450.44
374.965	461.44
375.191	443.44
375.416	444.44
375.642	451.44
375.868	444.44
376.094	447.44
376.319	433.44
376.545	432.44
376.771	456.44
376.997	429.44
377.222	431.44
377.448	427.44
377.674	451.44
377.899	426.44
378.125	425.44
378.35	431.44
378.576	443.44
378.802	433.44
379.027	429.44
379.253	425.44
379.478	424.44
379.704	420.44
379.929	429.44
380.155	426.44
380.38	438.44
380.606	433.44
380.831	441.44
381.057	468.44
381.282	433.44
381.507	422.44
381.733	442.44
381.958	445.44
382.184	433.44
382.409	449.44
382.634	440.44
382.86	434.44
383.085	460.44
383.31	459.44
383.535	462.44
383.761	448.44
383.986	482.44
384.211	488.44
384.436	473.44
384.662	476.44
384.887	466.44
385.112	489.44
385.337	489.44
385.562	476.44
385.787	486.44
386.013	482.44
386.238	483.44
386.463	482.44
386.688	498.44
386.913	487.44
387.138	484.44
387.363	489.44
387.588	479.44
387.813	490.44
388.038	486.44
388.263	491.44
388.488	500.44
388.713	485.44
388.938	497.44
389.163	489.44
389.387	494.44
389.612	476.44
389.837	484.44
390.062	479.44
390.287	493.44
390.512	482.44
390.736	475.44
390.961	464.44
391.186	514.44
391.411	511.44
391.636	485.44
391.86	529.44
392.085	537.44
392.31	500.44
392.534	527.44
392.759	526.44
392.984	515.44
393.208	523.44
393.433	500.44
393.658	509.44
393.882	490.44
394.107	501.44
394.331	492.44
394.556	507.44
394.78	486.44
395.005	489.44
395.229	519.44
395.454	498.44
395.678	544.44
395.903	513.44
396.127	536.44
396.352	519.44
396.576	536.44
396.801	516.44
397.025	521.44
397.249	508.44
397.474	529.44
397.698	535.44
397.922	561.44
398.147	563.44
398.371	548.44
398.595	572.44
398.82	579.44
399.044	599.44
399.268	626.44
399.492	665.44
399.717	716.44
399.941	729.44
400.165	736.44
400.389	725.44
400.613	648.44
400.837	616.44
401.062	593.44
401.286	573.44
401.51	590.44
401.734	567.44
401.958	585.44
402.182	581.44
402.406	602.44
402.63	587.44
402.854	593.44
403.078	597.44
403.302	623.44
403.526	617.44
403.75	601.44
403.974	616.44
404.198	622.44
404.422	621.44
404.645	639.44
404.869	649.44
405.093	635.44
405.317	679.44
405.541	691.44
405.765	651.44
405.988	624.44
406.212	651.44
406.436	639.44
406.66	684.44
406.883	646.44
407.107	687.44
407.331	738.44
407.555	806.44
407.778	801.44
408.002	716.44
408.226	668.44
408.449	670.44
408.673	645.44
408.896	687.44
409.12	706.44
409.344	668.44
409.567	603.44
409.791	612.44
410.014	597.44
410.238	610.44
410.461	602.44
410.685	610.44
410.908	614.44
411.132	626.44
411.355	659.44
411.578	642.44
411.802	619.44
412.025	605.44
412.249	599.44
412.472	626.44
412.695	675.44
412.919	639.44
413.142	602.44
413.365	575.44
413.589	586.44
413.812	576.44
414.035	579.44
414.258	573.44
414.482	563.44
414.705	581.44
414.928	567.44
415.151	565.44
415.374	547.44
415.597	572.44
415.821	556.44
416.044	559.44
416.267	558.44
416.49	558.44
416.713	555.44
416.936	551.44
417.159	563.44
417.382	581.44
417.605	578.44
417.828	578.44
418.051	586.44
418.274	567.44
418.497	567.44
418.72	558.44
418.943	568.44
419.166	594.44
419.389	614.44
419.611	610.44
419.834	619.44
420.057	621.44
420.28	606.44
420.503	593.44
420.726	570.44
420.948	598.44
421.171	625.44
421.394	648.44
421.617	594.44
421.839	584.44
422.062	590.44
422.285	607.44
422.507	646.44
422.73	732.44
422.953	697.44
423.175	627.44
423.398	623.44
423.621	592.44
423.843	619.44
424.066	644.44
424.288	594.44
424.511	649.44
424.733	671.44
424.956	746.44
425.178	726.44
425.401	729.44
425.623	730.44
425.846	658.44
426.068	607.44
426.291	624.44
426.513	593.44
426.735	621.44
426.958	638.44
427.18	722.44
427.402	822.44
427.625	866.44
427.847	776.44
428.069	683.44
428.292	626.44
428.514	571.44
428.736	559.44
428.958	561.44
429.181	537.44
429.403	551.44
429.625	570.44
429.847	602.44
430.069	647.44
430.292	642.44
430.514	567.44
430.736	574.44
430.958	557.44
431.18	537.44
431.402	563.44
431.624	508.44
431.846	516.44
432.068	538.44
432.29	556.44
432.512	528.44
432.734	556.44
432.956	547.44
433.178	519.44
433.4	555.44
433.622	549.44
433.844	548.44
434.066	547.44
434.287	537.44
434.509	555.44
434.731	563.44
434.953	563.44
435.175	568.44
435.397	607.44
435.618	615.44
435.84	616.44
436.062	718.44
436.284	759.44
436.505	653.44
436.727	593.44
436.949	563.44
437.17	575.44
437.392	557.44
437.614	561.44
437.835	589.44
438.057	643.44
438.278	733.44
438.5	738.44
438.721	823.44
438.943	795.44
439.165	643.44
439.386	617.44
439.608	596.44
439.829	589.44
440.05	610.44
440.272	654.44
440.493	609.44
440.715	586.44
440.936	563.44
441.158	585.44
441.379	561.44
441.6	593.44
441.822	611.44
442.043	602.44
442.264	704.44
442.486	738.44
442.707	655.44
442.928	613.44
443.149	643.44
443.371	633.44
443.592	691.44
443.813	761.44
444.034	811.44
444.255	715.44
444.476	657.44
444.698	647.44
444.919	636.44
445.14	748.44
445.361	691.44
445.582	643.44
445.803	695.44
446.024	736.44
446.245	770.44
446.466	718.44
446.687	639.44
446.908	594.44
447.129	545.44
447.35	552.44
447.571	557.44
447.792	551.44
448.013	528.44
448.234	548.44
448.455	598.44
448.675	701.44
448.896	804.44
449.117	668.44
449.338	650.44
449.559	754.44
449.779	807.44
450	684.44
450.221	568.44
450.442	534.44
450.662	551.44
450.883	533.44
451.104	523.44
451.324	529.44
451.545	511.44
451.766	505.44
451.986	474.44
452.207	480.44
452.428	490.44
452.648	491.44
452.869	469.44
453.089	483.44
453.31	500.44
453.53	493.44
453.751	496.44
453.971	474.44
454.192	497.44
454.412	498.44
454.633	466.44
454.853	468.44
455.073	508.44
455.294	508.44
455.514	572.44
455.734	553.44
455.955	487.44
456.175	468.44
456.395	464.44
456.616	461.44
456.836	479.44
457.056	460.44
457.276	445.44
457.497	460.44
457.717	456.44
457.937	472.44
458.157	465.44
458.377	483.44
458.598	507.44
458.818	526.44
459.038	620.44
459.258	631.44
459.478	549.44
459.698	551.44
459.918	538.44
460.138	546.44
460.358	557.44
460.578	582.44
460.798	576.44
461.018	572.44
461.238	578.44
461.458	563.44
461.678	569.44
461.898	577.44
462.118	580.44
462.338	575.44
462.558	607.44
462.777	627.44
462.997	643.44
463.217	633.44
463.437	651.44
463.657	644.44
463.876	619.44
464.096	617.44
464.316	618.44
464.536	623.44
464.755	605.44
464.975	616.44
465.195	647.44
465.414	653.44
465.634	585.44
465.854	555.44
466.073	560.44
466.293	506.44
466.512	524.44
466.732	505.44
466.951	503.44
467.171	530.44
467.391	528.44
467.61	534.44
467.829	523.44
468.049	517.44
468.268	517.44
468.488	503.44
468.707	506.44
468.927	495.44
469.146	507.44
469.365	504.44
469.585	487.44
469.804	500.44
470.023	521.44
470.243	506.44
470.462	512.44
470.681	555.44
470.901	524.44
471.12	536.44
471.339	524.44
471.558	519.44
471.777	488.44
471.997	503.44
472.216	504.44
472.435	536.44
472.654	529.44
472.873	513.44
473.092	505.44
473.311	510.44
473.53	519.44
473.749	509.44
473.968	548.44
474.187	637.44
474.406	642.44
474.625	555.44
474.844	532.44
475.063	521.44
475.282	494.44
475.501	523.44
475.72	516.44
475.939	501.44
476.158	516.44
476.377	529.44
476.596	522.44
476.814	533.44
477.033	539.44
477.252	541.44
477.471	558.44
477.69	563.44
477.908	550.44
478.127	567.44
478.346	571.44
478.564	582.44
478.783	587.44
479.002	598.44
479.22	602.44
479.439	616.44
479.658	619.44
479.876	612.44
480.095	611.44
480.313	658.44
480.532	656.44
480.751	629.44
480.969	632.44
481.188	674.44
481.406	693.44
481.624	632.44
481.843	612.44
482.061	608.44
482.28	598.44
482.498	572.44
482.717	578.44
482.935	609.44
483.153	586.44
483.372	588.44
483.59	583.44
483.808	599.44
484.027	595.44
484.245	600.44
484.463	592.44
484.681	621.44
484.9	587.44
485.118	595.44
485.336	611.44
485.554	624.44
485.772	616.44
485.99	613.44
486.209	623.44
486.427	585.44
486.645	639.44
486.863	641.44
487.081	653.44
487.299	618.44
487.517	618.44
487.735	637.44
487.953	647.44
488.171	623.44
488.389	647.44
488.607	634.44
488.825	619.44
489.043	645.44
489.261	633.44
489.479	645.44
489.696	666.44
489.914	664.44
490.132	672.44
490.35	656.44
490.568	643.44
490.786	668.44
491.003	667.44
491.221	689.44
491.439	693.44
491.657	717.44
491.874	708.44
492.092	736.44
492.31	721.44
492.527	716.44
492.745	723.44
492.963	737.44
493.18	728.44
493.398	726.44
493.615	724.44
493.833	739.44
494.05	765.44
494.268	717.44
494.485	748.44
494.703	741.44
494.92	747.44
495.138	741.44
495.355	739.44
495.573	739.44
495.79	749.44
496.008	721.44
496.225	743.44
496.442	733.44
496.66	770.44
496.877	771.44
497.094	755.44
497.312	775.44
497.529	783.44
497.746	779.44
497.963	818.44
498.181	831.44
498.398	873.44
498.615	875.44
498.832	880.44
499.049	939.44
499.267	970.44
499.484	1017.44
499.701	1109.44
499.918	1134.44
500.135	1184.44
500.352	1280.44
500.569	1322.44
500.786	1323.44
501.003	1288.44
501.22	1194.44
501.437	1127.44
501.654	1093.44
