Data from 1973.PennyLincolnUp.Lamp.En5.5.200Scan.071719.P1.Changed Mount._HRD10591_15-45-52-853.txt Node
Date: Thu Jul 18 15:45:52 EDT 2019
User: cochatt
Spectrometer: HR+D1059
Trigger mode: 1
Integration Time (sec): 1.000000E-1
Scans to average: 1
Electric dark correction enabled: true
Nonlinearity correction enabled: false
Boxcar width: 0
XAxis mode: Wavelengths
Number of Pixels in Spectrum: 2048
>>>>>Begin Spectral Data<<<<<
223.165	-14.62
223.4	-14.62
223.635	-14.62
223.869	-14.62
224.104	-24.62
224.338	-17.62
224.573	-26.62
224.808	-11.62
225.042	-11.62
225.277	-13.62
225.511	-2.62
225.746	9.38
225.98	11.38
226.215	24.38
226.449	16.38
226.683	26.38
226.918	21.38
227.152	28.38
227.387	26.38
227.621	20.38
227.856	25.38
228.09	44.38
228.324	44.38
228.559	47.38
228.793	57.38
229.027	96.38
229.262	92.38
229.496	120.38
229.73	132.38
229.964	137.38
230.199	123.38
230.433	114.38
230.667	114.38
230.901	104.38
231.136	101.38
231.37	105.38
231.604	97.38
231.838	110.38
232.072	117.38
232.306	117.38
232.541	104.38
232.775	101.38
233.009	113.38
233.243	122.38
233.477	123.38
233.711	119.38
233.945	110.38
234.179	108.38
234.413	124.38
234.647	109.38
234.881	123.38
235.115	111.38
235.349	110.38
235.583	110.38
235.817	125.38
236.051	132.38
236.285	130.38
236.519	125.38
236.753	122.38
236.987	132.38
237.221	166.38
237.455	220.38
237.689	180.38
237.922	114.38
238.156	130.38
238.39	130.38
238.624	120.38
238.858	134.38
239.091	125.38
239.325	125.38
239.559	131.38
239.793	124.38
240.027	130.38
240.26	143.38
240.494	152.38
240.728	154.38
240.961	143.38
241.195	150.38
241.429	138.38
241.662	165.38
241.896	143.38
242.13	152.38
242.363	138.38
242.597	130.38
242.83	138.38
243.064	140.38
243.298	137.38
243.531	155.38
243.765	141.38
243.998	148.38
244.232	150.38
244.465	142.38
244.699	145.38
244.932	141.38
245.166	167.38
245.399	147.38
245.633	154.38
245.866	156.38
246.099	149.38
246.333	146.38
246.566	152.38
246.8	158.38
247.033	154.38
247.266	163.38
247.5	152.38
247.733	164.38
247.966	176.38
248.2	170.38
248.433	188.38
248.666	173.38
248.899	190.38
249.133	220.38
249.366	202.38
249.599	199.38
249.832	194.38
250.066	191.38
250.299	192.38
250.532	200.38
250.765	194.38
250.998	238.38
251.231	222.38
251.465	218.38
251.698	199.38
251.931	204.38
252.164	189.38
252.397	212.38
252.63	215.38
252.863	205.38
253.096	206.38
253.329	226.38
253.562	221.38
253.795	226.38
254.028	211.38
254.261	213.38
254.494	223.38
254.727	256.38
254.96	275.38
255.193	280.38
255.426	256.38
255.659	252.38
255.892	239.38
256.124	235.38
256.357	231.38
256.59	216.38
256.823	208.38
257.056	193.38
257.289	211.38
257.521	205.38
257.754	201.38
257.987	229.38
258.22	216.38
258.452	210.38
258.685	219.38
258.918	222.38
259.151	231.38
259.383	240.38
259.616	214.38
259.849	221.38
260.081	231.38
260.314	272.38
260.547	244.38
260.779	261.38
261.012	246.38
261.244	245.38
261.477	232.38
261.71	227.38
261.942	216.38
262.175	235.38
262.407	236.38
262.64	224.38
262.872	221.38
263.105	219.38
263.337	234.38
263.57	211.38
263.802	224.38
264.035	221.38
264.267	223.38
264.499	236.38
264.732	228.38
264.964	222.38
265.197	219.38
265.429	233.38
265.661	234.38
265.894	233.38
266.126	233.38
266.358	242.38
266.591	226.38
266.823	244.38
267.055	241.38
267.287	237.38
267.52	238.38
267.752	246.38
267.984	256.38
268.216	242.38
268.448	244.38
268.681	234.38
268.913	244.38
269.145	291.38
269.377	313.38
269.609	296.38
269.841	280.38
270.073	269.38
270.306	298.38
270.538	311.38
270.77	325.38
271.002	318.38
271.234	305.38
271.466	317.38
271.698	304.38
271.93	341.38
272.162	313.38
272.394	329.38
272.626	296.38
272.858	299.38
273.09	311.38
273.322	297.38
273.553	293.38
273.785	278.38
274.017	271.38
274.249	291.38
274.481	277.38
274.713	291.38
274.945	275.38
275.176	282.38
275.408	299.38
275.64	283.38
275.872	289.38
276.104	298.38
276.335	298.38
276.567	304.38
276.799	313.38
277.031	322.38
277.262	331.38
277.494	340.38
277.726	331.38
277.957	289.38
278.189	298.38
278.421	288.38
278.652	302.38
278.884	318.38
279.115	294.38
279.347	295.38
279.579	298.38
279.81	294.38
280.042	291.38
280.273	283.38
280.505	295.38
280.736	299.38
280.968	300.38
281.199	297.38
281.431	288.38
281.662	285.38
281.894	283.38
282.125	312.38
282.356	326.38
282.588	317.38
282.819	310.38
283.051	314.38
283.282	297.38
283.513	300.38
283.745	296.38
283.976	313.38
284.207	321.38
284.439	308.38
284.67	306.38
284.901	315.38
285.132	315.38
285.364	314.38
285.595	306.38
285.826	315.38
286.057	323.38
286.288	315.38
286.52	307.38
286.751	318.38
286.982	321.38
287.213	325.38
287.444	301.38
287.675	325.38
287.906	331.38
288.138	331.38
288.369	347.38
288.6	334.38
288.831	353.38
289.062	334.38
289.293	347.38
289.524	338.38
289.755	312.38
289.986	327.38
290.217	329.38
290.448	329.38
290.679	324.38
290.91	324.38
291.141	310.38
291.371	339.38
291.602	314.38
291.833	325.38
292.064	343.38
292.295	342.38
292.526	347.38
292.757	329.38
292.987	339.38
293.218	312.38
293.449	341.38
293.68	342.38
293.91	351.38
294.141	342.38
294.372	326.38
294.603	324.38
294.833	314.38
295.064	316.38
295.295	326.38
295.525	325.38
295.756	313.38
295.987	332.38
296.217	355.38
296.448	360.38
296.679	353.38
296.909	339.38
297.14	339.38
297.37	323.38
297.601	326.38
297.831	333.38
298.062	340.38
298.292	330.38
298.523	344.38
298.753	353.38
298.984	355.38
299.214	355.38
299.445	350.38
299.675	342.38
299.905	347.38
300.136	354.38
300.366	339.38
300.597	355.38
300.827	353.38
301.057	359.38
301.288	365.38
301.518	368.38
301.748	369.38
301.979	371.38
302.209	379.38
302.439	380.38
302.669	359.38
302.9	374.38
303.13	376.38
303.36	364.38
303.59	364.38
303.82	373.38
304.051	390.38
304.281	382.38
304.511	372.38
304.741	370.38
304.971	374.38
305.201	377.38
305.431	363.38
305.661	375.38
305.891	343.38
306.121	361.38
306.352	387.38
306.582	378.38
306.812	376.38
307.042	368.38
307.272	352.38
307.502	368.38
307.731	368.38
307.961	368.38
308.191	370.38
308.421	365.38
308.651	379.38
308.881	373.38
309.111	376.38
309.341	400.38
309.571	367.38
309.8	387.38
310.03	395.38
310.26	389.38
310.49	399.38
310.72	405.38
310.949	405.38
311.179	411.38
311.409	406.38
311.639	406.38
311.868	396.38
312.098	403.38
312.328	413.38
312.557	406.38
312.787	425.38
313.017	413.38
313.246	427.38
313.476	395.38
313.706	408.38
313.935	411.38
314.165	424.38
314.394	432.38
314.624	432.38
314.853	413.38
315.083	415.38
315.312	420.38
315.542	399.38
315.771	404.38
316.001	410.38
316.23	397.38
316.46	404.38
316.689	415.38
316.919	419.38
317.148	420.38
317.377	423.38
317.607	419.38
317.836	403.38
318.065	428.38
318.295	431.38
318.524	406.38
318.753	416.38
318.983	420.38
319.212	413.38
319.441	396.38
319.67	409.38
319.9	432.38
320.129	411.38
320.358	420.38
320.587	401.38
320.816	419.38
321.046	421.38
321.275	437.38
321.504	413.38
321.733	421.38
321.962	438.38
322.191	442.38
322.42	462.38
322.649	439.38
322.878	450.38
323.108	452.38
323.337	455.38
323.566	500.38
323.795	515.38
324.024	549.38
324.253	586.38
324.482	800.38
324.71	1158.38
324.939	1645.38
325.168	1456.38
325.397	790.38
325.626	597.38
325.855	514.38
326.084	501.38
326.313	498.38
326.542	509.38
326.77	552.38
326.999	586.38
327.228	722.38
327.457	1069.38
327.686	1259.38
327.914	896.38
328.143	634.38
328.372	562.38
328.6	540.38
328.829	539.38
329.058	560.38
329.287	560.38
329.515	547.38
329.744	482.38
329.972	519.38
330.201	517.38
330.43	564.38
330.658	564.38
330.887	607.38
331.115	564.38
331.344	540.38
331.572	533.38
331.801	499.38
332.03	531.38
332.258	519.38
332.486	486.38
332.715	509.38
332.943	509.38
333.172	520.38
333.4	532.38
333.629	516.38
333.857	554.38
334.085	531.38
334.314	553.38
334.542	582.38
334.771	591.38
334.999	577.38
335.227	543.38
335.455	532.38
335.684	509.38
335.912	485.38
336.14	501.38
336.369	483.38
336.597	514.38
336.825	498.38
337.053	508.38
337.281	487.38
337.51	487.38
337.738	509.38
337.966	498.38
338.194	475.38
338.422	476.38
338.65	476.38
338.878	496.38
339.106	470.38
339.334	471.38
339.562	483.38
339.79	466.38
340.018	466.38
340.246	458.38
340.474	489.38
340.702	450.38
340.93	461.38
341.158	461.38
341.386	452.38
341.614	452.38
341.842	469.38
342.07	463.38
342.298	477.38
342.526	439.38
342.754	445.38
342.981	452.38
343.209	456.38
343.437	482.38
343.665	486.38
343.893	491.38
344.12	521.38
344.348	504.38
344.576	500.38
344.804	483.38
345.031	465.38
345.259	479.38
345.487	473.38
345.714	468.38
345.942	459.38
346.17	438.38
346.397	466.38
346.625	425.38
346.853	452.38
347.08	432.38
347.308	444.38
347.535	436.38
347.763	451.38
347.99	431.38
348.218	465.38
348.445	438.38
348.673	470.38
348.9	433.38
349.128	452.38
349.355	435.38
349.583	454.38
349.81	432.38
350.037	447.38
350.265	433.38
350.492	427.38
350.72	438.38
350.947	420.38
351.174	442.38
351.402	439.38
351.629	450.38
351.856	427.38
352.083	448.38
352.311	441.38
352.538	460.38
352.765	449.38
352.992	453.38
353.22	447.38
353.447	439.38
353.674	452.38
353.901	450.38
354.128	427.38
354.355	421.38
354.583	422.38
354.81	435.38
355.037	424.38
355.264	425.38
355.491	437.38
355.718	407.38
355.945	433.38
356.172	420.38
356.399	434.38
356.626	418.38
356.853	426.38
357.08	430.38
357.307	422.38
357.534	432.38
357.761	408.38
357.988	435.38
358.215	443.38
358.441	438.38
358.668	408.38
358.895	426.38
359.122	445.38
359.349	432.38
359.576	450.38
359.802	464.38
360.029	452.38
360.256	491.38
360.483	481.38
360.709	454.38
360.936	434.38
361.163	448.38
361.39	440.38
361.616	424.38
361.843	450.38
362.07	443.38
362.296	438.38
362.523	432.38
362.749	451.38
362.976	434.38
363.203	428.38
363.429	427.38
363.656	428.38
363.882	442.38
364.109	429.38
364.335	421.38
364.562	436.38
364.788	425.38
365.015	420.38
365.241	453.38
365.468	430.38
365.694	437.38
365.92	442.38
366.147	437.38
366.373	437.38
366.599	426.38
366.826	432.38
367.052	448.38
367.278	436.38
367.505	419.38
367.731	409.38
367.957	426.38
368.184	438.38
368.41	396.38
368.636	435.38
368.862	445.38
369.089	443.38
369.315	433.38
369.541	432.38
369.767	440.38
369.993	436.38
370.219	437.38
370.445	434.38
370.672	435.38
370.898	429.38
371.124	447.38
371.35	446.38
371.576	436.38
371.802	458.38
372.028	445.38
372.254	437.38
372.48	426.38
372.706	440.38
372.932	461.38
373.158	453.38
373.384	447.38
373.61	439.38
373.835	453.38
374.061	468.38
374.287	450.38
374.513	457.38
374.739	445.38
374.965	447.38
375.191	473.38
375.416	446.38
375.642	443.38
375.868	430.38
376.094	452.38
376.319	414.38
376.545	408.38
376.771	441.38
376.997	460.38
377.222	440.38
377.448	452.38
377.674	423.38
377.899	437.38
378.125	453.38
378.35	434.38
378.576	444.38
378.802	440.38
379.027	432.38
379.253	420.38
379.478	442.38
379.704	436.38
379.929	433.38
380.155	429.38
380.38	425.38
380.606	436.38
380.831	433.38
381.057	424.38
381.282	429.38
381.507	444.38
381.733	455.38
381.958	440.38
382.184	453.38
382.409	460.38
382.634	453.38
382.86	484.38
383.085	447.38
383.31	463.38
383.535	480.38
383.761	462.38
383.986	458.38
384.211	465.38
384.436	448.38
384.662	467.38
384.887	474.38
385.112	483.38
385.337	501.38
385.562	472.38
385.787	472.38
386.013	510.38
386.238	487.38
386.463	510.38
386.688	506.38
386.913	484.38
387.138	484.38
387.363	493.38
387.588	493.38
387.813	482.38
388.038	497.38
388.263	484.38
388.488	491.38
388.713	512.38
388.938	499.38
389.163	486.38
389.387	512.38
389.612	491.38
389.837	474.38
390.062	487.38
390.287	482.38
390.512	490.38
390.736	481.38
390.961	483.38
391.186	517.38
391.411	517.38
391.636	512.38
391.86	521.38
392.085	525.38
392.31	520.38
392.534	506.38
392.759	522.38
392.984	501.38
393.208	522.38
393.433	498.38
393.658	502.38
393.882	504.38
394.107	512.38
394.331	494.38
394.556	501.38
394.78	530.38
395.005	537.38
395.229	520.38
395.454	534.38
395.678	538.38
395.903	547.38
396.127	560.38
396.352	537.38
396.576	514.38
396.801	535.38
397.025	494.38
397.249	523.38
397.474	500.38
397.698	537.38
397.922	537.38
398.147	563.38
398.371	593.38
398.595	571.38
398.82	600.38
399.044	616.38
399.268	642.38
399.492	676.38
399.717	730.38
399.941	747.38
400.165	749.38
400.389	730.38
400.613	683.38
400.837	626.38
401.062	618.38
401.286	578.38
401.51	605.38
401.734	569.38
401.958	590.38
402.182	568.38
402.406	583.38
402.63	604.38
402.854	612.38
403.078	612.38
403.302	614.38
403.526	631.38
403.75	626.38
403.974	603.38
404.198	619.38
404.422	602.38
404.645	641.38
404.869	631.38
405.093	656.38
405.317	679.38
405.541	704.38
405.765	650.38
405.988	632.38
406.212	637.38
406.436	654.38
406.66	680.38
406.883	645.38
407.107	677.38
407.331	693.38
407.555	787.38
407.778	790.38
408.002	726.38
408.226	671.38
408.449	669.38
408.673	640.38
408.896	677.38
409.12	711.38
409.344	682.38
409.567	623.38
409.791	638.38
410.014	640.38
410.238	595.38
410.461	600.38
410.685	613.38
410.908	631.38
411.132	648.38
411.355	661.38
411.578	662.38
411.802	598.38
412.025	574.38
412.249	620.38
412.472	640.38
412.695	654.38
412.919	658.38
413.142	608.38
413.365	602.38
413.589	580.38
413.812	596.38
414.035	579.38
414.258	574.38
414.482	595.38
414.705	570.38
414.928	582.38
415.151	575.38
415.374	579.38
415.597	570.38
415.821	590.38
416.044	564.38
416.267	564.38
416.49	574.38
416.713	572.38
416.936	557.38
417.159	562.38
417.382	580.38
417.605	579.38
417.828	603.38
418.051	592.38
418.274	607.38
418.497	557.38
418.72	599.38
418.943	574.38
419.166	610.38
419.389	645.38
419.611	631.38
419.834	618.38
420.057	618.38
420.28	599.38
420.503	587.38
420.726	617.38
420.948	608.38
421.171	624.38
421.394	644.38
421.617	615.38
421.839	581.38
422.062	589.38
422.285	604.38
422.507	632.38
422.73	730.38
422.953	690.38
423.175	634.38
423.398	608.38
423.621	636.38
423.843	630.38
424.066	642.38
424.288	642.38
424.511	647.38
424.733	692.38
424.956	772.38
425.178	729.38
425.401	722.38
425.623	715.38
425.846	653.38
426.068	594.38
426.291	595.38
426.513	592.38
426.735	618.38
426.958	638.38
427.18	722.38
427.402	818.38
427.625	894.38
427.847	766.38
428.069	684.38
428.292	654.38
428.514	600.38
428.736	578.38
428.958	562.38
429.181	561.38
429.403	562.38
429.625	572.38
429.847	595.38
430.069	630.38
430.292	634.38
430.514	580.38
430.736	570.38
430.958	544.38
431.18	520.38
431.402	529.38
431.624	555.38
431.846	520.38
432.068	537.38
432.29	535.38
432.512	537.38
432.734	552.38
432.956	548.38
433.178	554.38
433.4	564.38
433.622	516.38
433.844	545.38
434.066	543.38
434.287	547.38
434.509	577.38
434.731	578.38
434.953	582.38
435.175	621.38
435.397	605.38
435.618	614.38
435.84	627.38
436.062	704.38
436.284	784.38
436.505	673.38
436.727	584.38
436.949	588.38
437.17	584.38
437.392	562.38
437.614	567.38
437.835	598.38
438.057	650.38
438.278	766.38
438.5	754.38
438.721	804.38
438.943	810.38
439.165	656.38
439.386	600.38
439.608	586.38
439.829	608.38
440.05	594.38
440.272	639.38
440.493	618.38
440.715	580.38
440.936	570.38
441.158	566.38
441.379	578.38
441.6	611.38
441.822	612.38
442.043	662.38
442.264	711.38
442.486	753.38
442.707	660.38
442.928	644.38
443.149	620.38
443.371	644.38
443.592	690.38
443.813	755.38
444.034	812.38
444.255	733.38
444.476	644.38
444.698	652.38
444.919	649.38
445.14	753.38
445.361	698.38
445.582	665.38
445.803	692.38
446.024	806.38
446.245	762.38
446.466	717.38
446.687	621.38
446.908	588.38
447.129	598.38
447.35	548.38
447.571	552.38
447.792	560.38
448.013	555.38
448.234	554.38
448.455	585.38
448.675	681.38
448.896	804.38
449.117	690.38
449.338	650.38
449.559	750.38
449.779	866.38
450	673.38
450.221	590.38
450.442	558.38
450.662	566.38
450.883	518.38
451.104	557.38
451.324	539.38
451.545	524.38
451.766	493.38
451.986	502.38
452.207	501.38
452.428	493.38
452.648	463.38
452.869	476.38
453.089	497.38
453.31	506.38
453.53	476.38
453.751	497.38
453.971	502.38
454.192	515.38
454.412	486.38
454.633	516.38
454.853	486.38
455.073	486.38
455.294	506.38
455.514	555.38
455.734	564.38
455.955	484.38
456.175	448.38
456.395	463.38
456.616	461.38
456.836	492.38
457.056	465.38
457.276	444.38
457.497	460.38
457.717	473.38
457.937	501.38
458.157	477.38
458.377	493.38
458.598	513.38
458.818	551.38
459.038	598.38
459.258	593.38
459.478	579.38
459.698	540.38
459.918	531.38
460.138	563.38
460.358	579.38
460.578	579.38
460.798	595.38
461.018	589.38
461.238	577.38
461.458	576.38
461.678	583.38
461.898	565.38
462.118	569.38
462.338	604.38
462.558	602.38
462.777	618.38
462.997	660.38
463.217	649.38
463.437	671.38
463.657	631.38
463.876	638.38
464.096	622.38
464.316	631.38
464.536	648.38
464.755	628.38
464.975	609.38
465.195	621.38
465.414	658.38
465.634	617.38
465.854	600.38
466.073	553.38
466.293	537.38
466.512	536.38
466.732	505.38
466.951	500.38
467.171	502.38
467.391	514.38
467.61	523.38
467.829	515.38
468.049	517.38
468.268	511.38
468.488	520.38
468.707	479.38
468.927	511.38
469.146	530.38
469.365	518.38
469.585	500.38
469.804	533.38
470.023	516.38
470.243	533.38
470.462	540.38
470.681	539.38
470.901	531.38
471.12	528.38
471.339	512.38
471.558	530.38
471.777	522.38
471.997	500.38
472.216	506.38
472.435	513.38
472.654	523.38
472.873	502.38
473.092	515.38
473.311	503.38
473.53	525.38
473.749	538.38
473.968	566.38
474.187	611.38
474.406	638.38
474.625	536.38
474.844	538.38
475.063	538.38
475.282	513.38
475.501	540.38
475.72	525.38
475.939	524.38
476.158	524.38
476.377	532.38
476.596	527.38
476.814	533.38
477.033	536.38
477.252	546.38
477.471	536.38
477.69	566.38
477.908	555.38
478.127	568.38
478.346	563.38
478.564	581.38
478.783	577.38
479.002	613.38
479.22	613.38
479.439	627.38
479.658	628.38
479.876	604.38
480.095	617.38
480.313	666.38
480.532	677.38
480.751	662.38
480.969	659.38
481.188	703.38
481.406	689.38
481.624	619.38
481.843	606.38
482.061	588.38
482.28	600.38
482.498	602.38
482.717	591.38
482.935	594.38
483.153	571.38
483.372	582.38
483.59	587.38
483.808	582.38
484.027	584.38
484.245	616.38
484.463	599.38
484.681	598.38
484.9	613.38
485.118	628.38
485.336	612.38
485.554	596.38
485.772	608.38
485.99	626.38
486.209	637.38
486.427	621.38
486.645	620.38
486.863	633.38
487.081	639.38
487.299	633.38
487.517	648.38
487.735	636.38
487.953	635.38
488.171	606.38
488.389	615.38
488.607	648.38
488.825	620.38
489.043	641.38
489.261	645.38
489.479	636.38
489.696	661.38
489.914	645.38
490.132	652.38
490.35	678.38
490.568	696.38
490.786	692.38
491.003	693.38
491.221	709.38
491.439	698.38
491.657	673.38
491.874	714.38
492.092	736.38
492.31	725.38
492.527	721.38
492.745	712.38
492.963	737.38
493.18	725.38
493.398	769.38
493.615	742.38
493.833	742.38
494.05	747.38
494.268	739.38
494.485	745.38
494.703	748.38
494.92	788.38
495.138	764.38
495.355	733.38
495.573	731.38
495.79	727.38
496.008	747.38
496.225	743.38
496.442	741.38
496.66	775.38
496.877	792.38
497.094	757.38
497.312	761.38
497.529	777.38
497.746	778.38
497.963	806.38
498.181	847.38
498.398	835.38
498.615	870.38
498.832	924.38
499.049	933.38
499.267	1000.38
499.484	1020.38
499.701	1066.38
499.918	1142.38
500.135	1204.38
500.352	1319.38
500.569	1348.38
500.786	1353.38
501.003	1302.38
501.22	1224.38
501.437	1179.38
501.654	1134.38
