Data from 1973.PennyLincolnUp.Lamp.En5.5.200Scan.071719.P1.Changed Mount._HRD10591_15-44-15-852.txt Node
Date: Thu Jul 18 15:44:15 EDT 2019
User: cochatt
Spectrometer: HR+D1059
Trigger mode: 1
Integration Time (sec): 1.000000E-1
Scans to average: 1
Electric dark correction enabled: true
Nonlinearity correction enabled: false
Boxcar width: 0
XAxis mode: Wavelengths
Number of Pixels in Spectrum: 2048
>>>>>Begin Spectral Data<<<<<
223.165	-12.06
223.4	-12.06
223.635	-12.06
223.869	-24.06
224.104	-24.06
224.338	-9.06
224.573	-12.06
224.808	-15.06
225.042	-6.06
225.277	-2.06
225.511	-8.06
225.746	6.94
225.98	3.94
226.215	11.94
226.449	8.94
226.683	23.94
226.918	23.94
227.152	32.94
227.387	32.94
227.621	36.94
227.856	51.94
228.09	48.94
228.324	44.94
228.559	59.94
228.793	72.94
229.027	82.94
229.262	102.94
229.496	111.94
229.73	118.94
229.964	130.94
230.199	111.94
230.433	108.94
230.667	120.94
230.901	101.94
231.136	107.94
231.37	105.94
231.604	107.94
231.838	105.94
232.072	117.94
232.306	106.94
232.541	103.94
232.775	113.94
233.009	115.94
233.243	106.94
233.477	117.94
233.711	115.94
233.945	119.94
234.179	106.94
234.413	93.94
234.647	118.94
234.881	111.94
235.115	113.94
235.349	123.94
235.583	129.94
235.817	129.94
236.051	123.94
236.285	115.94
236.519	138.94
236.753	125.94
236.987	127.94
237.221	167.94
237.455	207.94
237.689	161.94
237.922	145.94
238.156	130.94
238.39	108.94
238.624	126.94
238.858	123.94
239.091	116.94
239.325	124.94
239.559	119.94
239.793	124.94
240.027	128.94
240.26	131.94
240.494	152.94
240.728	155.94
240.961	130.94
241.195	121.94
241.429	137.94
241.662	123.94
241.896	147.94
242.13	127.94
242.363	134.94
242.597	135.94
242.83	127.94
243.064	139.94
243.298	139.94
243.531	140.94
243.765	123.94
243.998	137.94
244.232	138.94
244.465	151.94
244.699	152.94
244.932	142.94
245.166	140.94
245.399	147.94
245.633	155.94
245.866	153.94
246.099	136.94
246.333	141.94
246.566	162.94
246.8	145.94
247.033	146.94
247.266	166.94
247.5	160.94
247.733	155.94
247.966	179.94
248.2	178.94
248.433	158.94
248.666	168.94
248.899	177.94
249.133	185.94
249.366	195.94
249.599	190.94
249.832	187.94
250.066	173.94
250.299	188.94
250.532	172.94
250.765	187.94
250.998	195.94
251.231	220.94
251.465	212.94
251.698	202.94
251.931	184.94
252.164	195.94
252.397	181.94
252.63	187.94
252.863	186.94
253.096	224.94
253.329	207.94
253.562	234.94
253.795	196.94
254.028	204.94
254.261	181.94
254.494	202.94
254.727	231.94
254.96	243.94
255.193	259.94
255.426	225.94
255.659	221.94
255.892	236.94
256.124	236.94
256.357	225.94
256.59	205.94
256.823	212.94
257.056	211.94
257.289	209.94
257.521	213.94
257.754	212.94
257.987	202.94
258.22	208.94
258.452	208.94
258.685	199.94
258.918	193.94
259.151	201.94
259.383	210.94
259.616	194.94
259.849	205.94
260.081	226.94
260.314	245.94
260.547	227.94
260.779	239.94
261.012	218.94
261.244	219.94
261.477	220.94
261.71	229.94
261.942	208.94
262.175	233.94
262.407	221.94
262.64	207.94
262.872	220.94
263.105	198.94
263.337	231.94
263.57	212.94
263.802	210.94
264.035	222.94
264.267	220.94
264.499	200.94
264.732	219.94
264.964	224.94
265.197	216.94
265.429	237.94
265.661	219.94
265.894	230.94
266.126	224.94
266.358	224.94
266.591	221.94
266.823	220.94
267.055	217.94
267.287	225.94
267.52	223.94
267.752	235.94
267.984	233.94
268.216	246.94
268.448	228.94
268.681	218.94
268.913	244.94
269.145	269.94
269.377	276.94
269.609	246.94
269.841	260.94
270.073	275.94
270.306	292.94
270.538	298.94
270.77	299.94
271.002	294.94
271.234	291.94
271.466	273.94
271.698	307.94
271.93	307.94
272.162	315.94
272.394	294.94
272.626	289.94
272.858	273.94
273.09	259.94
273.322	273.94
273.553	277.94
273.785	274.94
274.017	285.94
274.249	268.94
274.481	286.94
274.713	268.94
274.945	277.94
275.176	268.94
275.408	264.94
275.64	269.94
275.872	279.94
276.104	286.94
276.335	261.94
276.567	280.94
276.799	292.94
277.031	287.94
277.262	308.94
277.494	329.94
277.726	292.94
277.957	292.94
278.189	276.94
278.421	278.94
278.652	257.94
278.884	285.94
279.115	279.94
279.347	299.94
279.579	281.94
279.81	272.94
280.042	245.94
280.273	270.94
280.505	277.94
280.736	283.94
280.968	276.94
281.199	288.94
281.431	292.94
281.662	293.94
281.894	276.94
282.125	292.94
282.356	288.94
282.588	306.94
282.819	305.94
283.051	287.94
283.282	296.94
283.513	289.94
283.745	288.94
283.976	291.94
284.207	274.94
284.439	285.94
284.67	293.94
284.901	297.94
285.132	275.94
285.364	305.94
285.595	301.94
285.826	297.94
286.057	303.94
286.288	297.94
286.52	312.94
286.751	300.94
286.982	297.94
287.213	285.94
287.444	315.94
287.675	294.94
287.906	309.94
288.138	324.94
288.369	327.94
288.6	315.94
288.831	312.94
289.062	303.94
289.293	306.94
289.524	312.94
289.755	314.94
289.986	312.94
290.217	298.94
290.448	277.94
290.679	315.94
290.91	294.94
291.141	318.94
291.371	301.94
291.602	313.94
291.833	324.94
292.064	295.94
292.295	310.94
292.526	295.94
292.757	320.94
292.987	309.94
293.218	320.94
293.449	300.94
293.68	311.94
293.91	328.94
294.141	334.94
294.372	314.94
294.603	324.94
294.833	312.94
295.064	320.94
295.295	327.94
295.525	313.94
295.756	328.94
295.987	322.94
296.217	324.94
296.448	317.94
296.679	321.94
296.909	317.94
297.14	325.94
297.37	308.94
297.601	309.94
297.831	330.94
298.062	315.94
298.292	318.94
298.523	335.94
298.753	331.94
298.984	321.94
299.214	332.94
299.445	329.94
299.675	317.94
299.905	344.94
300.136	327.94
300.366	341.94
300.597	342.94
300.827	352.94
301.057	322.94
301.288	338.94
301.518	339.94
301.748	347.94
301.979	330.94
302.209	341.94
302.439	335.94
302.669	352.94
302.9	342.94
303.13	331.94
303.36	354.94
303.59	353.94
303.82	352.94
304.051	348.94
304.281	361.94
304.511	351.94
304.741	353.94
304.971	341.94
305.201	364.94
305.431	348.94
305.661	327.94
305.891	332.94
306.121	328.94
306.352	356.94
306.582	341.94
306.812	337.94
307.042	355.94
307.272	363.94
307.502	338.94
307.731	335.94
307.961	345.94
308.191	359.94
308.421	355.94
308.651	364.94
308.881	359.94
309.111	346.94
309.341	342.94
309.571	369.94
309.8	353.94
310.03	382.94
310.26	375.94
310.49	377.94
310.72	376.94
310.949	379.94
311.179	391.94
311.409	379.94
311.639	373.94
311.868	367.94
312.098	385.94
312.328	373.94
312.557	391.94
312.787	387.94
313.017	383.94
313.246	397.94
313.476	395.94
313.706	402.94
313.935	389.94
314.165	389.94
314.394	384.94
314.624	411.94
314.853	385.94
315.083	352.94
315.312	374.94
315.542	393.94
315.771	380.94
316.001	385.94
316.23	388.94
316.46	375.94
316.689	359.94
316.919	373.94
317.148	395.94
317.377	394.94
317.607	404.94
317.836	398.94
318.065	391.94
318.295	399.94
318.524	377.94
318.753	373.94
318.983	377.94
319.212	385.94
319.441	408.94
319.67	416.94
319.9	381.94
320.129	379.94
320.358	401.94
320.587	377.94
320.816	385.94
321.046	402.94
321.275	396.94
321.504	409.94
321.733	403.94
321.962	403.94
322.191	406.94
322.42	437.94
322.649	397.94
322.878	420.94
323.108	425.94
323.337	411.94
323.566	424.94
323.795	459.94
324.024	488.94
324.253	550.94
324.482	684.94
324.71	966.94
324.939	1396.94
325.168	1247.94
325.397	712.94
325.626	524.94
325.855	471.94
326.084	452.94
326.313	449.94
326.542	472.94
326.77	480.94
326.999	531.94
327.228	678.94
327.457	920.94
327.686	1086.94
327.914	773.94
328.143	564.94
328.372	523.94
328.6	503.94
328.829	488.94
329.058	490.94
329.287	512.94
329.515	469.94
329.744	455.94
329.972	484.94
330.201	474.94
330.43	498.94
330.658	506.94
330.887	533.94
331.115	533.94
331.344	492.94
331.572	455.94
331.801	465.94
332.03	479.94
332.258	475.94
332.486	468.94
332.715	477.94
332.943	469.94
333.172	496.94
333.4	491.94
333.629	495.94
333.857	487.94
334.085	511.94
334.314	490.94
334.542	538.94
334.771	549.94
334.999	513.94
335.227	496.94
335.455	489.94
335.684	485.94
335.912	464.94
336.14	452.94
336.369	479.94
336.597	454.94
336.825	471.94
337.053	465.94
337.281	429.94
337.51	446.94
337.738	453.94
337.966	452.94
338.194	459.94
338.422	440.94
338.65	433.94
338.878	459.94
339.106	431.94
339.334	439.94
339.562	443.94
339.79	420.94
340.018	431.94
340.246	428.94
340.474	426.94
340.702	419.94
340.93	422.94
341.158	420.94
341.386	446.94
341.614	430.94
341.842	440.94
342.07	425.94
342.298	443.94
342.526	431.94
342.754	419.94
342.981	425.94
343.209	431.94
343.437	450.94
343.665	443.94
343.893	475.94
344.12	472.94
344.348	462.94
344.576	445.94
344.804	469.94
345.031	442.94
345.259	453.94
345.487	448.94
345.714	436.94
345.942	427.94
346.17	417.94
346.397	439.94
346.625	400.94
346.853	419.94
347.08	414.94
347.308	420.94
347.535	423.94
347.763	427.94
347.99	422.94
348.218	427.94
348.445	433.94
348.673	397.94
348.9	406.94
349.128	410.94
349.355	389.94
349.583	393.94
349.81	389.94
350.037	383.94
350.265	400.94
350.492	389.94
350.72	397.94
350.947	397.94
351.174	416.94
351.402	415.94
351.629	412.94
351.856	420.94
352.083	422.94
352.311	414.94
352.538	423.94
352.765	424.94
352.992	419.94
353.22	416.94
353.447	403.94
353.674	405.94
353.901	400.94
354.128	408.94
354.355	392.94
354.583	397.94
354.81	400.94
355.037	394.94
355.264	399.94
355.491	379.94
355.718	371.94
355.945	409.94
356.172	405.94
356.399	404.94
356.626	400.94
356.853	396.94
357.08	411.94
357.307	381.94
357.534	386.94
357.761	396.94
357.988	401.94
358.215	403.94
358.441	395.94
358.668	396.94
358.895	404.94
359.122	411.94
359.349	426.94
359.576	414.94
359.802	424.94
360.029	434.94
360.256	424.94
360.483	420.94
360.709	415.94
360.936	419.94
361.163	415.94
361.39	418.94
361.616	421.94
361.843	400.94
362.07	408.94
362.296	404.94
362.523	427.94
362.749	410.94
362.976	409.94
363.203	396.94
363.429	413.94
363.656	426.94
363.882	384.94
364.109	393.94
364.335	387.94
364.562	403.94
364.788	411.94
365.015	383.94
365.241	368.94
365.468	389.94
365.694	394.94
365.92	403.94
366.147	377.94
366.373	395.94
366.599	387.94
366.826	419.94
367.052	379.94
367.278	400.94
367.505	401.94
367.731	389.94
367.957	382.94
368.184	387.94
368.41	406.94
368.636	404.94
368.862	422.94
369.089	405.94
369.315	407.94
369.541	412.94
369.767	412.94
369.993	395.94
370.219	408.94
370.445	413.94
370.672	405.94
370.898	403.94
371.124	409.94
371.35	426.94
371.576	411.94
371.802	395.94
372.028	389.94
372.254	411.94
372.48	415.94
372.706	427.94
372.932	402.94
373.158	417.94
373.384	415.94
373.61	409.94
373.835	409.94
374.061	416.94
374.287	417.94
374.513	406.94
374.739	427.94
374.965	430.94
375.191	445.94
375.416	415.94
375.642	429.94
375.868	441.94
376.094	420.94
376.319	419.94
376.545	416.94
376.771	405.94
376.997	407.94
377.222	415.94
377.448	404.94
377.674	419.94
377.899	413.94
378.125	393.94
378.35	404.94
378.576	402.94
378.802	411.94
379.027	415.94
379.253	400.94
379.478	393.94
379.704	407.94
379.929	411.94
380.155	417.94
380.38	397.94
380.606	410.94
380.831	401.94
381.057	409.94
381.282	426.94
381.507	409.94
381.733	416.94
381.958	422.94
382.184	408.94
382.409	418.94
382.634	408.94
382.86	415.94
383.085	423.94
383.31	423.94
383.535	429.94
383.761	444.94
383.986	447.94
384.211	443.94
384.436	422.94
384.662	433.94
384.887	441.94
385.112	441.94
385.337	460.94
385.562	455.94
385.787	457.94
386.013	460.94
386.238	475.94
386.463	481.94
386.688	446.94
386.913	449.94
387.138	469.94
387.363	432.94
387.588	477.94
387.813	449.94
388.038	457.94
388.263	463.94
388.488	457.94
388.713	453.94
388.938	470.94
389.163	459.94
389.387	458.94
389.612	455.94
389.837	457.94
390.062	454.94
390.287	451.94
390.512	458.94
390.736	474.94
390.961	463.94
391.186	450.94
391.411	482.94
391.636	465.94
391.86	508.94
392.085	511.94
392.31	489.94
392.534	465.94
392.759	484.94
392.984	465.94
393.208	482.94
393.433	476.94
393.658	482.94
393.882	458.94
394.107	460.94
394.331	459.94
394.556	478.94
394.78	484.94
395.005	478.94
395.229	457.94
395.454	490.94
395.678	501.94
395.903	496.94
396.127	514.94
396.352	516.94
396.576	476.94
396.801	461.94
397.025	483.94
397.249	488.94
397.474	490.94
397.698	513.94
397.922	484.94
398.147	519.94
398.371	521.94
398.595	529.94
398.82	527.94
399.044	556.94
399.268	581.94
399.492	651.94
399.717	659.94
399.941	712.94
400.165	695.94
400.389	661.94
400.613	629.94
400.837	581.94
401.062	553.94
401.286	557.94
401.51	553.94
401.734	545.94
401.958	555.94
402.182	559.94
402.406	563.94
402.63	542.94
402.854	570.94
403.078	578.94
403.302	585.94
403.526	595.94
403.75	587.94
403.974	587.94
404.198	565.94
404.422	594.94
404.645	583.94
404.869	588.94
405.093	627.94
405.317	619.94
405.541	642.94
405.765	593.94
405.988	583.94
406.212	605.94
406.436	618.94
406.66	604.94
406.883	611.94
407.107	626.94
407.331	678.94
407.555	730.94
407.778	743.94
408.002	677.94
408.226	666.94
408.449	627.94
408.673	613.94
408.896	631.94
409.12	679.94
409.344	649.94
409.567	586.94
409.791	595.94
410.014	581.94
410.238	579.94
410.461	571.94
410.685	551.94
410.908	554.94
411.132	592.94
411.355	635.94
411.578	623.94
411.802	574.94
412.025	565.94
412.249	554.94
412.472	607.94
412.695	606.94
412.919	612.94
413.142	572.94
413.365	530.94
413.589	540.94
413.812	556.94
414.035	537.94
414.258	541.94
414.482	536.94
414.705	515.94
414.928	523.94
415.151	531.94
415.374	533.94
415.597	492.94
415.821	511.94
416.044	527.94
416.267	537.94
416.49	550.94
416.713	503.94
416.936	521.94
417.159	505.94
417.382	530.94
417.605	531.94
417.828	522.94
418.051	544.94
418.274	546.94
418.497	536.94
418.72	557.94
418.943	522.94
419.166	561.94
419.389	591.94
419.611	553.94
419.834	549.94
420.057	554.94
420.28	563.94
420.503	533.94
420.726	564.94
420.948	548.94
421.171	592.94
421.394	610.94
421.617	576.94
421.839	544.94
422.062	564.94
422.285	547.94
422.507	618.94
422.73	687.94
422.953	655.94
423.175	601.94
423.398	568.94
423.621	589.94
423.843	601.94
424.066	613.94
424.288	587.94
424.511	604.94
424.733	638.94
424.956	701.94
425.178	666.94
425.401	651.94
425.623	677.94
425.846	619.94
426.068	564.94
426.291	560.94
426.513	581.94
426.735	555.94
426.958	594.94
427.18	637.94
427.402	767.94
427.625	831.94
427.847	723.94
428.069	635.94
428.292	586.94
428.514	535.94
428.736	533.94
428.958	525.94
429.181	500.94
429.403	499.94
429.625	527.94
429.847	576.94
430.069	594.94
430.292	595.94
430.514	539.94
430.736	523.94
430.958	506.94
431.18	518.94
431.402	495.94
431.624	488.94
431.846	499.94
432.068	495.94
432.29	525.94
432.512	502.94
432.734	513.94
432.956	523.94
433.178	522.94
433.4	499.94
433.622	512.94
433.844	480.94
434.066	515.94
434.287	519.94
434.509	489.94
434.731	523.94
434.953	544.94
435.175	545.94
435.397	576.94
435.618	567.94
435.84	597.94
436.062	657.94
436.284	732.94
436.505	600.94
436.727	553.94
436.949	542.94
437.17	514.94
437.392	517.94
437.614	513.94
437.835	525.94
438.057	616.94
438.278	681.94
438.5	696.94
438.721	749.94
438.943	743.94
439.165	589.94
439.386	561.94
439.608	565.94
439.829	546.94
440.05	568.94
440.272	577.94
440.493	578.94
440.715	543.94
440.936	550.94
441.158	536.94
441.379	526.94
441.6	552.94
441.822	548.94
442.043	581.94
442.264	669.94
442.486	687.94
442.707	598.94
442.928	585.94
443.149	585.94
443.371	597.94
443.592	639.94
443.813	700.94
444.034	754.94
444.255	636.94
444.476	595.94
444.698	585.94
444.919	589.94
445.14	653.94
445.361	653.94
445.582	607.94
445.803	672.94
446.024	683.94
446.245	716.94
446.466	655.94
446.687	583.94
446.908	564.94
447.129	520.94
447.35	518.94
447.571	513.94
447.792	498.94
448.013	509.94
448.234	504.94
448.455	560.94
448.675	646.94
448.896	730.94
449.117	661.94
449.338	623.94
449.559	688.94
449.779	793.94
450	625.94
450.221	530.94
450.442	543.94
450.662	496.94
450.883	499.94
451.104	484.94
451.324	477.94
451.545	491.94
451.766	470.94
451.986	451.94
452.207	441.94
452.428	454.94
452.648	438.94
452.869	452.94
453.089	459.94
453.31	476.94
453.53	469.94
453.751	473.94
453.971	470.94
454.192	468.94
454.412	452.94
454.633	459.94
454.853	440.94
455.073	440.94
455.294	462.94
455.514	505.94
455.734	507.94
455.955	443.94
456.175	433.94
456.395	446.94
456.616	447.94
456.836	445.94
457.056	443.94
457.276	439.94
457.497	443.94
457.717	452.94
457.937	457.94
458.157	436.94
458.377	467.94
458.598	472.94
458.818	503.94
459.038	546.94
459.258	580.94
459.478	538.94
459.698	521.94
459.918	497.94
460.138	513.94
460.358	498.94
460.578	526.94
460.798	547.94
461.018	541.94
461.238	531.94
461.458	500.94
461.678	541.94
461.898	531.94
462.118	539.94
462.338	549.94
462.558	559.94
462.777	575.94
462.997	584.94
463.217	617.94
463.437	632.94
463.657	621.94
463.876	590.94
464.096	581.94
464.316	575.94
464.536	589.94
464.755	594.94
464.975	549.94
465.195	552.94
465.414	575.94
465.634	560.94
465.854	531.94
466.073	517.94
466.293	513.94
466.512	483.94
466.732	469.94
466.951	474.94
467.171	491.94
467.391	476.94
467.61	482.94
467.829	478.94
468.049	484.94
468.268	471.94
468.488	465.94
468.707	455.94
468.927	463.94
469.146	462.94
469.365	426.94
469.585	464.94
469.804	479.94
470.023	491.94
470.243	478.94
470.462	474.94
470.681	492.94
470.901	497.94
471.12	497.94
471.339	471.94
471.558	481.94
471.777	488.94
471.997	486.94
472.216	473.94
472.435	501.94
472.654	481.94
472.873	470.94
473.092	458.94
473.311	470.94
473.53	469.94
473.749	484.94
473.968	498.94
474.187	593.94
474.406	581.94
474.625	511.94
474.844	495.94
475.063	489.94
475.282	495.94
475.501	461.94
475.72	500.94
475.939	485.94
476.158	493.94
476.377	482.94
476.596	497.94
476.814	491.94
477.033	535.94
477.252	515.94
477.471	522.94
477.69	504.94
477.908	537.94
478.127	556.94
478.346	532.94
478.564	545.94
478.783	542.94
479.002	559.94
479.22	565.94
479.439	559.94
479.658	574.94
479.876	575.94
480.095	577.94
480.313	618.94
480.532	633.94
480.751	603.94
480.969	593.94
481.188	608.94
481.406	632.94
481.624	593.94
481.843	557.94
482.061	565.94
482.28	554.94
482.498	560.94
482.717	540.94
482.935	541.94
483.153	555.94
483.372	551.94
483.59	553.94
483.808	553.94
484.027	540.94
484.245	552.94
484.463	546.94
484.681	561.94
484.9	575.94
485.118	581.94
485.336	560.94
485.554	556.94
485.772	556.94
485.99	595.94
486.209	579.94
486.427	590.94
486.645	582.94
486.863	577.94
487.081	612.94
487.299	594.94
487.517	582.94
487.735	589.94
487.953	583.94
488.171	600.94
488.389	588.94
488.607	583.94
488.825	581.94
489.043	578.94
489.261	595.94
489.479	600.94
489.696	606.94
489.914	588.94
490.132	615.94
490.35	606.94
490.568	599.94
490.786	636.94
491.003	631.94
491.221	631.94
491.439	628.94
491.657	672.94
491.874	671.94
492.092	659.94
492.31	659.94
492.527	667.94
492.745	681.94
492.963	675.94
493.18	684.94
493.398	691.94
493.615	693.94
493.833	684.94
494.05	661.94
494.268	671.94
494.485	707.94
494.703	693.94
494.92	676.94
495.138	685.94
495.355	697.94
495.573	715.94
495.79	707.94
496.008	701.94
496.225	701.94
496.442	674.94
496.66	717.94
496.877	699.94
497.094	715.94
497.312	705.94
497.529	703.94
497.746	724.94
497.963	732.94
498.181	738.94
498.398	761.94
498.615	803.94
498.832	822.94
499.049	907.94
499.267	891.94
499.484	949.94
499.701	1016.94
499.918	1043.94
500.135	1136.94
500.352	1192.94
500.569	1247.94
500.786	1221.94
501.003	1192.94
501.22	1146.94
501.437	1056.94
501.654	1022.94
