Data from 1973.PennyLincolnUp.Lamp.En5.5.200Scan.071719.P1.Changed Mount._HRD10591_15-43-50-852.txt Node
Date: Thu Jul 18 15:43:50 EDT 2019
User: cochatt
Spectrometer: HR+D1059
Trigger mode: 1
Integration Time (sec): 1.000000E-1
Scans to average: 1
Electric dark correction enabled: true
Nonlinearity correction enabled: false
Boxcar width: 0
XAxis mode: Wavelengths
Number of Pixels in Spectrum: 2048
>>>>>Begin Spectral Data<<<<<
223.165	-12.56
223.4	-12.56
223.635	-12.56
223.869	-14.56
224.104	-19.56
224.338	-18.56
224.573	-11.56
224.808	-10.56
225.042	-14.56
225.277	-17.56
225.511	5.44
225.746	6.44
225.98	4.44
226.215	6.44
226.449	26.44
226.683	12.44
226.918	16.44
227.152	41.44
227.387	36.44
227.621	46.44
227.856	35.44
228.09	53.44
228.324	44.44
228.559	54.44
228.793	75.44
229.027	98.44
229.262	108.44
229.496	97.44
229.73	112.44
229.964	131.44
230.199	98.44
230.433	109.44
230.667	93.44
230.901	107.44
231.136	109.44
231.37	113.44
231.604	94.44
231.838	94.44
232.072	109.44
232.306	119.44
232.541	101.44
232.775	105.44
233.009	117.44
233.243	116.44
233.477	121.44
233.711	128.44
233.945	114.44
234.179	114.44
234.413	126.44
234.647	110.44
234.881	127.44
235.115	128.44
235.349	116.44
235.583	116.44
235.817	103.44
236.051	110.44
236.285	118.44
236.519	115.44
236.753	127.44
236.987	130.44
237.221	166.44
237.455	190.44
237.689	161.44
237.922	121.44
238.156	117.44
238.39	131.44
238.624	127.44
238.858	116.44
239.091	111.44
239.325	124.44
239.559	125.44
239.793	118.44
240.027	122.44
240.26	144.44
240.494	161.44
240.728	146.44
240.961	154.44
241.195	125.44
241.429	142.44
241.662	125.44
241.896	132.44
242.13	140.44
242.363	126.44
242.597	142.44
242.83	135.44
243.064	141.44
243.298	134.44
243.531	140.44
243.765	149.44
243.998	148.44
244.232	138.44
244.465	132.44
244.699	147.44
244.932	156.44
245.166	137.44
245.399	134.44
245.633	152.44
245.866	149.44
246.099	148.44
246.333	150.44
246.566	134.44
246.8	161.44
247.033	154.44
247.266	149.44
247.5	161.44
247.733	165.44
247.966	169.44
248.2	152.44
248.433	152.44
248.666	153.44
248.899	180.44
249.133	202.44
249.366	171.44
249.599	190.44
249.832	170.44
250.066	164.44
250.299	179.44
250.532	183.44
250.765	187.44
250.998	207.44
251.231	200.44
251.465	218.44
251.698	198.44
251.931	188.44
252.164	180.44
252.397	176.44
252.63	187.44
252.863	181.44
253.096	215.44
253.329	211.44
253.562	204.44
253.795	185.44
254.028	207.44
254.261	198.44
254.494	202.44
254.727	218.44
254.96	244.44
255.193	245.44
255.426	216.44
255.659	201.44
255.892	213.44
256.124	199.44
256.357	228.44
256.59	208.44
256.823	207.44
257.056	199.44
257.289	209.44
257.521	202.44
257.754	197.44
257.987	202.44
258.22	206.44
258.452	200.44
258.685	203.44
258.918	209.44
259.151	194.44
259.383	206.44
259.616	201.44
259.849	217.44
260.081	236.44
260.314	230.44
260.547	214.44
260.779	214.44
261.012	213.44
261.244	217.44
261.477	221.44
261.71	214.44
261.942	196.44
262.175	217.44
262.407	206.44
262.64	201.44
262.872	207.44
263.105	222.44
263.337	207.44
263.57	205.44
263.802	204.44
264.035	208.44
264.267	211.44
264.499	213.44
264.732	203.44
264.964	223.44
265.197	211.44
265.429	202.44
265.661	225.44
265.894	217.44
266.126	232.44
266.358	207.44
266.591	211.44
266.823	225.44
267.055	224.44
267.287	233.44
267.52	214.44
267.752	217.44
267.984	219.44
268.216	226.44
268.448	248.44
268.681	223.44
268.913	251.44
269.145	243.44
269.377	266.44
269.609	257.44
269.841	248.44
270.073	267.44
270.306	289.44
270.538	299.44
270.77	288.44
271.002	266.44
271.234	296.44
271.466	275.44
271.698	289.44
271.93	303.44
272.162	288.44
272.394	309.44
272.626	294.44
272.858	295.44
273.09	271.44
273.322	263.44
273.553	263.44
273.785	271.44
274.017	245.44
274.249	269.44
274.481	257.44
274.713	278.44
274.945	275.44
275.176	273.44
275.408	257.44
275.64	267.44
275.872	266.44
276.104	268.44
276.335	270.44
276.567	246.44
276.799	263.44
277.031	281.44
277.262	292.44
277.494	301.44
277.726	296.44
277.957	297.44
278.189	283.44
278.421	281.44
278.652	265.44
278.884	256.44
279.115	268.44
279.347	262.44
279.579	267.44
279.81	286.44
280.042	261.44
280.273	291.44
280.505	287.44
280.736	275.44
280.968	264.44
281.199	274.44
281.431	281.44
281.662	287.44
281.894	293.44
282.125	280.44
282.356	296.44
282.588	290.44
282.819	299.44
283.051	295.44
283.282	274.44
283.513	292.44
283.745	289.44
283.976	269.44
284.207	279.44
284.439	295.44
284.67	293.44
284.901	319.44
285.132	299.44
285.364	293.44
285.595	271.44
285.826	297.44
286.057	282.44
286.288	291.44
286.52	297.44
286.751	285.44
286.982	300.44
287.213	298.44
287.444	292.44
287.675	286.44
287.906	313.44
288.138	314.44
288.369	311.44
288.6	335.44
288.831	306.44
289.062	299.44
289.293	295.44
289.524	289.44
289.755	285.44
289.986	327.44
290.217	303.44
290.448	315.44
290.679	307.44
290.91	290.44
291.141	305.44
291.371	297.44
291.602	305.44
291.833	283.44
292.064	278.44
292.295	315.44
292.526	288.44
292.757	313.44
292.987	304.44
293.218	303.44
293.449	298.44
293.68	315.44
293.91	299.44
294.141	306.44
294.372	289.44
294.603	297.44
294.833	312.44
295.064	319.44
295.295	309.44
295.525	311.44
295.756	329.44
295.987	315.44
296.217	321.44
296.448	313.44
296.679	326.44
296.909	323.44
297.14	312.44
297.37	310.44
297.601	335.44
297.831	308.44
298.062	301.44
298.292	315.44
298.523	322.44
298.753	320.44
298.984	320.44
299.214	330.44
299.445	327.44
299.675	335.44
299.905	347.44
300.136	316.44
300.366	310.44
300.597	338.44
300.827	322.44
301.057	348.44
301.288	341.44
301.518	348.44
301.748	332.44
301.979	342.44
302.209	358.44
302.439	345.44
302.669	342.44
302.9	350.44
303.13	346.44
303.36	332.44
303.59	331.44
303.82	339.44
304.051	329.44
304.281	339.44
304.511	335.44
304.741	338.44
304.971	338.44
305.201	343.44
305.431	341.44
305.661	358.44
305.891	339.44
306.121	351.44
306.352	354.44
306.582	340.44
306.812	347.44
307.042	339.44
307.272	350.44
307.502	340.44
307.731	370.44
307.961	371.44
308.191	357.44
308.421	343.44
308.651	346.44
308.881	341.44
309.111	356.44
309.341	347.44
309.571	366.44
309.8	350.44
310.03	338.44
310.26	372.44
310.49	356.44
310.72	364.44
310.949	360.44
311.179	367.44
311.409	358.44
311.639	363.44
311.868	362.44
312.098	378.44
312.328	370.44
312.557	380.44
312.787	392.44
313.017	390.44
313.246	390.44
313.476	374.44
313.706	392.44
313.935	386.44
314.165	354.44
314.394	393.44
314.624	369.44
314.853	376.44
315.083	384.44
315.312	371.44
315.542	383.44
315.771	380.44
316.001	376.44
316.23	367.44
316.46	365.44
316.689	392.44
316.919	377.44
317.148	378.44
317.377	376.44
317.607	356.44
317.836	372.44
318.065	365.44
318.295	381.44
318.524	392.44
318.753	385.44
318.983	379.44
319.212	374.44
319.441	373.44
319.67	375.44
319.9	369.44
320.129	386.44
320.358	383.44
320.587	379.44
320.816	379.44
321.046	382.44
321.275	387.44
321.504	366.44
321.733	381.44
321.962	365.44
322.191	379.44
322.42	396.44
322.649	406.44
322.878	414.44
323.108	408.44
323.337	430.44
323.566	434.44
323.795	449.44
324.024	450.44
324.253	521.44
324.482	690.44
324.71	951.44
324.939	1292.44
325.168	1172.44
325.397	656.44
325.626	482.44
325.855	462.44
326.084	431.44
326.313	429.44
326.542	425.44
326.77	458.44
326.999	502.44
327.228	636.44
327.457	859.44
327.686	1012.44
327.914	715.44
328.143	514.44
328.372	493.44
328.6	477.44
328.829	465.44
329.058	475.44
329.287	480.44
329.515	459.44
329.744	449.44
329.972	424.44
330.201	441.44
330.43	477.44
330.658	480.44
330.887	502.44
331.115	488.44
331.344	468.44
331.572	446.44
331.801	443.44
332.03	461.44
332.258	441.44
332.486	446.44
332.715	454.44
332.943	473.44
333.172	464.44
333.4	491.44
333.629	489.44
333.857	499.44
334.085	499.44
334.314	505.44
334.542	509.44
334.771	521.44
334.999	503.44
335.227	458.44
335.455	461.44
335.684	453.44
335.912	459.44
336.14	455.44
336.369	471.44
336.597	479.44
336.825	449.44
337.053	462.44
337.281	461.44
337.51	431.44
337.738	450.44
337.966	444.44
338.194	434.44
338.422	437.44
338.65	446.44
338.878	447.44
339.106	443.44
339.334	411.44
339.562	429.44
339.79	433.44
340.018	436.44
340.246	420.44
340.474	419.44
340.702	428.44
340.93	424.44
341.158	403.44
341.386	415.44
341.614	437.44
341.842	413.44
342.07	416.44
342.298	422.44
342.526	428.44
342.754	410.44
342.981	425.44
343.209	416.44
343.437	425.44
343.665	444.44
343.893	460.44
344.12	454.44
344.348	459.44
344.576	433.44
344.804	442.44
345.031	414.44
345.259	428.44
345.487	423.44
345.714	422.44
345.942	403.44
346.17	414.44
346.397	398.44
346.625	409.44
346.853	411.44
347.08	404.44
347.308	405.44
347.535	414.44
347.763	428.44
347.99	439.44
348.218	404.44
348.445	413.44
348.673	413.44
348.9	410.44
349.128	411.44
349.355	403.44
349.583	415.44
349.81	408.44
350.037	386.44
350.265	395.44
350.492	397.44
350.72	393.44
350.947	388.44
351.174	418.44
351.402	404.44
351.629	394.44
351.856	395.44
352.083	390.44
352.311	415.44
352.538	436.44
352.765	393.44
352.992	395.44
353.22	406.44
353.447	398.44
353.674	392.44
353.901	374.44
354.128	391.44
354.355	384.44
354.583	399.44
354.81	393.44
355.037	382.44
355.264	400.44
355.491	405.44
355.718	379.44
355.945	372.44
356.172	398.44
356.399	390.44
356.626	382.44
356.853	367.44
357.08	389.44
357.307	383.44
357.534	370.44
357.761	393.44
357.988	389.44
358.215	392.44
358.441	377.44
358.668	376.44
358.895	408.44
359.122	383.44
359.349	393.44
359.576	389.44
359.802	404.44
360.029	418.44
360.256	430.44
360.483	428.44
360.709	402.44
360.936	425.44
361.163	407.44
361.39	384.44
361.616	407.44
361.843	403.44
362.07	404.44
362.296	419.44
362.523	410.44
362.749	380.44
362.976	396.44
363.203	390.44
363.429	378.44
363.656	398.44
363.882	399.44
364.109	388.44
364.335	390.44
364.562	406.44
364.788	383.44
365.015	381.44
365.241	396.44
365.468	389.44
365.694	400.44
365.92	408.44
366.147	381.44
366.373	375.44
366.599	375.44
366.826	386.44
367.052	391.44
367.278	400.44
367.505	380.44
367.731	397.44
367.957	397.44
368.184	368.44
368.41	407.44
368.636	385.44
368.862	415.44
369.089	397.44
369.315	375.44
369.541	397.44
369.767	390.44
369.993	398.44
370.219	406.44
370.445	401.44
370.672	389.44
370.898	380.44
371.124	400.44
371.35	406.44
371.576	402.44
371.802	397.44
372.028	407.44
372.254	404.44
372.48	396.44
372.706	405.44
372.932	399.44
373.158	414.44
373.384	403.44
373.61	394.44
373.835	406.44
374.061	393.44
374.287	410.44
374.513	411.44
374.739	400.44
374.965	423.44
375.191	434.44
375.416	445.44
375.642	425.44
375.868	413.44
376.094	413.44
376.319	401.44
376.545	391.44
376.771	398.44
376.997	395.44
377.222	398.44
377.448	416.44
377.674	417.44
377.899	410.44
378.125	423.44
378.35	385.44
378.576	409.44
378.802	401.44
379.027	394.44
379.253	399.44
379.478	413.44
379.704	390.44
379.929	405.44
380.155	396.44
380.38	392.44
380.606	399.44
380.831	392.44
381.057	408.44
381.282	408.44
381.507	398.44
381.733	396.44
381.958	420.44
382.184	412.44
382.409	399.44
382.634	437.44
382.86	416.44
383.085	417.44
383.31	426.44
383.535	429.44
383.761	407.44
383.986	445.44
384.211	450.44
384.436	436.44
384.662	443.44
384.887	451.44
385.112	433.44
385.337	462.44
385.562	461.44
385.787	452.44
386.013	468.44
386.238	467.44
386.463	468.44
386.688	461.44
386.913	456.44
387.138	452.44
387.363	462.44
387.588	434.44
387.813	444.44
388.038	468.44
388.263	465.44
388.488	453.44
388.713	454.44
388.938	462.44
389.163	465.44
389.387	450.44
389.612	441.44
389.837	433.44
390.062	466.44
390.287	446.44
390.512	451.44
390.736	445.44
390.961	458.44
391.186	464.44
391.411	468.44
391.636	462.44
391.86	467.44
392.085	481.44
392.31	487.44
392.534	465.44
392.759	470.44
392.984	475.44
393.208	465.44
393.433	470.44
393.658	474.44
393.882	469.44
394.107	469.44
394.331	462.44
394.556	470.44
394.78	471.44
395.005	486.44
395.229	482.44
395.454	477.44
395.678	481.44
395.903	497.44
396.127	517.44
396.352	489.44
396.576	469.44
396.801	481.44
397.025	490.44
397.249	482.44
397.474	492.44
397.698	478.44
397.922	500.44
398.147	497.44
398.371	504.44
398.595	519.44
398.82	540.44
399.044	548.44
399.268	577.44
399.492	610.44
399.717	675.44
399.941	681.44
400.165	666.44
400.389	641.44
400.613	604.44
400.837	563.44
401.062	545.44
401.286	527.44
401.51	534.44
401.734	536.44
401.958	535.44
402.182	501.44
402.406	568.44
402.63	543.44
402.854	541.44
403.078	547.44
403.302	559.44
403.526	563.44
403.75	583.44
403.974	570.44
404.198	552.44
404.422	564.44
404.645	580.44
404.869	578.44
405.093	610.44
405.317	617.44
405.541	626.44
405.765	604.44
405.988	550.44
406.212	567.44
406.436	571.44
406.66	571.44
406.883	585.44
407.107	615.44
407.331	689.44
407.555	698.44
407.778	707.44
408.002	645.44
408.226	616.44
408.449	647.44
408.673	614.44
408.896	639.44
409.12	630.44
409.344	618.44
409.567	572.44
409.791	564.44
410.014	552.44
410.238	563.44
410.461	555.44
410.685	555.44
410.908	554.44
411.132	625.44
411.355	611.44
411.578	604.44
411.802	570.44
412.025	546.44
412.249	542.44
412.472	544.44
412.695	595.44
412.919	604.44
413.142	571.44
413.365	558.44
413.589	549.44
413.812	539.44
414.035	535.44
414.258	550.44
414.482	510.44
414.705	529.44
414.928	547.44
415.151	535.44
415.374	527.44
415.597	539.44
415.821	497.44
416.044	525.44
416.267	517.44
416.49	515.44
416.713	515.44
416.936	512.44
417.159	517.44
417.382	517.44
417.605	532.44
417.828	519.44
418.051	519.44
418.274	525.44
418.497	510.44
418.72	541.44
418.943	527.44
419.166	540.44
419.389	581.44
419.611	585.44
419.834	569.44
420.057	533.44
420.28	546.44
420.503	525.44
420.726	531.44
420.948	546.44
421.171	578.44
421.394	601.44
421.617	543.44
421.839	549.44
422.062	542.44
422.285	546.44
422.507	587.44
422.73	643.44
422.953	628.44
423.175	591.44
423.398	566.44
423.621	561.44
423.843	595.44
424.066	600.44
424.288	573.44
424.511	574.44
424.733	625.44
424.956	677.44
425.178	656.44
425.401	654.44
425.623	668.44
425.846	592.44
426.068	553.44
426.291	556.44
426.513	537.44
426.735	534.44
426.958	587.44
427.18	630.44
427.402	734.44
427.625	818.44
427.847	679.44
428.069	590.44
428.292	568.44
428.514	531.44
428.736	535.44
428.958	533.44
429.181	489.44
429.403	521.44
429.625	522.44
429.847	526.44
430.069	615.44
430.292	569.44
430.514	528.44
430.736	506.44
430.958	479.44
431.18	489.44
431.402	497.44
431.624	488.44
431.846	480.44
432.068	479.44
432.29	505.44
432.512	479.44
432.734	502.44
432.956	509.44
433.178	506.44
433.4	498.44
433.622	501.44
433.844	471.44
434.066	481.44
434.287	485.44
434.509	500.44
434.731	522.44
434.953	533.44
435.175	520.44
435.397	563.44
435.618	555.44
435.84	583.44
436.062	641.44
436.284	713.44
436.505	594.44
436.727	540.44
436.949	507.44
437.17	506.44
437.392	529.44
437.614	531.44
437.835	532.44
438.057	571.44
438.278	661.44
438.5	678.44
438.721	763.44
438.943	705.44
439.165	549.44
439.386	540.44
439.608	534.44
439.829	532.44
440.05	542.44
440.272	568.44
440.493	548.44
440.715	542.44
440.936	506.44
441.158	533.44
441.379	530.44
441.6	534.44
441.822	534.44
442.043	569.44
442.264	681.44
442.486	658.44
442.707	574.44
442.928	546.44
443.149	565.44
443.371	563.44
443.592	606.44
443.813	679.44
444.034	746.44
444.255	647.44
444.476	583.44
444.698	586.44
444.919	600.44
445.14	655.44
445.361	614.44
445.582	579.44
445.803	639.44
446.024	715.44
446.245	718.44
446.466	645.44
446.687	553.44
446.908	532.44
447.129	514.44
447.35	503.44
447.571	493.44
447.792	488.44
448.013	492.44
448.234	514.44
448.455	533.44
448.675	627.44
448.896	717.44
449.117	621.44
449.338	584.44
449.559	684.44
449.779	776.44
450	601.44
450.221	515.44
450.442	487.44
450.662	459.44
450.883	486.44
451.104	482.44
451.324	473.44
451.545	485.44
451.766	454.44
451.986	455.44
452.207	450.44
452.428	449.44
452.648	453.44
452.869	452.44
453.089	445.44
453.31	453.44
453.53	447.44
453.751	443.44
453.971	434.44
454.192	457.44
454.412	433.44
454.633	439.44
454.853	444.44
455.073	430.44
455.294	460.44
455.514	493.44
455.734	497.44
455.955	453.44
456.175	428.44
456.395	442.44
456.616	413.44
456.836	436.44
457.056	420.44
457.276	427.44
457.497	425.44
457.717	426.44
457.937	428.44
458.157	437.44
458.377	462.44
458.598	465.44
458.818	487.44
459.038	558.44
459.258	557.44
459.478	507.44
459.698	505.44
459.918	495.44
460.138	486.44
460.358	519.44
460.578	539.44
460.798	515.44
461.018	541.44
461.238	552.44
461.458	528.44
461.678	514.44
461.898	539.44
462.118	533.44
462.338	542.44
462.558	529.44
462.777	582.44
462.997	602.44
463.217	628.44
463.437	614.44
463.657	589.44
463.876	558.44
464.096	558.44
464.316	555.44
464.536	557.44
464.755	571.44
464.975	541.44
465.195	548.44
465.414	573.44
465.634	542.44
465.854	507.44
466.073	490.44
466.293	510.44
466.512	480.44
466.732	467.44
466.951	486.44
467.171	460.44
467.391	476.44
467.61	477.44
467.829	488.44
468.049	483.44
468.268	471.44
468.488	462.44
468.707	461.44
468.927	463.44
469.146	441.44
469.365	446.44
469.585	449.44
469.804	463.44
470.023	487.44
470.243	471.44
470.462	479.44
470.681	474.44
470.901	490.44
471.12	464.44
471.339	457.44
471.558	484.44
471.777	481.44
471.997	494.44
472.216	483.44
472.435	488.44
472.654	480.44
472.873	458.44
473.092	464.44
473.311	449.44
473.53	472.44
473.749	473.44
473.968	490.44
474.187	558.44
474.406	578.44
474.625	488.44
474.844	488.44
475.063	478.44
475.282	481.44
475.501	478.44
475.72	491.44
475.939	478.44
476.158	489.44
476.377	505.44
476.596	507.44
476.814	494.44
477.033	498.44
477.252	482.44
477.471	501.44
477.69	508.44
477.908	537.44
478.127	534.44
478.346	527.44
478.564	548.44
478.783	551.44
479.002	533.44
479.22	540.44
479.439	563.44
479.658	555.44
479.876	575.44
480.095	562.44
480.313	594.44
480.532	607.44
480.751	573.44
480.969	583.44
481.188	574.44
481.406	599.44
481.624	563.44
481.843	580.44
482.061	523.44
482.28	537.44
482.498	538.44
482.717	550.44
482.935	538.44
483.153	544.44
483.372	531.44
483.59	558.44
483.808	547.44
484.027	528.44
484.245	555.44
484.463	541.44
484.681	579.44
484.9	539.44
485.118	552.44
485.336	551.44
485.554	561.44
485.772	571.44
485.99	537.44
486.209	575.44
486.427	583.44
486.645	565.44
486.863	565.44
487.081	582.44
487.299	571.44
487.517	561.44
487.735	578.44
487.953	573.44
488.171	585.44
488.389	567.44
488.607	559.44
488.825	581.44
489.043	577.44
489.261	584.44
489.479	593.44
489.696	595.44
489.914	608.44
490.132	597.44
490.35	596.44
490.568	604.44
490.786	606.44
491.003	630.44
491.221	608.44
491.439	628.44
491.657	628.44
491.874	638.44
492.092	643.44
492.31	660.44
492.527	654.44
492.745	648.44
492.963	614.44
493.18	628.44
493.398	652.44
493.615	668.44
493.833	653.44
494.05	665.44
494.268	647.44
494.485	657.44
494.703	644.44
494.92	653.44
495.138	662.44
495.355	669.44
495.573	649.44
495.79	663.44
496.008	674.44
496.225	673.44
496.442	689.44
496.66	716.44
496.877	679.44
497.094	718.44
497.312	714.44
497.529	686.44
497.746	736.44
497.963	743.44
498.181	747.44
498.398	775.44
498.615	760.44
498.832	840.44
499.049	837.44
499.267	867.44
499.484	911.44
499.701	971.44
499.918	998.44
500.135	1087.44
500.352	1159.44
500.569	1219.44
500.786	1234.44
501.003	1164.44
501.22	1103.44
501.437	1062.44
501.654	987.44
