Data from 1973.PennyLincolnUp.Lamp.En5.5.200Scan.071719.P1.Changed Mount._HRD10591_15-46-05-852.txt Node
Date: Thu Jul 18 15:46:05 EDT 2019
User: cochatt
Spectrometer: HR+D1059
Trigger mode: 1
Integration Time (sec): 1.000000E-1
Scans to average: 1
Electric dark correction enabled: true
Nonlinearity correction enabled: false
Boxcar width: 0
XAxis mode: Wavelengths
Number of Pixels in Spectrum: 2048
>>>>>Begin Spectral Data<<<<<
223.165	-10.12
223.4	-10.12
223.635	-10.12
223.869	-29.12
224.104	-21.12
224.338	-13.12
224.573	-21.12
224.808	-3.12
225.042	2.88
225.277	-13.12
225.511	-1.12
225.746	-15.12
225.98	0.88
226.215	22.88
226.449	24.88
226.683	30.88
226.918	17.88
227.152	26.88
227.387	29.88
227.621	29.88
227.856	26.88
228.09	42.88
228.324	48.88
228.559	55.88
228.793	76.88
229.027	88.88
229.262	99.88
229.496	112.88
229.73	116.88
229.964	144.88
230.199	109.88
230.433	108.88
230.667	97.88
230.901	113.88
231.136	93.88
231.37	117.88
231.604	109.88
231.838	122.88
232.072	109.88
232.306	117.88
232.541	109.88
232.775	118.88
233.009	123.88
233.243	117.88
233.477	113.88
233.711	130.88
233.945	137.88
234.179	133.88
234.413	124.88
234.647	108.88
234.881	109.88
235.115	118.88
235.349	115.88
235.583	121.88
235.817	114.88
236.051	123.88
236.285	138.88
236.519	108.88
236.753	137.88
236.987	136.88
237.221	169.88
237.455	190.88
237.689	183.88
237.922	143.88
238.156	135.88
238.39	133.88
238.624	101.88
238.858	135.88
239.091	123.88
239.325	129.88
239.559	127.88
239.793	124.88
240.027	136.88
240.26	143.88
240.494	159.88
240.728	149.88
240.961	153.88
241.195	133.88
241.429	128.88
241.662	148.88
241.896	141.88
242.13	146.88
242.363	122.88
242.597	142.88
242.83	142.88
243.064	135.88
243.298	142.88
243.531	129.88
243.765	140.88
243.998	132.88
244.232	151.88
244.465	136.88
244.699	134.88
244.932	142.88
245.166	146.88
245.399	156.88
245.633	155.88
245.866	141.88
246.099	150.88
246.333	156.88
246.566	146.88
246.8	146.88
247.033	165.88
247.266	146.88
247.5	155.88
247.733	164.88
247.966	181.88
248.2	165.88
248.433	165.88
248.666	178.88
248.899	189.88
249.133	197.88
249.366	209.88
249.599	198.88
249.832	185.88
250.066	187.88
250.299	187.88
250.532	184.88
250.765	203.88
250.998	213.88
251.231	217.88
251.465	216.88
251.698	220.88
251.931	185.88
252.164	204.88
252.397	193.88
252.63	182.88
252.863	210.88
253.096	200.88
253.329	233.88
253.562	230.88
253.795	214.88
254.028	210.88
254.261	192.88
254.494	216.88
254.727	238.88
254.96	282.88
255.193	259.88
255.426	236.88
255.659	213.88
255.892	220.88
256.124	232.88
256.357	237.88
256.59	221.88
256.823	216.88
257.056	220.88
257.289	198.88
257.521	220.88
257.754	195.88
257.987	208.88
258.22	197.88
258.452	219.88
258.685	214.88
258.918	212.88
259.151	224.88
259.383	218.88
259.616	219.88
259.849	227.88
260.081	247.88
260.314	269.88
260.547	253.88
260.779	243.88
261.012	231.88
261.244	242.88
261.477	231.88
261.71	244.88
261.942	227.88
262.175	252.88
262.407	231.88
262.64	205.88
262.872	223.88
263.105	235.88
263.337	238.88
263.57	215.88
263.802	209.88
264.035	213.88
264.267	219.88
264.499	217.88
264.732	226.88
264.964	209.88
265.197	221.88
265.429	222.88
265.661	226.88
265.894	220.88
266.126	233.88
266.358	231.88
266.591	227.88
266.823	229.88
267.055	224.88
267.287	231.88
267.52	237.88
267.752	251.88
267.984	238.88
268.216	224.88
268.448	258.88
268.681	242.88
268.913	277.88
269.145	285.88
269.377	297.88
269.609	275.88
269.841	278.88
270.073	294.88
270.306	282.88
270.538	311.88
270.77	319.88
271.002	312.88
271.234	316.88
271.466	310.88
271.698	313.88
271.93	323.88
272.162	332.88
272.394	319.88
272.626	319.88
272.858	295.88
273.09	265.88
273.322	286.88
273.553	278.88
273.785	286.88
274.017	261.88
274.249	266.88
274.481	264.88
274.713	287.88
274.945	275.88
275.176	283.88
275.408	287.88
275.64	269.88
275.872	277.88
276.104	276.88
276.335	275.88
276.567	300.88
276.799	278.88
277.031	304.88
277.262	325.88
277.494	348.88
277.726	317.88
277.957	325.88
278.189	305.88
278.421	275.88
278.652	282.88
278.884	267.88
279.115	310.88
279.347	298.88
279.579	297.88
279.81	289.88
280.042	269.88
280.273	283.88
280.505	294.88
280.736	287.88
280.968	275.88
281.199	295.88
281.431	283.88
281.662	289.88
281.894	307.88
282.125	285.88
282.356	312.88
282.588	317.88
282.819	307.88
283.051	299.88
283.282	299.88
283.513	308.88
283.745	311.88
283.976	306.88
284.207	313.88
284.439	323.88
284.67	308.88
284.901	327.88
285.132	323.88
285.364	299.88
285.595	308.88
285.826	305.88
286.057	330.88
286.288	307.88
286.52	311.88
286.751	298.88
286.982	313.88
287.213	319.88
287.444	303.88
287.675	314.88
287.906	330.88
288.138	335.88
288.369	321.88
288.6	333.88
288.831	319.88
289.062	321.88
289.293	330.88
289.524	319.88
289.755	330.88
289.986	313.88
290.217	309.88
290.448	304.88
290.679	321.88
290.91	321.88
291.141	306.88
291.371	324.88
291.602	309.88
291.833	315.88
292.064	301.88
292.295	333.88
292.526	313.88
292.757	338.88
292.987	311.88
293.218	308.88
293.449	323.88
293.68	324.88
293.91	307.88
294.141	320.88
294.372	332.88
294.603	319.88
294.833	329.88
295.064	346.88
295.295	335.88
295.525	322.88
295.756	353.88
295.987	312.88
296.217	344.88
296.448	363.88
296.679	331.88
296.909	342.88
297.14	324.88
297.37	340.88
297.601	346.88
297.831	324.88
298.062	342.88
298.292	349.88
298.523	345.88
298.753	339.88
298.984	335.88
299.214	346.88
299.445	350.88
299.675	361.88
299.905	345.88
300.136	351.88
300.366	331.88
300.597	350.88
300.827	345.88
301.057	342.88
301.288	375.88
301.518	346.88
301.748	355.88
301.979	368.88
302.209	364.88
302.439	373.88
302.669	362.88
302.9	356.88
303.13	354.88
303.36	371.88
303.59	356.88
303.82	380.88
304.051	350.88
304.281	346.88
304.511	373.88
304.741	345.88
304.971	372.88
305.201	362.88
305.431	354.88
305.661	384.88
305.891	369.88
306.121	349.88
306.352	350.88
306.582	371.88
306.812	357.88
307.042	364.88
307.272	346.88
307.502	370.88
307.731	378.88
307.961	376.88
308.191	356.88
308.421	352.88
308.651	373.88
308.881	368.88
309.111	358.88
309.341	386.88
309.571	385.88
309.8	395.88
310.03	399.88
310.26	378.88
310.49	388.88
310.72	402.88
310.949	410.88
311.179	422.88
311.409	391.88
311.639	391.88
311.868	417.88
312.098	398.88
312.328	393.88
312.557	404.88
312.787	407.88
313.017	405.88
313.246	405.88
313.476	381.88
313.706	399.88
313.935	408.88
314.165	400.88
314.394	417.88
314.624	420.88
314.853	407.88
315.083	398.88
315.312	395.88
315.542	396.88
315.771	398.88
316.001	421.88
316.23	408.88
316.46	394.88
316.689	406.88
316.919	395.88
317.148	413.88
317.377	413.88
317.607	406.88
317.836	412.88
318.065	398.88
318.295	418.88
318.524	395.88
318.753	414.88
318.983	398.88
319.212	390.88
319.441	394.88
319.67	424.88
319.9	393.88
320.129	395.88
320.358	405.88
320.587	383.88
320.816	411.88
321.046	429.88
321.275	438.88
321.504	408.88
321.733	425.88
321.962	432.88
322.191	438.88
322.42	399.88
322.649	456.88
322.878	453.88
323.108	442.88
323.337	457.88
323.566	489.88
323.795	483.88
324.024	524.88
324.253	615.88
324.482	788.88
324.71	1134.88
324.939	1630.88
325.168	1427.88
325.397	788.88
325.626	571.88
325.855	530.88
326.084	494.88
326.313	491.88
326.542	474.88
326.77	541.88
326.999	578.88
327.228	726.88
327.457	1046.88
327.686	1261.88
327.914	900.88
328.143	636.88
328.372	580.88
328.6	556.88
328.829	535.88
329.058	522.88
329.287	538.88
329.515	515.88
329.744	503.88
329.972	504.88
330.201	517.88
330.43	535.88
330.658	544.88
330.887	544.88
331.115	550.88
331.344	531.88
331.572	518.88
331.801	517.88
332.03	494.88
332.258	524.88
332.486	491.88
332.715	502.88
332.943	506.88
333.172	505.88
333.4	499.88
333.629	525.88
333.857	524.88
334.085	549.88
334.314	538.88
334.542	548.88
334.771	564.88
334.999	544.88
335.227	521.88
335.455	501.88
335.684	499.88
335.912	492.88
336.14	491.88
336.369	482.88
336.597	485.88
336.825	466.88
337.053	493.88
337.281	469.88
337.51	462.88
337.738	488.88
337.966	474.88
338.194	455.88
338.422	469.88
338.65	460.88
338.878	482.88
339.106	457.88
339.334	469.88
339.562	450.88
339.79	452.88
340.018	441.88
340.246	450.88
340.474	445.88
340.702	456.88
340.93	449.88
341.158	436.88
341.386	446.88
341.614	465.88
341.842	446.88
342.07	448.88
342.298	438.88
342.526	459.88
342.754	421.88
342.981	445.88
343.209	453.88
343.437	460.88
343.665	465.88
343.893	496.88
344.12	496.88
344.348	478.88
344.576	472.88
344.804	480.88
345.031	467.88
345.259	481.88
345.487	472.88
345.714	455.88
345.942	447.88
346.17	448.88
346.397	422.88
346.625	445.88
346.853	435.88
347.08	440.88
347.308	444.88
347.535	438.88
347.763	455.88
347.99	440.88
348.218	458.88
348.445	442.88
348.673	445.88
348.9	424.88
349.128	444.88
349.355	423.88
349.583	431.88
349.81	402.88
350.037	406.88
350.265	422.88
350.492	438.88
350.72	417.88
350.947	424.88
351.174	444.88
351.402	452.88
351.629	434.88
351.856	416.88
352.083	418.88
352.311	420.88
352.538	444.88
352.765	453.88
352.992	426.88
353.22	416.88
353.447	432.88
353.674	427.88
353.901	418.88
354.128	435.88
354.355	414.88
354.583	413.88
354.81	395.88
355.037	405.88
355.264	426.88
355.491	414.88
355.718	420.88
355.945	394.88
356.172	406.88
356.399	419.88
356.626	402.88
356.853	416.88
357.08	409.88
357.307	414.88
357.534	400.88
357.761	409.88
357.988	411.88
358.215	412.88
358.441	432.88
358.668	410.88
358.895	425.88
359.122	396.88
359.349	419.88
359.576	452.88
359.802	449.88
360.029	456.88
360.256	453.88
360.483	459.88
360.709	416.88
360.936	436.88
361.163	423.88
361.39	440.88
361.616	453.88
361.843	413.88
362.07	450.88
362.296	424.88
362.523	427.88
362.749	427.88
362.976	424.88
363.203	414.88
363.429	406.88
363.656	408.88
363.882	427.88
364.109	422.88
364.335	421.88
364.562	418.88
364.788	418.88
365.015	396.88
365.241	407.88
365.468	416.88
365.694	417.88
365.92	419.88
366.147	416.88
366.373	400.88
366.599	409.88
366.826	428.88
367.052	410.88
367.278	398.88
367.505	413.88
367.731	418.88
367.957	407.88
368.184	407.88
368.41	427.88
368.636	426.88
368.862	412.88
369.089	422.88
369.315	425.88
369.541	402.88
369.767	422.88
369.993	441.88
370.219	418.88
370.445	425.88
370.672	408.88
370.898	402.88
371.124	428.88
371.35	422.88
371.576	418.88
371.802	414.88
372.028	420.88
372.254	424.88
372.48	442.88
372.706	418.88
372.932	433.88
373.158	429.88
373.384	447.88
373.61	416.88
373.835	429.88
374.061	411.88
374.287	431.88
374.513	445.88
374.739	440.88
374.965	457.88
375.191	429.88
375.416	435.88
375.642	432.88
375.868	444.88
376.094	452.88
376.319	423.88
376.545	438.88
376.771	414.88
376.997	420.88
377.222	427.88
377.448	412.88
377.674	432.88
377.899	434.88
378.125	410.88
378.35	409.88
378.576	416.88
378.802	422.88
379.027	417.88
379.253	406.88
379.478	407.88
379.704	413.88
379.929	424.88
380.155	433.88
380.38	420.88
380.606	425.88
380.831	411.88
381.057	433.88
381.282	422.88
381.507	436.88
381.733	428.88
381.958	409.88
382.184	437.88
382.409	419.88
382.634	451.88
382.86	425.88
383.085	462.88
383.31	453.88
383.535	455.88
383.761	454.88
383.986	450.88
384.211	454.88
384.436	449.88
384.662	462.88
384.887	472.88
385.112	472.88
385.337	460.88
385.562	484.88
385.787	487.88
386.013	499.88
386.238	487.88
386.463	488.88
386.688	467.88
386.913	468.88
387.138	472.88
387.363	499.88
387.588	465.88
387.813	466.88
388.038	457.88
388.263	484.88
388.488	481.88
388.713	464.88
388.938	462.88
389.163	480.88
389.387	472.88
389.612	477.88
389.837	447.88
390.062	454.88
390.287	487.88
390.512	492.88
390.736	479.88
390.961	469.88
391.186	483.88
391.411	479.88
391.636	501.88
391.86	522.88
392.085	510.88
392.31	517.88
392.534	500.88
392.759	485.88
392.984	508.88
393.208	498.88
393.433	490.88
393.658	487.88
393.882	482.88
394.107	479.88
394.331	495.88
394.556	489.88
394.78	500.88
395.005	486.88
395.229	489.88
395.454	495.88
395.678	510.88
395.903	522.88
396.127	503.88
396.352	526.88
396.576	485.88
396.801	504.88
397.025	490.88
397.249	503.88
397.474	525.88
397.698	535.88
397.922	538.88
398.147	528.88
398.371	566.88
398.595	539.88
398.82	568.88
399.044	578.88
399.268	611.88
399.492	661.88
399.717	721.88
399.941	772.88
400.165	745.88
400.389	716.88
400.613	643.88
400.837	587.88
401.062	584.88
401.286	573.88
401.51	551.88
401.734	560.88
401.958	556.88
402.182	573.88
402.406	568.88
402.63	566.88
402.854	585.88
403.078	579.88
403.302	581.88
403.526	592.88
403.75	594.88
403.974	576.88
404.198	604.88
404.422	601.88
404.645	616.88
404.869	617.88
405.093	646.88
405.317	632.88
405.541	693.88
405.765	638.88
405.988	634.88
406.212	636.88
406.436	642.88
406.66	631.88
406.883	651.88
407.107	630.88
407.331	705.88
407.555	758.88
407.778	742.88
408.002	694.88
408.226	654.88
408.449	633.88
408.673	653.88
408.896	679.88
409.12	680.88
409.344	653.88
409.567	628.88
409.791	596.88
410.014	578.88
410.238	584.88
410.461	574.88
410.685	579.88
410.908	605.88
411.132	624.88
411.355	639.88
411.578	626.88
411.802	584.88
412.025	581.88
412.249	586.88
412.472	603.88
412.695	652.88
412.919	616.88
413.142	604.88
413.365	593.88
413.589	568.88
413.812	583.88
414.035	554.88
414.258	532.88
414.482	554.88
414.705	568.88
414.928	568.88
415.151	558.88
415.374	564.88
415.597	544.88
415.821	537.88
416.044	553.88
416.267	550.88
416.49	576.88
416.713	534.88
416.936	556.88
417.159	544.88
417.382	560.88
417.605	546.88
417.828	549.88
418.051	582.88
418.274	552.88
418.497	566.88
418.72	555.88
418.943	562.88
419.166	601.88
419.389	634.88
419.611	597.88
419.834	569.88
420.057	581.88
420.28	593.88
420.503	568.88
420.726	572.88
420.948	591.88
421.171	620.88
421.394	627.88
421.617	588.88
421.839	568.88
422.062	550.88
422.285	585.88
422.507	616.88
422.73	694.88
422.953	681.88
423.175	606.88
423.398	594.88
423.621	590.88
423.843	606.88
424.066	609.88
424.288	610.88
424.511	620.88
424.733	673.88
424.956	724.88
425.178	696.88
425.401	713.88
425.623	733.88
425.846	644.88
426.068	601.88
426.291	592.88
426.513	585.88
426.735	593.88
426.958	610.88
427.18	712.88
427.402	804.88
427.625	843.88
427.847	765.88
428.069	649.88
428.292	608.88
428.514	570.88
428.736	556.88
428.958	570.88
429.181	542.88
429.403	552.88
429.625	541.88
429.847	588.88
430.069	614.88
430.292	610.88
430.514	564.88
430.736	542.88
430.958	533.88
431.18	533.88
431.402	517.88
431.624	532.88
431.846	520.88
432.068	512.88
432.29	540.88
432.512	526.88
432.734	503.88
432.956	526.88
433.178	552.88
433.4	550.88
433.622	544.88
433.844	516.88
434.066	535.88
434.287	534.88
434.509	549.88
434.731	549.88
434.953	564.88
435.175	577.88
435.397	602.88
435.618	593.88
435.84	621.88
436.062	699.88
436.284	766.88
436.505	600.88
436.727	592.88
436.949	565.88
437.17	538.88
437.392	540.88
437.614	546.88
437.835	566.88
438.057	629.88
438.278	711.88
438.5	720.88
438.721	768.88
438.943	747.88
439.165	622.88
439.386	573.88
439.608	587.88
439.829	589.88
440.05	605.88
440.272	615.88
440.493	578.88
440.715	566.88
440.936	570.88
441.158	558.88
441.379	565.88
441.6	578.88
441.822	582.88
442.043	628.88
442.264	684.88
442.486	723.88
442.707	629.88
442.928	602.88
443.149	611.88
443.371	612.88
443.592	670.88
443.813	758.88
444.034	801.88
444.255	682.88
444.476	636.88
444.698	642.88
444.919	618.88
445.14	731.88
445.361	666.88
445.582	647.88
445.803	680.88
446.024	769.88
446.245	760.88
446.466	706.88
446.687	595.88
446.908	596.88
447.129	540.88
447.35	534.88
447.571	562.88
447.792	518.88
448.013	512.88
448.234	523.88
448.455	578.88
448.675	688.88
448.896	759.88
449.117	672.88
449.338	641.88
449.559	725.88
449.779	792.88
450	665.88
450.221	557.88
450.442	538.88
450.662	509.88
450.883	526.88
451.104	555.88
451.324	536.88
451.545	493.88
451.766	490.88
451.986	514.88
452.207	502.88
452.428	472.88
452.648	500.88
452.869	472.88
453.089	483.88
453.31	509.88
453.53	484.88
453.751	475.88
453.971	494.88
454.192	491.88
454.412	481.88
454.633	498.88
454.853	452.88
455.073	485.88
455.294	514.88
455.514	553.88
455.734	546.88
455.955	461.88
456.175	486.88
456.395	456.88
456.616	448.88
456.836	459.88
457.056	484.88
457.276	421.88
457.497	475.88
457.717	469.88
457.937	478.88
458.157	476.88
458.377	483.88
458.598	506.88
458.818	548.88
459.038	582.88
459.258	616.88
459.478	568.88
459.698	535.88
459.918	521.88
460.138	530.88
460.358	556.88
460.578	570.88
460.798	557.88
461.018	568.88
461.238	568.88
461.458	554.88
461.678	566.88
461.898	565.88
462.118	563.88
462.338	579.88
462.558	571.88
462.777	609.88
462.997	601.88
463.217	632.88
463.437	672.88
463.657	629.88
463.876	620.88
464.096	602.88
464.316	605.88
464.536	617.88
464.755	614.88
464.975	614.88
465.195	584.88
465.414	624.88
465.634	554.88
465.854	578.88
466.073	542.88
466.293	504.88
466.512	501.88
466.732	510.88
466.951	512.88
467.171	489.88
467.391	502.88
467.61	509.88
467.829	514.88
468.049	516.88
468.268	500.88
468.488	495.88
468.707	493.88
468.927	473.88
469.146	455.88
469.365	482.88
469.585	490.88
469.804	493.88
470.023	516.88
470.243	520.88
470.462	508.88
470.681	530.88
470.901	530.88
471.12	493.88
471.339	504.88
471.558	500.88
471.777	517.88
471.997	500.88
472.216	502.88
472.435	536.88
472.654	492.88
472.873	502.88
473.092	515.88
473.311	481.88
473.53	502.88
473.749	501.88
473.968	522.88
474.187	614.88
474.406	639.88
474.625	549.88
474.844	497.88
475.063	497.88
475.282	497.88
475.501	497.88
475.72	505.88
475.939	514.88
476.158	524.88
476.377	526.88
476.596	513.88
476.814	522.88
477.033	525.88
477.252	556.88
477.471	541.88
477.69	538.88
477.908	571.88
478.127	572.88
478.346	561.88
478.564	567.88
478.783	567.88
479.002	588.88
479.22	591.88
479.439	576.88
479.658	588.88
479.876	619.88
480.095	634.88
480.313	642.88
480.532	620.88
480.751	629.88
480.969	622.88
481.188	656.88
481.406	666.88
481.624	637.88
481.843	594.88
482.061	574.88
482.28	584.88
482.498	559.88
482.717	574.88
482.935	577.88
483.153	586.88
483.372	577.88
483.59	571.88
483.808	558.88
484.027	573.88
484.245	568.88
484.463	587.88
484.681	569.88
484.9	576.88
485.118	603.88
485.336	591.88
485.554	596.88
485.772	607.88
485.99	617.88
486.209	610.88
486.427	581.88
486.645	614.88
486.863	607.88
487.081	626.88
487.299	632.88
487.517	634.88
487.735	597.88
487.953	617.88
488.171	592.88
488.389	611.88
488.607	634.88
488.825	619.88
489.043	640.88
489.261	611.88
489.479	638.88
489.696	626.88
489.914	619.88
490.132	640.88
490.35	633.88
490.568	636.88
490.786	641.88
491.003	668.88
491.221	670.88
491.439	695.88
491.657	673.88
491.874	686.88
492.092	700.88
492.31	710.88
492.527	714.88
492.745	680.88
492.963	702.88
493.18	714.88
493.398	730.88
493.615	714.88
493.833	725.88
494.05	706.88
494.268	723.88
494.485	715.88
494.703	699.88
494.92	718.88
495.138	719.88
495.355	710.88
495.573	735.88
495.79	720.88
496.008	738.88
496.225	723.88
496.442	732.88
496.66	739.88
496.877	756.88
497.094	752.88
497.312	749.88
497.529	749.88
497.746	777.88
497.963	789.88
498.181	822.88
498.398	832.88
498.615	841.88
498.832	879.88
499.049	892.88
499.267	945.88
499.484	969.88
499.701	1068.88
499.918	1082.88
500.135	1156.88
500.352	1258.88
500.569	1302.88
500.786	1276.88
501.003	1237.88
501.22	1194.88
501.437	1138.88
501.654	1076.88
