Data from 1973.PennyLincolnUp.Lamp.En5.5.200Scan.071719.P1.Changed Mount._HRD10591_15-43-55-852.txt Node
Date: Thu Jul 18 15:43:55 EDT 2019
User: cochatt
Spectrometer: HR+D1059
Trigger mode: 1
Integration Time (sec): 1.000000E-1
Scans to average: 1
Electric dark correction enabled: true
Nonlinearity correction enabled: false
Boxcar width: 0
XAxis mode: Wavelengths
Number of Pixels in Spectrum: 2048
>>>>>Begin Spectral Data<<<<<
223.165	-13.88
223.4	-13.88
223.635	-13.88
223.869	-19.88
224.104	-14.88
224.338	-14.88
224.573	-21.88
224.808	-17.88
225.042	-11.88
225.277	-19.88
225.511	-2.88
225.746	16.12
225.98	10.12
226.215	2.12
226.449	18.12
226.683	32.12
226.918	24.12
227.152	35.12
227.387	39.12
227.621	46.12
227.856	37.12
228.09	64.12
228.324	63.12
228.559	59.12
228.793	55.12
229.027	92.12
229.262	118.12
229.496	104.12
229.73	108.12
229.964	120.12
230.199	107.12
230.433	112.12
230.667	111.12
230.901	101.12
231.136	110.12
231.37	119.12
231.604	120.12
231.838	108.12
232.072	126.12
232.306	126.12
232.541	113.12
232.775	112.12
233.009	97.12
233.243	118.12
233.477	116.12
233.711	105.12
233.945	123.12
234.179	106.12
234.413	137.12
234.647	108.12
234.881	120.12
235.115	127.12
235.349	118.12
235.583	101.12
235.817	107.12
236.051	115.12
236.285	120.12
236.519	135.12
236.753	126.12
236.987	140.12
237.221	167.12
237.455	204.12
237.689	166.12
237.922	136.12
238.156	134.12
238.39	131.12
238.624	133.12
238.858	117.12
239.091	135.12
239.325	134.12
239.559	129.12
239.793	128.12
240.027	140.12
240.26	139.12
240.494	130.12
240.728	154.12
240.961	149.12
241.195	142.12
241.429	125.12
241.662	128.12
241.896	135.12
242.13	137.12
242.363	130.12
242.597	127.12
242.83	136.12
243.064	151.12
243.298	137.12
243.531	145.12
243.765	145.12
243.998	135.12
244.232	160.12
244.465	150.12
244.699	160.12
244.932	129.12
245.166	145.12
245.399	160.12
245.633	144.12
245.866	145.12
246.099	158.12
246.333	142.12
246.566	155.12
246.8	157.12
247.033	149.12
247.266	167.12
247.5	164.12
247.733	164.12
247.966	177.12
248.2	180.12
248.433	171.12
248.666	155.12
248.899	166.12
249.133	166.12
249.366	188.12
249.599	181.12
249.832	179.12
250.066	188.12
250.299	163.12
250.532	191.12
250.765	213.12
250.998	208.12
251.231	211.12
251.465	208.12
251.698	181.12
251.931	180.12
252.164	190.12
252.397	201.12
252.63	183.12
252.863	194.12
253.096	208.12
253.329	213.12
253.562	217.12
253.795	209.12
254.028	208.12
254.261	193.12
254.494	221.12
254.727	235.12
254.96	256.12
255.193	253.12
255.426	233.12
255.659	223.12
255.892	229.12
256.124	198.12
256.357	214.12
256.59	230.12
256.823	203.12
257.056	208.12
257.289	213.12
257.521	226.12
257.754	204.12
257.987	201.12
258.22	215.12
258.452	213.12
258.685	202.12
258.918	207.12
259.151	223.12
259.383	218.12
259.616	204.12
259.849	229.12
260.081	236.12
260.314	236.12
260.547	247.12
260.779	232.12
261.012	223.12
261.244	199.12
261.477	225.12
261.71	201.12
261.942	207.12
262.175	216.12
262.407	211.12
262.64	236.12
262.872	210.12
263.105	220.12
263.337	213.12
263.57	209.12
263.802	205.12
264.035	212.12
264.267	222.12
264.499	207.12
264.732	219.12
264.964	219.12
265.197	228.12
265.429	215.12
265.661	220.12
265.894	215.12
266.126	215.12
266.358	220.12
266.591	220.12
266.823	225.12
267.055	226.12
267.287	242.12
267.52	217.12
267.752	228.12
267.984	233.12
268.216	215.12
268.448	229.12
268.681	242.12
268.913	259.12
269.145	277.12
269.377	278.12
269.609	298.12
269.841	274.12
270.073	264.12
270.306	276.12
270.538	317.12
270.77	309.12
271.002	284.12
271.234	269.12
271.466	291.12
271.698	310.12
271.93	295.12
272.162	321.12
272.394	287.12
272.626	309.12
272.858	287.12
273.09	271.12
273.322	271.12
273.553	267.12
273.785	265.12
274.017	283.12
274.249	281.12
274.481	267.12
274.713	264.12
274.945	285.12
275.176	281.12
275.408	280.12
275.64	279.12
275.872	262.12
276.104	278.12
276.335	261.12
276.567	265.12
276.799	283.12
277.031	288.12
277.262	300.12
277.494	321.12
277.726	293.12
277.957	309.12
278.189	285.12
278.421	283.12
278.652	278.12
278.884	286.12
279.115	272.12
279.347	264.12
279.579	266.12
279.81	276.12
280.042	267.12
280.273	278.12
280.505	303.12
280.736	291.12
280.968	289.12
281.199	287.12
281.431	273.12
281.662	288.12
281.894	284.12
282.125	267.12
282.356	289.12
282.588	300.12
282.819	298.12
283.051	292.12
283.282	297.12
283.513	296.12
283.745	290.12
283.976	285.12
284.207	297.12
284.439	323.12
284.67	330.12
284.901	287.12
285.132	304.12
285.364	288.12
285.595	297.12
285.826	294.12
286.057	295.12
286.288	292.12
286.52	302.12
286.751	299.12
286.982	297.12
287.213	301.12
287.444	294.12
287.675	285.12
287.906	317.12
288.138	305.12
288.369	313.12
288.6	311.12
288.831	321.12
289.062	304.12
289.293	300.12
289.524	314.12
289.755	303.12
289.986	323.12
290.217	312.12
290.448	301.12
290.679	312.12
290.91	312.12
291.141	316.12
291.371	325.12
291.602	307.12
291.833	303.12
292.064	314.12
292.295	324.12
292.526	315.12
292.757	304.12
292.987	304.12
293.218	309.12
293.449	310.12
293.68	307.12
293.91	311.12
294.141	327.12
294.372	308.12
294.603	301.12
294.833	328.12
295.064	303.12
295.295	312.12
295.525	316.12
295.756	327.12
295.987	309.12
296.217	319.12
296.448	315.12
296.679	315.12
296.909	316.12
297.14	302.12
297.37	328.12
297.601	335.12
297.831	319.12
298.062	302.12
298.292	318.12
298.523	330.12
298.753	333.12
298.984	319.12
299.214	335.12
299.445	329.12
299.675	320.12
299.905	323.12
300.136	330.12
300.366	333.12
300.597	348.12
300.827	332.12
301.057	340.12
301.288	347.12
301.518	340.12
301.748	349.12
301.979	357.12
302.209	358.12
302.439	344.12
302.669	349.12
302.9	349.12
303.13	345.12
303.36	337.12
303.59	349.12
303.82	345.12
304.051	360.12
304.281	359.12
304.511	346.12
304.741	357.12
304.971	345.12
305.201	349.12
305.431	349.12
305.661	343.12
305.891	334.12
306.121	336.12
306.352	341.12
306.582	328.12
306.812	347.12
307.042	348.12
307.272	343.12
307.502	352.12
307.731	336.12
307.961	343.12
308.191	352.12
308.421	331.12
308.651	344.12
308.881	339.12
309.111	344.12
309.341	348.12
309.571	347.12
309.8	357.12
310.03	380.12
310.26	365.12
310.49	360.12
310.72	381.12
310.949	367.12
311.179	389.12
311.409	373.12
311.639	362.12
311.868	360.12
312.098	374.12
312.328	377.12
312.557	408.12
312.787	394.12
313.017	399.12
313.246	361.12
313.476	362.12
313.706	375.12
313.935	373.12
314.165	396.12
314.394	383.12
314.624	395.12
314.853	392.12
315.083	392.12
315.312	383.12
315.542	384.12
315.771	379.12
316.001	372.12
316.23	372.12
316.46	393.12
316.689	399.12
316.919	393.12
317.148	405.12
317.377	391.12
317.607	375.12
317.836	376.12
318.065	380.12
318.295	374.12
318.524	364.12
318.753	367.12
318.983	389.12
319.212	382.12
319.441	375.12
319.67	407.12
319.9	362.12
320.129	383.12
320.358	386.12
320.587	380.12
320.816	365.12
321.046	396.12
321.275	409.12
321.504	395.12
321.733	389.12
321.962	403.12
322.191	388.12
322.42	408.12
322.649	417.12
322.878	413.12
323.108	399.12
323.337	415.12
323.566	453.12
323.795	463.12
324.024	461.12
324.253	524.12
324.482	676.12
324.71	944.12
324.939	1355.12
325.168	1175.12
325.397	658.12
325.626	509.12
325.855	453.12
326.084	447.12
326.313	432.12
326.542	450.12
326.77	460.12
326.999	527.12
327.228	634.12
327.457	893.12
327.686	1049.12
327.914	755.12
328.143	563.12
328.372	497.12
328.6	487.12
328.829	487.12
329.058	497.12
329.287	501.12
329.515	480.12
329.744	456.12
329.972	471.12
330.201	474.12
330.43	491.12
330.658	499.12
330.887	494.12
331.115	487.12
331.344	486.12
331.572	470.12
331.801	462.12
332.03	476.12
332.258	448.12
332.486	439.12
332.715	465.12
332.943	448.12
333.172	486.12
333.4	492.12
333.629	495.12
333.857	512.12
334.085	509.12
334.314	527.12
334.542	541.12
334.771	547.12
334.999	513.12
335.227	475.12
335.455	484.12
335.684	471.12
335.912	462.12
336.14	479.12
336.369	468.12
336.597	448.12
336.825	479.12
337.053	456.12
337.281	447.12
337.51	459.12
337.738	454.12
337.966	443.12
338.194	467.12
338.422	455.12
338.65	453.12
338.878	452.12
339.106	441.12
339.334	442.12
339.562	423.12
339.79	439.12
340.018	422.12
340.246	438.12
340.474	430.12
340.702	422.12
340.93	406.12
341.158	440.12
341.386	428.12
341.614	422.12
341.842	420.12
342.07	408.12
342.298	427.12
342.526	441.12
342.754	433.12
342.981	417.12
343.209	435.12
343.437	423.12
343.665	456.12
343.893	455.12
344.12	472.12
344.348	461.12
344.576	451.12
344.804	470.12
345.031	448.12
345.259	461.12
345.487	456.12
345.714	430.12
345.942	439.12
346.17	433.12
346.397	425.12
346.625	419.12
346.853	403.12
347.08	415.12
347.308	416.12
347.535	413.12
347.763	424.12
347.99	419.12
348.218	427.12
348.445	412.12
348.673	413.12
348.9	421.12
349.128	401.12
349.355	416.12
349.583	397.12
349.81	412.12
350.037	397.12
350.265	391.12
350.492	405.12
350.72	401.12
350.947	405.12
351.174	413.12
351.402	426.12
351.629	418.12
351.856	421.12
352.083	427.12
352.311	424.12
352.538	417.12
352.765	409.12
352.992	409.12
353.22	396.12
353.447	389.12
353.674	406.12
353.901	409.12
354.128	390.12
354.355	411.12
354.583	395.12
354.81	401.12
355.037	402.12
355.264	389.12
355.491	389.12
355.718	367.12
355.945	391.12
356.172	391.12
356.399	390.12
356.626	392.12
356.853	395.12
357.08	401.12
357.307	385.12
357.534	380.12
357.761	395.12
357.988	409.12
358.215	391.12
358.441	413.12
358.668	390.12
358.895	399.12
359.122	404.12
359.349	391.12
359.576	406.12
359.802	420.12
360.029	419.12
360.256	448.12
360.483	432.12
360.709	423.12
360.936	408.12
361.163	421.12
361.39	407.12
361.616	427.12
361.843	381.12
362.07	415.12
362.296	416.12
362.523	393.12
362.749	407.12
362.976	413.12
363.203	403.12
363.429	396.12
363.656	402.12
363.882	378.12
364.109	392.12
364.335	397.12
364.562	385.12
364.788	392.12
365.015	388.12
365.241	382.12
365.468	408.12
365.694	388.12
365.92	403.12
366.147	396.12
366.373	376.12
366.599	379.12
366.826	393.12
367.052	412.12
367.278	405.12
367.505	389.12
367.731	415.12
367.957	397.12
368.184	428.12
368.41	400.12
368.636	405.12
368.862	424.12
369.089	400.12
369.315	384.12
369.541	388.12
369.767	395.12
369.993	403.12
370.219	401.12
370.445	401.12
370.672	382.12
370.898	393.12
371.124	397.12
371.35	413.12
371.576	404.12
371.802	384.12
372.028	418.12
372.254	402.12
372.48	408.12
372.706	430.12
372.932	407.12
373.158	436.12
373.384	413.12
373.61	413.12
373.835	401.12
374.061	420.12
374.287	412.12
374.513	404.12
374.739	419.12
374.965	419.12
375.191	424.12
375.416	431.12
375.642	429.12
375.868	427.12
376.094	411.12
376.319	424.12
376.545	405.12
376.771	411.12
376.997	415.12
377.222	405.12
377.448	397.12
377.674	397.12
377.899	385.12
378.125	402.12
378.35	414.12
378.576	409.12
378.802	397.12
379.027	400.12
379.253	409.12
379.478	397.12
379.704	412.12
379.929	410.12
380.155	407.12
380.38	394.12
380.606	377.12
380.831	391.12
381.057	417.12
381.282	399.12
381.507	400.12
381.733	424.12
381.958	404.12
382.184	397.12
382.409	419.12
382.634	421.12
382.86	448.12
383.085	428.12
383.31	419.12
383.535	432.12
383.761	431.12
383.986	430.12
384.211	456.12
384.436	446.12
384.662	449.12
384.887	428.12
385.112	447.12
385.337	457.12
385.562	439.12
385.787	479.12
386.013	466.12
386.238	472.12
386.463	462.12
386.688	454.12
386.913	457.12
387.138	474.12
387.363	464.12
387.588	449.12
387.813	470.12
388.038	456.12
388.263	461.12
388.488	465.12
388.713	455.12
388.938	484.12
389.163	457.12
389.387	480.12
389.612	461.12
389.837	454.12
390.062	455.12
390.287	446.12
390.512	457.12
390.736	464.12
390.961	452.12
391.186	441.12
391.411	464.12
391.636	470.12
391.86	491.12
392.085	478.12
392.31	487.12
392.534	481.12
392.759	486.12
392.984	468.12
393.208	460.12
393.433	453.12
393.658	456.12
393.882	463.12
394.107	471.12
394.331	476.12
394.556	461.12
394.78	477.12
395.005	479.12
395.229	466.12
395.454	489.12
395.678	501.12
395.903	496.12
396.127	499.12
396.352	495.12
396.576	488.12
396.801	472.12
397.025	493.12
397.249	486.12
397.474	498.12
397.698	494.12
397.922	523.12
398.147	539.12
398.371	526.12
398.595	511.12
398.82	526.12
399.044	564.12
399.268	592.12
399.492	611.12
399.717	649.12
399.941	678.12
400.165	669.12
400.389	685.12
400.613	598.12
400.837	545.12
401.062	558.12
401.286	555.12
401.51	550.12
401.734	546.12
401.958	565.12
402.182	559.12
402.406	579.12
402.63	559.12
402.854	556.12
403.078	563.12
403.302	539.12
403.526	574.12
403.75	592.12
403.974	562.12
404.198	586.12
404.422	598.12
404.645	575.12
404.869	585.12
405.093	603.12
405.317	624.12
405.541	652.12
405.765	621.12
405.988	597.12
406.212	604.12
406.436	590.12
406.66	593.12
406.883	621.12
407.107	624.12
407.331	665.12
407.555	728.12
407.778	707.12
408.002	668.12
408.226	641.12
408.449	636.12
408.673	616.12
408.896	646.12
409.12	667.12
409.344	617.12
409.567	577.12
409.791	571.12
410.014	575.12
410.238	560.12
410.461	551.12
410.685	573.12
410.908	582.12
411.132	575.12
411.355	621.12
411.578	588.12
411.802	580.12
412.025	576.12
412.249	574.12
412.472	569.12
412.695	622.12
412.919	614.12
413.142	566.12
413.365	555.12
413.589	552.12
413.812	527.12
414.035	508.12
414.258	532.12
414.482	526.12
414.705	513.12
414.928	551.12
415.151	526.12
415.374	518.12
415.597	525.12
415.821	527.12
416.044	542.12
416.267	529.12
416.49	531.12
416.713	525.12
416.936	524.12
417.159	518.12
417.382	543.12
417.605	542.12
417.828	541.12
418.051	540.12
418.274	521.12
418.497	509.12
418.72	540.12
418.943	540.12
419.166	566.12
419.389	597.12
419.611	567.12
419.834	572.12
420.057	542.12
420.28	575.12
420.503	566.12
420.726	557.12
420.948	561.12
421.171	595.12
421.394	603.12
421.617	559.12
421.839	556.12
422.062	551.12
422.285	550.12
422.507	601.12
422.73	652.12
422.953	631.12
423.175	582.12
423.398	578.12
423.621	571.12
423.843	586.12
424.066	600.12
424.288	584.12
424.511	588.12
424.733	627.12
424.956	668.12
425.178	672.12
425.401	650.12
425.623	690.12
425.846	599.12
426.068	583.12
426.291	559.12
426.513	552.12
426.735	577.12
426.958	584.12
427.18	670.12
427.402	758.12
427.625	809.12
427.847	681.12
428.069	640.12
428.292	591.12
428.514	538.12
428.736	523.12
428.958	527.12
429.181	505.12
429.403	511.12
429.625	509.12
429.847	547.12
430.069	606.12
430.292	596.12
430.514	547.12
430.736	515.12
430.958	517.12
431.18	505.12
431.402	507.12
431.624	497.12
431.846	492.12
432.068	488.12
432.29	509.12
432.512	477.12
432.734	503.12
432.956	498.12
433.178	527.12
433.4	500.12
433.622	501.12
433.844	487.12
434.066	494.12
434.287	519.12
434.509	521.12
434.731	528.12
434.953	547.12
435.175	541.12
435.397	575.12
435.618	579.12
435.84	590.12
436.062	624.12
436.284	715.12
436.505	585.12
436.727	559.12
436.949	525.12
437.17	512.12
437.392	508.12
437.614	507.12
437.835	541.12
438.057	606.12
438.278	681.12
438.5	672.12
438.721	759.12
438.943	721.12
439.165	583.12
439.386	541.12
439.608	557.12
439.829	535.12
440.05	557.12
440.272	621.12
440.493	574.12
440.715	530.12
440.936	532.12
441.158	520.12
441.379	533.12
441.6	540.12
441.822	570.12
442.043	602.12
442.264	660.12
442.486	692.12
442.707	605.12
442.928	566.12
443.149	578.12
443.371	597.12
443.592	625.12
443.813	709.12
444.034	773.12
444.255	652.12
444.476	594.12
444.698	588.12
444.919	582.12
445.14	655.12
445.361	628.12
445.582	618.12
445.803	657.12
446.024	730.12
446.245	699.12
446.466	669.12
446.687	554.12
446.908	539.12
447.129	529.12
447.35	516.12
447.571	503.12
447.792	506.12
448.013	496.12
448.234	525.12
448.455	545.12
448.675	619.12
448.896	727.12
449.117	657.12
449.338	581.12
449.559	707.12
449.779	757.12
450	615.12
450.221	554.12
450.442	508.12
450.662	464.12
450.883	481.12
451.104	506.12
451.324	469.12
451.545	471.12
451.766	455.12
451.986	461.12
452.207	450.12
452.428	447.12
452.648	465.12
452.869	458.12
453.089	464.12
453.31	469.12
453.53	461.12
453.751	441.12
453.971	454.12
454.192	445.12
454.412	457.12
454.633	443.12
454.853	430.12
455.073	460.12
455.294	467.12
455.514	519.12
455.734	510.12
455.955	451.12
456.175	461.12
456.395	436.12
456.616	435.12
456.836	433.12
457.056	427.12
457.276	435.12
457.497	437.12
457.717	450.12
457.937	440.12
458.157	439.12
458.377	449.12
458.598	466.12
458.818	471.12
459.038	547.12
459.258	592.12
459.478	554.12
459.698	509.12
459.918	513.12
460.138	509.12
460.358	527.12
460.578	520.12
460.798	542.12
461.018	543.12
461.238	534.12
461.458	537.12
461.678	525.12
461.898	547.12
462.118	512.12
462.338	556.12
462.558	572.12
462.777	580.12
462.997	588.12
463.217	625.12
463.437	610.12
463.657	621.12
463.876	565.12
464.096	571.12
464.316	581.12
464.536	575.12
464.755	569.12
464.975	573.12
465.195	566.12
465.414	607.12
465.634	545.12
465.854	504.12
466.073	505.12
466.293	530.12
466.512	469.12
466.732	488.12
466.951	478.12
467.171	465.12
467.391	480.12
467.61	475.12
467.829	483.12
468.049	476.12
468.268	478.12
468.488	477.12
468.707	466.12
468.927	451.12
469.146	471.12
469.365	459.12
469.585	453.12
469.804	486.12
470.023	480.12
470.243	463.12
470.462	486.12
470.681	491.12
470.901	490.12
471.12	463.12
471.339	479.12
471.558	463.12
471.777	492.12
471.997	477.12
472.216	483.12
472.435	470.12
472.654	483.12
472.873	468.12
473.092	471.12
473.311	433.12
473.53	474.12
473.749	472.12
473.968	507.12
474.187	579.12
474.406	600.12
474.625	523.12
474.844	491.12
475.063	472.12
475.282	467.12
475.501	489.12
475.72	480.12
475.939	476.12
476.158	470.12
476.377	485.12
476.596	476.12
476.814	486.12
477.033	491.12
477.252	495.12
477.471	493.12
477.69	525.12
477.908	535.12
478.127	515.12
478.346	520.12
478.564	548.12
478.783	553.12
479.002	550.12
479.22	559.12
479.439	582.12
479.658	548.12
479.876	565.12
480.095	580.12
480.313	618.12
480.532	583.12
480.751	600.12
480.969	607.12
481.188	629.12
481.406	614.12
481.624	593.12
481.843	564.12
482.061	546.12
482.28	565.12
482.498	557.12
482.717	532.12
482.935	551.12
483.153	531.12
483.372	531.12
483.59	547.12
483.808	549.12
484.027	553.12
484.245	568.12
484.463	563.12
484.681	564.12
484.9	559.12
485.118	561.12
485.336	580.12
485.554	553.12
485.772	579.12
485.99	555.12
486.209	561.12
486.427	579.12
486.645	587.12
486.863	581.12
487.081	573.12
487.299	597.12
487.517	584.12
487.735	566.12
487.953	568.12
488.171	563.12
488.389	563.12
488.607	583.12
488.825	596.12
489.043	592.12
489.261	586.12
489.479	595.12
489.696	596.12
489.914	596.12
490.132	615.12
490.35	623.12
490.568	615.12
490.786	627.12
491.003	617.12
491.221	635.12
491.439	647.12
491.657	656.12
491.874	668.12
492.092	633.12
492.31	658.12
492.527	671.12
492.745	658.12
492.963	680.12
493.18	664.12
493.398	700.12
493.615	661.12
493.833	666.12
494.05	660.12
494.268	675.12
494.485	663.12
494.703	673.12
494.92	688.12
495.138	668.12
495.355	683.12
495.573	693.12
495.79	692.12
496.008	689.12
496.225	671.12
496.442	695.12
496.66	686.12
496.877	689.12
497.094	695.12
497.312	706.12
497.529	709.12
497.746	695.12
497.963	727.12
498.181	742.12
498.398	785.12
498.615	815.12
498.832	852.12
499.049	839.12
499.267	885.12
499.484	938.12
499.701	967.12
499.918	1015.12
500.135	1136.12
500.352	1181.12
500.569	1248.12
500.786	1209.12
501.003	1171.12
501.22	1144.12
501.437	1062.12
501.654	993.12
