Data from 1973.PennyLincolnUp.Lamp.En5.5.200Scan.071719.P1.Changed Mount._HRD10591_15-44-39-852.txt Node
Date: Thu Jul 18 15:44:39 EDT 2019
User: cochatt
Spectrometer: HR+D1059
Trigger mode: 1
Integration Time (sec): 1.000000E-1
Scans to average: 1
Electric dark correction enabled: true
Nonlinearity correction enabled: false
Boxcar width: 0
XAxis mode: Wavelengths
Number of Pixels in Spectrum: 2048
>>>>>Begin Spectral Data<<<<<
223.165	-34.25
223.4	-34.25
223.635	-34.25
223.869	-24.25
224.104	-14.25
224.338	-1.25
224.573	-9.25
224.808	-12.25
225.042	-4.25
225.277	-9.25
225.511	1.75
225.746	1.75
225.98	8.75
226.215	13.75
226.449	25.75
226.683	10.75
226.918	16.75
227.152	29.75
227.387	35.75
227.621	24.75
227.856	40.75
228.09	43.75
228.324	33.75
228.559	45.75
228.793	65.75
229.027	91.75
229.262	102.75
229.496	109.75
229.73	120.75
229.964	145.75
230.199	121.75
230.433	115.75
230.667	114.75
230.901	106.75
231.136	107.75
231.37	117.75
231.604	119.75
231.838	115.75
232.072	111.75
232.306	119.75
232.541	118.75
232.775	109.75
233.009	113.75
233.243	113.75
233.477	123.75
233.711	129.75
233.945	126.75
234.179	129.75
234.413	124.75
234.647	124.75
234.881	117.75
235.115	123.75
235.349	122.75
235.583	124.75
235.817	121.75
236.051	130.75
236.285	136.75
236.519	119.75
236.753	131.75
236.987	147.75
237.221	162.75
237.455	205.75
237.689	165.75
237.922	142.75
238.156	124.75
238.39	123.75
238.624	129.75
238.858	131.75
239.091	127.75
239.325	122.75
239.559	126.75
239.793	127.75
240.027	121.75
240.26	124.75
240.494	133.75
240.728	154.75
240.961	158.75
241.195	151.75
241.429	146.75
241.662	134.75
241.896	144.75
242.13	146.75
242.363	141.75
242.597	146.75
242.83	145.75
243.064	136.75
243.298	138.75
243.531	126.75
243.765	138.75
243.998	129.75
244.232	147.75
244.465	167.75
244.699	147.75
244.932	148.75
245.166	159.75
245.399	144.75
245.633	144.75
245.866	144.75
246.099	153.75
246.333	168.75
246.566	161.75
246.8	147.75
247.033	155.75
247.266	162.75
247.5	179.75
247.733	160.75
247.966	170.75
248.2	171.75
248.433	174.75
248.666	178.75
248.899	179.75
249.133	176.75
249.366	219.75
249.599	190.75
249.832	191.75
250.066	175.75
250.299	180.75
250.532	195.75
250.765	197.75
250.998	198.75
251.231	213.75
251.465	214.75
251.698	194.75
251.931	208.75
252.164	207.75
252.397	192.75
252.63	213.75
252.863	199.75
253.096	222.75
253.329	226.75
253.562	224.75
253.795	212.75
254.028	220.75
254.261	207.75
254.494	233.75
254.727	249.75
254.96	285.75
255.193	242.75
255.426	257.75
255.659	234.75
255.892	221.75
256.124	230.75
256.357	225.75
256.59	225.75
256.823	203.75
257.056	213.75
257.289	216.75
257.521	220.75
257.754	212.75
257.987	207.75
258.22	205.75
258.452	219.75
258.685	201.75
258.918	203.75
259.151	206.75
259.383	201.75
259.616	208.75
259.849	227.75
260.081	231.75
260.314	246.75
260.547	255.75
260.779	232.75
261.012	249.75
261.244	202.75
261.477	231.75
261.71	228.75
261.942	238.75
262.175	245.75
262.407	232.75
262.64	225.75
262.872	222.75
263.105	213.75
263.337	235.75
263.57	230.75
263.802	232.75
264.035	233.75
264.267	230.75
264.499	208.75
264.732	222.75
264.964	234.75
265.197	215.75
265.429	238.75
265.661	227.75
265.894	233.75
266.126	223.75
266.358	223.75
266.591	215.75
266.823	251.75
267.055	226.75
267.287	253.75
267.52	241.75
267.752	243.75
267.984	261.75
268.216	234.75
268.448	248.75
268.681	257.75
268.913	274.75
269.145	279.75
269.377	296.75
269.609	283.75
269.841	274.75
270.073	286.75
270.306	280.75
270.538	310.75
270.77	320.75
271.002	307.75
271.234	292.75
271.466	309.75
271.698	318.75
271.93	314.75
272.162	295.75
272.394	318.75
272.626	297.75
272.858	293.75
273.09	294.75
273.322	290.75
273.553	291.75
273.785	282.75
274.017	265.75
274.249	287.75
274.481	268.75
274.713	295.75
274.945	294.75
275.176	278.75
275.408	284.75
275.64	272.75
275.872	276.75
276.104	301.75
276.335	294.75
276.567	290.75
276.799	293.75
277.031	306.75
277.262	326.75
277.494	338.75
277.726	306.75
277.957	313.75
278.189	315.75
278.421	282.75
278.652	272.75
278.884	292.75
279.115	280.75
279.347	292.75
279.579	290.75
279.81	295.75
280.042	276.75
280.273	292.75
280.505	293.75
280.736	305.75
280.968	279.75
281.199	289.75
281.431	291.75
281.662	300.75
281.894	300.75
282.125	311.75
282.356	323.75
282.588	326.75
282.819	315.75
283.051	301.75
283.282	299.75
283.513	310.75
283.745	302.75
283.976	317.75
284.207	311.75
284.439	307.75
284.67	290.75
284.901	289.75
285.132	311.75
285.364	299.75
285.595	299.75
285.826	293.75
286.057	318.75
286.288	309.75
286.52	303.75
286.751	302.75
286.982	321.75
287.213	336.75
287.444	307.75
287.675	312.75
287.906	315.75
288.138	339.75
288.369	309.75
288.6	330.75
288.831	337.75
289.062	319.75
289.293	318.75
289.524	324.75
289.755	314.75
289.986	324.75
290.217	326.75
290.448	305.75
290.679	305.75
290.91	323.75
291.141	331.75
291.371	327.75
291.602	332.75
291.833	301.75
292.064	329.75
292.295	320.75
292.526	315.75
292.757	339.75
292.987	328.75
293.218	318.75
293.449	320.75
293.68	327.75
293.91	341.75
294.141	324.75
294.372	335.75
294.603	327.75
294.833	331.75
295.064	330.75
295.295	343.75
295.525	327.75
295.756	324.75
295.987	338.75
296.217	330.75
296.448	357.75
296.679	332.75
296.909	340.75
297.14	323.75
297.37	342.75
297.601	338.75
297.831	327.75
298.062	318.75
298.292	341.75
298.523	331.75
298.753	346.75
298.984	345.75
299.214	346.75
299.445	320.75
299.675	346.75
299.905	332.75
300.136	343.75
300.366	330.75
300.597	357.75
300.827	357.75
301.057	339.75
301.288	369.75
301.518	351.75
301.748	363.75
301.979	348.75
302.209	361.75
302.439	353.75
302.669	367.75
302.9	358.75
303.13	359.75
303.36	375.75
303.59	353.75
303.82	377.75
304.051	372.75
304.281	371.75
304.511	350.75
304.741	345.75
304.971	343.75
305.201	346.75
305.431	369.75
305.661	353.75
305.891	355.75
306.121	355.75
306.352	375.75
306.582	375.75
306.812	342.75
307.042	373.75
307.272	381.75
307.502	347.75
307.731	369.75
307.961	359.75
308.191	359.75
308.421	357.75
308.651	373.75
308.881	385.75
309.111	370.75
309.341	357.75
309.571	367.75
309.8	361.75
310.03	375.75
310.26	364.75
310.49	381.75
310.72	365.75
310.949	391.75
311.179	411.75
311.409	394.75
311.639	387.75
311.868	407.75
312.098	396.75
312.328	387.75
312.557	417.75
312.787	413.75
313.017	409.75
313.246	395.75
313.476	386.75
313.706	383.75
313.935	418.75
314.165	409.75
314.394	411.75
314.624	411.75
314.853	384.75
315.083	413.75
315.312	395.75
315.542	389.75
315.771	393.75
316.001	399.75
316.23	414.75
316.46	381.75
316.689	431.75
316.919	382.75
317.148	412.75
317.377	411.75
317.607	414.75
317.836	404.75
318.065	389.75
318.295	375.75
318.524	396.75
318.753	397.75
318.983	389.75
319.212	413.75
319.441	398.75
319.67	399.75
319.9	416.75
320.129	407.75
320.358	394.75
320.587	403.75
320.816	400.75
321.046	429.75
321.275	405.75
321.504	419.75
321.733	412.75
321.962	414.75
322.191	410.75
322.42	426.75
322.649	440.75
322.878	444.75
323.108	441.75
323.337	465.75
323.566	459.75
323.795	482.75
324.024	510.75
324.253	572.75
324.482	738.75
324.71	1077.75
324.939	1529.75
325.168	1341.75
325.397	748.75
325.626	558.75
325.855	489.75
326.084	467.75
326.313	470.75
326.542	471.75
326.77	508.75
326.999	549.75
327.228	697.75
327.457	959.75
327.686	1147.75
327.914	821.75
328.143	604.75
328.372	554.75
328.6	519.75
328.829	517.75
329.058	528.75
329.287	558.75
329.515	507.75
329.744	506.75
329.972	471.75
330.201	509.75
330.43	538.75
330.658	539.75
330.887	546.75
331.115	553.75
331.344	499.75
331.572	486.75
331.801	484.75
332.03	486.75
332.258	477.75
332.486	490.75
332.715	457.75
332.943	470.75
333.172	490.75
333.4	527.75
333.629	501.75
333.857	519.75
334.085	524.75
334.314	542.75
334.542	540.75
334.771	538.75
334.999	531.75
335.227	507.75
335.455	505.75
335.684	511.75
335.912	487.75
336.14	475.75
336.369	481.75
336.597	464.75
336.825	477.75
337.053	488.75
337.281	480.75
337.51	473.75
337.738	487.75
337.966	471.75
338.194	471.75
338.422	457.75
338.65	471.75
338.878	445.75
339.106	481.75
339.334	468.75
339.562	460.75
339.79	465.75
340.018	459.75
340.246	443.75
340.474	455.75
340.702	458.75
340.93	438.75
341.158	442.75
341.386	454.75
341.614	447.75
341.842	456.75
342.07	435.75
342.298	425.75
342.526	436.75
342.754	443.75
342.981	437.75
343.209	440.75
343.437	456.75
343.665	472.75
343.893	489.75
344.12	468.75
344.348	494.75
344.576	467.75
344.804	479.75
345.031	476.75
345.259	481.75
345.487	468.75
345.714	448.75
345.942	443.75
346.17	437.75
346.397	449.75
346.625	422.75
346.853	407.75
347.08	428.75
347.308	455.75
347.535	448.75
347.763	442.75
347.99	434.75
348.218	452.75
348.445	449.75
348.673	427.75
348.9	424.75
349.128	421.75
349.355	418.75
349.583	422.75
349.81	434.75
350.037	423.75
350.265	452.75
350.492	423.75
350.72	425.75
350.947	437.75
351.174	427.75
351.402	445.75
351.629	413.75
351.856	434.75
352.083	419.75
352.311	437.75
352.538	423.75
352.765	468.75
352.992	428.75
353.22	429.75
353.447	434.75
353.674	411.75
353.901	405.75
354.128	428.75
354.355	415.75
354.583	417.75
354.81	404.75
355.037	415.75
355.264	420.75
355.491	408.75
355.718	418.75
355.945	419.75
356.172	414.75
356.399	416.75
356.626	409.75
356.853	406.75
357.08	393.75
357.307	407.75
357.534	395.75
357.761	408.75
357.988	428.75
358.215	439.75
358.441	414.75
358.668	405.75
358.895	433.75
359.122	413.75
359.349	418.75
359.576	418.75
359.802	440.75
360.029	446.75
360.256	462.75
360.483	434.75
360.709	428.75
360.936	438.75
361.163	454.75
361.39	424.75
361.616	444.75
361.843	421.75
362.07	431.75
362.296	445.75
362.523	437.75
362.749	429.75
362.976	409.75
363.203	409.75
363.429	422.75
363.656	413.75
363.882	428.75
364.109	411.75
364.335	436.75
364.562	423.75
364.788	397.75
365.015	410.75
365.241	403.75
365.468	407.75
365.694	395.75
365.92	420.75
366.147	405.75
366.373	409.75
366.599	403.75
366.826	415.75
367.052	421.75
367.278	405.75
367.505	417.75
367.731	430.75
367.957	423.75
368.184	422.75
368.41	436.75
368.636	434.75
368.862	446.75
369.089	423.75
369.315	437.75
369.541	418.75
369.767	425.75
369.993	423.75
370.219	426.75
370.445	415.75
370.672	398.75
370.898	418.75
371.124	414.75
371.35	418.75
371.576	432.75
371.802	418.75
372.028	441.75
372.254	427.75
372.48	446.75
372.706	428.75
372.932	429.75
373.158	421.75
373.384	437.75
373.61	418.75
373.835	423.75
374.061	427.75
374.287	425.75
374.513	429.75
374.739	461.75
374.965	418.75
375.191	446.75
375.416	438.75
375.642	433.75
375.868	445.75
376.094	421.75
376.319	448.75
376.545	439.75
376.771	405.75
376.997	420.75
377.222	420.75
377.448	410.75
377.674	427.75
377.899	413.75
378.125	425.75
378.35	405.75
378.576	401.75
378.802	399.75
379.027	414.75
379.253	430.75
379.478	417.75
379.704	427.75
379.929	423.75
380.155	423.75
380.38	438.75
380.606	426.75
380.831	426.75
381.057	429.75
381.282	430.75
381.507	429.75
381.733	432.75
381.958	443.75
382.184	428.75
382.409	431.75
382.634	421.75
382.86	447.75
383.085	449.75
383.31	423.75
383.535	461.75
383.761	451.75
383.986	468.75
384.211	444.75
384.436	464.75
384.662	464.75
384.887	465.75
385.112	453.75
385.337	457.75
385.562	474.75
385.787	472.75
386.013	501.75
386.238	488.75
386.463	495.75
386.688	498.75
386.913	475.75
387.138	455.75
387.363	473.75
387.588	479.75
387.813	482.75
388.038	486.75
388.263	478.75
388.488	463.75
388.713	471.75
388.938	474.75
389.163	454.75
389.387	489.75
389.612	458.75
389.837	482.75
390.062	490.75
390.287	468.75
390.512	475.75
390.736	450.75
390.961	483.75
391.186	491.75
391.411	472.75
391.636	501.75
391.86	503.75
392.085	500.75
392.31	515.75
392.534	497.75
392.759	481.75
392.984	510.75
393.208	488.75
393.433	486.75
393.658	500.75
393.882	475.75
394.107	473.75
394.331	493.75
394.556	485.75
394.78	493.75
395.005	478.75
395.229	498.75
395.454	502.75
395.678	492.75
395.903	524.75
396.127	569.75
396.352	515.75
396.576	495.75
396.801	486.75
397.025	488.75
397.249	503.75
397.474	517.75
397.698	528.75
397.922	545.75
398.147	550.75
398.371	554.75
398.595	545.75
398.82	562.75
399.044	567.75
399.268	625.75
399.492	641.75
399.717	721.75
399.941	707.75
400.165	723.75
400.389	691.75
400.613	656.75
400.837	607.75
401.062	589.75
401.286	579.75
401.51	563.75
401.734	563.75
401.958	582.75
402.182	577.75
402.406	577.75
402.63	570.75
402.854	582.75
403.078	574.75
403.302	590.75
403.526	598.75
403.75	598.75
403.974	591.75
404.198	608.75
404.422	605.75
404.645	615.75
404.869	609.75
405.093	631.75
405.317	653.75
405.541	683.75
405.765	641.75
405.988	609.75
406.212	603.75
406.436	635.75
406.66	629.75
406.883	612.75
407.107	682.75
407.331	692.75
407.555	771.75
407.778	738.75
408.002	668.75
408.226	641.75
408.449	634.75
408.673	650.75
408.896	667.75
409.12	685.75
409.344	661.75
409.567	595.75
409.791	575.75
410.014	596.75
410.238	601.75
410.461	599.75
410.685	625.75
410.908	610.75
411.132	622.75
411.355	667.75
411.578	621.75
411.802	584.75
412.025	558.75
412.249	581.75
412.472	617.75
412.695	625.75
412.919	633.75
413.142	592.75
413.365	587.75
413.589	588.75
413.812	541.75
414.035	564.75
414.258	541.75
414.482	554.75
414.705	561.75
414.928	557.75
415.151	544.75
415.374	563.75
415.597	556.75
415.821	551.75
416.044	574.75
416.267	573.75
416.49	550.75
416.713	535.75
416.936	555.75
417.159	505.75
417.382	546.75
417.605	556.75
417.828	564.75
418.051	584.75
418.274	586.75
418.497	538.75
418.72	569.75
418.943	556.75
419.166	581.75
419.389	590.75
419.611	586.75
419.834	599.75
420.057	608.75
420.28	593.75
420.503	573.75
420.726	587.75
420.948	568.75
421.171	636.75
421.394	639.75
421.617	590.75
421.839	588.75
422.062	558.75
422.285	588.75
422.507	651.75
422.73	709.75
422.953	686.75
423.175	589.75
423.398	578.75
423.621	597.75
423.843	616.75
424.066	631.75
424.288	598.75
424.511	601.75
424.733	653.75
424.956	724.75
425.178	689.75
425.401	700.75
425.623	701.75
425.846	635.75
426.068	613.75
426.291	589.75
426.513	573.75
426.735	576.75
426.958	638.75
427.18	708.75
427.402	788.75
427.625	830.75
427.847	765.75
428.069	654.75
428.292	595.75
428.514	563.75
428.736	531.75
428.958	534.75
429.181	528.75
429.403	531.75
429.625	547.75
429.847	564.75
430.069	655.75
430.292	614.75
430.514	542.75
430.736	539.75
430.958	518.75
431.18	515.75
431.402	520.75
431.624	501.75
431.846	510.75
432.068	530.75
432.29	520.75
432.512	537.75
432.734	531.75
432.956	515.75
433.178	527.75
433.4	522.75
433.622	520.75
433.844	534.75
434.066	517.75
434.287	533.75
434.509	519.75
434.731	557.75
434.953	555.75
435.175	570.75
435.397	581.75
435.618	589.75
435.84	610.75
436.062	685.75
436.284	730.75
436.505	626.75
436.727	571.75
436.949	597.75
437.17	554.75
437.392	540.75
437.614	567.75
437.835	553.75
438.057	629.75
438.278	734.75
438.5	720.75
438.721	770.75
438.943	763.75
439.165	633.75
439.386	596.75
439.608	581.75
439.829	578.75
440.05	567.75
440.272	634.75
440.493	585.75
440.715	553.75
440.936	550.75
441.158	538.75
441.379	558.75
441.6	563.75
441.822	576.75
442.043	614.75
442.264	667.75
442.486	740.75
442.707	625.75
442.928	589.75
443.149	620.75
443.371	625.75
443.592	635.75
443.813	715.75
444.034	789.75
444.255	687.75
444.476	630.75
444.698	611.75
444.919	625.75
445.14	735.75
445.361	665.75
445.582	621.75
445.803	686.75
446.024	731.75
446.245	747.75
446.466	694.75
446.687	628.75
446.908	591.75
447.129	543.75
447.35	527.75
447.571	539.75
447.792	537.75
448.013	533.75
448.234	548.75
448.455	588.75
448.675	656.75
448.896	779.75
449.117	663.75
449.338	622.75
449.559	734.75
449.779	805.75
450	647.75
450.221	553.75
450.442	538.75
450.662	512.75
450.883	494.75
451.104	513.75
451.324	513.75
451.545	494.75
451.766	492.75
451.986	471.75
452.207	476.75
452.428	477.75
452.648	455.75
452.869	472.75
453.089	464.75
453.31	494.75
453.53	475.75
453.751	467.75
453.971	465.75
454.192	493.75
454.412	459.75
454.633	462.75
454.853	459.75
455.073	483.75
455.294	513.75
455.514	547.75
455.734	527.75
455.955	469.75
456.175	455.75
456.395	435.75
456.616	440.75
456.836	448.75
457.056	458.75
457.276	441.75
457.497	459.75
457.717	437.75
457.937	463.75
458.157	474.75
458.377	475.75
458.598	486.75
458.818	542.75
459.038	574.75
459.258	606.75
459.478	539.75
459.698	515.75
459.918	522.75
460.138	536.75
460.358	545.75
460.578	542.75
460.798	546.75
461.018	565.75
461.238	546.75
461.458	529.75
461.678	548.75
461.898	567.75
462.118	542.75
462.338	571.75
462.558	588.75
462.777	589.75
462.997	633.75
463.217	659.75
463.437	631.75
463.657	629.75
463.876	619.75
464.096	612.75
464.316	602.75
464.536	613.75
464.755	602.75
464.975	581.75
465.195	601.75
465.414	625.75
465.634	590.75
465.854	543.75
466.073	528.75
466.293	526.75
466.512	502.75
466.732	488.75
466.951	505.75
467.171	487.75
467.391	521.75
467.61	492.75
467.829	505.75
468.049	497.75
468.268	498.75
468.488	480.75
468.707	485.75
468.927	470.75
469.146	479.75
469.365	472.75
469.585	470.75
469.804	494.75
470.023	515.75
470.243	516.75
470.462	492.75
470.681	522.75
470.901	513.75
471.12	508.75
471.339	491.75
471.558	512.75
471.777	501.75
471.997	492.75
472.216	490.75
472.435	513.75
472.654	488.75
472.873	483.75
473.092	488.75
473.311	516.75
473.53	499.75
473.749	502.75
473.968	532.75
474.187	603.75
474.406	615.75
474.625	546.75
474.844	498.75
475.063	469.75
475.282	490.75
475.501	489.75
475.72	515.75
475.939	517.75
476.158	518.75
476.377	494.75
476.596	506.75
476.814	527.75
477.033	516.75
477.252	517.75
477.471	544.75
477.69	556.75
477.908	539.75
478.127	564.75
478.346	552.75
478.564	563.75
478.783	553.75
479.002	591.75
479.22	579.75
479.439	579.75
479.658	594.75
479.876	599.75
480.095	616.75
480.313	619.75
480.532	631.75
480.751	605.75
480.969	649.75
481.188	663.75
481.406	643.75
481.624	627.75
481.843	586.75
482.061	591.75
482.28	586.75
482.498	569.75
482.717	579.75
482.935	576.75
483.153	590.75
483.372	570.75
483.59	575.75
483.808	574.75
484.027	568.75
484.245	560.75
484.463	563.75
484.681	570.75
484.9	570.75
485.118	589.75
485.336	579.75
485.554	607.75
485.772	593.75
485.99	595.75
486.209	614.75
486.427	598.75
486.645	595.75
486.863	607.75
487.081	590.75
487.299	606.75
487.517	621.75
487.735	603.75
487.953	616.75
488.171	611.75
488.389	597.75
488.607	613.75
488.825	603.75
489.043	618.75
489.261	607.75
489.479	644.75
489.696	637.75
489.914	608.75
490.132	621.75
490.35	660.75
490.568	636.75
490.786	655.75
491.003	652.75
491.221	678.75
491.439	683.75
491.657	678.75
491.874	689.75
492.092	697.75
492.31	708.75
492.527	719.75
492.745	681.75
492.963	695.75
493.18	722.75
493.398	715.75
493.615	707.75
493.833	714.75
494.05	690.75
494.268	685.75
494.485	710.75
494.703	715.75
494.92	734.75
495.138	700.75
495.355	723.75
495.573	712.75
495.79	716.75
496.008	713.75
496.225	723.75
496.442	739.75
496.66	716.75
496.877	731.75
497.094	734.75
497.312	729.75
497.529	735.75
497.746	777.75
497.963	803.75
498.181	815.75
498.398	810.75
498.615	834.75
498.832	846.75
499.049	902.75
499.267	933.75
499.484	989.75
499.701	1036.75
499.918	1077.75
500.135	1160.75
500.352	1240.75
500.569	1272.75
500.786	1329.75
501.003	1223.75
501.22	1192.75
501.437	1125.75
501.654	1050.75
