Data from 1973.PennyLincolnUp.Lamp.En5.5.200Scan.071719.P1.Changed Mount._HRD10591_15-44-47-852.txt Node
Date: Thu Jul 18 15:44:47 EDT 2019
User: cochatt
Spectrometer: HR+D1059
Trigger mode: 1
Integration Time (sec): 1.000000E-1
Scans to average: 1
Electric dark correction enabled: true
Nonlinearity correction enabled: false
Boxcar width: 0
XAxis mode: Wavelengths
Number of Pixels in Spectrum: 2048
>>>>>Begin Spectral Data<<<<<
223.165	-23.62
223.4	-23.62
223.635	-23.62
223.869	-25.62
224.104	-11.62
224.338	-23.62
224.573	-16.62
224.808	-12.62
225.042	-8.62
225.277	0.38
225.511	1.38
225.746	2.38
225.98	8.38
226.215	23.38
226.449	11.38
226.683	10.38
226.918	25.38
227.152	39.38
227.387	48.38
227.621	47.38
227.856	48.38
228.09	44.38
228.324	52.38
228.559	50.38
228.793	56.38
229.027	108.38
229.262	122.38
229.496	124.38
229.73	133.38
229.964	132.38
230.199	119.38
230.433	115.38
230.667	112.38
230.901	114.38
231.136	116.38
231.37	109.38
231.604	122.38
231.838	118.38
232.072	119.38
232.306	123.38
232.541	114.38
232.775	114.38
233.009	135.38
233.243	109.38
233.477	109.38
233.711	115.38
233.945	101.38
234.179	111.38
234.413	133.38
234.647	127.38
234.881	118.38
235.115	123.38
235.349	115.38
235.583	110.38
235.817	132.38
236.051	123.38
236.285	130.38
236.519	133.38
236.753	120.38
236.987	143.38
237.221	168.38
237.455	187.38
237.689	178.38
237.922	140.38
238.156	128.38
238.39	124.38
238.624	137.38
238.858	136.38
239.091	109.38
239.325	130.38
239.559	119.38
239.793	138.38
240.027	132.38
240.26	138.38
240.494	153.38
240.728	149.38
240.961	157.38
241.195	154.38
241.429	142.38
241.662	140.38
241.896	131.38
242.13	148.38
242.363	130.38
242.597	127.38
242.83	139.38
243.064	149.38
243.298	135.38
243.531	126.38
243.765	152.38
243.998	148.38
244.232	140.38
244.465	157.38
244.699	148.38
244.932	159.38
245.166	161.38
245.399	157.38
245.633	166.38
245.866	151.38
246.099	142.38
246.333	164.38
246.566	153.38
246.8	170.38
247.033	146.38
247.266	171.38
247.5	167.38
247.733	182.38
247.966	169.38
248.2	183.38
248.433	178.38
248.666	182.38
248.899	190.38
249.133	179.38
249.366	213.38
249.599	197.38
249.832	186.38
250.066	199.38
250.299	165.38
250.532	183.38
250.765	212.38
250.998	219.38
251.231	244.38
251.465	214.38
251.698	210.38
251.931	197.38
252.164	191.38
252.397	200.38
252.63	190.38
252.863	226.38
253.096	192.38
253.329	227.38
253.562	213.38
253.795	225.38
254.028	212.38
254.261	223.38
254.494	238.38
254.727	250.38
254.96	286.38
255.193	262.38
255.426	221.38
255.659	234.38
255.892	227.38
256.124	229.38
256.357	236.38
256.59	226.38
256.823	223.38
257.056	208.38
257.289	214.38
257.521	214.38
257.754	225.38
257.987	215.38
258.22	202.38
258.452	220.38
258.685	201.38
258.918	231.38
259.151	229.38
259.383	220.38
259.616	223.38
259.849	225.38
260.081	224.38
260.314	264.38
260.547	264.38
260.779	250.38
261.012	242.38
261.244	231.38
261.477	218.38
261.71	239.38
261.942	225.38
262.175	235.38
262.407	234.38
262.64	231.38
262.872	215.38
263.105	214.38
263.337	222.38
263.57	223.38
263.802	228.38
264.035	205.38
264.267	214.38
264.499	215.38
264.732	244.38
264.964	226.38
265.197	229.38
265.429	233.38
265.661	223.38
265.894	234.38
266.126	220.38
266.358	242.38
266.591	232.38
266.823	242.38
267.055	248.38
267.287	252.38
267.52	252.38
267.752	248.38
267.984	253.38
268.216	243.38
268.448	243.38
268.681	250.38
268.913	244.38
269.145	257.38
269.377	293.38
269.609	265.38
269.841	282.38
270.073	284.38
270.306	296.38
270.538	314.38
270.77	307.38
271.002	323.38
271.234	313.38
271.466	316.38
271.698	319.38
271.93	331.38
272.162	313.38
272.394	330.38
272.626	320.38
272.858	290.38
273.09	282.38
273.322	286.38
273.553	280.38
273.785	294.38
274.017	292.38
274.249	272.38
274.481	289.38
274.713	284.38
274.945	276.38
275.176	283.38
275.408	276.38
275.64	274.38
275.872	284.38
276.104	281.38
276.335	300.38
276.567	287.38
276.799	286.38
277.031	327.38
277.262	323.38
277.494	330.38
277.726	331.38
277.957	294.38
278.189	301.38
278.421	297.38
278.652	297.38
278.884	306.38
279.115	299.38
279.347	280.38
279.579	302.38
279.81	293.38
280.042	279.38
280.273	285.38
280.505	299.38
280.736	294.38
280.968	297.38
281.199	300.38
281.431	286.38
281.662	304.38
281.894	292.38
282.125	311.38
282.356	318.38
282.588	319.38
282.819	309.38
283.051	294.38
283.282	287.38
283.513	300.38
283.745	310.38
283.976	301.38
284.207	295.38
284.439	312.38
284.67	304.38
284.901	316.38
285.132	286.38
285.364	309.38
285.595	310.38
285.826	312.38
286.057	312.38
286.288	318.38
286.52	317.38
286.751	310.38
286.982	300.38
287.213	311.38
287.444	322.38
287.675	307.38
287.906	326.38
288.138	356.38
288.369	357.38
288.6	341.38
288.831	330.38
289.062	309.38
289.293	334.38
289.524	303.38
289.755	312.38
289.986	326.38
290.217	328.38
290.448	323.38
290.679	312.38
290.91	309.38
291.141	312.38
291.371	316.38
291.602	318.38
291.833	328.38
292.064	329.38
292.295	333.38
292.526	318.38
292.757	314.38
292.987	324.38
293.218	321.38
293.449	329.38
293.68	312.38
293.91	325.38
294.141	327.38
294.372	331.38
294.603	329.38
294.833	327.38
295.064	330.38
295.295	318.38
295.525	326.38
295.756	339.38
295.987	328.38
296.217	329.38
296.448	350.38
296.679	339.38
296.909	333.38
297.14	329.38
297.37	339.38
297.601	324.38
297.831	318.38
298.062	355.38
298.292	353.38
298.523	354.38
298.753	354.38
298.984	341.38
299.214	350.38
299.445	339.38
299.675	342.38
299.905	360.38
300.136	343.38
300.366	332.38
300.597	331.38
300.827	354.38
301.057	372.38
301.288	360.38
301.518	365.38
301.748	370.38
301.979	354.38
302.209	377.38
302.439	368.38
302.669	380.38
302.9	359.38
303.13	341.38
303.36	365.38
303.59	356.38
303.82	370.38
304.051	356.38
304.281	362.38
304.511	374.38
304.741	376.38
304.971	346.38
305.201	370.38
305.431	346.38
305.661	373.38
305.891	352.38
306.121	392.38
306.352	382.38
306.582	371.38
306.812	345.38
307.042	362.38
307.272	355.38
307.502	373.38
307.731	370.38
307.961	348.38
308.191	359.38
308.421	378.38
308.651	361.38
308.881	375.38
309.111	368.38
309.341	387.38
309.571	374.38
309.8	391.38
310.03	383.38
310.26	390.38
310.49	360.38
310.72	391.38
310.949	390.38
311.179	411.38
311.409	396.38
311.639	383.38
311.868	395.38
312.098	399.38
312.328	403.38
312.557	421.38
312.787	398.38
313.017	427.38
313.246	406.38
313.476	419.38
313.706	394.38
313.935	401.38
314.165	414.38
314.394	425.38
314.624	402.38
314.853	392.38
315.083	389.38
315.312	398.38
315.542	405.38
315.771	403.38
316.001	404.38
316.23	396.38
316.46	404.38
316.689	412.38
316.919	402.38
317.148	419.38
317.377	410.38
317.607	412.38
317.836	402.38
318.065	401.38
318.295	395.38
318.524	383.38
318.753	382.38
318.983	395.38
319.212	388.38
319.441	397.38
319.67	388.38
319.9	410.38
320.129	397.38
320.358	389.38
320.587	420.38
320.816	392.38
321.046	426.38
321.275	399.38
321.504	408.38
321.733	418.38
321.962	419.38
322.191	414.38
322.42	428.38
322.649	446.38
322.878	452.38
323.108	460.38
323.337	459.38
323.566	471.38
323.795	476.38
324.024	511.38
324.253	599.38
324.482	759.38
324.71	1090.38
324.939	1494.38
325.168	1351.38
325.397	776.38
325.626	578.38
325.855	497.38
326.084	487.38
326.313	466.38
326.542	486.38
326.77	501.38
326.999	568.38
327.228	714.38
327.457	982.38
327.686	1176.38
327.914	838.38
328.143	617.38
328.372	551.38
328.6	535.38
328.829	532.38
329.058	549.38
329.287	528.38
329.515	516.38
329.744	490.38
329.972	511.38
330.201	498.38
330.43	516.38
330.658	552.38
330.887	579.38
331.115	547.38
331.344	519.38
331.572	495.38
331.801	478.38
332.03	506.38
332.258	478.38
332.486	477.38
332.715	476.38
332.943	484.38
333.172	507.38
333.4	493.38
333.629	535.38
333.857	540.38
334.085	534.38
334.314	541.38
334.542	554.38
334.771	557.38
334.999	517.38
335.227	512.38
335.455	502.38
335.684	518.38
335.912	488.38
336.14	491.38
336.369	486.38
336.597	479.38
336.825	498.38
337.053	486.38
337.281	463.38
337.51	480.38
337.738	476.38
337.966	468.38
338.194	466.38
338.422	482.38
338.65	465.38
338.878	457.38
339.106	488.38
339.334	463.38
339.562	475.38
339.79	456.38
340.018	452.38
340.246	450.38
340.474	454.38
340.702	451.38
340.93	451.38
341.158	453.38
341.386	465.38
341.614	474.38
341.842	446.38
342.07	427.38
342.298	426.38
342.526	440.38
342.754	463.38
342.981	450.38
343.209	461.38
343.437	460.38
343.665	488.38
343.893	504.38
344.12	518.38
344.348	484.38
344.576	492.38
344.804	484.38
345.031	480.38
345.259	469.38
345.487	469.38
345.714	444.38
345.942	455.38
346.17	462.38
346.397	448.38
346.625	430.38
346.853	431.38
347.08	436.38
347.308	443.38
347.535	422.38
347.763	434.38
347.99	444.38
348.218	439.38
348.445	449.38
348.673	454.38
348.9	439.38
349.128	418.38
349.355	423.38
349.583	438.38
349.81	441.38
350.037	439.38
350.265	434.38
350.492	428.38
350.72	409.38
350.947	417.38
351.174	444.38
351.402	454.38
351.629	428.38
351.856	440.38
352.083	452.38
352.311	452.38
352.538	441.38
352.765	468.38
352.992	450.38
353.22	421.38
353.447	442.38
353.674	427.38
353.901	416.38
354.128	414.38
354.355	405.38
354.583	401.38
354.81	394.38
355.037	407.38
355.264	408.38
355.491	424.38
355.718	418.38
355.945	418.38
356.172	413.38
356.399	407.38
356.626	405.38
356.853	420.38
357.08	398.38
357.307	410.38
357.534	405.38
357.761	423.38
357.988	423.38
358.215	411.38
358.441	404.38
358.668	414.38
358.895	430.38
359.122	419.38
359.349	406.38
359.576	434.38
359.802	458.38
360.029	459.38
360.256	447.38
360.483	429.38
360.709	448.38
360.936	430.38
361.163	432.38
361.39	431.38
361.616	448.38
361.843	430.38
362.07	422.38
362.296	431.38
362.523	436.38
362.749	426.38
362.976	412.38
363.203	404.38
363.429	419.38
363.656	414.38
363.882	412.38
364.109	412.38
364.335	405.38
364.562	394.38
364.788	428.38
365.015	422.38
365.241	419.38
365.468	417.38
365.694	399.38
365.92	411.38
366.147	416.38
366.373	425.38
366.599	418.38
366.826	422.38
367.052	391.38
367.278	405.38
367.505	414.38
367.731	439.38
367.957	401.38
368.184	406.38
368.41	404.38
368.636	431.38
368.862	455.38
369.089	420.38
369.315	432.38
369.541	407.38
369.767	436.38
369.993	410.38
370.219	410.38
370.445	397.38
370.672	423.38
370.898	413.38
371.124	423.38
371.35	425.38
371.576	430.38
371.802	430.38
372.028	432.38
372.254	426.38
372.48	422.38
372.706	426.38
372.932	442.38
373.158	440.38
373.384	460.38
373.61	443.38
373.835	422.38
374.061	406.38
374.287	436.38
374.513	450.38
374.739	435.38
374.965	435.38
375.191	437.38
375.416	445.38
375.642	423.38
375.868	438.38
376.094	436.38
376.319	446.38
376.545	441.38
376.771	436.38
376.997	448.38
377.222	434.38
377.448	430.38
377.674	425.38
377.899	415.38
378.125	434.38
378.35	422.38
378.576	431.38
378.802	421.38
379.027	434.38
379.253	424.38
379.478	409.38
379.704	433.38
379.929	438.38
380.155	432.38
380.38	439.38
380.606	440.38
380.831	427.38
381.057	440.38
381.282	440.38
381.507	426.38
381.733	443.38
381.958	420.38
382.184	427.38
382.409	443.38
382.634	458.38
382.86	436.38
383.085	443.38
383.31	456.38
383.535	445.38
383.761	456.38
383.986	454.38
384.211	471.38
384.436	483.38
384.662	447.38
384.887	470.38
385.112	462.38
385.337	463.38
385.562	479.38
385.787	466.38
386.013	492.38
386.238	478.38
386.463	475.38
386.688	463.38
386.913	469.38
387.138	470.38
387.363	481.38
387.588	479.38
387.813	486.38
388.038	475.38
388.263	468.38
388.488	483.38
388.713	477.38
388.938	465.38
389.163	476.38
389.387	471.38
389.612	485.38
389.837	483.38
390.062	476.38
390.287	486.38
390.512	454.38
390.736	480.38
390.961	482.38
391.186	485.38
391.411	504.38
391.636	509.38
391.86	525.38
392.085	500.38
392.31	512.38
392.534	510.38
392.759	527.38
392.984	502.38
393.208	498.38
393.433	490.38
393.658	488.38
393.882	480.38
394.107	479.38
394.331	479.38
394.556	491.38
394.78	493.38
395.005	501.38
395.229	473.38
395.454	486.38
395.678	504.38
395.903	533.38
396.127	539.38
396.352	520.38
396.576	498.38
396.801	520.38
397.025	509.38
397.249	500.38
397.474	518.38
397.698	521.38
397.922	532.38
398.147	522.38
398.371	543.38
398.595	551.38
398.82	560.38
399.044	579.38
399.268	609.38
399.492	683.38
399.717	686.38
399.941	712.38
400.165	733.38
400.389	739.38
400.613	652.38
400.837	594.38
401.062	586.38
401.286	581.38
401.51	577.38
401.734	542.38
401.958	568.38
402.182	576.38
402.406	590.38
402.63	582.38
402.854	596.38
403.078	582.38
403.302	618.38
403.526	596.38
403.75	604.38
403.974	600.38
404.198	583.38
404.422	604.38
404.645	599.38
404.869	599.38
405.093	632.38
405.317	655.38
405.541	678.38
405.765	643.38
405.988	606.38
406.212	607.38
406.436	622.38
406.66	644.38
406.883	632.38
407.107	644.38
407.331	685.38
407.555	780.38
407.778	777.38
408.002	713.38
408.226	654.38
408.449	665.38
408.673	674.38
408.896	679.38
409.12	688.38
409.344	660.38
409.567	623.38
409.791	604.38
410.014	599.38
410.238	598.38
410.461	605.38
410.685	598.38
410.908	606.38
411.132	629.38
411.355	642.38
411.578	633.38
411.802	611.38
412.025	584.38
412.249	580.38
412.472	612.38
412.695	628.38
412.919	627.38
413.142	573.38
413.365	559.38
413.589	564.38
413.812	570.38
414.035	563.38
414.258	553.38
414.482	543.38
414.705	546.38
414.928	554.38
415.151	540.38
415.374	534.38
415.597	547.38
415.821	559.38
416.044	562.38
416.267	576.38
416.49	532.38
416.713	530.38
416.936	551.38
417.159	540.38
417.382	545.38
417.605	563.38
417.828	575.38
418.051	589.38
418.274	571.38
418.497	567.38
418.72	557.38
418.943	557.38
419.166	579.38
419.389	604.38
419.611	590.38
419.834	591.38
420.057	588.38
420.28	596.38
420.503	577.38
420.726	574.38
420.948	600.38
421.171	614.38
421.394	616.38
421.617	590.38
421.839	599.38
422.062	566.38
422.285	596.38
422.507	620.38
422.73	674.38
422.953	678.38
423.175	603.38
423.398	577.38
423.621	600.38
423.843	639.38
424.066	618.38
424.288	616.38
424.511	627.38
424.733	666.38
424.956	727.38
425.178	715.38
425.401	699.38
425.623	698.38
425.846	638.38
426.068	590.38
426.291	590.38
426.513	570.38
426.735	604.38
426.958	592.38
427.18	687.38
427.402	785.38
427.625	862.38
427.847	768.38
428.069	664.38
428.292	597.38
428.514	556.38
428.736	538.38
428.958	553.38
429.181	533.38
429.403	562.38
429.625	534.38
429.847	576.38
430.069	618.38
430.292	623.38
430.514	534.38
430.736	540.38
430.958	541.38
431.18	527.38
431.402	513.38
431.624	516.38
431.846	510.38
432.068	526.38
432.29	532.38
432.512	517.38
432.734	545.38
432.956	528.38
433.178	549.38
433.4	547.38
433.622	546.38
433.844	537.38
434.066	520.38
434.287	512.38
434.509	533.38
434.731	536.38
434.953	565.38
435.175	567.38
435.397	590.38
435.618	581.38
435.84	630.38
436.062	710.38
436.284	731.38
436.505	614.38
436.727	575.38
436.949	538.38
437.17	556.38
437.392	563.38
437.614	548.38
437.835	561.38
438.057	622.38
438.278	711.38
438.5	734.38
438.721	781.38
438.943	762.38
439.165	615.38
439.386	582.38
439.608	580.38
439.829	591.38
440.05	606.38
440.272	626.38
440.493	592.38
440.715	588.38
440.936	571.38
441.158	568.38
441.379	558.38
441.6	570.38
441.822	597.38
442.043	610.38
442.264	676.38
442.486	726.38
442.707	640.38
442.928	612.38
443.149	591.38
443.371	617.38
443.592	663.38
443.813	729.38
444.034	808.38
444.255	679.38
444.476	649.38
444.698	631.38
444.919	635.38
445.14	734.38
445.361	676.38
445.582	630.38
445.803	678.38
446.024	774.38
446.245	754.38
446.466	695.38
446.687	612.38
446.908	556.38
447.129	534.38
447.35	544.38
447.571	536.38
447.792	525.38
448.013	540.38
448.234	544.38
448.455	564.38
448.675	648.38
448.896	778.38
449.117	676.38
449.338	617.38
449.559	704.38
449.779	822.38
450	661.38
450.221	568.38
450.442	522.38
450.662	516.38
450.883	520.38
451.104	521.38
451.324	496.38
451.545	480.38
451.766	499.38
451.986	475.38
452.207	456.38
452.428	477.38
452.648	487.38
452.869	471.38
453.089	470.38
453.31	491.38
453.53	468.38
453.751	487.38
453.971	473.38
454.192	487.38
454.412	486.38
454.633	464.38
454.853	480.38
455.073	455.38
455.294	488.38
455.514	540.38
455.734	532.38
455.955	482.38
456.175	479.38
456.395	442.38
456.616	459.38
456.836	448.38
457.056	450.38
457.276	431.38
457.497	452.38
457.717	446.38
457.937	466.38
458.157	453.38
458.377	447.38
458.598	490.38
458.818	528.38
459.038	570.38
459.258	623.38
459.478	555.38
459.698	540.38
459.918	539.38
460.138	527.38
460.358	570.38
460.578	550.38
460.798	560.38
461.018	548.38
461.238	554.38
461.458	567.38
461.678	544.38
461.898	547.38
462.118	564.38
462.338	579.38
462.558	604.38
462.777	587.38
462.997	622.38
463.217	638.38
463.437	640.38
463.657	611.38
463.876	601.38
464.096	622.38
464.316	611.38
464.536	615.38
464.755	612.38
464.975	584.38
465.195	585.38
465.414	628.38
465.634	546.38
465.854	519.38
466.073	526.38
466.293	518.38
466.512	494.38
466.732	504.38
466.951	485.38
467.171	494.38
467.391	496.38
467.61	492.38
467.829	505.38
468.049	500.38
468.268	488.38
468.488	504.38
468.707	490.38
468.927	500.38
469.146	476.38
469.365	494.38
469.585	482.38
469.804	494.38
470.023	506.38
470.243	501.38
470.462	511.38
470.681	526.38
470.901	528.38
471.12	504.38
471.339	491.38
471.558	497.38
471.777	494.38
471.997	517.38
472.216	501.38
472.435	512.38
472.654	502.38
472.873	467.38
473.092	476.38
473.311	479.38
473.53	484.38
473.749	494.38
473.968	526.38
474.187	611.38
474.406	633.38
474.625	541.38
474.844	503.38
475.063	506.38
475.282	502.38
475.501	509.38
475.72	510.38
475.939	503.38
476.158	520.38
476.377	518.38
476.596	499.38
476.814	509.38
477.033	526.38
477.252	518.38
477.471	536.38
477.69	532.38
477.908	533.38
478.127	569.38
478.346	554.38
478.564	562.38
478.783	562.38
479.002	591.38
479.22	596.38
479.439	604.38
479.658	602.38
479.876	605.38
480.095	616.38
480.313	628.38
480.532	628.38
480.751	623.38
480.969	602.38
481.188	640.38
481.406	690.38
481.624	620.38
481.843	578.38
482.061	592.38
482.28	558.38
482.498	575.38
482.717	572.38
482.935	578.38
483.153	565.38
483.372	590.38
483.59	558.38
483.808	560.38
484.027	562.38
484.245	591.38
484.463	587.38
484.681	584.38
484.9	586.38
485.118	607.38
485.336	584.38
485.554	592.38
485.772	585.38
485.99	584.38
486.209	596.38
486.427	579.38
486.645	597.38
486.863	614.38
487.081	606.38
487.299	618.38
487.517	607.38
487.735	610.38
487.953	619.38
488.171	622.38
488.389	634.38
488.607	610.38
488.825	623.38
489.043	610.38
489.261	615.38
489.479	635.38
489.696	619.38
489.914	605.38
490.132	636.38
490.35	636.38
490.568	649.38
490.786	656.38
491.003	672.38
491.221	681.38
491.439	656.38
491.657	674.38
491.874	668.38
492.092	693.38
492.31	698.38
492.527	719.38
492.745	718.38
492.963	696.38
493.18	715.38
493.398	721.38
493.615	716.38
493.833	718.38
494.05	711.38
494.268	722.38
494.485	721.38
494.703	702.38
494.92	707.38
495.138	730.38
495.355	723.38
495.573	716.38
495.79	708.38
496.008	698.38
496.225	716.38
496.442	729.38
496.66	741.38
496.877	731.38
497.094	732.38
497.312	754.38
497.529	746.38
497.746	767.38
497.963	798.38
498.181	794.38
498.398	806.38
498.615	825.38
498.832	840.38
499.049	900.38
499.267	950.38
499.484	962.38
499.701	1062.38
499.918	1067.38
500.135	1170.38
500.352	1270.38
500.569	1293.38
500.786	1285.38
501.003	1220.38
501.22	1176.38
501.437	1108.38
501.654	1045.38
