Data from 1973.PennyLincolnUp.Lamp.En5.5.200Scan.071719.P1.Changed Mount._HRD10591_15-45-56-853.txt Node
Date: Thu Jul 18 15:45:56 EDT 2019
User: cochatt
Spectrometer: HR+D1059
Trigger mode: 1
Integration Time (sec): 1.000000E-1
Scans to average: 1
Electric dark correction enabled: true
Nonlinearity correction enabled: false
Boxcar width: 0
XAxis mode: Wavelengths
Number of Pixels in Spectrum: 2048
>>>>>Begin Spectral Data<<<<<
223.165	-18.88
223.4	-18.88
223.635	-18.88
223.869	-13.88
224.104	-20.88
224.338	-11.88
224.573	-18.88
224.808	-7.88
225.042	-5.88
225.277	3.12
225.511	6.12
225.746	5.12
225.98	9.12
226.215	8.12
226.449	10.12
226.683	16.12
226.918	18.12
227.152	22.12
227.387	31.12
227.621	50.12
227.856	57.12
228.09	56.12
228.324	61.12
228.559	63.12
228.793	65.12
229.027	92.12
229.262	106.12
229.496	116.12
229.73	130.12
229.964	144.12
230.199	117.12
230.433	115.12
230.667	119.12
230.901	92.12
231.136	101.12
231.37	110.12
231.604	104.12
231.838	120.12
232.072	114.12
232.306	108.12
232.541	122.12
232.775	118.12
233.009	124.12
233.243	121.12
233.477	103.12
233.711	123.12
233.945	118.12
234.179	129.12
234.413	144.12
234.647	130.12
234.881	125.12
235.115	113.12
235.349	129.12
235.583	129.12
235.817	127.12
236.051	128.12
236.285	127.12
236.519	118.12
236.753	119.12
236.987	132.12
237.221	184.12
237.455	224.12
237.689	166.12
237.922	140.12
238.156	115.12
238.39	140.12
238.624	137.12
238.858	126.12
239.091	137.12
239.325	127.12
239.559	133.12
239.793	144.12
240.027	147.12
240.26	134.12
240.494	160.12
240.728	148.12
240.961	151.12
241.195	148.12
241.429	132.12
241.662	141.12
241.896	130.12
242.13	142.12
242.363	134.12
242.597	144.12
242.83	145.12
243.064	146.12
243.298	150.12
243.531	150.12
243.765	133.12
243.998	151.12
244.232	157.12
244.465	144.12
244.699	154.12
244.932	168.12
245.166	160.12
245.399	149.12
245.633	147.12
245.866	158.12
246.099	151.12
246.333	168.12
246.566	169.12
246.8	165.12
247.033	164.12
247.266	144.12
247.5	163.12
247.733	167.12
247.966	189.12
248.2	201.12
248.433	179.12
248.666	180.12
248.899	188.12
249.133	198.12
249.366	207.12
249.599	206.12
249.832	172.12
250.066	209.12
250.299	207.12
250.532	195.12
250.765	208.12
250.998	221.12
251.231	244.12
251.465	220.12
251.698	202.12
251.931	203.12
252.164	199.12
252.397	212.12
252.63	195.12
252.863	211.12
253.096	226.12
253.329	234.12
253.562	228.12
253.795	227.12
254.028	239.12
254.261	209.12
254.494	224.12
254.727	261.12
254.96	268.12
255.193	272.12
255.426	261.12
255.659	247.12
255.892	243.12
256.124	244.12
256.357	227.12
256.59	236.12
256.823	220.12
257.056	220.12
257.289	207.12
257.521	215.12
257.754	211.12
257.987	210.12
258.22	219.12
258.452	229.12
258.685	230.12
258.918	197.12
259.151	215.12
259.383	240.12
259.616	222.12
259.849	236.12
260.081	250.12
260.314	265.12
260.547	258.12
260.779	248.12
261.012	236.12
261.244	246.12
261.477	233.12
261.71	238.12
261.942	234.12
262.175	225.12
262.407	226.12
262.64	228.12
262.872	222.12
263.105	246.12
263.337	224.12
263.57	222.12
263.802	228.12
264.035	225.12
264.267	220.12
264.499	218.12
264.732	223.12
264.964	231.12
265.197	229.12
265.429	232.12
265.661	224.12
265.894	237.12
266.126	231.12
266.358	231.12
266.591	255.12
266.823	258.12
267.055	254.12
267.287	246.12
267.52	239.12
267.752	255.12
267.984	249.12
268.216	237.12
268.448	250.12
268.681	258.12
268.913	278.12
269.145	288.12
269.377	294.12
269.609	303.12
269.841	277.12
270.073	285.12
270.306	299.12
270.538	325.12
270.77	310.12
271.002	299.12
271.234	299.12
271.466	320.12
271.698	316.12
271.93	308.12
272.162	340.12
272.394	319.12
272.626	316.12
272.858	299.12
273.09	289.12
273.322	312.12
273.553	297.12
273.785	290.12
274.017	273.12
274.249	274.12
274.481	288.12
274.713	295.12
274.945	300.12
275.176	263.12
275.408	295.12
275.64	292.12
275.872	291.12
276.104	298.12
276.335	286.12
276.567	306.12
276.799	324.12
277.031	319.12
277.262	328.12
277.494	327.12
277.726	317.12
277.957	312.12
278.189	317.12
278.421	306.12
278.652	305.12
278.884	298.12
279.115	296.12
279.347	291.12
279.579	278.12
279.81	271.12
280.042	290.12
280.273	300.12
280.505	302.12
280.736	292.12
280.968	296.12
281.199	295.12
281.431	317.12
281.662	286.12
281.894	327.12
282.125	292.12
282.356	324.12
282.588	333.12
282.819	328.12
283.051	314.12
283.282	300.12
283.513	299.12
283.745	307.12
283.976	314.12
284.207	315.12
284.439	302.12
284.67	304.12
284.901	335.12
285.132	319.12
285.364	313.12
285.595	317.12
285.826	313.12
286.057	323.12
286.288	302.12
286.52	318.12
286.751	322.12
286.982	316.12
287.213	313.12
287.444	321.12
287.675	322.12
287.906	337.12
288.138	339.12
288.369	330.12
288.6	344.12
288.831	333.12
289.062	327.12
289.293	328.12
289.524	338.12
289.755	328.12
289.986	343.12
290.217	358.12
290.448	327.12
290.679	339.12
290.91	339.12
291.141	342.12
291.371	336.12
291.602	327.12
291.833	333.12
292.064	340.12
292.295	334.12
292.526	334.12
292.757	322.12
292.987	333.12
293.218	330.12
293.449	348.12
293.68	325.12
293.91	324.12
294.141	340.12
294.372	334.12
294.603	346.12
294.833	338.12
295.064	329.12
295.295	351.12
295.525	326.12
295.756	343.12
295.987	337.12
296.217	365.12
296.448	357.12
296.679	356.12
296.909	346.12
297.14	329.12
297.37	342.12
297.601	340.12
297.831	344.12
298.062	354.12
298.292	344.12
298.523	337.12
298.753	339.12
298.984	371.12
299.214	354.12
299.445	380.12
299.675	349.12
299.905	338.12
300.136	335.12
300.366	346.12
300.597	350.12
300.827	353.12
301.057	358.12
301.288	381.12
301.518	380.12
301.748	377.12
301.979	366.12
302.209	351.12
302.439	383.12
302.669	369.12
302.9	375.12
303.13	373.12
303.36	379.12
303.59	353.12
303.82	374.12
304.051	390.12
304.281	350.12
304.511	366.12
304.741	377.12
304.971	378.12
305.201	353.12
305.431	380.12
305.661	365.12
305.891	382.12
306.121	375.12
306.352	360.12
306.582	373.12
306.812	374.12
307.042	354.12
307.272	375.12
307.502	364.12
307.731	380.12
307.961	370.12
308.191	380.12
308.421	387.12
308.651	375.12
308.881	371.12
309.111	375.12
309.341	377.12
309.571	404.12
309.8	381.12
310.03	395.12
310.26	397.12
310.49	418.12
310.72	415.12
310.949	432.12
311.179	413.12
311.409	395.12
311.639	385.12
311.868	385.12
312.098	408.12
312.328	434.12
312.557	413.12
312.787	416.12
313.017	423.12
313.246	411.12
313.476	405.12
313.706	420.12
313.935	396.12
314.165	395.12
314.394	415.12
314.624	422.12
314.853	415.12
315.083	415.12
315.312	425.12
315.542	407.12
315.771	414.12
316.001	396.12
316.23	419.12
316.46	404.12
316.689	420.12
316.919	424.12
317.148	422.12
317.377	452.12
317.607	459.12
317.836	413.12
318.065	410.12
318.295	428.12
318.524	388.12
318.753	410.12
318.983	422.12
319.212	415.12
319.441	408.12
319.67	420.12
319.9	422.12
320.129	422.12
320.358	394.12
320.587	398.12
320.816	395.12
321.046	436.12
321.275	405.12
321.504	425.12
321.733	422.12
321.962	434.12
322.191	418.12
322.42	446.12
322.649	466.12
322.878	469.12
323.108	464.12
323.337	482.12
323.566	485.12
323.795	487.12
324.024	527.12
324.253	601.12
324.482	829.12
324.71	1150.12
324.939	1591.12
325.168	1423.12
325.397	799.12
325.626	577.12
325.855	505.12
326.084	506.12
326.313	511.12
326.542	504.12
326.77	531.12
326.999	589.12
327.228	726.12
327.457	1058.12
327.686	1233.12
327.914	873.12
328.143	634.12
328.372	564.12
328.6	559.12
328.829	541.12
329.058	551.12
329.287	535.12
329.515	513.12
329.744	481.12
329.972	511.12
330.201	532.12
330.43	563.12
330.658	554.12
330.887	564.12
331.115	577.12
331.344	523.12
331.572	526.12
331.801	530.12
332.03	538.12
332.258	482.12
332.486	529.12
332.715	522.12
332.943	524.12
333.172	533.12
333.4	518.12
333.629	533.12
333.857	549.12
334.085	546.12
334.314	566.12
334.542	556.12
334.771	586.12
334.999	566.12
335.227	530.12
335.455	521.12
335.684	540.12
335.912	496.12
336.14	489.12
336.369	496.12
336.597	503.12
336.825	495.12
337.053	520.12
337.281	475.12
337.51	488.12
337.738	484.12
337.966	472.12
338.194	480.12
338.422	485.12
338.65	470.12
338.878	479.12
339.106	487.12
339.334	476.12
339.562	476.12
339.79	443.12
340.018	453.12
340.246	489.12
340.474	483.12
340.702	464.12
340.93	451.12
341.158	461.12
341.386	478.12
341.614	462.12
341.842	489.12
342.07	463.12
342.298	447.12
342.526	470.12
342.754	437.12
342.981	455.12
343.209	453.12
343.437	473.12
343.665	475.12
343.893	501.12
344.12	526.12
344.348	502.12
344.576	487.12
344.804	496.12
345.031	486.12
345.259	470.12
345.487	479.12
345.714	459.12
345.942	443.12
346.17	475.12
346.397	436.12
346.625	475.12
346.853	444.12
347.08	443.12
347.308	452.12
347.535	493.12
347.763	456.12
347.99	462.12
348.218	450.12
348.445	472.12
348.673	458.12
348.9	458.12
349.128	452.12
349.355	434.12
349.583	430.12
349.81	423.12
350.037	431.12
350.265	436.12
350.492	453.12
350.72	431.12
350.947	443.12
351.174	441.12
351.402	458.12
351.629	447.12
351.856	449.12
352.083	435.12
352.311	456.12
352.538	462.12
352.765	464.12
352.992	448.12
353.22	462.12
353.447	428.12
353.674	434.12
353.901	429.12
354.128	422.12
354.355	403.12
354.583	402.12
354.81	442.12
355.037	426.12
355.264	435.12
355.491	424.12
355.718	438.12
355.945	416.12
356.172	446.12
356.399	419.12
356.626	451.12
356.853	436.12
357.08	400.12
357.307	430.12
357.534	404.12
357.761	419.12
357.988	460.12
358.215	425.12
358.441	446.12
358.668	414.12
358.895	409.12
359.122	448.12
359.349	438.12
359.576	444.12
359.802	441.12
360.029	443.12
360.256	477.12
360.483	448.12
360.709	439.12
360.936	425.12
361.163	429.12
361.39	478.12
361.616	450.12
361.843	439.12
362.07	445.12
362.296	429.12
362.523	432.12
362.749	453.12
362.976	432.12
363.203	440.12
363.429	428.12
363.656	436.12
363.882	442.12
364.109	414.12
364.335	436.12
364.562	406.12
364.788	408.12
365.015	415.12
365.241	429.12
365.468	437.12
365.694	431.12
365.92	434.12
366.147	434.12
366.373	424.12
366.599	428.12
366.826	432.12
367.052	442.12
367.278	433.12
367.505	440.12
367.731	434.12
367.957	416.12
368.184	431.12
368.41	436.12
368.636	429.12
368.862	452.12
369.089	436.12
369.315	431.12
369.541	421.12
369.767	424.12
369.993	425.12
370.219	446.12
370.445	451.12
370.672	437.12
370.898	418.12
371.124	410.12
371.35	435.12
371.576	450.12
371.802	434.12
372.028	426.12
372.254	440.12
372.48	438.12
372.706	440.12
372.932	442.12
373.158	447.12
373.384	444.12
373.61	453.12
373.835	452.12
374.061	438.12
374.287	435.12
374.513	444.12
374.739	452.12
374.965	465.12
375.191	463.12
375.416	462.12
375.642	472.12
375.868	446.12
376.094	436.12
376.319	466.12
376.545	435.12
376.771	456.12
376.997	434.12
377.222	416.12
377.448	432.12
377.674	435.12
377.899	442.12
378.125	444.12
378.35	426.12
378.576	432.12
378.802	447.12
379.027	435.12
379.253	418.12
379.478	427.12
379.704	435.12
379.929	434.12
380.155	430.12
380.38	451.12
380.606	443.12
380.831	457.12
381.057	457.12
381.282	445.12
381.507	427.12
381.733	446.12
381.958	430.12
382.184	435.12
382.409	448.12
382.634	443.12
382.86	440.12
383.085	467.12
383.31	472.12
383.535	451.12
383.761	467.12
383.986	479.12
384.211	469.12
384.436	494.12
384.662	489.12
384.887	478.12
385.112	490.12
385.337	470.12
385.562	476.12
385.787	484.12
386.013	479.12
386.238	498.12
386.463	511.12
386.688	522.12
386.913	489.12
387.138	491.12
387.363	503.12
387.588	493.12
387.813	492.12
388.038	504.12
388.263	506.12
388.488	482.12
388.713	475.12
388.938	483.12
389.163	492.12
389.387	491.12
389.612	491.12
389.837	489.12
390.062	472.12
390.287	493.12
390.512	494.12
390.736	468.12
390.961	501.12
391.186	522.12
391.411	521.12
391.636	526.12
391.86	525.12
392.085	524.12
392.31	520.12
392.534	530.12
392.759	496.12
392.984	496.12
393.208	503.12
393.433	503.12
393.658	503.12
393.882	525.12
394.107	483.12
394.331	502.12
394.556	510.12
394.78	515.12
395.005	539.12
395.229	507.12
395.454	514.12
395.678	557.12
395.903	514.12
396.127	551.12
396.352	553.12
396.576	540.12
396.801	494.12
397.025	503.12
397.249	500.12
397.474	523.12
397.698	534.12
397.922	569.12
398.147	570.12
398.371	573.12
398.595	556.12
398.82	581.12
399.044	605.12
399.268	632.12
399.492	684.12
399.717	736.12
399.941	780.12
400.165	752.12
400.389	738.12
400.613	679.12
400.837	628.12
401.062	594.12
401.286	578.12
401.51	579.12
401.734	582.12
401.958	588.12
402.182	582.12
402.406	604.12
402.63	621.12
402.854	607.12
403.078	580.12
403.302	605.12
403.526	604.12
403.75	600.12
403.974	615.12
404.198	621.12
404.422	635.12
404.645	621.12
404.869	628.12
405.093	666.12
405.317	677.12
405.541	724.12
405.765	668.12
405.988	644.12
406.212	653.12
406.436	646.12
406.66	644.12
406.883	663.12
407.107	682.12
407.331	731.12
407.555	790.12
407.778	802.12
408.002	722.12
408.226	698.12
408.449	690.12
408.673	677.12
408.896	679.12
409.12	725.12
409.344	688.12
409.567	637.12
409.791	617.12
410.014	616.12
410.238	617.12
410.461	610.12
410.685	601.12
410.908	615.12
411.132	642.12
411.355	650.12
411.578	626.12
411.802	614.12
412.025	606.12
412.249	598.12
412.472	630.12
412.695	677.12
412.919	644.12
413.142	597.12
413.365	576.12
413.589	593.12
413.812	592.12
414.035	588.12
414.258	570.12
414.482	569.12
414.705	562.12
414.928	593.12
415.151	579.12
415.374	577.12
415.597	568.12
415.821	551.12
416.044	576.12
416.267	574.12
416.49	583.12
416.713	570.12
416.936	590.12
417.159	551.12
417.382	566.12
417.605	578.12
417.828	588.12
418.051	593.12
418.274	575.12
418.497	578.12
418.72	607.12
418.943	575.12
419.166	594.12
419.389	649.12
419.611	632.12
419.834	611.12
420.057	607.12
420.28	605.12
420.503	607.12
420.726	595.12
420.948	630.12
421.171	610.12
421.394	650.12
421.617	602.12
421.839	607.12
422.062	592.12
422.285	596.12
422.507	633.12
422.73	696.12
422.953	671.12
423.175	631.12
423.398	615.12
423.621	633.12
423.843	636.12
424.066	616.12
424.288	645.12
424.511	647.12
424.733	692.12
424.956	765.12
425.178	726.12
425.401	701.12
425.623	745.12
425.846	644.12
426.068	615.12
426.291	598.12
426.513	608.12
426.735	595.12
426.958	658.12
427.18	725.12
427.402	806.12
427.625	876.12
427.847	780.12
428.069	674.12
428.292	630.12
428.514	568.12
428.736	591.12
428.958	568.12
429.181	565.12
429.403	538.12
429.625	568.12
429.847	611.12
430.069	640.12
430.292	650.12
430.514	580.12
430.736	564.12
430.958	544.12
431.18	557.12
431.402	551.12
431.624	503.12
431.846	528.12
432.068	544.12
432.29	561.12
432.512	528.12
432.734	558.12
432.956	560.12
433.178	547.12
433.4	556.12
433.622	532.12
433.844	548.12
434.066	540.12
434.287	524.12
434.509	565.12
434.731	578.12
434.953	575.12
435.175	619.12
435.397	605.12
435.618	601.12
435.84	632.12
436.062	680.12
436.284	776.12
436.505	661.12
436.727	608.12
436.949	558.12
437.17	565.12
437.392	562.12
437.614	571.12
437.835	603.12
438.057	662.12
438.278	732.12
438.5	757.12
438.721	809.12
438.943	793.12
439.165	647.12
439.386	615.12
439.608	606.12
439.829	593.12
440.05	607.12
440.272	650.12
440.493	624.12
440.715	590.12
440.936	573.12
441.158	575.12
441.379	575.12
441.6	603.12
441.822	588.12
442.043	622.12
442.264	706.12
442.486	737.12
442.707	661.12
442.928	630.12
443.149	613.12
443.371	632.12
443.592	698.12
443.813	741.12
444.034	803.12
444.255	723.12
444.476	660.12
444.698	667.12
444.919	683.12
445.14	733.12
445.361	688.12
445.582	674.12
445.803	713.12
446.024	764.12
446.245	770.12
446.466	697.12
446.687	643.12
446.908	582.12
447.129	587.12
447.35	529.12
447.571	559.12
447.792	545.12
448.013	553.12
448.234	557.12
448.455	602.12
448.675	683.12
448.896	809.12
449.117	696.12
449.338	634.12
449.559	747.12
449.779	839.12
450	662.12
450.221	581.12
450.442	562.12
450.662	540.12
450.883	537.12
451.104	508.12
451.324	514.12
451.545	512.12
451.766	524.12
451.986	497.12
452.207	494.12
452.428	472.12
452.648	490.12
452.869	471.12
453.089	503.12
453.31	516.12
453.53	500.12
453.751	503.12
453.971	503.12
454.192	490.12
454.412	495.12
454.633	479.12
454.853	498.12
455.073	467.12
455.294	510.12
455.514	551.12
455.734	553.12
455.955	494.12
456.175	466.12
456.395	475.12
456.616	480.12
456.836	473.12
457.056	457.12
457.276	452.12
457.497	461.12
457.717	466.12
457.937	479.12
458.157	496.12
458.377	478.12
458.598	514.12
458.818	529.12
459.038	594.12
459.258	636.12
459.478	558.12
459.698	547.12
459.918	536.12
460.138	548.12
460.358	578.12
460.578	572.12
460.798	567.12
461.018	582.12
461.238	588.12
461.458	581.12
461.678	559.12
461.898	557.12
462.118	585.12
462.338	596.12
462.558	600.12
462.777	649.12
462.997	652.12
463.217	678.12
463.437	673.12
463.657	656.12
463.876	656.12
464.096	629.12
464.316	616.12
464.536	651.12
464.755	616.12
464.975	596.12
465.195	630.12
465.414	655.12
465.634	593.12
465.854	569.12
466.073	554.12
466.293	543.12
466.512	532.12
466.732	530.12
466.951	509.12
467.171	524.12
467.391	519.12
467.61	526.12
467.829	523.12
468.049	525.12
468.268	511.12
468.488	521.12
468.707	499.12
468.927	518.12
469.146	508.12
469.365	495.12
469.585	481.12
469.804	512.12
470.023	508.12
470.243	503.12
470.462	532.12
470.681	537.12
470.901	547.12
471.12	516.12
471.339	514.12
471.558	515.12
471.777	517.12
471.997	520.12
472.216	531.12
472.435	536.12
472.654	524.12
472.873	504.12
473.092	516.12
473.311	518.12
473.53	513.12
473.749	543.12
473.968	532.12
474.187	628.12
474.406	652.12
474.625	555.12
474.844	550.12
475.063	523.12
475.282	516.12
475.501	509.12
475.72	515.12
475.939	524.12
476.158	548.12
476.377	520.12
476.596	536.12
476.814	558.12
477.033	527.12
477.252	538.12
477.471	555.12
477.69	568.12
477.908	546.12
478.127	568.12
478.346	572.12
478.564	594.12
478.783	585.12
479.002	591.12
479.22	593.12
479.439	599.12
479.658	608.12
479.876	636.12
480.095	640.12
480.313	673.12
480.532	658.12
480.751	640.12
480.969	628.12
481.188	667.12
481.406	700.12
481.624	654.12
481.843	623.12
482.061	612.12
482.28	580.12
482.498	612.12
482.717	602.12
482.935	593.12
483.153	592.12
483.372	593.12
483.59	602.12
483.808	583.12
484.027	594.12
484.245	600.12
484.463	570.12
484.681	593.12
484.9	590.12
485.118	626.12
485.336	612.12
485.554	639.12
485.772	599.12
485.99	619.12
486.209	618.12
486.427	629.12
486.645	621.12
486.863	632.12
487.081	665.12
487.299	620.12
487.517	622.12
487.735	636.12
487.953	617.12
488.171	646.12
488.389	638.12
488.607	617.12
488.825	628.12
489.043	658.12
489.261	640.12
489.479	642.12
489.696	660.12
489.914	642.12
490.132	676.12
490.35	671.12
490.568	661.12
490.786	689.12
491.003	687.12
491.221	694.12
491.439	699.12
491.657	709.12
491.874	716.12
492.092	703.12
492.31	716.12
492.527	718.12
492.745	722.12
492.963	746.12
493.18	742.12
493.398	743.12
493.615	728.12
493.833	739.12
494.05	744.12
494.268	755.12
494.485	783.12
494.703	739.12
494.92	736.12
495.138	740.12
495.355	747.12
495.573	748.12
495.79	735.12
496.008	752.12
496.225	755.12
496.442	790.12
496.66	731.12
496.877	744.12
497.094	762.12
497.312	755.12
497.529	785.12
497.746	798.12
497.963	816.12
498.181	835.12
498.398	841.12
498.615	866.12
498.832	915.12
499.049	940.12
499.267	963.12
499.484	1034.12
499.701	1073.12
499.918	1127.12
500.135	1225.12
500.352	1293.12
500.569	1350.12
500.786	1366.12
501.003	1304.12
501.22	1194.12
501.437	1175.12
501.654	1057.12
