Data from 1973.PennyLincolnUp.Lamp.En5.5.200Scan.071719.P1.Changed Mount._HRD10591_15-44-37-852.txt Node
Date: Thu Jul 18 15:44:37 EDT 2019
User: cochatt
Spectrometer: HR+D1059
Trigger mode: 1
Integration Time (sec): 1.000000E-1
Scans to average: 1
Electric dark correction enabled: true
Nonlinearity correction enabled: false
Boxcar width: 0
XAxis mode: Wavelengths
Number of Pixels in Spectrum: 2048
>>>>>Begin Spectral Data<<<<<
223.165	-10.31
223.4	-10.31
223.635	-10.31
223.869	-24.31
224.104	-21.31
224.338	-7.31
224.573	-25.31
224.808	-5.31
225.042	-8.31
225.277	-13.31
225.511	-7.31
225.746	6.69
225.98	15.69
226.215	5.69
226.449	8.69
226.683	25.69
226.918	29.69
227.152	30.69
227.387	38.69
227.621	39.69
227.856	39.69
228.09	36.69
228.324	51.69
228.559	50.69
228.793	75.69
229.027	94.69
229.262	106.69
229.496	110.69
229.73	123.69
229.964	133.69
230.199	126.69
230.433	110.69
230.667	114.69
230.901	115.69
231.136	115.69
231.37	117.69
231.604	122.69
231.838	120.69
232.072	126.69
232.306	121.69
232.541	120.69
232.775	111.69
233.009	112.69
233.243	105.69
233.477	122.69
233.711	110.69
233.945	114.69
234.179	118.69
234.413	125.69
234.647	138.69
234.881	109.69
235.115	120.69
235.349	126.69
235.583	110.69
235.817	122.69
236.051	134.69
236.285	128.69
236.519	138.69
236.753	135.69
236.987	142.69
237.221	162.69
237.455	191.69
237.689	162.69
237.922	134.69
238.156	139.69
238.39	109.69
238.624	134.69
238.858	115.69
239.091	131.69
239.325	121.69
239.559	126.69
239.793	124.69
240.027	132.69
240.26	131.69
240.494	170.69
240.728	150.69
240.961	146.69
241.195	130.69
241.429	130.69
241.662	140.69
241.896	129.69
242.13	142.69
242.363	139.69
242.597	134.69
242.83	148.69
243.064	158.69
243.298	136.69
243.531	130.69
243.765	141.69
243.998	152.69
244.232	143.69
244.465	142.69
244.699	127.69
244.932	150.69
245.166	148.69
245.399	147.69
245.633	154.69
245.866	148.69
246.099	158.69
246.333	163.69
246.566	154.69
246.8	163.69
247.033	167.69
247.266	155.69
247.5	173.69
247.733	173.69
247.966	174.69
248.2	173.69
248.433	173.69
248.666	178.69
248.899	187.69
249.133	207.69
249.366	201.69
249.599	190.69
249.832	174.69
250.066	187.69
250.299	171.69
250.532	196.69
250.765	216.69
250.998	209.69
251.231	235.69
251.465	214.69
251.698	205.69
251.931	190.69
252.164	196.69
252.397	184.69
252.63	187.69
252.863	213.69
253.096	207.69
253.329	223.69
253.562	213.69
253.795	219.69
254.028	226.69
254.261	210.69
254.494	213.69
254.727	235.69
254.96	261.69
255.193	265.69
255.426	236.69
255.659	244.69
255.892	233.69
256.124	230.69
256.357	224.69
256.59	223.69
256.823	214.69
257.056	215.69
257.289	219.69
257.521	214.69
257.754	203.69
257.987	196.69
258.22	209.69
258.452	210.69
258.685	207.69
258.918	207.69
259.151	204.69
259.383	211.69
259.616	234.69
259.849	223.69
260.081	240.69
260.314	249.69
260.547	243.69
260.779	228.69
261.012	232.69
261.244	226.69
261.477	225.69
261.71	242.69
261.942	227.69
262.175	234.69
262.407	231.69
262.64	215.69
262.872	212.69
263.105	204.69
263.337	229.69
263.57	214.69
263.802	227.69
264.035	213.69
264.267	233.69
264.499	215.69
264.732	225.69
264.964	207.69
265.197	240.69
265.429	230.69
265.661	238.69
265.894	236.69
266.126	245.69
266.358	218.69
266.591	215.69
266.823	234.69
267.055	254.69
267.287	244.69
267.52	238.69
267.752	227.69
267.984	225.69
268.216	223.69
268.448	238.69
268.681	229.69
268.913	249.69
269.145	264.69
269.377	278.69
269.609	275.69
269.841	294.69
270.073	258.69
270.306	301.69
270.538	317.69
270.77	311.69
271.002	279.69
271.234	292.69
271.466	328.69
271.698	295.69
271.93	320.69
272.162	310.69
272.394	315.69
272.626	296.69
272.858	299.69
273.09	292.69
273.322	276.69
273.553	263.69
273.785	286.69
274.017	272.69
274.249	279.69
274.481	276.69
274.713	259.69
274.945	270.69
275.176	287.69
275.408	264.69
275.64	276.69
275.872	281.69
276.104	266.69
276.335	276.69
276.567	298.69
276.799	296.69
277.031	294.69
277.262	319.69
277.494	300.69
277.726	311.69
277.957	286.69
278.189	306.69
278.421	291.69
278.652	285.69
278.884	279.69
279.115	271.69
279.347	266.69
279.579	278.69
279.81	284.69
280.042	269.69
280.273	271.69
280.505	296.69
280.736	303.69
280.968	282.69
281.199	268.69
281.431	284.69
281.662	290.69
281.894	291.69
282.125	291.69
282.356	306.69
282.588	317.69
282.819	304.69
283.051	308.69
283.282	278.69
283.513	323.69
283.745	280.69
283.976	288.69
284.207	310.69
284.439	322.69
284.67	311.69
284.901	313.69
285.132	315.69
285.364	307.69
285.595	286.69
285.826	292.69
286.057	311.69
286.288	309.69
286.52	301.69
286.751	296.69
286.982	310.69
287.213	292.69
287.444	329.69
287.675	300.69
287.906	308.69
288.138	328.69
288.369	339.69
288.6	325.69
288.831	309.69
289.062	313.69
289.293	321.69
289.524	320.69
289.755	324.69
289.986	299.69
290.217	333.69
290.448	322.69
290.679	306.69
290.91	310.69
291.141	303.69
291.371	330.69
291.602	302.69
291.833	318.69
292.064	313.69
292.295	302.69
292.526	312.69
292.757	317.69
292.987	343.69
293.218	330.69
293.449	329.69
293.68	320.69
293.91	328.69
294.141	315.69
294.372	316.69
294.603	323.69
294.833	324.69
295.064	324.69
295.295	321.69
295.525	301.69
295.756	303.69
295.987	329.69
296.217	345.69
296.448	333.69
296.679	314.69
296.909	335.69
297.14	334.69
297.37	334.69
297.601	334.69
297.831	318.69
298.062	334.69
298.292	332.69
298.523	318.69
298.753	335.69
298.984	345.69
299.214	330.69
299.445	329.69
299.675	353.69
299.905	320.69
300.136	333.69
300.366	341.69
300.597	351.69
300.827	340.69
301.057	378.69
301.288	364.69
301.518	346.69
301.748	351.69
301.979	360.69
302.209	356.69
302.439	357.69
302.669	339.69
302.9	348.69
303.13	344.69
303.36	357.69
303.59	374.69
303.82	368.69
304.051	368.69
304.281	361.69
304.511	346.69
304.741	367.69
304.971	341.69
305.201	355.69
305.431	349.69
305.661	367.69
305.891	361.69
306.121	370.69
306.352	340.69
306.582	343.69
306.812	357.69
307.042	379.69
307.272	355.69
307.502	364.69
307.731	374.69
307.961	378.69
308.191	361.69
308.421	347.69
308.651	359.69
308.881	361.69
309.111	374.69
309.341	349.69
309.571	362.69
309.8	371.69
310.03	382.69
310.26	379.69
310.49	377.69
310.72	386.69
310.949	394.69
311.179	388.69
311.409	381.69
311.639	380.69
311.868	393.69
312.098	402.69
312.328	377.69
312.557	415.69
312.787	391.69
313.017	412.69
313.246	429.69
313.476	406.69
313.706	397.69
313.935	405.69
314.165	398.69
314.394	400.69
314.624	415.69
314.853	414.69
315.083	391.69
315.312	397.69
315.542	392.69
315.771	386.69
316.001	397.69
316.23	388.69
316.46	383.69
316.689	393.69
316.919	393.69
317.148	403.69
317.377	419.69
317.607	402.69
317.836	421.69
318.065	416.69
318.295	393.69
318.524	386.69
318.753	417.69
318.983	380.69
319.212	386.69
319.441	391.69
319.67	402.69
319.9	404.69
320.129	420.69
320.358	402.69
320.587	395.69
320.816	413.69
321.046	411.69
321.275	414.69
321.504	396.69
321.733	413.69
321.962	408.69
322.191	427.69
322.42	423.69
322.649	435.69
322.878	451.69
323.108	440.69
323.337	467.69
323.566	469.69
323.795	468.69
324.024	502.69
324.253	578.69
324.482	782.69
324.71	1091.69
324.939	1566.69
325.168	1344.69
325.397	754.69
325.626	554.69
325.855	475.69
326.084	455.69
326.313	459.69
326.542	486.69
326.77	508.69
326.999	562.69
327.228	723.69
327.457	990.69
327.686	1183.69
327.914	815.69
328.143	614.69
328.372	571.69
328.6	537.69
328.829	527.69
329.058	518.69
329.287	532.69
329.515	502.69
329.744	473.69
329.972	479.69
330.201	500.69
330.43	520.69
330.658	541.69
330.887	552.69
331.115	522.69
331.344	505.69
331.572	479.69
331.801	504.69
332.03	480.69
332.258	480.69
332.486	472.69
332.715	471.69
332.943	482.69
333.172	485.69
333.4	483.69
333.629	523.69
333.857	512.69
334.085	540.69
334.314	541.69
334.542	533.69
334.771	550.69
334.999	517.69
335.227	484.69
335.455	484.69
335.684	479.69
335.912	495.69
336.14	498.69
336.369	487.69
336.597	468.69
336.825	481.69
337.053	457.69
337.281	455.69
337.51	443.69
337.738	480.69
337.966	470.69
338.194	471.69
338.422	453.69
338.65	456.69
338.878	451.69
339.106	438.69
339.334	462.69
339.562	456.69
339.79	461.69
340.018	437.69
340.246	464.69
340.474	447.69
340.702	437.69
340.93	456.69
341.158	447.69
341.386	434.69
341.614	447.69
341.842	440.69
342.07	452.69
342.298	439.69
342.526	428.69
342.754	426.69
342.981	436.69
343.209	446.69
343.437	449.69
343.665	461.69
343.893	488.69
344.12	491.69
344.348	478.69
344.576	455.69
344.804	474.69
345.031	463.69
345.259	443.69
345.487	453.69
345.714	447.69
345.942	447.69
346.17	420.69
346.397	443.69
346.625	427.69
346.853	430.69
347.08	433.69
347.308	441.69
347.535	430.69
347.763	421.69
347.99	428.69
348.218	427.69
348.445	407.69
348.673	406.69
348.9	416.69
349.128	410.69
349.355	416.69
349.583	414.69
349.81	411.69
350.037	412.69
350.265	414.69
350.492	437.69
350.72	421.69
350.947	430.69
351.174	425.69
351.402	431.69
351.629	439.69
351.856	420.69
352.083	437.69
352.311	443.69
352.538	422.69
352.765	418.69
352.992	410.69
353.22	410.69
353.447	420.69
353.674	408.69
353.901	418.69
354.128	410.69
354.355	415.69
354.583	404.69
354.81	414.69
355.037	413.69
355.264	396.69
355.491	402.69
355.718	388.69
355.945	405.69
356.172	384.69
356.399	400.69
356.626	405.69
356.853	418.69
357.08	404.69
357.307	385.69
357.534	419.69
357.761	424.69
357.988	393.69
358.215	383.69
358.441	413.69
358.668	399.69
358.895	416.69
359.122	390.69
359.349	415.69
359.576	408.69
359.802	430.69
360.029	460.69
360.256	430.69
360.483	427.69
360.709	404.69
360.936	422.69
361.163	450.69
361.39	427.69
361.616	412.69
361.843	420.69
362.07	416.69
362.296	412.69
362.523	438.69
362.749	420.69
362.976	416.69
363.203	411.69
363.429	415.69
363.656	436.69
363.882	407.69
364.109	421.69
364.335	419.69
364.562	418.69
364.788	421.69
365.015	406.69
365.241	415.69
365.468	398.69
365.694	403.69
365.92	400.69
366.147	427.69
366.373	414.69
366.599	397.69
366.826	422.69
367.052	415.69
367.278	390.69
367.505	410.69
367.731	410.69
367.957	414.69
368.184	415.69
368.41	414.69
368.636	428.69
368.862	408.69
369.089	422.69
369.315	409.69
369.541	409.69
369.767	415.69
369.993	414.69
370.219	415.69
370.445	424.69
370.672	412.69
370.898	425.69
371.124	401.69
371.35	445.69
371.576	426.69
371.802	418.69
372.028	413.69
372.254	435.69
372.48	423.69
372.706	422.69
372.932	442.69
373.158	424.69
373.384	412.69
373.61	432.69
373.835	439.69
374.061	429.69
374.287	427.69
374.513	421.69
374.739	426.69
374.965	452.69
375.191	448.69
375.416	435.69
375.642	422.69
375.868	440.69
376.094	426.69
376.319	442.69
376.545	423.69
376.771	404.69
376.997	420.69
377.222	428.69
377.448	412.69
377.674	421.69
377.899	410.69
378.125	423.69
378.35	426.69
378.576	411.69
378.802	409.69
379.027	413.69
379.253	414.69
379.478	421.69
379.704	417.69
379.929	397.69
380.155	436.69
380.38	420.69
380.606	412.69
380.831	411.69
381.057	422.69
381.282	411.69
381.507	414.69
381.733	414.69
381.958	439.69
382.184	420.69
382.409	430.69
382.634	424.69
382.86	453.69
383.085	428.69
383.31	440.69
383.535	430.69
383.761	432.69
383.986	444.69
384.211	464.69
384.436	445.69
384.662	435.69
384.887	451.69
385.112	466.69
385.337	464.69
385.562	468.69
385.787	456.69
386.013	484.69
386.238	479.69
386.463	466.69
386.688	478.69
386.913	485.69
387.138	466.69
387.363	487.69
387.588	468.69
387.813	483.69
388.038	455.69
388.263	468.69
388.488	476.69
388.713	464.69
388.938	475.69
389.163	476.69
389.387	468.69
389.612	450.69
389.837	477.69
390.062	460.69
390.287	450.69
390.512	470.69
390.736	455.69
390.961	474.69
391.186	470.69
391.411	484.69
391.636	467.69
391.86	490.69
392.085	505.69
392.31	494.69
392.534	507.69
392.759	484.69
392.984	479.69
393.208	462.69
393.433	466.69
393.658	470.69
393.882	477.69
394.107	477.69
394.331	486.69
394.556	477.69
394.78	489.69
395.005	467.69
395.229	476.69
395.454	510.69
395.678	516.69
395.903	496.69
396.127	522.69
396.352	523.69
396.576	479.69
396.801	491.69
397.025	480.69
397.249	511.69
397.474	502.69
397.698	522.69
397.922	528.69
398.147	516.69
398.371	539.69
398.595	538.69
398.82	544.69
399.044	567.69
399.268	552.69
399.492	636.69
399.717	683.69
399.941	723.69
400.165	721.69
400.389	709.69
400.613	644.69
400.837	588.69
401.062	566.69
401.286	543.69
401.51	573.69
401.734	555.69
401.958	546.69
402.182	549.69
402.406	553.69
402.63	582.69
402.854	580.69
403.078	573.69
403.302	582.69
403.526	596.69
403.75	596.69
403.974	602.69
404.198	592.69
404.422	592.69
404.645	586.69
404.869	614.69
405.093	618.69
405.317	670.69
405.541	672.69
405.765	618.69
405.988	564.69
406.212	586.69
406.436	626.69
406.66	642.69
406.883	612.69
407.107	646.69
407.331	696.69
407.555	716.69
407.778	726.69
408.002	682.69
408.226	645.69
408.449	624.69
408.673	617.69
408.896	654.69
409.12	680.69
409.344	652.69
409.567	610.69
409.791	572.69
410.014	583.69
410.238	567.69
410.461	586.69
410.685	571.69
410.908	604.69
411.132	602.69
411.355	615.69
411.578	600.69
411.802	573.69
412.025	569.69
412.249	593.69
412.472	598.69
412.695	622.69
412.919	616.69
413.142	564.69
413.365	564.69
413.589	556.69
413.812	533.69
414.035	547.69
414.258	553.69
414.482	571.69
414.705	551.69
414.928	570.69
415.151	549.69
415.374	536.69
415.597	552.69
415.821	516.69
416.044	531.69
416.267	534.69
416.49	532.69
416.713	552.69
416.936	552.69
417.159	540.69
417.382	557.69
417.605	548.69
417.828	560.69
418.051	576.69
418.274	554.69
418.497	534.69
418.72	561.69
418.943	546.69
419.166	582.69
419.389	596.69
419.611	575.69
419.834	580.69
420.057	574.69
420.28	560.69
420.503	571.69
420.726	553.69
420.948	563.69
421.171	609.69
421.394	618.69
421.617	581.69
421.839	549.69
422.062	551.69
422.285	585.69
422.507	594.69
422.73	674.69
422.953	654.69
423.175	606.69
423.398	567.69
423.621	598.69
423.843	626.69
424.066	615.69
424.288	609.69
424.511	607.69
424.733	668.69
424.956	740.69
425.178	680.69
425.401	686.69
425.623	722.69
425.846	635.69
426.068	569.69
426.291	565.69
426.513	558.69
426.735	578.69
426.958	615.69
427.18	696.69
427.402	762.69
427.625	848.69
427.847	728.69
428.069	651.69
428.292	602.69
428.514	560.69
428.736	526.69
428.958	521.69
429.181	542.69
429.403	538.69
429.625	554.69
429.847	569.69
430.069	605.69
430.292	606.69
430.514	574.69
430.736	536.69
430.958	511.69
431.18	500.69
431.402	511.69
431.624	531.69
431.846	503.69
432.068	522.69
432.29	520.69
432.512	522.69
432.734	523.69
432.956	526.69
433.178	538.69
433.4	520.69
433.622	516.69
433.844	533.69
434.066	508.69
434.287	511.69
434.509	529.69
434.731	527.69
434.953	534.69
435.175	554.69
435.397	576.69
435.618	570.69
435.84	595.69
436.062	690.69
436.284	719.69
436.505	628.69
436.727	562.69
436.949	553.69
437.17	521.69
437.392	534.69
437.614	523.69
437.835	545.69
438.057	642.69
438.278	718.69
438.5	705.69
438.721	774.69
438.943	754.69
439.165	591.69
439.386	559.69
439.608	584.69
439.829	560.69
440.05	566.69
440.272	608.69
440.493	599.69
440.715	541.69
440.936	551.69
441.158	529.69
441.379	510.69
441.6	547.69
441.822	589.69
442.043	600.69
442.264	655.69
442.486	713.69
442.707	622.69
442.928	575.69
443.149	610.69
443.371	618.69
443.592	639.69
443.813	710.69
444.034	798.69
444.255	674.69
444.476	623.69
444.698	619.69
444.919	639.69
445.14	726.69
445.361	662.69
445.582	637.69
445.803	656.69
446.024	738.69
446.245	745.69
446.466	664.69
446.687	591.69
446.908	580.69
447.129	543.69
447.35	523.69
447.571	526.69
447.792	508.69
448.013	522.69
448.234	520.69
448.455	574.69
448.675	649.69
448.896	760.69
449.117	656.69
449.338	639.69
449.559	710.69
449.779	806.69
450	631.69
450.221	541.69
450.442	538.69
450.662	492.69
450.883	504.69
451.104	512.69
451.324	500.69
451.545	502.69
451.766	483.69
451.986	449.69
452.207	459.69
452.428	460.69
452.648	478.69
452.869	475.69
453.089	481.69
453.31	494.69
453.53	463.69
453.751	471.69
453.971	464.69
454.192	454.69
454.412	456.69
454.633	468.69
454.853	446.69
455.073	463.69
455.294	484.69
455.514	519.69
455.734	504.69
455.955	470.69
456.175	434.69
456.395	417.69
456.616	424.69
456.836	437.69
457.056	437.69
457.276	435.69
457.497	462.69
457.717	440.69
457.937	450.69
458.157	451.69
458.377	480.69
458.598	490.69
458.818	537.69
459.038	581.69
459.258	600.69
459.478	530.69
459.698	522.69
459.918	539.69
460.138	512.69
460.358	532.69
460.578	522.69
460.798	524.69
461.018	551.69
461.238	558.69
461.458	564.69
461.678	548.69
461.898	539.69
462.118	547.69
462.338	559.69
462.558	550.69
462.777	562.69
462.997	598.69
463.217	608.69
463.437	640.69
463.657	603.69
463.876	602.69
464.096	600.69
464.316	592.69
464.536	593.69
464.755	618.69
464.975	592.69
465.195	594.69
465.414	600.69
465.634	554.69
465.854	524.69
466.073	525.69
466.293	519.69
466.512	501.69
466.732	508.69
466.951	489.69
467.171	512.69
467.391	490.69
467.61	516.69
467.829	524.69
468.049	503.69
468.268	480.69
468.488	473.69
468.707	483.69
468.927	469.69
469.146	440.69
469.365	484.69
469.585	470.69
469.804	487.69
470.023	486.69
470.243	498.69
470.462	513.69
470.681	513.69
470.901	503.69
471.12	480.69
471.339	494.69
471.558	494.69
471.777	491.69
471.997	495.69
472.216	492.69
472.435	508.69
472.654	502.69
472.873	487.69
473.092	472.69
473.311	475.69
473.53	484.69
473.749	506.69
473.968	526.69
474.187	589.69
474.406	610.69
474.625	514.69
474.844	500.69
475.063	477.69
475.282	502.69
475.501	484.69
475.72	475.69
475.939	480.69
476.158	473.69
476.377	500.69
476.596	506.69
476.814	510.69
477.033	510.69
477.252	525.69
477.471	517.69
477.69	525.69
477.908	545.69
478.127	551.69
478.346	540.69
478.564	560.69
478.783	553.69
479.002	576.69
479.22	573.69
479.439	575.69
479.658	594.69
479.876	574.69
480.095	578.69
480.313	639.69
480.532	604.69
480.751	608.69
480.969	597.69
481.188	670.69
481.406	667.69
481.624	613.69
481.843	583.69
482.061	586.69
482.28	558.69
482.498	581.69
482.717	582.69
482.935	555.69
483.153	547.69
483.372	557.69
483.59	562.69
483.808	564.69
484.027	567.69
484.245	581.69
484.463	565.69
484.681	572.69
484.9	590.69
485.118	560.69
485.336	556.69
485.554	607.69
485.772	588.69
485.99	589.69
486.209	580.69
486.427	563.69
486.645	580.69
486.863	583.69
487.081	593.69
487.299	591.69
487.517	594.69
487.735	604.69
487.953	591.69
488.171	619.69
488.389	633.69
488.607	588.69
488.825	598.69
489.043	596.69
489.261	599.69
489.479	628.69
489.696	599.69
489.914	616.69
490.132	603.69
490.35	607.69
490.568	629.69
490.786	656.69
491.003	657.69
491.221	662.69
491.439	662.69
491.657	674.69
491.874	655.69
492.092	678.69
492.31	668.69
492.527	670.69
492.745	670.69
492.963	693.69
493.18	674.69
493.398	693.69
493.615	703.69
493.833	697.69
494.05	669.69
494.268	688.69
494.485	690.69
494.703	694.69
494.92	725.69
495.138	686.69
495.355	690.69
495.573	715.69
495.79	696.69
496.008	670.69
496.225	704.69
496.442	693.69
496.66	697.69
496.877	706.69
497.094	722.69
497.312	745.69
497.529	723.69
497.746	742.69
497.963	765.69
498.181	772.69
498.398	816.69
498.615	817.69
498.832	853.69
499.049	889.69
499.267	916.69
499.484	943.69
499.701	972.69
499.918	1050.69
500.135	1140.69
500.352	1219.69
500.569	1230.69
500.786	1242.69
501.003	1218.69
501.22	1126.69
501.437	1111.69
501.654	1030.69
