Data from 1973.PennyLincolnUp.Lamp.En5.5.200Scan.071719.P1.Changed Mount._HRD10591_15-44-00-852.txt Node
Date: Thu Jul 18 15:44:00 EDT 2019
User: cochatt
Spectrometer: HR+D1059
Trigger mode: 1
Integration Time (sec): 1.000000E-1
Scans to average: 1
Electric dark correction enabled: true
Nonlinearity correction enabled: false
Boxcar width: 0
XAxis mode: Wavelengths
Number of Pixels in Spectrum: 2048
>>>>>Begin Spectral Data<<<<<
223.165	-28.06
223.4	-28.06
223.635	-28.06
223.869	-25.06
224.104	-27.06
224.338	-4.06
224.573	-17.06
224.808	0.94
225.042	-0.06
225.277	-8.06
225.511	6.94
225.746	7.94
225.98	4.94
226.215	14.94
226.449	16.94
226.683	15.94
226.918	24.94
227.152	15.94
227.387	40.94
227.621	44.94
227.856	41.94
228.09	32.94
228.324	45.94
228.559	41.94
228.793	61.94
229.027	92.94
229.262	107.94
229.496	102.94
229.73	117.94
229.964	137.94
230.199	123.94
230.433	106.94
230.667	88.94
230.901	112.94
231.136	109.94
231.37	105.94
231.604	103.94
231.838	112.94
232.072	107.94
232.306	111.94
232.541	121.94
232.775	105.94
233.009	107.94
233.243	92.94
233.477	109.94
233.711	107.94
233.945	111.94
234.179	109.94
234.413	113.94
234.647	119.94
234.881	112.94
235.115	107.94
235.349	118.94
235.583	124.94
235.817	101.94
236.051	118.94
236.285	113.94
236.519	115.94
236.753	123.94
236.987	120.94
237.221	162.94
237.455	205.94
237.689	159.94
237.922	125.94
238.156	127.94
238.39	139.94
238.624	116.94
238.858	119.94
239.091	121.94
239.325	123.94
239.559	108.94
239.793	122.94
240.027	119.94
240.26	127.94
240.494	121.94
240.728	124.94
240.961	125.94
241.195	144.94
241.429	141.94
241.662	127.94
241.896	127.94
242.13	127.94
242.363	129.94
242.597	131.94
242.83	122.94
243.064	120.94
243.298	125.94
243.531	145.94
243.765	152.94
243.998	131.94
244.232	139.94
244.465	142.94
244.699	133.94
244.932	154.94
245.166	147.94
245.399	138.94
245.633	152.94
245.866	141.94
246.099	140.94
246.333	148.94
246.566	143.94
246.8	162.94
247.033	147.94
247.266	154.94
247.5	151.94
247.733	174.94
247.966	163.94
248.2	168.94
248.433	162.94
248.666	155.94
248.899	185.94
249.133	181.94
249.366	177.94
249.599	182.94
249.832	180.94
250.066	182.94
250.299	171.94
250.532	199.94
250.765	199.94
250.998	203.94
251.231	207.94
251.465	193.94
251.698	203.94
251.931	198.94
252.164	192.94
252.397	192.94
252.63	197.94
252.863	196.94
253.096	187.94
253.329	210.94
253.562	210.94
253.795	225.94
254.028	216.94
254.261	197.94
254.494	210.94
254.727	228.94
254.96	257.94
255.193	239.94
255.426	226.94
255.659	219.94
255.892	214.94
256.124	236.94
256.357	237.94
256.59	209.94
256.823	213.94
257.056	212.94
257.289	190.94
257.521	195.94
257.754	210.94
257.987	197.94
258.22	193.94
258.452	200.94
258.685	198.94
258.918	179.94
259.151	220.94
259.383	215.94
259.616	219.94
259.849	206.94
260.081	221.94
260.314	221.94
260.547	241.94
260.779	226.94
261.012	212.94
261.244	206.94
261.477	226.94
261.71	215.94
261.942	214.94
262.175	232.94
262.407	221.94
262.64	223.94
262.872	199.94
263.105	208.94
263.337	213.94
263.57	220.94
263.802	204.94
264.035	200.94
264.267	220.94
264.499	202.94
264.732	213.94
264.964	220.94
265.197	210.94
265.429	207.94
265.661	225.94
265.894	226.94
266.126	227.94
266.358	215.94
266.591	218.94
266.823	227.94
267.055	232.94
267.287	224.94
267.52	231.94
267.752	214.94
267.984	231.94
268.216	242.94
268.448	225.94
268.681	232.94
268.913	252.94
269.145	247.94
269.377	264.94
269.609	270.94
269.841	267.94
270.073	269.94
270.306	275.94
270.538	303.94
270.77	303.94
271.002	286.94
271.234	292.94
271.466	289.94
271.698	284.94
271.93	299.94
272.162	318.94
272.394	278.94
272.626	303.94
272.858	293.94
273.09	262.94
273.322	290.94
273.553	270.94
273.785	265.94
274.017	256.94
274.249	259.94
274.481	243.94
274.713	231.94
274.945	266.94
275.176	263.94
275.408	257.94
275.64	263.94
275.872	258.94
276.104	260.94
276.335	260.94
276.567	272.94
276.799	285.94
277.031	286.94
277.262	283.94
277.494	314.94
277.726	287.94
277.957	278.94
278.189	274.94
278.421	279.94
278.652	280.94
278.884	274.94
279.115	278.94
279.347	276.94
279.579	266.94
279.81	280.94
280.042	286.94
280.273	280.94
280.505	278.94
280.736	276.94
280.968	271.94
281.199	269.94
281.431	294.94
281.662	264.94
281.894	282.94
282.125	282.94
282.356	277.94
282.588	291.94
282.819	287.94
283.051	288.94
283.282	292.94
283.513	305.94
283.745	273.94
283.976	282.94
284.207	314.94
284.439	289.94
284.67	299.94
284.901	293.94
285.132	286.94
285.364	276.94
285.595	300.94
285.826	308.94
286.057	309.94
286.288	293.94
286.52	298.94
286.751	279.94
286.982	305.94
287.213	295.94
287.444	300.94
287.675	309.94
287.906	303.94
288.138	305.94
288.369	305.94
288.6	299.94
288.831	301.94
289.062	322.94
289.293	306.94
289.524	299.94
289.755	315.94
289.986	307.94
290.217	320.94
290.448	313.94
290.679	278.94
290.91	297.94
291.141	293.94
291.371	288.94
291.602	307.94
291.833	303.94
292.064	315.94
292.295	308.94
292.526	312.94
292.757	289.94
292.987	306.94
293.218	289.94
293.449	315.94
293.68	320.94
293.91	301.94
294.141	295.94
294.372	295.94
294.603	309.94
294.833	316.94
295.064	309.94
295.295	305.94
295.525	299.94
295.756	290.94
295.987	314.94
296.217	344.94
296.448	342.94
296.679	313.94
296.909	330.94
297.14	312.94
297.37	325.94
297.601	311.94
297.831	318.94
298.062	317.94
298.292	315.94
298.523	323.94
298.753	326.94
298.984	307.94
299.214	314.94
299.445	340.94
299.675	319.94
299.905	328.94
300.136	312.94
300.366	342.94
300.597	336.94
300.827	324.94
301.057	327.94
301.288	333.94
301.518	327.94
301.748	316.94
301.979	350.94
302.209	361.94
302.439	335.94
302.669	345.94
302.9	337.94
303.13	349.94
303.36	331.94
303.59	351.94
303.82	337.94
304.051	338.94
304.281	325.94
304.511	351.94
304.741	348.94
304.971	350.94
305.201	324.94
305.431	319.94
305.661	333.94
305.891	332.94
306.121	359.94
306.352	347.94
306.582	340.94
306.812	348.94
307.042	347.94
307.272	326.94
307.502	365.94
307.731	337.94
307.961	330.94
308.191	371.94
308.421	340.94
308.651	352.94
308.881	353.94
309.111	340.94
309.341	346.94
309.571	360.94
309.8	379.94
310.03	351.94
310.26	372.94
310.49	341.94
310.72	371.94
310.949	373.94
311.179	380.94
311.409	360.94
311.639	362.94
311.868	360.94
312.098	377.94
312.328	363.94
312.557	381.94
312.787	385.94
313.017	396.94
313.246	398.94
313.476	382.94
313.706	373.94
313.935	372.94
314.165	386.94
314.394	394.94
314.624	380.94
314.853	368.94
315.083	376.94
315.312	371.94
315.542	368.94
315.771	381.94
316.001	378.94
316.23	370.94
316.46	369.94
316.689	385.94
316.919	404.94
317.148	386.94
317.377	381.94
317.607	371.94
317.836	381.94
318.065	375.94
318.295	374.94
318.524	375.94
318.753	371.94
318.983	375.94
319.212	375.94
319.441	383.94
319.67	379.94
319.9	353.94
320.129	379.94
320.358	379.94
320.587	392.94
320.816	405.94
321.046	411.94
321.275	391.94
321.504	377.94
321.733	382.94
321.962	410.94
322.191	405.94
322.42	411.94
322.649	420.94
322.878	405.94
323.108	411.94
323.337	433.94
323.566	445.94
323.795	440.94
324.024	457.94
324.253	516.94
324.482	677.94
324.71	1027.94
324.939	1446.94
325.168	1213.94
325.397	666.94
325.626	487.94
325.855	458.94
326.084	461.94
326.313	428.94
326.542	438.94
326.77	473.94
326.999	517.94
327.228	678.94
327.457	906.94
327.686	1103.94
327.914	749.94
328.143	545.94
328.372	521.94
328.6	489.94
328.829	475.94
329.058	483.94
329.287	493.94
329.515	477.94
329.744	451.94
329.972	473.94
330.201	467.94
330.43	501.94
330.658	515.94
330.887	522.94
331.115	500.94
331.344	475.94
331.572	449.94
331.801	479.94
332.03	467.94
332.258	471.94
332.486	454.94
332.715	476.94
332.943	475.94
333.172	456.94
333.4	508.94
333.629	489.94
333.857	488.94
334.085	514.94
334.314	514.94
334.542	531.94
334.771	521.94
334.999	500.94
335.227	489.94
335.455	476.94
335.684	470.94
335.912	439.94
336.14	447.94
336.369	474.94
336.597	465.94
336.825	463.94
337.053	473.94
337.281	455.94
337.51	441.94
337.738	448.94
337.966	431.94
338.194	450.94
338.422	445.94
338.65	447.94
338.878	431.94
339.106	431.94
339.334	420.94
339.562	436.94
339.79	426.94
340.018	428.94
340.246	447.94
340.474	441.94
340.702	451.94
340.93	415.94
341.158	423.94
341.386	417.94
341.614	424.94
341.842	443.94
342.07	418.94
342.298	417.94
342.526	390.94
342.754	427.94
342.981	428.94
343.209	402.94
343.437	463.94
343.665	442.94
343.893	457.94
344.12	458.94
344.348	451.94
344.576	455.94
344.804	445.94
345.031	459.94
345.259	454.94
345.487	437.94
345.714	427.94
345.942	421.94
346.17	423.94
346.397	431.94
346.625	401.94
346.853	415.94
347.08	412.94
347.308	385.94
347.535	423.94
347.763	410.94
347.99	408.94
348.218	424.94
348.445	436.94
348.673	415.94
348.9	413.94
349.128	419.94
349.355	405.94
349.583	405.94
349.81	383.94
350.037	407.94
350.265	396.94
350.492	391.94
350.72	381.94
350.947	402.94
351.174	420.94
351.402	406.94
351.629	409.94
351.856	398.94
352.083	415.94
352.311	404.94
352.538	431.94
352.765	420.94
352.992	405.94
353.22	403.94
353.447	401.94
353.674	402.94
353.901	378.94
354.128	372.94
354.355	387.94
354.583	385.94
354.81	393.94
355.037	385.94
355.264	398.94
355.491	381.94
355.718	379.94
355.945	395.94
356.172	387.94
356.399	390.94
356.626	387.94
356.853	395.94
357.08	404.94
357.307	395.94
357.534	401.94
357.761	398.94
357.988	385.94
358.215	403.94
358.441	385.94
358.668	375.94
358.895	409.94
359.122	388.94
359.349	396.94
359.576	397.94
359.802	414.94
360.029	408.94
360.256	440.94
360.483	426.94
360.709	413.94
360.936	418.94
361.163	409.94
361.39	382.94
361.616	399.94
361.843	400.94
362.07	398.94
362.296	413.94
362.523	418.94
362.749	383.94
362.976	382.94
363.203	393.94
363.429	401.94
363.656	387.94
363.882	387.94
364.109	421.94
364.335	383.94
364.562	396.94
364.788	402.94
365.015	415.94
365.241	404.94
365.468	388.94
365.694	394.94
365.92	396.94
366.147	394.94
366.373	387.94
366.599	403.94
366.826	379.94
367.052	394.94
367.278	388.94
367.505	391.94
367.731	393.94
367.957	384.94
368.184	390.94
368.41	394.94
368.636	401.94
368.862	408.94
369.089	391.94
369.315	383.94
369.541	420.94
369.767	390.94
369.993	413.94
370.219	402.94
370.445	412.94
370.672	386.94
370.898	423.94
371.124	390.94
371.35	408.94
371.576	399.94
371.802	405.94
372.028	383.94
372.254	407.94
372.48	417.94
372.706	411.94
372.932	403.94
373.158	390.94
373.384	419.94
373.61	417.94
373.835	412.94
374.061	399.94
374.287	407.94
374.513	416.94
374.739	416.94
374.965	432.94
375.191	421.94
375.416	419.94
375.642	435.94
375.868	406.94
376.094	409.94
376.319	416.94
376.545	446.94
376.771	408.94
376.997	414.94
377.222	403.94
377.448	400.94
377.674	386.94
377.899	414.94
378.125	401.94
378.35	401.94
378.576	387.94
378.802	422.94
379.027	393.94
379.253	408.94
379.478	399.94
379.704	387.94
379.929	395.94
380.155	404.94
380.38	398.94
380.606	419.94
380.831	406.94
381.057	410.94
381.282	400.94
381.507	409.94
381.733	408.94
381.958	413.94
382.184	408.94
382.409	429.94
382.634	405.94
382.86	418.94
383.085	415.94
383.31	419.94
383.535	420.94
383.761	398.94
383.986	451.94
384.211	447.94
384.436	450.94
384.662	453.94
384.887	437.94
385.112	433.94
385.337	453.94
385.562	455.94
385.787	450.94
386.013	464.94
386.238	456.94
386.463	479.94
386.688	455.94
386.913	435.94
387.138	441.94
387.363	473.94
387.588	438.94
387.813	444.94
388.038	457.94
388.263	444.94
388.488	444.94
388.713	457.94
388.938	450.94
389.163	442.94
389.387	462.94
389.612	467.94
389.837	450.94
390.062	434.94
390.287	455.94
390.512	454.94
390.736	446.94
390.961	469.94
391.186	476.94
391.411	462.94
391.636	464.94
391.86	474.94
392.085	480.94
392.31	486.94
392.534	460.94
392.759	472.94
392.984	472.94
393.208	459.94
393.433	474.94
393.658	475.94
393.882	470.94
394.107	473.94
394.331	466.94
394.556	441.94
394.78	468.94
395.005	461.94
395.229	461.94
395.454	468.94
395.678	506.94
395.903	485.94
396.127	503.94
396.352	487.94
396.576	457.94
396.801	482.94
397.025	471.94
397.249	480.94
397.474	485.94
397.698	484.94
397.922	499.94
398.147	515.94
398.371	503.94
398.595	527.94
398.82	539.94
399.044	532.94
399.268	585.94
399.492	626.94
399.717	669.94
399.941	688.94
400.165	670.94
400.389	666.94
400.613	617.94
400.837	585.94
401.062	556.94
401.286	554.94
401.51	547.94
401.734	539.94
401.958	530.94
402.182	521.94
402.406	505.94
402.63	548.94
402.854	548.94
403.078	550.94
403.302	560.94
403.526	582.94
403.75	592.94
403.974	573.94
404.198	565.94
404.422	546.94
404.645	569.94
404.869	585.94
405.093	623.94
405.317	618.94
405.541	635.94
405.765	597.94
405.988	559.94
406.212	603.94
406.436	583.94
406.66	575.94
406.883	575.94
407.107	627.94
407.331	651.94
407.555	715.94
407.778	722.94
408.002	655.94
408.226	614.94
408.449	608.94
408.673	604.94
408.896	627.94
409.12	643.94
409.344	631.94
409.567	567.94
409.791	561.94
410.014	542.94
410.238	534.94
410.461	573.94
410.685	561.94
410.908	556.94
411.132	618.94
411.355	615.94
411.578	602.94
411.802	556.94
412.025	539.94
412.249	561.94
412.472	581.94
412.695	614.94
412.919	618.94
413.142	536.94
413.365	550.94
413.589	552.94
413.812	537.94
414.035	507.94
414.258	519.94
414.482	523.94
414.705	512.94
414.928	513.94
415.151	529.94
415.374	540.94
415.597	528.94
415.821	491.94
416.044	532.94
416.267	515.94
416.49	514.94
416.713	514.94
416.936	532.94
417.159	520.94
417.382	534.94
417.605	547.94
417.828	522.94
418.051	532.94
418.274	537.94
418.497	541.94
418.72	540.94
418.943	532.94
419.166	549.94
419.389	572.94
419.611	567.94
419.834	571.94
420.057	555.94
420.28	552.94
420.503	545.94
420.726	559.94
420.948	539.94
421.171	573.94
421.394	601.94
421.617	547.94
421.839	539.94
422.062	545.94
422.285	522.94
422.507	596.94
422.73	631.94
422.953	639.94
423.175	577.94
423.398	539.94
423.621	545.94
423.843	585.94
424.066	566.94
424.288	583.94
424.511	582.94
424.733	644.94
424.956	680.94
425.178	651.94
425.401	645.94
425.623	680.94
425.846	594.94
426.068	571.94
426.291	537.94
426.513	532.94
426.735	560.94
426.958	572.94
427.18	635.94
427.402	761.94
427.625	832.94
427.847	702.94
428.069	619.94
428.292	574.94
428.514	545.94
428.736	525.94
428.958	525.94
429.181	508.94
429.403	491.94
429.625	539.94
429.847	541.94
430.069	574.94
430.292	587.94
430.514	529.94
430.736	531.94
430.958	462.94
431.18	474.94
431.402	502.94
431.624	480.94
431.846	489.94
432.068	483.94
432.29	503.94
432.512	502.94
432.734	512.94
432.956	488.94
433.178	522.94
433.4	500.94
433.622	483.94
433.844	485.94
434.066	484.94
434.287	487.94
434.509	507.94
434.731	513.94
434.953	500.94
435.175	533.94
435.397	586.94
435.618	559.94
435.84	584.94
436.062	644.94
436.284	694.94
436.505	603.94
436.727	535.94
436.949	526.94
437.17	530.94
437.392	522.94
437.614	519.94
437.835	530.94
438.057	593.94
438.278	677.94
438.5	671.94
438.721	758.94
438.943	721.94
439.165	592.94
439.386	525.94
439.608	531.94
439.829	539.94
440.05	570.94
440.272	583.94
440.493	554.94
440.715	548.94
440.936	520.94
441.158	521.94
441.379	523.94
441.6	546.94
441.822	551.94
442.043	599.94
442.264	644.94
442.486	689.94
442.707	586.94
442.928	565.94
443.149	564.94
443.371	600.94
443.592	629.94
443.813	698.94
444.034	775.94
444.255	626.94
444.476	587.94
444.698	579.94
444.919	584.94
445.14	653.94
445.361	608.94
445.582	610.94
445.803	636.94
446.024	714.94
446.245	695.94
446.466	648.94
446.687	555.94
446.908	540.94
447.129	530.94
447.35	524.94
447.571	513.94
447.792	477.94
448.013	503.94
448.234	513.94
448.455	554.94
448.675	629.94
448.896	738.94
449.117	612.94
449.338	583.94
449.559	674.94
449.779	755.94
450	605.94
450.221	536.94
450.442	489.94
450.662	463.94
450.883	477.94
451.104	493.94
451.324	484.94
451.545	448.94
451.766	450.94
451.986	452.94
452.207	447.94
452.428	450.94
452.648	425.94
452.869	455.94
453.089	449.94
453.31	458.94
453.53	456.94
453.751	455.94
453.971	438.94
454.192	429.94
454.412	458.94
454.633	454.94
454.853	437.94
455.073	426.94
455.294	477.94
455.514	481.94
455.734	520.94
455.955	455.94
456.175	419.94
456.395	410.94
456.616	424.94
456.836	429.94
457.056	443.94
457.276	422.94
457.497	421.94
457.717	421.94
457.937	431.94
458.157	443.94
458.377	465.94
458.598	461.94
458.818	511.94
459.038	529.94
459.258	572.94
459.478	535.94
459.698	499.94
459.918	477.94
460.138	507.94
460.358	515.94
460.578	519.94
460.798	528.94
461.018	516.94
461.238	517.94
461.458	514.94
461.678	533.94
461.898	541.94
462.118	532.94
462.338	537.94
462.558	536.94
462.777	571.94
462.997	577.94
463.217	609.94
463.437	626.94
463.657	561.94
463.876	567.94
464.096	548.94
464.316	571.94
464.536	582.94
464.755	559.94
464.975	563.94
465.195	562.94
465.414	586.94
465.634	537.94
465.854	529.94
466.073	514.94
466.293	489.94
466.512	474.94
466.732	476.94
466.951	460.94
467.171	459.94
467.391	466.94
467.61	490.94
467.829	492.94
468.049	465.94
468.268	456.94
468.488	461.94
468.707	474.94
468.927	466.94
469.146	454.94
469.365	447.94
469.585	461.94
469.804	475.94
470.023	485.94
470.243	484.94
470.462	451.94
470.681	491.94
470.901	480.94
471.12	484.94
471.339	475.94
471.558	469.94
471.777	484.94
471.997	462.94
472.216	485.94
472.435	500.94
472.654	461.94
472.873	442.94
473.092	469.94
473.311	474.94
473.53	465.94
473.749	476.94
473.968	510.94
474.187	571.94
474.406	571.94
474.625	496.94
474.844	482.94
475.063	479.94
475.282	456.94
475.501	457.94
475.72	475.94
475.939	468.94
476.158	486.94
476.377	478.94
476.596	454.94
476.814	485.94
477.033	488.94
477.252	499.94
477.471	478.94
477.69	485.94
477.908	529.94
478.127	527.94
478.346	520.94
478.564	529.94
478.783	539.94
479.002	562.94
479.22	559.94
479.439	560.94
479.658	548.94
479.876	577.94
480.095	582.94
480.313	591.94
480.532	612.94
480.751	598.94
480.969	575.94
481.188	605.94
481.406	599.94
481.624	585.94
481.843	551.94
482.061	531.94
482.28	547.94
482.498	540.94
482.717	536.94
482.935	541.94
483.153	543.94
483.372	553.94
483.59	539.94
483.808	545.94
484.027	519.94
484.245	529.94
484.463	547.94
484.681	520.94
484.9	540.94
485.118	543.94
485.336	539.94
485.554	558.94
485.772	552.94
485.99	565.94
486.209	563.94
486.427	563.94
486.645	562.94
486.863	567.94
487.081	563.94
487.299	576.94
487.517	555.94
487.735	561.94
487.953	563.94
488.171	585.94
488.389	565.94
488.607	584.94
488.825	583.94
489.043	576.94
489.261	589.94
489.479	563.94
489.696	589.94
489.914	579.94
490.132	597.94
490.35	607.94
490.568	592.94
490.786	603.94
491.003	626.94
491.221	627.94
491.439	620.94
491.657	657.94
491.874	645.94
492.092	649.94
492.31	662.94
492.527	663.94
492.745	674.94
492.963	647.94
493.18	667.94
493.398	671.94
493.615	661.94
493.833	672.94
494.05	667.94
494.268	676.94
494.485	649.94
494.703	647.94
494.92	679.94
495.138	673.94
495.355	655.94
495.573	684.94
495.79	667.94
496.008	681.94
496.225	673.94
496.442	665.94
496.66	666.94
496.877	699.94
497.094	687.94
497.312	700.94
497.529	716.94
497.746	683.94
497.963	717.94
498.181	755.94
498.398	753.94
498.615	777.94
498.832	815.94
499.049	849.94
499.267	876.94
499.484	934.94
499.701	940.94
499.918	1026.94
500.135	1116.94
500.352	1181.94
500.569	1232.94
500.786	1226.94
501.003	1171.94
501.22	1105.94
501.437	1045.94
501.654	993.94
