Data from 1973.PennyLincolnUp.Lamp.En5.5.200Scan.071719.P1.Changed Mount._HRD10591_15-45-59-853.txt Node
Date: Thu Jul 18 15:45:59 EDT 2019
User: cochatt
Spectrometer: HR+D1059
Trigger mode: 1
Integration Time (sec): 1.000000E-1
Scans to average: 1
Electric dark correction enabled: true
Nonlinearity correction enabled: false
Boxcar width: 0
XAxis mode: Wavelengths
Number of Pixels in Spectrum: 2048
>>>>>Begin Spectral Data<<<<<
223.165	-16.81
223.4	-16.81
223.635	-16.81
223.869	-10.81
224.104	-18.81
224.338	-30.81
224.573	-21.81
224.808	7.19
225.042	-12.81
225.277	3.19
225.511	-18.81
225.746	-1.81
225.98	8.19
226.215	26.19
226.449	9.19
226.683	24.19
226.918	37.19
227.152	17.19
227.387	29.19
227.621	26.19
227.856	44.19
228.09	49.19
228.324	60.19
228.559	45.19
228.793	73.19
229.027	96.19
229.262	108.19
229.496	116.19
229.73	137.19
229.964	148.19
230.199	118.19
230.433	117.19
230.667	110.19
230.901	108.19
231.136	114.19
231.37	109.19
231.604	106.19
231.838	126.19
232.072	114.19
232.306	113.19
232.541	123.19
232.775	115.19
233.009	121.19
233.243	128.19
233.477	124.19
233.711	134.19
233.945	117.19
234.179	103.19
234.413	129.19
234.647	117.19
234.881	110.19
235.115	115.19
235.349	128.19
235.583	115.19
235.817	133.19
236.051	125.19
236.285	123.19
236.519	121.19
236.753	125.19
236.987	137.19
237.221	160.19
237.455	226.19
237.689	179.19
237.922	154.19
238.156	142.19
238.39	141.19
238.624	124.19
238.858	127.19
239.091	141.19
239.325	142.19
239.559	135.19
239.793	113.19
240.027	138.19
240.26	135.19
240.494	147.19
240.728	159.19
240.961	144.19
241.195	145.19
241.429	153.19
241.662	129.19
241.896	138.19
242.13	143.19
242.363	136.19
242.597	130.19
242.83	149.19
243.064	140.19
243.298	151.19
243.531	140.19
243.765	140.19
243.998	156.19
244.232	153.19
244.465	152.19
244.699	168.19
244.932	153.19
245.166	166.19
245.399	152.19
245.633	156.19
245.866	150.19
246.099	156.19
246.333	154.19
246.566	148.19
246.8	152.19
247.033	160.19
247.266	151.19
247.5	170.19
247.733	183.19
247.966	171.19
248.2	175.19
248.433	164.19
248.666	177.19
248.899	191.19
249.133	204.19
249.366	188.19
249.599	193.19
249.832	212.19
250.066	186.19
250.299	185.19
250.532	198.19
250.765	198.19
250.998	222.19
251.231	231.19
251.465	220.19
251.698	221.19
251.931	208.19
252.164	197.19
252.397	210.19
252.63	207.19
252.863	212.19
253.096	205.19
253.329	220.19
253.562	235.19
253.795	210.19
254.028	215.19
254.261	236.19
254.494	226.19
254.727	249.19
254.96	261.19
255.193	270.19
255.426	244.19
255.659	238.19
255.892	221.19
256.124	220.19
256.357	236.19
256.59	233.19
256.823	214.19
257.056	208.19
257.289	205.19
257.521	200.19
257.754	214.19
257.987	215.19
258.22	203.19
258.452	191.19
258.685	228.19
258.918	207.19
259.151	213.19
259.383	233.19
259.616	232.19
259.849	203.19
260.081	240.19
260.314	247.19
260.547	257.19
260.779	274.19
261.012	252.19
261.244	229.19
261.477	235.19
261.71	239.19
261.942	225.19
262.175	247.19
262.407	245.19
262.64	243.19
262.872	231.19
263.105	232.19
263.337	231.19
263.57	219.19
263.802	221.19
264.035	240.19
264.267	217.19
264.499	217.19
264.732	225.19
264.964	240.19
265.197	228.19
265.429	247.19
265.661	236.19
265.894	232.19
266.126	235.19
266.358	243.19
266.591	235.19
266.823	238.19
267.055	240.19
267.287	256.19
267.52	259.19
267.752	257.19
267.984	254.19
268.216	239.19
268.448	260.19
268.681	247.19
268.913	263.19
269.145	267.19
269.377	293.19
269.609	293.19
269.841	272.19
270.073	292.19
270.306	291.19
270.538	305.19
270.77	323.19
271.002	317.19
271.234	302.19
271.466	316.19
271.698	327.19
271.93	339.19
272.162	343.19
272.394	339.19
272.626	312.19
272.858	308.19
273.09	303.19
273.322	281.19
273.553	276.19
273.785	288.19
274.017	290.19
274.249	285.19
274.481	292.19
274.713	274.19
274.945	295.19
275.176	305.19
275.408	312.19
275.64	297.19
275.872	279.19
276.104	286.19
276.335	282.19
276.567	298.19
276.799	321.19
277.031	320.19
277.262	329.19
277.494	344.19
277.726	339.19
277.957	331.19
278.189	310.19
278.421	312.19
278.652	292.19
278.884	272.19
279.115	293.19
279.347	291.19
279.579	283.19
279.81	281.19
280.042	295.19
280.273	282.19
280.505	311.19
280.736	296.19
280.968	301.19
281.199	264.19
281.431	293.19
281.662	296.19
281.894	293.19
282.125	293.19
282.356	315.19
282.588	336.19
282.819	307.19
283.051	317.19
283.282	295.19
283.513	311.19
283.745	312.19
283.976	309.19
284.207	281.19
284.439	291.19
284.67	299.19
284.901	305.19
285.132	317.19
285.364	302.19
285.595	319.19
285.826	302.19
286.057	315.19
286.288	291.19
286.52	292.19
286.751	292.19
286.982	325.19
287.213	315.19
287.444	325.19
287.675	314.19
287.906	327.19
288.138	314.19
288.369	327.19
288.6	354.19
288.831	343.19
289.062	340.19
289.293	330.19
289.524	319.19
289.755	314.19
289.986	323.19
290.217	324.19
290.448	327.19
290.679	315.19
290.91	327.19
291.141	331.19
291.371	324.19
291.602	331.19
291.833	315.19
292.064	323.19
292.295	326.19
292.526	335.19
292.757	319.19
292.987	317.19
293.218	313.19
293.449	327.19
293.68	329.19
293.91	337.19
294.141	328.19
294.372	326.19
294.603	334.19
294.833	319.19
295.064	328.19
295.295	330.19
295.525	332.19
295.756	344.19
295.987	339.19
296.217	355.19
296.448	352.19
296.679	361.19
296.909	347.19
297.14	349.19
297.37	339.19
297.601	344.19
297.831	327.19
298.062	343.19
298.292	333.19
298.523	356.19
298.753	355.19
298.984	344.19
299.214	347.19
299.445	350.19
299.675	343.19
299.905	335.19
300.136	341.19
300.366	354.19
300.597	348.19
300.827	356.19
301.057	351.19
301.288	364.19
301.518	352.19
301.748	373.19
301.979	365.19
302.209	352.19
302.439	352.19
302.669	364.19
302.9	357.19
303.13	356.19
303.36	372.19
303.59	353.19
303.82	351.19
304.051	368.19
304.281	353.19
304.511	356.19
304.741	360.19
304.971	391.19
305.201	356.19
305.431	365.19
305.661	374.19
305.891	393.19
306.121	371.19
306.352	354.19
306.582	367.19
306.812	374.19
307.042	376.19
307.272	363.19
307.502	367.19
307.731	368.19
307.961	352.19
308.191	354.19
308.421	380.19
308.651	378.19
308.881	368.19
309.111	391.19
309.341	376.19
309.571	367.19
309.8	376.19
310.03	383.19
310.26	392.19
310.49	402.19
310.72	407.19
310.949	408.19
311.179	407.19
311.409	411.19
311.639	409.19
311.868	386.19
312.098	417.19
312.328	428.19
312.557	419.19
312.787	409.19
313.017	418.19
313.246	417.19
313.476	419.19
313.706	385.19
313.935	428.19
314.165	417.19
314.394	433.19
314.624	442.19
314.853	427.19
315.083	421.19
315.312	399.19
315.542	387.19
315.771	409.19
316.001	400.19
316.23	419.19
316.46	405.19
316.689	401.19
316.919	420.19
317.148	418.19
317.377	400.19
317.607	416.19
317.836	420.19
318.065	389.19
318.295	389.19
318.524	407.19
318.753	404.19
318.983	390.19
319.212	410.19
319.441	415.19
319.67	432.19
319.9	389.19
320.129	398.19
320.358	403.19
320.587	407.19
320.816	416.19
321.046	424.19
321.275	430.19
321.504	441.19
321.733	413.19
321.962	421.19
322.191	432.19
322.42	446.19
322.649	451.19
322.878	437.19
323.108	444.19
323.337	479.19
323.566	495.19
323.795	490.19
324.024	526.19
324.253	600.19
324.482	809.19
324.71	1113.19
324.939	1567.19
325.168	1369.19
325.397	800.19
325.626	586.19
325.855	505.19
326.084	487.19
326.313	503.19
326.542	477.19
326.77	492.19
326.999	563.19
327.228	716.19
327.457	1011.19
327.686	1229.19
327.914	896.19
328.143	624.19
328.372	561.19
328.6	557.19
328.829	508.19
329.058	533.19
329.287	543.19
329.515	526.19
329.744	505.19
329.972	472.19
330.201	517.19
330.43	528.19
330.658	561.19
330.887	586.19
331.115	537.19
331.344	517.19
331.572	506.19
331.801	486.19
332.03	526.19
332.258	522.19
332.486	484.19
332.715	511.19
332.943	514.19
333.172	513.19
333.4	526.19
333.629	535.19
333.857	532.19
334.085	551.19
334.314	559.19
334.542	573.19
334.771	582.19
334.999	550.19
335.227	533.19
335.455	504.19
335.684	500.19
335.912	498.19
336.14	479.19
336.369	489.19
336.597	496.19
336.825	480.19
337.053	520.19
337.281	501.19
337.51	472.19
337.738	482.19
337.966	480.19
338.194	502.19
338.422	490.19
338.65	467.19
338.878	467.19
339.106	475.19
339.334	451.19
339.562	465.19
339.79	476.19
340.018	464.19
340.246	455.19
340.474	469.19
340.702	443.19
340.93	436.19
341.158	464.19
341.386	454.19
341.614	471.19
341.842	478.19
342.07	452.19
342.298	449.19
342.526	463.19
342.754	460.19
342.981	451.19
343.209	433.19
343.437	463.19
343.665	485.19
343.893	493.19
344.12	494.19
344.348	520.19
344.576	489.19
344.804	504.19
345.031	473.19
345.259	464.19
345.487	471.19
345.714	453.19
345.942	449.19
346.17	436.19
346.397	446.19
346.625	425.19
346.853	437.19
347.08	417.19
347.308	437.19
347.535	448.19
347.763	455.19
347.99	455.19
348.218	452.19
348.445	449.19
348.673	433.19
348.9	439.19
349.128	424.19
349.355	433.19
349.583	437.19
349.81	418.19
350.037	440.19
350.265	421.19
350.492	454.19
350.72	431.19
350.947	441.19
351.174	425.19
351.402	423.19
351.629	452.19
351.856	439.19
352.083	447.19
352.311	458.19
352.538	441.19
352.765	436.19
352.992	418.19
353.22	431.19
353.447	424.19
353.674	442.19
353.901	440.19
354.128	437.19
354.355	408.19
354.583	411.19
354.81	424.19
355.037	417.19
355.264	426.19
355.491	413.19
355.718	431.19
355.945	430.19
356.172	411.19
356.399	413.19
356.626	414.19
356.853	411.19
357.08	407.19
357.307	424.19
357.534	411.19
357.761	403.19
357.988	426.19
358.215	393.19
358.441	396.19
358.668	420.19
358.895	439.19
359.122	426.19
359.349	425.19
359.576	443.19
359.802	461.19
360.029	451.19
360.256	481.19
360.483	447.19
360.709	443.19
360.936	433.19
361.163	453.19
361.39	454.19
361.616	425.19
361.843	421.19
362.07	444.19
362.296	433.19
362.523	437.19
362.749	427.19
362.976	428.19
363.203	415.19
363.429	428.19
363.656	432.19
363.882	409.19
364.109	431.19
364.335	422.19
364.562	423.19
364.788	440.19
365.015	404.19
365.241	421.19
365.468	417.19
365.694	433.19
365.92	429.19
366.147	428.19
366.373	431.19
366.599	427.19
366.826	399.19
367.052	400.19
367.278	412.19
367.505	421.19
367.731	435.19
367.957	398.19
368.184	437.19
368.41	429.19
368.636	419.19
368.862	437.19
369.089	433.19
369.315	407.19
369.541	415.19
369.767	425.19
369.993	424.19
370.219	405.19
370.445	434.19
370.672	421.19
370.898	415.19
371.124	427.19
371.35	447.19
371.576	442.19
371.802	415.19
372.028	441.19
372.254	436.19
372.48	426.19
372.706	422.19
372.932	426.19
373.158	445.19
373.384	422.19
373.61	437.19
373.835	428.19
374.061	417.19
374.287	429.19
374.513	445.19
374.739	452.19
374.965	454.19
375.191	446.19
375.416	446.19
375.642	437.19
375.868	442.19
376.094	439.19
376.319	436.19
376.545	433.19
376.771	428.19
376.997	436.19
377.222	425.19
377.448	419.19
377.674	443.19
377.899	428.19
378.125	456.19
378.35	426.19
378.576	438.19
378.802	435.19
379.027	443.19
379.253	415.19
379.478	437.19
379.704	435.19
379.929	448.19
380.155	416.19
380.38	437.19
380.606	437.19
380.831	431.19
381.057	433.19
381.282	426.19
381.507	428.19
381.733	427.19
381.958	425.19
382.184	437.19
382.409	436.19
382.634	429.19
382.86	447.19
383.085	440.19
383.31	451.19
383.535	458.19
383.761	462.19
383.986	466.19
384.211	464.19
384.436	468.19
384.662	464.19
384.887	468.19
385.112	477.19
385.337	508.19
385.562	465.19
385.787	486.19
386.013	503.19
386.238	494.19
386.463	494.19
386.688	488.19
386.913	482.19
387.138	489.19
387.363	492.19
387.588	488.19
387.813	492.19
388.038	484.19
388.263	484.19
388.488	469.19
388.713	456.19
388.938	477.19
389.163	500.19
389.387	485.19
389.612	465.19
389.837	506.19
390.062	502.19
390.287	486.19
390.512	460.19
390.736	490.19
390.961	513.19
391.186	499.19
391.411	506.19
391.636	497.19
391.86	521.19
392.085	509.19
392.31	536.19
392.534	513.19
392.759	507.19
392.984	517.19
393.208	496.19
393.433	499.19
393.658	505.19
393.882	496.19
394.107	513.19
394.331	501.19
394.556	489.19
394.78	505.19
395.005	488.19
395.229	523.19
395.454	510.19
395.678	522.19
395.903	542.19
396.127	548.19
396.352	519.19
396.576	509.19
396.801	519.19
397.025	525.19
397.249	526.19
397.474	542.19
397.698	536.19
397.922	527.19
398.147	553.19
398.371	560.19
398.595	558.19
398.82	555.19
399.044	602.19
399.268	624.19
399.492	670.19
399.717	712.19
399.941	763.19
400.165	743.19
400.389	731.19
400.613	686.19
400.837	596.19
401.062	601.19
401.286	573.19
401.51	588.19
401.734	567.19
401.958	575.19
402.182	574.19
402.406	588.19
402.63	583.19
402.854	598.19
403.078	595.19
403.302	596.19
403.526	619.19
403.75	636.19
403.974	603.19
404.198	599.19
404.422	618.19
404.645	615.19
404.869	617.19
405.093	652.19
405.317	647.19
405.541	681.19
405.765	635.19
405.988	628.19
406.212	633.19
406.436	651.19
406.66	668.19
406.883	664.19
407.107	695.19
407.331	695.19
407.555	761.19
407.778	778.19
408.002	707.19
408.226	678.19
408.449	703.19
408.673	663.19
408.896	648.19
409.12	697.19
409.344	680.19
409.567	629.19
409.791	631.19
410.014	602.19
410.238	601.19
410.461	604.19
410.685	619.19
410.908	605.19
411.132	637.19
411.355	671.19
411.578	641.19
411.802	606.19
412.025	583.19
412.249	607.19
412.472	634.19
412.695	639.19
412.919	627.19
413.142	607.19
413.365	604.19
413.589	588.19
413.812	572.19
414.035	552.19
414.258	567.19
414.482	569.19
414.705	565.19
414.928	557.19
415.151	567.19
415.374	560.19
415.597	538.19
415.821	546.19
416.044	586.19
416.267	557.19
416.49	558.19
416.713	532.19
416.936	574.19
417.159	553.19
417.382	552.19
417.605	566.19
417.828	568.19
418.051	592.19
418.274	568.19
418.497	544.19
418.72	590.19
418.943	566.19
419.166	589.19
419.389	636.19
419.611	606.19
419.834	595.19
420.057	601.19
420.28	608.19
420.503	572.19
420.726	567.19
420.948	575.19
421.171	627.19
421.394	649.19
421.617	591.19
421.839	590.19
422.062	575.19
422.285	596.19
422.507	645.19
422.73	706.19
422.953	691.19
423.175	623.19
423.398	600.19
423.621	612.19
423.843	618.19
424.066	618.19
424.288	604.19
424.511	622.19
424.733	676.19
424.956	744.19
425.178	692.19
425.401	694.19
425.623	729.19
425.846	636.19
426.068	596.19
426.291	602.19
426.513	598.19
426.735	621.19
426.958	638.19
427.18	707.19
427.402	791.19
427.625	898.19
427.847	755.19
428.069	659.19
428.292	627.19
428.514	600.19
428.736	594.19
428.958	548.19
429.181	552.19
429.403	523.19
429.625	539.19
429.847	566.19
430.069	629.19
430.292	649.19
430.514	581.19
430.736	538.19
430.958	542.19
431.18	543.19
431.402	526.19
431.624	521.19
431.846	546.19
432.068	505.19
432.29	515.19
432.512	520.19
432.734	550.19
432.956	535.19
433.178	497.19
433.4	536.19
433.622	537.19
433.844	526.19
434.066	519.19
434.287	513.19
434.509	557.19
434.731	544.19
434.953	565.19
435.175	608.19
435.397	614.19
435.618	579.19
435.84	641.19
436.062	695.19
436.284	764.19
436.505	632.19
436.727	602.19
436.949	551.19
437.17	551.19
437.392	527.19
437.614	534.19
437.835	569.19
438.057	633.19
438.278	731.19
438.5	747.19
438.721	797.19
438.943	771.19
439.165	630.19
439.386	605.19
439.608	571.19
439.829	583.19
440.05	599.19
440.272	636.19
440.493	583.19
440.715	555.19
440.936	581.19
441.158	545.19
441.379	600.19
441.6	582.19
441.822	609.19
442.043	632.19
442.264	704.19
442.486	709.19
442.707	643.19
442.928	600.19
443.149	600.19
443.371	606.19
443.592	638.19
443.813	747.19
444.034	778.19
444.255	688.19
444.476	652.19
444.698	651.19
444.919	659.19
445.14	731.19
445.361	658.19
445.582	669.19
445.803	688.19
446.024	759.19
446.245	775.19
446.466	698.19
446.687	606.19
446.908	576.19
447.129	551.19
447.35	539.19
447.571	527.19
447.792	528.19
448.013	539.19
448.234	543.19
448.455	571.19
448.675	684.19
448.896	786.19
449.117	691.19
449.338	614.19
449.559	718.19
449.779	830.19
450	672.19
450.221	583.19
450.442	547.19
450.662	531.19
450.883	524.19
451.104	518.19
451.324	517.19
451.545	519.19
451.766	498.19
451.986	488.19
452.207	484.19
452.428	475.19
452.648	484.19
452.869	484.19
453.089	491.19
453.31	516.19
453.53	485.19
453.751	464.19
453.971	483.19
454.192	493.19
454.412	484.19
454.633	467.19
454.853	470.19
455.073	479.19
455.294	492.19
455.514	553.19
455.734	546.19
455.955	495.19
456.175	458.19
456.395	460.19
456.616	445.19
456.836	463.19
457.056	474.19
457.276	448.19
457.497	454.19
457.717	446.19
457.937	488.19
458.157	476.19
458.377	473.19
458.598	511.19
458.818	542.19
459.038	603.19
459.258	627.19
459.478	563.19
459.698	560.19
459.918	535.19
460.138	528.19
460.358	552.19
460.578	568.19
460.798	559.19
461.018	569.19
461.238	567.19
461.458	566.19
461.678	559.19
461.898	578.19
462.118	587.19
462.338	587.19
462.558	609.19
462.777	615.19
462.997	668.19
463.217	657.19
463.437	656.19
463.657	628.19
463.876	594.19
464.096	604.19
464.316	606.19
464.536	605.19
464.755	605.19
464.975	619.19
465.195	592.19
465.414	633.19
465.634	590.19
465.854	583.19
466.073	572.19
466.293	525.19
466.512	524.19
466.732	519.19
466.951	528.19
467.171	518.19
467.391	526.19
467.61	519.19
467.829	507.19
468.049	525.19
468.268	500.19
468.488	505.19
468.707	492.19
468.927	478.19
469.146	495.19
469.365	524.19
469.585	494.19
469.804	514.19
470.023	517.19
470.243	521.19
470.462	546.19
470.681	527.19
470.901	516.19
471.12	506.19
471.339	515.19
471.558	503.19
471.777	496.19
471.997	505.19
472.216	509.19
472.435	534.19
472.654	495.19
472.873	507.19
473.092	489.19
473.311	507.19
473.53	516.19
473.749	531.19
473.968	535.19
474.187	591.19
474.406	646.19
474.625	523.19
474.844	522.19
475.063	511.19
475.282	501.19
475.501	482.19
475.72	504.19
475.939	518.19
476.158	519.19
476.377	511.19
476.596	513.19
476.814	529.19
477.033	540.19
477.252	541.19
477.471	550.19
477.69	526.19
477.908	548.19
478.127	548.19
478.346	566.19
478.564	572.19
478.783	571.19
479.002	610.19
479.22	583.19
479.439	611.19
479.658	608.19
479.876	620.19
480.095	615.19
480.313	658.19
480.532	637.19
480.751	662.19
480.969	635.19
481.188	657.19
481.406	668.19
481.624	635.19
481.843	592.19
482.061	575.19
482.28	608.19
482.498	582.19
482.717	569.19
482.935	572.19
483.153	590.19
483.372	570.19
483.59	591.19
483.808	589.19
484.027	580.19
484.245	592.19
484.463	612.19
484.681	611.19
484.9	606.19
485.118	621.19
485.336	603.19
485.554	616.19
485.772	608.19
485.99	628.19
486.209	597.19
486.427	608.19
486.645	621.19
486.863	618.19
487.081	636.19
487.299	618.19
487.517	611.19
487.735	660.19
487.953	644.19
488.171	622.19
488.389	605.19
488.607	614.19
488.825	631.19
489.043	608.19
489.261	654.19
489.479	640.19
489.696	638.19
489.914	635.19
490.132	656.19
490.35	667.19
490.568	663.19
490.786	667.19
491.003	637.19
491.221	701.19
491.439	668.19
491.657	713.19
491.874	701.19
492.092	702.19
492.31	720.19
492.527	719.19
492.745	709.19
492.963	722.19
493.18	733.19
493.398	732.19
493.615	721.19
493.833	707.19
494.05	729.19
494.268	727.19
494.485	728.19
494.703	705.19
494.92	740.19
495.138	722.19
495.355	737.19
495.573	736.19
495.79	719.19
496.008	736.19
496.225	748.19
496.442	763.19
496.66	744.19
496.877	728.19
497.094	755.19
497.312	731.19
497.529	793.19
497.746	780.19
497.963	789.19
498.181	838.19
498.398	849.19
498.615	855.19
498.832	887.19
499.049	902.19
499.267	927.19
499.484	1010.19
499.701	1037.19
499.918	1090.19
500.135	1168.19
500.352	1296.19
500.569	1337.19
500.786	1329.19
501.003	1268.19
501.22	1195.19
501.437	1110.19
501.654	1055.19
