Data from 1973.PennyLincolnUp.Lamp.En5.5.200Scan.071719.P1.Changed Mount._HRD10591_15-45-57-853.txt Node
Date: Thu Jul 18 15:45:57 EDT 2019
User: cochatt
Spectrometer: HR+D1059
Trigger mode: 1
Integration Time (sec): 1.000000E-1
Scans to average: 1
Electric dark correction enabled: true
Nonlinearity correction enabled: false
Boxcar width: 0
XAxis mode: Wavelengths
Number of Pixels in Spectrum: 2048
>>>>>Begin Spectral Data<<<<<
223.165	-5.75
223.4	-5.75
223.635	-5.75
223.869	-13.75
224.104	-8.75
224.338	-16.75
224.573	-23.75
224.808	-22.75
225.042	-7.75
225.277	4.25
225.511	-19.75
225.746	0.25
225.98	-6.75
226.215	18.25
226.449	11.25
226.683	32.25
226.918	26.25
227.152	33.25
227.387	40.25
227.621	30.25
227.856	44.25
228.09	44.25
228.324	46.25
228.559	50.25
228.793	63.25
229.027	81.25
229.262	96.25
229.496	109.25
229.73	131.25
229.964	120.25
230.199	116.25
230.433	117.25
230.667	99.25
230.901	118.25
231.136	113.25
231.37	101.25
231.604	102.25
231.838	112.25
232.072	114.25
232.306	100.25
232.541	117.25
232.775	105.25
233.009	119.25
233.243	98.25
233.477	113.25
233.711	120.25
233.945	125.25
234.179	118.25
234.413	118.25
234.647	136.25
234.881	120.25
235.115	106.25
235.349	125.25
235.583	115.25
235.817	124.25
236.051	120.25
236.285	117.25
236.519	126.25
236.753	120.25
236.987	130.25
237.221	169.25
237.455	201.25
237.689	167.25
237.922	141.25
238.156	129.25
238.39	136.25
238.624	130.25
238.858	129.25
239.091	130.25
239.325	123.25
239.559	139.25
239.793	131.25
240.027	126.25
240.26	158.25
240.494	167.25
240.728	156.25
240.961	139.25
241.195	138.25
241.429	148.25
241.662	146.25
241.896	157.25
242.13	133.25
242.363	128.25
242.597	132.25
242.83	136.25
243.064	136.25
243.298	156.25
243.531	137.25
243.765	135.25
243.998	144.25
244.232	147.25
244.465	155.25
244.699	153.25
244.932	139.25
245.166	144.25
245.399	135.25
245.633	127.25
245.866	146.25
246.099	141.25
246.333	158.25
246.566	155.25
246.8	165.25
247.033	143.25
247.266	166.25
247.5	166.25
247.733	190.25
247.966	162.25
248.2	175.25
248.433	174.25
248.666	168.25
248.899	170.25
249.133	183.25
249.366	195.25
249.599	202.25
249.832	191.25
250.066	177.25
250.299	178.25
250.532	200.25
250.765	198.25
250.998	211.25
251.231	226.25
251.465	195.25
251.698	190.25
251.931	178.25
252.164	195.25
252.397	192.25
252.63	193.25
252.863	202.25
253.096	198.25
253.329	225.25
253.562	205.25
253.795	216.25
254.028	222.25
254.261	204.25
254.494	218.25
254.727	249.25
254.96	271.25
255.193	277.25
255.426	244.25
255.659	228.25
255.892	227.25
256.124	235.25
256.357	236.25
256.59	207.25
256.823	211.25
257.056	214.25
257.289	201.25
257.521	213.25
257.754	208.25
257.987	205.25
258.22	218.25
258.452	202.25
258.685	206.25
258.918	205.25
259.151	220.25
259.383	213.25
259.616	230.25
259.849	235.25
260.081	239.25
260.314	230.25
260.547	259.25
260.779	241.25
261.012	228.25
261.244	223.25
261.477	234.25
261.71	220.25
261.942	234.25
262.175	207.25
262.407	218.25
262.64	234.25
262.872	227.25
263.105	220.25
263.337	219.25
263.57	215.25
263.802	212.25
264.035	213.25
264.267	231.25
264.499	197.25
264.732	232.25
264.964	230.25
265.197	223.25
265.429	244.25
265.661	230.25
265.894	223.25
266.126	234.25
266.358	213.25
266.591	228.25
266.823	244.25
267.055	247.25
267.287	230.25
267.52	233.25
267.752	241.25
267.984	244.25
268.216	234.25
268.448	255.25
268.681	245.25
268.913	263.25
269.145	270.25
269.377	282.25
269.609	273.25
269.841	286.25
270.073	305.25
270.306	286.25
270.538	307.25
270.77	307.25
271.002	323.25
271.234	302.25
271.466	307.25
271.698	309.25
271.93	306.25
272.162	336.25
272.394	315.25
272.626	305.25
272.858	299.25
273.09	289.25
273.322	276.25
273.553	289.25
273.785	286.25
274.017	283.25
274.249	266.25
274.481	284.25
274.713	282.25
274.945	287.25
275.176	277.25
275.408	294.25
275.64	275.25
275.872	278.25
276.104	287.25
276.335	271.25
276.567	274.25
276.799	296.25
277.031	327.25
277.262	317.25
277.494	318.25
277.726	311.25
277.957	321.25
278.189	271.25
278.421	301.25
278.652	297.25
278.884	291.25
279.115	291.25
279.347	298.25
279.579	251.25
279.81	286.25
280.042	281.25
280.273	294.25
280.505	284.25
280.736	266.25
280.968	260.25
281.199	290.25
281.431	299.25
281.662	267.25
281.894	292.25
282.125	294.25
282.356	309.25
282.588	314.25
282.819	318.25
283.051	283.25
283.282	301.25
283.513	296.25
283.745	296.25
283.976	301.25
284.207	316.25
284.439	309.25
284.67	310.25
284.901	283.25
285.132	287.25
285.364	292.25
285.595	313.25
285.826	299.25
286.057	314.25
286.288	300.25
286.52	303.25
286.751	318.25
286.982	307.25
287.213	302.25
287.444	299.25
287.675	306.25
287.906	326.25
288.138	321.25
288.369	321.25
288.6	322.25
288.831	319.25
289.062	329.25
289.293	310.25
289.524	319.25
289.755	330.25
289.986	313.25
290.217	314.25
290.448	317.25
290.679	339.25
290.91	327.25
291.141	309.25
291.371	331.25
291.602	331.25
291.833	310.25
292.064	310.25
292.295	325.25
292.526	319.25
292.757	301.25
292.987	330.25
293.218	325.25
293.449	321.25
293.68	311.25
293.91	317.25
294.141	315.25
294.372	312.25
294.603	339.25
294.833	313.25
295.064	311.25
295.295	332.25
295.525	321.25
295.756	340.25
295.987	338.25
296.217	353.25
296.448	348.25
296.679	352.25
296.909	332.25
297.14	328.25
297.37	334.25
297.601	329.25
297.831	330.25
298.062	333.25
298.292	318.25
298.523	337.25
298.753	338.25
298.984	312.25
299.214	346.25
299.445	323.25
299.675	339.25
299.905	325.25
300.136	329.25
300.366	337.25
300.597	369.25
300.827	345.25
301.057	359.25
301.288	349.25
301.518	357.25
301.748	365.25
301.979	335.25
302.209	349.25
302.439	363.25
302.669	349.25
302.9	343.25
303.13	363.25
303.36	350.25
303.59	385.25
303.82	373.25
304.051	371.25
304.281	360.25
304.511	353.25
304.741	356.25
304.971	360.25
305.201	356.25
305.431	358.25
305.661	372.25
305.891	347.25
306.121	369.25
306.352	351.25
306.582	357.25
306.812	359.25
307.042	363.25
307.272	355.25
307.502	365.25
307.731	365.25
307.961	366.25
308.191	368.25
308.421	347.25
308.651	377.25
308.881	351.25
309.111	369.25
309.341	373.25
309.571	379.25
309.8	388.25
310.03	381.25
310.26	399.25
310.49	389.25
310.72	397.25
310.949	388.25
311.179	383.25
311.409	395.25
311.639	402.25
311.868	398.25
312.098	393.25
312.328	404.25
312.557	413.25
312.787	396.25
313.017	398.25
313.246	415.25
313.476	393.25
313.706	387.25
313.935	390.25
314.165	403.25
314.394	398.25
314.624	407.25
314.853	409.25
315.083	393.25
315.312	405.25
315.542	414.25
315.771	381.25
316.001	394.25
316.23	391.25
316.46	394.25
316.689	393.25
316.919	411.25
317.148	409.25
317.377	388.25
317.607	411.25
317.836	394.25
318.065	392.25
318.295	412.25
318.524	405.25
318.753	403.25
318.983	396.25
319.212	392.25
319.441	410.25
319.67	419.25
319.9	404.25
320.129	402.25
320.358	399.25
320.587	402.25
320.816	401.25
321.046	412.25
321.275	415.25
321.504	407.25
321.733	415.25
321.962	404.25
322.191	411.25
322.42	433.25
322.649	444.25
322.878	438.25
323.108	453.25
323.337	457.25
323.566	460.25
323.795	498.25
324.024	553.25
324.253	613.25
324.482	778.25
324.71	1151.25
324.939	1604.25
325.168	1435.25
325.397	800.25
325.626	593.25
325.855	522.25
326.084	525.25
326.313	491.25
326.542	481.25
326.77	527.25
326.999	591.25
327.228	757.25
327.457	1047.25
327.686	1292.25
327.914	883.25
328.143	625.25
328.372	590.25
328.6	557.25
328.829	542.25
329.058	540.25
329.287	535.25
329.515	535.25
329.744	483.25
329.972	481.25
330.201	510.25
330.43	529.25
330.658	534.25
330.887	567.25
331.115	565.25
331.344	514.25
331.572	508.25
331.801	502.25
332.03	518.25
332.258	489.25
332.486	485.25
332.715	492.25
332.943	491.25
333.172	506.25
333.4	515.25
333.629	517.25
333.857	527.25
334.085	528.25
334.314	559.25
334.542	550.25
334.771	573.25
334.999	527.25
335.227	499.25
335.455	493.25
335.684	479.25
335.912	494.25
336.14	478.25
336.369	479.25
336.597	492.25
336.825	493.25
337.053	469.25
337.281	464.25
337.51	463.25
337.738	467.25
337.966	460.25
338.194	457.25
338.422	478.25
338.65	485.25
338.878	455.25
339.106	454.25
339.334	452.25
339.562	451.25
339.79	458.25
340.018	466.25
340.246	457.25
340.474	457.25
340.702	431.25
340.93	434.25
341.158	467.25
341.386	453.25
341.614	469.25
341.842	459.25
342.07	452.25
342.298	466.25
342.526	459.25
342.754	433.25
342.981	430.25
343.209	435.25
343.437	461.25
343.665	476.25
343.893	477.25
344.12	499.25
344.348	492.25
344.576	469.25
344.804	459.25
345.031	461.25
345.259	481.25
345.487	466.25
345.714	459.25
345.942	462.25
346.17	466.25
346.397	435.25
346.625	430.25
346.853	436.25
347.08	433.25
347.308	429.25
347.535	428.25
347.763	436.25
347.99	442.25
348.218	449.25
348.445	445.25
348.673	439.25
348.9	448.25
349.128	444.25
349.355	412.25
349.583	426.25
349.81	422.25
350.037	433.25
350.265	449.25
350.492	422.25
350.72	439.25
350.947	425.25
351.174	437.25
351.402	442.25
351.629	448.25
351.856	429.25
352.083	439.25
352.311	434.25
352.538	420.25
352.765	452.25
352.992	447.25
353.22	424.25
353.447	417.25
353.674	434.25
353.901	412.25
354.128	404.25
354.355	429.25
354.583	393.25
354.81	430.25
355.037	427.25
355.264	405.25
355.491	423.25
355.718	431.25
355.945	407.25
356.172	418.25
356.399	414.25
356.626	414.25
356.853	395.25
357.08	419.25
357.307	420.25
357.534	392.25
357.761	425.25
357.988	420.25
358.215	422.25
358.441	406.25
358.668	415.25
358.895	404.25
359.122	418.25
359.349	428.25
359.576	418.25
359.802	457.25
360.029	447.25
360.256	459.25
360.483	442.25
360.709	450.25
360.936	455.25
361.163	416.25
361.39	425.25
361.616	417.25
361.843	435.25
362.07	421.25
362.296	435.25
362.523	410.25
362.749	436.25
362.976	435.25
363.203	437.25
363.429	425.25
363.656	418.25
363.882	418.25
364.109	416.25
364.335	403.25
364.562	427.25
364.788	453.25
365.015	441.25
365.241	427.25
365.468	434.25
365.694	422.25
365.92	392.25
366.147	426.25
366.373	450.25
366.599	426.25
366.826	432.25
367.052	428.25
367.278	421.25
367.505	413.25
367.731	410.25
367.957	438.25
368.184	410.25
368.41	408.25
368.636	410.25
368.862	435.25
369.089	426.25
369.315	406.25
369.541	434.25
369.767	421.25
369.993	409.25
370.219	388.25
370.445	424.25
370.672	405.25
370.898	429.25
371.124	436.25
371.35	419.25
371.576	410.25
371.802	423.25
372.028	424.25
372.254	413.25
372.48	430.25
372.706	423.25
372.932	424.25
373.158	430.25
373.384	427.25
373.61	450.25
373.835	417.25
374.061	427.25
374.287	441.25
374.513	435.25
374.739	439.25
374.965	456.25
375.191	461.25
375.416	437.25
375.642	443.25
375.868	431.25
376.094	418.25
376.319	437.25
376.545	426.25
376.771	439.25
376.997	424.25
377.222	409.25
377.448	446.25
377.674	415.25
377.899	410.25
378.125	433.25
378.35	410.25
378.576	423.25
378.802	429.25
379.027	417.25
379.253	421.25
379.478	398.25
379.704	413.25
379.929	416.25
380.155	428.25
380.38	445.25
380.606	427.25
380.831	438.25
381.057	445.25
381.282	422.25
381.507	424.25
381.733	438.25
381.958	437.25
382.184	445.25
382.409	421.25
382.634	434.25
382.86	453.25
383.085	447.25
383.31	451.25
383.535	430.25
383.761	449.25
383.986	423.25
384.211	447.25
384.436	453.25
384.662	470.25
384.887	479.25
385.112	476.25
385.337	465.25
385.562	476.25
385.787	458.25
386.013	503.25
386.238	485.25
386.463	519.25
386.688	488.25
386.913	458.25
387.138	484.25
387.363	489.25
387.588	481.25
387.813	475.25
388.038	479.25
388.263	469.25
388.488	469.25
388.713	470.25
388.938	482.25
389.163	481.25
389.387	502.25
389.612	480.25
389.837	481.25
390.062	479.25
390.287	456.25
390.512	469.25
390.736	473.25
390.961	471.25
391.186	491.25
391.411	503.25
391.636	487.25
391.86	498.25
392.085	500.25
392.31	509.25
392.534	508.25
392.759	502.25
392.984	487.25
393.208	505.25
393.433	490.25
393.658	498.25
393.882	491.25
394.107	476.25
394.331	485.25
394.556	484.25
394.78	486.25
395.005	510.25
395.229	507.25
395.454	510.25
395.678	487.25
395.903	513.25
396.127	528.25
396.352	539.25
396.576	504.25
396.801	502.25
397.025	517.25
397.249	513.25
397.474	504.25
397.698	517.25
397.922	529.25
398.147	518.25
398.371	543.25
398.595	545.25
398.82	563.25
399.044	577.25
399.268	600.25
399.492	644.25
399.717	702.25
399.941	752.25
400.165	740.25
400.389	699.25
400.613	669.25
400.837	604.25
401.062	588.25
401.286	581.25
401.51	576.25
401.734	566.25
401.958	576.25
402.182	573.25
402.406	585.25
402.63	565.25
402.854	573.25
403.078	600.25
403.302	598.25
403.526	618.25
403.75	598.25
403.974	609.25
404.198	581.25
404.422	615.25
404.645	609.25
404.869	616.25
405.093	612.25
405.317	666.25
405.541	685.25
405.765	628.25
405.988	643.25
406.212	638.25
406.436	631.25
406.66	658.25
406.883	642.25
407.107	688.25
407.331	711.25
407.555	754.25
407.778	756.25
408.002	714.25
408.226	658.25
408.449	659.25
408.673	659.25
408.896	675.25
409.12	670.25
409.344	653.25
409.567	614.25
409.791	612.25
410.014	574.25
410.238	595.25
410.461	599.25
410.685	591.25
410.908	601.25
411.132	642.25
411.355	654.25
411.578	630.25
411.802	611.25
412.025	603.25
412.249	598.25
412.472	617.25
412.695	623.25
412.919	625.25
413.142	612.25
413.365	567.25
413.589	589.25
413.812	556.25
414.035	541.25
414.258	556.25
414.482	550.25
414.705	554.25
414.928	583.25
415.151	562.25
415.374	554.25
415.597	558.25
415.821	543.25
416.044	555.25
416.267	559.25
416.49	562.25
416.713	545.25
416.936	550.25
417.159	569.25
417.382	568.25
417.605	558.25
417.828	584.25
418.051	569.25
418.274	544.25
418.497	564.25
418.72	574.25
418.943	543.25
419.166	557.25
419.389	613.25
419.611	606.25
419.834	602.25
420.057	598.25
420.28	591.25
420.503	549.25
420.726	568.25
420.948	569.25
421.171	597.25
421.394	656.25
421.617	596.25
421.839	564.25
422.062	575.25
422.285	574.25
422.507	630.25
422.73	693.25
422.953	677.25
423.175	627.25
423.398	593.25
423.621	587.25
423.843	611.25
424.066	614.25
424.288	614.25
424.511	610.25
424.733	651.25
424.956	727.25
425.178	729.25
425.401	675.25
425.623	709.25
425.846	625.25
426.068	617.25
426.291	588.25
426.513	596.25
426.735	610.25
426.958	645.25
427.18	697.25
427.402	814.25
427.625	854.25
427.847	750.25
428.069	662.25
428.292	635.25
428.514	586.25
428.736	533.25
428.958	557.25
429.181	557.25
429.403	548.25
429.625	532.25
429.847	585.25
430.069	622.25
430.292	645.25
430.514	551.25
430.736	539.25
430.958	536.25
431.18	525.25
431.402	509.25
431.624	510.25
431.846	502.25
432.068	522.25
432.29	506.25
432.512	509.25
432.734	528.25
432.956	546.25
433.178	548.25
433.4	525.25
433.622	536.25
433.844	527.25
434.066	534.25
434.287	554.25
434.509	541.25
434.731	555.25
434.953	564.25
435.175	577.25
435.397	603.25
435.618	585.25
435.84	598.25
436.062	691.25
436.284	739.25
436.505	636.25
436.727	571.25
436.949	542.25
437.17	555.25
437.392	537.25
437.614	546.25
437.835	579.25
438.057	661.25
438.278	712.25
438.5	727.25
438.721	798.25
438.943	767.25
439.165	621.25
439.386	586.25
439.608	605.25
439.829	590.25
440.05	580.25
440.272	621.25
440.493	638.25
440.715	594.25
440.936	538.25
441.158	557.25
441.379	574.25
441.6	580.25
441.822	619.25
442.043	620.25
442.264	713.25
442.486	721.25
442.707	626.25
442.928	617.25
443.149	590.25
443.371	615.25
443.592	647.25
443.813	726.25
444.034	787.25
444.255	679.25
444.476	634.25
444.698	630.25
444.919	637.25
445.14	715.25
445.361	671.25
445.582	629.25
445.803	660.25
446.024	761.25
446.245	747.25
446.466	698.25
446.687	618.25
446.908	596.25
447.129	550.25
447.35	561.25
447.571	562.25
447.792	521.25
448.013	538.25
448.234	551.25
448.455	565.25
448.675	659.25
448.896	789.25
449.117	671.25
449.338	634.25
449.559	741.25
449.779	821.25
450	665.25
450.221	561.25
450.442	519.25
450.662	519.25
450.883	526.25
451.104	503.25
451.324	505.25
451.545	486.25
451.766	509.25
451.986	484.25
452.207	481.25
452.428	476.25
452.648	485.25
452.869	498.25
453.089	499.25
453.31	493.25
453.53	471.25
453.751	475.25
453.971	485.25
454.192	465.25
454.412	475.25
454.633	467.25
454.853	480.25
455.073	477.25
455.294	495.25
455.514	561.25
455.734	557.25
455.955	481.25
456.175	472.25
456.395	455.25
456.616	439.25
456.836	452.25
457.056	463.25
457.276	440.25
457.497	456.25
457.717	455.25
457.937	488.25
458.157	483.25
458.377	476.25
458.598	510.25
458.818	540.25
459.038	576.25
459.258	611.25
459.478	563.25
459.698	536.25
459.918	542.25
460.138	521.25
460.358	540.25
460.578	551.25
460.798	570.25
461.018	566.25
461.238	561.25
461.458	562.25
461.678	543.25
461.898	559.25
462.118	576.25
462.338	571.25
462.558	579.25
462.777	603.25
462.997	608.25
463.217	637.25
463.437	643.25
463.657	623.25
463.876	619.25
464.096	602.25
464.316	587.25
464.536	628.25
464.755	617.25
464.975	605.25
465.195	604.25
465.414	649.25
465.634	571.25
465.854	549.25
466.073	538.25
466.293	527.25
466.512	497.25
466.732	485.25
466.951	518.25
467.171	493.25
467.391	490.25
467.61	503.25
467.829	508.25
468.049	520.25
468.268	467.25
468.488	469.25
468.707	468.25
468.927	492.25
469.146	470.25
469.365	494.25
469.585	484.25
469.804	489.25
470.023	514.25
470.243	511.25
470.462	515.25
470.681	510.25
470.901	533.25
471.12	531.25
471.339	525.25
471.558	524.25
471.777	525.25
471.997	502.25
472.216	488.25
472.435	507.25
472.654	497.25
472.873	499.25
473.092	491.25
473.311	488.25
473.53	503.25
473.749	487.25
473.968	534.25
474.187	625.25
474.406	645.25
474.625	528.25
474.844	515.25
475.063	491.25
475.282	503.25
475.501	490.25
475.72	500.25
475.939	505.25
476.158	516.25
476.377	506.25
476.596	497.25
476.814	526.25
477.033	526.25
477.252	514.25
477.471	527.25
477.69	522.25
477.908	548.25
478.127	554.25
478.346	544.25
478.564	571.25
478.783	558.25
479.002	574.25
479.22	607.25
479.439	619.25
479.658	622.25
479.876	600.25
480.095	609.25
480.313	633.25
480.532	651.25
480.751	634.25
480.969	630.25
481.188	638.25
481.406	678.25
481.624	612.25
481.843	595.25
482.061	585.25
482.28	567.25
482.498	568.25
482.717	573.25
482.935	558.25
483.153	586.25
483.372	581.25
483.59	579.25
483.808	564.25
484.027	556.25
484.245	578.25
484.463	556.25
484.681	597.25
484.9	597.25
485.118	589.25
485.336	564.25
485.554	608.25
485.772	587.25
485.99	607.25
486.209	590.25
486.427	583.25
486.645	609.25
486.863	612.25
487.081	611.25
487.299	590.25
487.517	604.25
487.735	624.25
487.953	626.25
488.171	619.25
488.389	617.25
488.607	608.25
488.825	601.25
489.043	604.25
489.261	609.25
489.479	654.25
489.696	620.25
489.914	667.25
490.132	636.25
490.35	620.25
490.568	647.25
490.786	645.25
491.003	666.25
491.221	643.25
491.439	662.25
491.657	674.25
491.874	670.25
492.092	698.25
492.31	708.25
492.527	702.25
492.745	684.25
492.963	707.25
493.18	709.25
493.398	696.25
493.615	708.25
493.833	711.25
494.05	708.25
494.268	699.25
494.485	730.25
494.703	731.25
494.92	732.25
495.138	707.25
495.355	732.25
495.573	741.25
495.79	726.25
496.008	726.25
496.225	717.25
496.442	709.25
496.66	716.25
496.877	735.25
497.094	750.25
497.312	729.25
497.529	770.25
497.746	785.25
497.963	789.25
498.181	806.25
498.398	821.25
498.615	863.25
498.832	875.25
499.049	925.25
499.267	927.25
499.484	954.25
499.701	1021.25
499.918	1081.25
500.135	1167.25
500.352	1248.25
500.569	1286.25
500.786	1260.25
501.003	1241.25
501.22	1173.25
501.437	1110.25
501.654	1084.25
