Data from 1973.PennyLincolnUp.Lamp.En5.5.200Scan.071719.P1.Changed Mount._HRD10591_15-43-42-851.txt Node
Date: Thu Jul 18 15:43:42 EDT 2019
User: cochatt
Spectrometer: HR+D1059
Trigger mode: 1
Integration Time (sec): 1.000000E-1
Scans to average: 1
Electric dark correction enabled: true
Nonlinearity correction enabled: false
Boxcar width: 0
XAxis mode: Wavelengths
Number of Pixels in Spectrum: 2048
>>>>>Begin Spectral Data<<<<<
223.165	-15.5
223.4	-15.5
223.635	-15.5
223.869	-7.5
224.104	-14.5
224.338	-22.5
224.573	-23.5
224.808	-4.5
225.042	-11.5
225.277	-23.5
225.511	14.5
225.746	4.5
225.98	10.5
226.215	4.5
226.449	6.5
226.683	17.5
226.918	33.5
227.152	31.5
227.387	29.5
227.621	33.5
227.856	35.5
228.09	47.5
228.324	59.5
228.559	59.5
228.793	70.5
229.027	94.5
229.262	108.5
229.496	99.5
229.73	113.5
229.964	133.5
230.199	114.5
230.433	104.5
230.667	110.5
230.901	100.5
231.136	107.5
231.37	105.5
231.604	101.5
231.838	115.5
232.072	112.5
232.306	120.5
232.541	118.5
232.775	120.5
233.009	111.5
233.243	112.5
233.477	125.5
233.711	109.5
233.945	106.5
234.179	116.5
234.413	100.5
234.647	107.5
234.881	116.5
235.115	115.5
235.349	113.5
235.583	125.5
235.817	130.5
236.051	128.5
236.285	124.5
236.519	110.5
236.753	131.5
236.987	142.5
237.221	165.5
237.455	189.5
237.689	167.5
237.922	141.5
238.156	134.5
238.39	128.5
238.624	127.5
238.858	132.5
239.091	123.5
239.325	119.5
239.559	120.5
239.793	121.5
240.027	136.5
240.26	134.5
240.494	149.5
240.728	137.5
240.961	134.5
241.195	129.5
241.429	131.5
241.662	132.5
241.896	125.5
242.13	134.5
242.363	131.5
242.597	135.5
242.83	152.5
243.064	132.5
243.298	129.5
243.531	115.5
243.765	128.5
243.998	144.5
244.232	149.5
244.465	146.5
244.699	155.5
244.932	149.5
245.166	140.5
245.399	153.5
245.633	151.5
245.866	136.5
246.099	156.5
246.333	151.5
246.566	145.5
246.8	144.5
247.033	163.5
247.266	156.5
247.5	148.5
247.733	167.5
247.966	159.5
248.2	167.5
248.433	150.5
248.666	159.5
248.899	175.5
249.133	191.5
249.366	175.5
249.599	198.5
249.832	193.5
250.066	172.5
250.299	179.5
250.532	180.5
250.765	198.5
250.998	211.5
251.231	220.5
251.465	199.5
251.698	191.5
251.931	186.5
252.164	201.5
252.397	187.5
252.63	188.5
252.863	204.5
253.096	193.5
253.329	205.5
253.562	195.5
253.795	205.5
254.028	189.5
254.261	199.5
254.494	192.5
254.727	222.5
254.96	247.5
255.193	234.5
255.426	239.5
255.659	225.5
255.892	219.5
256.124	217.5
256.357	226.5
256.59	211.5
256.823	205.5
257.056	190.5
257.289	191.5
257.521	211.5
257.754	205.5
257.987	206.5
258.22	198.5
258.452	195.5
258.685	205.5
258.918	211.5
259.151	190.5
259.383	209.5
259.616	205.5
259.849	234.5
260.081	218.5
260.314	223.5
260.547	224.5
260.779	228.5
261.012	219.5
261.244	206.5
261.477	225.5
261.71	200.5
261.942	205.5
262.175	211.5
262.407	223.5
262.64	184.5
262.872	220.5
263.105	203.5
263.337	218.5
263.57	223.5
263.802	200.5
264.035	216.5
264.267	211.5
264.499	210.5
264.732	212.5
264.964	213.5
265.197	227.5
265.429	210.5
265.661	217.5
265.894	217.5
266.126	213.5
266.358	216.5
266.591	227.5
266.823	224.5
267.055	202.5
267.287	224.5
267.52	219.5
267.752	245.5
267.984	228.5
268.216	232.5
268.448	233.5
268.681	245.5
268.913	219.5
269.145	254.5
269.377	255.5
269.609	249.5
269.841	246.5
270.073	251.5
270.306	270.5
270.538	295.5
270.77	302.5
271.002	282.5
271.234	273.5
271.466	270.5
271.698	273.5
271.93	295.5
272.162	308.5
272.394	292.5
272.626	280.5
272.858	279.5
273.09	258.5
273.322	259.5
273.553	275.5
273.785	250.5
274.017	262.5
274.249	240.5
274.481	231.5
274.713	259.5
274.945	252.5
275.176	280.5
275.408	271.5
275.64	267.5
275.872	261.5
276.104	260.5
276.335	269.5
276.567	269.5
276.799	271.5
277.031	292.5
277.262	288.5
277.494	294.5
277.726	284.5
277.957	291.5
278.189	271.5
278.421	268.5
278.652	258.5
278.884	270.5
279.115	270.5
279.347	270.5
279.579	279.5
279.81	283.5
280.042	271.5
280.273	285.5
280.505	281.5
280.736	273.5
280.968	280.5
281.199	262.5
281.431	273.5
281.662	285.5
281.894	277.5
282.125	273.5
282.356	274.5
282.588	301.5
282.819	308.5
283.051	291.5
283.282	265.5
283.513	280.5
283.745	297.5
283.976	280.5
284.207	293.5
284.439	292.5
284.67	301.5
284.901	295.5
285.132	288.5
285.364	280.5
285.595	297.5
285.826	289.5
286.057	280.5
286.288	277.5
286.52	266.5
286.751	287.5
286.982	296.5
287.213	294.5
287.444	294.5
287.675	279.5
287.906	303.5
288.138	308.5
288.369	329.5
288.6	291.5
288.831	297.5
289.062	305.5
289.293	314.5
289.524	299.5
289.755	304.5
289.986	296.5
290.217	297.5
290.448	289.5
290.679	309.5
290.91	290.5
291.141	281.5
291.371	307.5
291.602	301.5
291.833	308.5
292.064	333.5
292.295	300.5
292.526	304.5
292.757	296.5
292.987	297.5
293.218	291.5
293.449	299.5
293.68	306.5
293.91	307.5
294.141	308.5
294.372	301.5
294.603	304.5
294.833	304.5
295.064	301.5
295.295	316.5
295.525	306.5
295.756	308.5
295.987	316.5
296.217	300.5
296.448	310.5
296.679	303.5
296.909	310.5
297.14	312.5
297.37	318.5
297.601	311.5
297.831	313.5
298.062	310.5
298.292	317.5
298.523	323.5
298.753	325.5
298.984	315.5
299.214	294.5
299.445	311.5
299.675	326.5
299.905	329.5
300.136	329.5
300.366	336.5
300.597	317.5
300.827	323.5
301.057	335.5
301.288	344.5
301.518	331.5
301.748	333.5
301.979	336.5
302.209	341.5
302.439	338.5
302.669	332.5
302.9	317.5
303.13	336.5
303.36	331.5
303.59	344.5
303.82	319.5
304.051	342.5
304.281	331.5
304.511	333.5
304.741	335.5
304.971	335.5
305.201	343.5
305.431	342.5
305.661	349.5
305.891	337.5
306.121	335.5
306.352	335.5
306.582	328.5
306.812	322.5
307.042	332.5
307.272	341.5
307.502	335.5
307.731	327.5
307.961	335.5
308.191	341.5
308.421	319.5
308.651	358.5
308.881	336.5
309.111	342.5
309.341	343.5
309.571	345.5
309.8	373.5
310.03	350.5
310.26	363.5
310.49	361.5
310.72	365.5
310.949	362.5
311.179	375.5
311.409	337.5
311.639	358.5
311.868	353.5
312.098	359.5
312.328	352.5
312.557	376.5
312.787	368.5
313.017	389.5
313.246	391.5
313.476	366.5
313.706	369.5
313.935	355.5
314.165	370.5
314.394	373.5
314.624	376.5
314.853	380.5
315.083	367.5
315.312	367.5
315.542	384.5
315.771	356.5
316.001	375.5
316.23	373.5
316.46	379.5
316.689	379.5
316.919	377.5
317.148	375.5
317.377	376.5
317.607	374.5
317.836	404.5
318.065	377.5
318.295	367.5
318.524	362.5
318.753	377.5
318.983	357.5
319.212	355.5
319.441	381.5
319.67	363.5
319.9	375.5
320.129	373.5
320.358	368.5
320.587	381.5
320.816	357.5
321.046	368.5
321.275	405.5
321.504	349.5
321.733	357.5
321.962	380.5
322.191	390.5
322.42	392.5
322.649	401.5
322.878	414.5
323.108	414.5
323.337	406.5
323.566	415.5
323.795	443.5
324.024	449.5
324.253	514.5
324.482	645.5
324.71	873.5
324.939	1269.5
325.168	1090.5
325.397	597.5
325.626	480.5
325.855	438.5
326.084	439.5
326.313	420.5
326.542	426.5
326.77	446.5
326.999	478.5
327.228	606.5
327.457	849.5
327.686	957.5
327.914	668.5
328.143	504.5
328.372	485.5
328.6	456.5
328.829	462.5
329.058	458.5
329.287	474.5
329.515	449.5
329.744	447.5
329.972	446.5
330.201	434.5
330.43	465.5
330.658	476.5
330.887	488.5
331.115	484.5
331.344	462.5
331.572	462.5
331.801	446.5
332.03	445.5
332.258	445.5
332.486	441.5
332.715	473.5
332.943	438.5
333.172	439.5
333.4	475.5
333.629	470.5
333.857	484.5
334.085	487.5
334.314	485.5
334.542	507.5
334.771	497.5
334.999	475.5
335.227	478.5
335.455	468.5
335.684	449.5
335.912	456.5
336.14	449.5
336.369	453.5
336.597	437.5
336.825	446.5
337.053	441.5
337.281	428.5
337.51	430.5
337.738	447.5
337.966	438.5
338.194	437.5
338.422	431.5
338.65	428.5
338.878	438.5
339.106	425.5
339.334	439.5
339.562	413.5
339.79	422.5
340.018	426.5
340.246	416.5
340.474	413.5
340.702	432.5
340.93	424.5
341.158	424.5
341.386	417.5
341.614	421.5
341.842	408.5
342.07	411.5
342.298	407.5
342.526	417.5
342.754	423.5
342.981	402.5
343.209	418.5
343.437	419.5
343.665	410.5
343.893	448.5
344.12	451.5
344.348	457.5
344.576	445.5
344.804	429.5
345.031	433.5
345.259	434.5
345.487	421.5
345.714	421.5
345.942	430.5
346.17	407.5
346.397	417.5
346.625	405.5
346.853	395.5
347.08	398.5
347.308	401.5
347.535	423.5
347.763	406.5
347.99	392.5
348.218	394.5
348.445	415.5
348.673	398.5
348.9	399.5
349.128	385.5
349.355	386.5
349.583	385.5
349.81	392.5
350.037	396.5
350.265	387.5
350.492	382.5
350.72	358.5
350.947	382.5
351.174	408.5
351.402	415.5
351.629	394.5
351.856	388.5
352.083	407.5
352.311	389.5
352.538	379.5
352.765	389.5
352.992	403.5
353.22	380.5
353.447	389.5
353.674	392.5
353.901	402.5
354.128	383.5
354.355	383.5
354.583	383.5
354.81	399.5
355.037	391.5
355.264	387.5
355.491	381.5
355.718	365.5
355.945	374.5
356.172	383.5
356.399	385.5
356.626	400.5
356.853	391.5
357.08	371.5
357.307	368.5
357.534	380.5
357.761	394.5
357.988	382.5
358.215	392.5
358.441	376.5
358.668	391.5
358.895	382.5
359.122	372.5
359.349	383.5
359.576	388.5
359.802	390.5
360.029	409.5
360.256	406.5
360.483	406.5
360.709	419.5
360.936	397.5
361.163	374.5
361.39	381.5
361.616	407.5
361.843	397.5
362.07	398.5
362.296	397.5
362.523	392.5
362.749	393.5
362.976	397.5
363.203	398.5
363.429	365.5
363.656	370.5
363.882	391.5
364.109	395.5
364.335	399.5
364.562	388.5
364.788	373.5
365.015	402.5
365.241	381.5
365.468	399.5
365.694	407.5
365.92	387.5
366.147	404.5
366.373	381.5
366.599	373.5
366.826	382.5
367.052	371.5
367.278	374.5
367.505	373.5
367.731	387.5
367.957	385.5
368.184	393.5
368.41	382.5
368.636	384.5
368.862	391.5
369.089	371.5
369.315	392.5
369.541	385.5
369.767	380.5
369.993	398.5
370.219	394.5
370.445	389.5
370.672	412.5
370.898	385.5
371.124	398.5
371.35	412.5
371.576	380.5
371.802	392.5
372.028	398.5
372.254	397.5
372.48	411.5
372.706	412.5
372.932	428.5
373.158	406.5
373.384	409.5
373.61	387.5
373.835	398.5
374.061	407.5
374.287	391.5
374.513	390.5
374.739	408.5
374.965	422.5
375.191	404.5
375.416	419.5
375.642	408.5
375.868	403.5
376.094	416.5
376.319	397.5
376.545	413.5
376.771	398.5
376.997	403.5
377.222	394.5
377.448	392.5
377.674	376.5
377.899	393.5
378.125	401.5
378.35	382.5
378.576	399.5
378.802	378.5
379.027	388.5
379.253	399.5
379.478	388.5
379.704	406.5
379.929	411.5
380.155	411.5
380.38	388.5
380.606	401.5
380.831	389.5
381.057	424.5
381.282	391.5
381.507	405.5
381.733	403.5
381.958	400.5
382.184	394.5
382.409	390.5
382.634	405.5
382.86	418.5
383.085	399.5
383.31	430.5
383.535	410.5
383.761	423.5
383.986	440.5
384.211	443.5
384.436	444.5
384.662	445.5
384.887	446.5
385.112	452.5
385.337	441.5
385.562	441.5
385.787	438.5
386.013	440.5
386.238	461.5
386.463	453.5
386.688	457.5
386.913	455.5
387.138	427.5
387.363	439.5
387.588	457.5
387.813	458.5
388.038	461.5
388.263	464.5
388.488	461.5
388.713	457.5
388.938	446.5
389.163	458.5
389.387	433.5
389.612	438.5
389.837	437.5
390.062	435.5
390.287	446.5
390.512	456.5
390.736	451.5
390.961	460.5
391.186	468.5
391.411	481.5
391.636	454.5
391.86	485.5
392.085	478.5
392.31	466.5
392.534	475.5
392.759	487.5
392.984	461.5
393.208	470.5
393.433	466.5
393.658	447.5
393.882	447.5
394.107	452.5
394.331	466.5
394.556	452.5
394.78	473.5
395.005	464.5
395.229	486.5
395.454	463.5
395.678	479.5
395.903	462.5
396.127	495.5
396.352	489.5
396.576	452.5
396.801	480.5
397.025	465.5
397.249	462.5
397.474	479.5
397.698	484.5
397.922	491.5
398.147	491.5
398.371	512.5
398.595	507.5
398.82	492.5
399.044	525.5
399.268	555.5
399.492	614.5
399.717	678.5
399.941	669.5
400.165	672.5
400.389	663.5
400.613	594.5
400.837	560.5
401.062	541.5
401.286	543.5
401.51	534.5
401.734	545.5
401.958	537.5
402.182	519.5
402.406	523.5
402.63	538.5
402.854	534.5
403.078	540.5
403.302	558.5
403.526	565.5
403.75	556.5
403.974	539.5
404.198	559.5
404.422	548.5
404.645	545.5
404.869	531.5
405.093	576.5
405.317	586.5
405.541	627.5
405.765	592.5
405.988	559.5
406.212	557.5
406.436	601.5
406.66	569.5
406.883	591.5
407.107	618.5
407.331	628.5
407.555	693.5
407.778	701.5
408.002	664.5
408.226	612.5
408.449	593.5
408.673	594.5
408.896	613.5
409.12	657.5
409.344	601.5
409.567	558.5
409.791	555.5
410.014	569.5
410.238	547.5
410.461	523.5
410.685	569.5
410.908	550.5
411.132	572.5
411.355	587.5
411.578	576.5
411.802	545.5
412.025	532.5
412.249	533.5
412.472	550.5
412.695	587.5
412.919	567.5
413.142	537.5
413.365	529.5
413.589	538.5
413.812	542.5
414.035	525.5
414.258	511.5
414.482	511.5
414.705	537.5
414.928	533.5
415.151	526.5
415.374	517.5
415.597	520.5
415.821	506.5
416.044	503.5
416.267	523.5
416.49	481.5
416.713	509.5
416.936	493.5
417.159	507.5
417.382	523.5
417.605	493.5
417.828	540.5
418.051	531.5
418.274	541.5
418.497	536.5
418.72	528.5
418.943	539.5
419.166	535.5
419.389	564.5
419.611	561.5
419.834	551.5
420.057	538.5
420.28	537.5
420.503	543.5
420.726	539.5
420.948	538.5
421.171	562.5
421.394	570.5
421.617	532.5
421.839	529.5
422.062	533.5
422.285	547.5
422.507	575.5
422.73	656.5
422.953	625.5
423.175	574.5
423.398	563.5
423.621	546.5
423.843	565.5
424.066	552.5
424.288	562.5
424.511	574.5
424.733	633.5
424.956	686.5
425.178	632.5
425.401	639.5
425.623	637.5
425.846	571.5
426.068	564.5
426.291	549.5
426.513	542.5
426.735	550.5
426.958	587.5
427.18	639.5
427.402	721.5
427.625	787.5
427.847	657.5
428.069	608.5
428.292	568.5
428.514	542.5
428.736	520.5
428.958	501.5
429.181	492.5
429.403	476.5
429.625	499.5
429.847	517.5
430.069	560.5
430.292	556.5
430.514	511.5
430.736	514.5
430.958	481.5
431.18	488.5
431.402	484.5
431.624	467.5
431.846	479.5
432.068	491.5
432.29	498.5
432.512	486.5
432.734	503.5
432.956	504.5
433.178	505.5
433.4	485.5
433.622	481.5
433.844	494.5
434.066	485.5
434.287	491.5
434.509	503.5
434.731	490.5
434.953	521.5
435.175	515.5
435.397	541.5
435.618	556.5
435.84	577.5
436.062	609.5
436.284	713.5
436.505	591.5
436.727	534.5
436.949	499.5
437.17	499.5
437.392	476.5
437.614	478.5
437.835	524.5
438.057	567.5
438.278	663.5
438.5	673.5
438.721	721.5
438.943	728.5
439.165	580.5
439.386	524.5
439.608	506.5
439.829	525.5
440.05	531.5
440.272	552.5
440.493	535.5
440.715	515.5
440.936	517.5
441.158	507.5
441.379	500.5
441.6	538.5
441.822	538.5
442.043	580.5
442.264	631.5
442.486	661.5
442.707	583.5
442.928	583.5
443.149	527.5
443.371	567.5
443.592	609.5
443.813	708.5
444.034	725.5
444.255	624.5
444.476	569.5
444.698	571.5
444.919	579.5
445.14	651.5
445.361	593.5
445.582	576.5
445.803	613.5
446.024	666.5
446.245	697.5
446.466	631.5
446.687	540.5
446.908	549.5
447.129	481.5
447.35	480.5
447.571	486.5
447.792	472.5
448.013	468.5
448.234	486.5
448.455	509.5
448.675	630.5
448.896	705.5
449.117	607.5
449.338	599.5
449.559	668.5
449.779	756.5
450	598.5
450.221	513.5
450.442	494.5
450.662	471.5
450.883	456.5
451.104	469.5
451.324	460.5
451.545	440.5
451.766	456.5
451.986	431.5
452.207	437.5
452.428	445.5
452.648	444.5
452.869	423.5
453.089	443.5
453.31	442.5
453.53	453.5
453.751	435.5
453.971	456.5
454.192	454.5
454.412	438.5
454.633	431.5
454.853	419.5
455.073	428.5
455.294	452.5
455.514	494.5
455.734	489.5
455.955	430.5
456.175	432.5
456.395	404.5
456.616	414.5
456.836	417.5
457.056	412.5
457.276	407.5
457.497	427.5
457.717	420.5
457.937	447.5
458.157	454.5
458.377	453.5
458.598	439.5
458.818	479.5
459.038	521.5
459.258	567.5
459.478	507.5
459.698	471.5
459.918	489.5
460.138	496.5
460.358	526.5
460.578	506.5
460.798	525.5
461.018	518.5
461.238	512.5
461.458	518.5
461.678	491.5
461.898	533.5
462.118	521.5
462.338	556.5
462.558	542.5
462.777	573.5
462.997	590.5
463.217	624.5
463.437	615.5
463.657	577.5
463.876	556.5
464.096	565.5
464.316	560.5
464.536	568.5
464.755	556.5
464.975	560.5
465.195	569.5
465.414	569.5
465.634	521.5
465.854	506.5
466.073	496.5
466.293	499.5
466.512	463.5
466.732	452.5
466.951	446.5
467.171	469.5
467.391	477.5
467.61	455.5
467.829	460.5
468.049	474.5
468.268	474.5
468.488	454.5
468.707	454.5
468.927	471.5
469.146	444.5
469.365	469.5
469.585	429.5
469.804	445.5
470.023	462.5
470.243	484.5
470.462	457.5
470.681	478.5
470.901	476.5
471.12	459.5
471.339	469.5
471.558	479.5
471.777	460.5
471.997	464.5
472.216	461.5
472.435	468.5
472.654	448.5
472.873	465.5
473.092	470.5
473.311	456.5
473.53	438.5
473.749	479.5
473.968	485.5
474.187	538.5
474.406	577.5
474.625	490.5
474.844	464.5
475.063	472.5
475.282	470.5
475.501	465.5
475.72	488.5
475.939	471.5
476.158	483.5
476.377	481.5
476.596	468.5
476.814	461.5
477.033	478.5
477.252	489.5
477.471	505.5
477.69	504.5
477.908	513.5
478.127	533.5
478.346	533.5
478.564	527.5
478.783	533.5
479.002	537.5
479.22	561.5
479.439	552.5
479.658	569.5
479.876	567.5
480.095	589.5
480.313	591.5
480.532	581.5
480.751	582.5
480.969	594.5
481.188	588.5
481.406	585.5
481.624	563.5
481.843	535.5
482.061	549.5
482.28	529.5
482.498	517.5
482.717	515.5
482.935	505.5
483.153	536.5
483.372	547.5
483.59	540.5
483.808	541.5
484.027	516.5
484.245	544.5
484.463	519.5
484.681	558.5
484.9	523.5
485.118	555.5
485.336	553.5
485.554	552.5
485.772	557.5
485.99	543.5
486.209	551.5
486.427	548.5
486.645	540.5
486.863	591.5
487.081	565.5
487.299	576.5
487.517	559.5
487.735	582.5
487.953	563.5
488.171	571.5
488.389	570.5
488.607	602.5
488.825	545.5
489.043	580.5
489.261	577.5
489.479	563.5
489.696	588.5
489.914	594.5
490.132	592.5
490.35	610.5
490.568	587.5
490.786	603.5
491.003	600.5
491.221	607.5
491.439	646.5
491.657	636.5
491.874	630.5
492.092	650.5
492.31	617.5
492.527	631.5
492.745	627.5
492.963	639.5
493.18	646.5
493.398	645.5
493.615	683.5
493.833	627.5
494.05	661.5
494.268	668.5
494.485	680.5
494.703	657.5
494.92	660.5
495.138	658.5
495.355	674.5
495.573	679.5
495.79	654.5
496.008	649.5
496.225	662.5
496.442	687.5
496.66	684.5
496.877	677.5
497.094	696.5
497.312	663.5
497.529	684.5
497.746	717.5
497.963	708.5
498.181	745.5
498.398	767.5
498.615	793.5
498.832	812.5
499.049	830.5
499.267	892.5
499.484	915.5
499.701	952.5
499.918	1008.5
500.135	1080.5
500.352	1153.5
500.569	1194.5
500.786	1180.5
501.003	1160.5
501.22	1098.5
501.437	1045.5
501.654	986.5
501.871	926.5
502.088	896.5
502.305	837.5
502.522	806.5
502.739	802.5
502.956	733.5
503.172	745.5
503.389	720.5
503.606	704.5
503.823	705.5
504.04	695.5
504.256	688.5
504.473	714.5
504.69	720.5
504.907	694.5
505.123	665.5
505.34	634.5
505.557	654.5
505.773	668.5
505.99	631.5
506.207	600.5
506.423	635.5
506.64	605.5
506.856	618.5
507.073	603.5
507.289	607.5
507.506	601.5
507.722	595.5
507.939	609.5
508.155	611.5
508.372	585.5
508.588	574.5
508.805	587.5
509.021	570.5
509.238	580.5
509.454	596.5
509.67	579.5
509.887	587.5
510.103	576.5
510.319	569.5
510.536	615.5
510.752	767.5
510.968	669.5
511.184	576.5
511.401	542.5
511.617	529.5
511.833	519.5
512.049	548.5
512.265	556.5
512.481	541.5
512.698	549.5
512.914	534.5
513.13	548.5
513.346	539.5
513.562	524.5
513.778	543.5
513.994	555.5
514.21	557.5
514.426	547.5
514.642	572.5
514.858	580.5
515.074	576.5
515.29	624.5
515.506	777.5
515.721	694.5
515.937	584.5
516.153	575.5
516.369	584.5
516.585	569.5
516.801	593.5
517.016	596.5
517.232	603.5
517.448	617.5
517.664	607.5
517.879	614.5
518.095	634.5
518.311	618.5
518.527	623.5
518.742	609.5
518.958	607.5
519.173	585.5
519.389	571.5
519.605	552.5
