Data from 1973.PennyLincolnUp.Lamp.En5.5.200Scan.071719.P1.Changed Mount._HRD10591_15-43-34-852.txt Node
Date: Thu Jul 18 15:43:34 EDT 2019
User: cochatt
Spectrometer: HR+D1059
Trigger mode: 1
Integration Time (sec): 1.000000E-1
Scans to average: 1
Electric dark correction enabled: true
Nonlinearity correction enabled: false
Boxcar width: 0
XAxis mode: Wavelengths
Number of Pixels in Spectrum: 2048
>>>>>Begin Spectral Data<<<<<
223.165	-20.12
223.4	-20.12
223.635	-20.12
223.869	-13.12
224.104	-33.12
224.338	-25.12
224.573	-9.12
224.808	-9.12
225.042	7.88
225.277	-1.12
225.511	-2.12
225.746	-8.12
225.98	-0.12
226.215	9.88
226.449	15.88
226.683	13.88
226.918	38.88
227.152	34.88
227.387	31.88
227.621	35.88
227.856	44.88
228.09	45.88
228.324	43.88
228.559	59.88
228.793	54.88
229.027	94.88
229.262	107.88
229.496	110.88
229.73	117.88
229.964	123.88
230.199	107.88
230.433	111.88
230.667	119.88
230.901	110.88
231.136	106.88
231.37	106.88
231.604	127.88
231.838	112.88
232.072	104.88
232.306	110.88
232.541	127.88
232.775	114.88
233.009	110.88
233.243	122.88
233.477	117.88
233.711	127.88
233.945	113.88
234.179	122.88
234.413	115.88
234.647	107.88
234.881	103.88
235.115	108.88
235.349	123.88
235.583	114.88
235.817	124.88
236.051	121.88
236.285	119.88
236.519	128.88
236.753	117.88
236.987	127.88
237.221	151.88
237.455	178.88
237.689	163.88
237.922	126.88
238.156	130.88
238.39	125.88
238.624	120.88
238.858	114.88
239.091	118.88
239.325	125.88
239.559	113.88
239.793	137.88
240.027	122.88
240.26	131.88
240.494	130.88
240.728	138.88
240.961	152.88
241.195	135.88
241.429	134.88
241.662	129.88
241.896	130.88
242.13	129.88
242.363	132.88
242.597	134.88
242.83	135.88
243.064	147.88
243.298	154.88
243.531	135.88
243.765	146.88
243.998	136.88
244.232	162.88
244.465	128.88
244.699	126.88
244.932	146.88
245.166	145.88
245.399	145.88
245.633	140.88
245.866	156.88
246.099	136.88
246.333	153.88
246.566	142.88
246.8	143.88
247.033	137.88
247.266	141.88
247.5	157.88
247.733	162.88
247.966	170.88
248.2	147.88
248.433	163.88
248.666	157.88
248.899	165.88
249.133	172.88
249.366	176.88
249.599	173.88
249.832	157.88
250.066	170.88
250.299	160.88
250.532	172.88
250.765	168.88
250.998	186.88
251.231	204.88
251.465	190.88
251.698	183.88
251.931	179.88
252.164	175.88
252.397	167.88
252.63	185.88
252.863	195.88
253.096	190.88
253.329	222.88
253.562	195.88
253.795	190.88
254.028	199.88
254.261	189.88
254.494	216.88
254.727	215.88
254.96	226.88
255.193	217.88
255.426	217.88
255.659	208.88
255.892	204.88
256.124	189.88
256.357	184.88
256.59	211.88
256.823	204.88
257.056	194.88
257.289	195.88
257.521	203.88
257.754	204.88
257.987	204.88
258.22	214.88
258.452	182.88
258.685	195.88
258.918	181.88
259.151	187.88
259.383	208.88
259.616	205.88
259.849	207.88
260.081	202.88
260.314	212.88
260.547	245.88
260.779	228.88
261.012	212.88
261.244	204.88
261.477	216.88
261.71	187.88
261.942	200.88
262.175	212.88
262.407	212.88
262.64	205.88
262.872	196.88
263.105	198.88
263.337	203.88
263.57	198.88
263.802	211.88
264.035	196.88
264.267	211.88
264.499	194.88
264.732	209.88
264.964	214.88
265.197	203.88
265.429	206.88
265.661	212.88
265.894	212.88
266.126	212.88
266.358	226.88
266.591	212.88
266.823	196.88
267.055	208.88
267.287	220.88
267.52	212.88
267.752	220.88
267.984	208.88
268.216	205.88
268.448	226.88
268.681	231.88
268.913	226.88
269.145	244.88
269.377	247.88
269.609	243.88
269.841	257.88
270.073	231.88
270.306	263.88
270.538	283.88
270.77	275.88
271.002	273.88
271.234	261.88
271.466	271.88
271.698	272.88
271.93	287.88
272.162	286.88
272.394	281.88
272.626	272.88
272.858	261.88
273.09	267.88
273.322	247.88
273.553	249.88
273.785	231.88
274.017	260.88
274.249	251.88
274.481	251.88
274.713	263.88
274.945	264.88
275.176	246.88
275.408	256.88
275.64	254.88
275.872	264.88
276.104	255.88
276.335	266.88
276.567	267.88
276.799	269.88
277.031	278.88
277.262	296.88
277.494	301.88
277.726	285.88
277.957	268.88
278.189	278.88
278.421	259.88
278.652	256.88
278.884	258.88
279.115	264.88
279.347	278.88
279.579	259.88
279.81	260.88
280.042	279.88
280.273	285.88
280.505	272.88
280.736	255.88
280.968	263.88
281.199	254.88
281.431	258.88
281.662	245.88
281.894	263.88
282.125	250.88
282.356	282.88
282.588	292.88
282.819	259.88
283.051	262.88
283.282	249.88
283.513	278.88
283.745	280.88
283.976	272.88
284.207	285.88
284.439	276.88
284.67	293.88
284.901	283.88
285.132	272.88
285.364	279.88
285.595	255.88
285.826	287.88
286.057	290.88
286.288	272.88
286.52	267.88
286.751	262.88
286.982	291.88
287.213	291.88
287.444	296.88
287.675	279.88
287.906	293.88
288.138	293.88
288.369	303.88
288.6	291.88
288.831	296.88
289.062	313.88
289.293	302.88
289.524	290.88
289.755	284.88
289.986	281.88
290.217	281.88
290.448	289.88
290.679	297.88
290.91	304.88
291.141	291.88
291.371	288.88
291.602	299.88
291.833	299.88
292.064	302.88
292.295	302.88
292.526	307.88
292.757	280.88
292.987	292.88
293.218	287.88
293.449	297.88
293.68	304.88
293.91	295.88
294.141	307.88
294.372	287.88
294.603	295.88
294.833	286.88
295.064	310.88
295.295	309.88
295.525	322.88
295.756	303.88
295.987	318.88
296.217	298.88
296.448	318.88
296.679	287.88
296.909	308.88
297.14	314.88
297.37	306.88
297.601	305.88
297.831	299.88
298.062	299.88
298.292	311.88
298.523	306.88
298.753	310.88
298.984	310.88
299.214	312.88
299.445	297.88
299.675	327.88
299.905	327.88
300.136	331.88
300.366	319.88
300.597	315.88
300.827	294.88
301.057	330.88
301.288	332.88
301.518	320.88
301.748	344.88
301.979	310.88
302.209	341.88
302.439	330.88
302.669	319.88
302.9	327.88
303.13	326.88
303.36	355.88
303.59	343.88
303.82	335.88
304.051	341.88
304.281	328.88
304.511	344.88
304.741	341.88
304.971	323.88
305.201	322.88
305.431	328.88
305.661	315.88
305.891	333.88
306.121	327.88
306.352	333.88
306.582	331.88
306.812	315.88
307.042	326.88
307.272	341.88
307.502	322.88
307.731	352.88
307.961	328.88
308.191	334.88
308.421	311.88
308.651	333.88
308.881	335.88
309.111	342.88
309.341	316.88
309.571	331.88
309.8	347.88
310.03	343.88
310.26	351.88
310.49	347.88
310.72	358.88
310.949	353.88
311.179	355.88
311.409	351.88
311.639	357.88
311.868	349.88
312.098	339.88
312.328	356.88
312.557	351.88
312.787	364.88
313.017	357.88
313.246	370.88
313.476	351.88
313.706	371.88
313.935	345.88
314.165	362.88
314.394	366.88
314.624	365.88
314.853	350.88
315.083	360.88
315.312	374.88
315.542	370.88
315.771	361.88
316.001	375.88
316.23	348.88
316.46	363.88
316.689	364.88
316.919	367.88
317.148	354.88
317.377	375.88
317.607	376.88
317.836	356.88
318.065	364.88
318.295	351.88
318.524	365.88
318.753	363.88
318.983	372.88
319.212	366.88
319.441	375.88
319.67	379.88
319.9	353.88
320.129	372.88
320.358	376.88
320.587	373.88
320.816	378.88
321.046	379.88
321.275	364.88
321.504	364.88
321.733	375.88
321.962	369.88
322.191	378.88
322.42	385.88
322.649	370.88
322.878	391.88
323.108	391.88
323.337	398.88
323.566	412.88
323.795	401.88
324.024	424.88
324.253	477.88
324.482	574.88
324.71	822.88
324.939	1170.88
325.168	1001.88
325.397	578.88
325.626	447.88
325.855	418.88
326.084	410.88
326.313	398.88
326.542	409.88
326.77	424.88
326.999	456.88
327.228	551.88
327.457	787.88
327.686	921.88
327.914	634.88
328.143	483.88
328.372	452.88
328.6	452.88
328.829	425.88
329.058	452.88
329.287	446.88
329.515	435.88
329.744	417.88
329.972	423.88
330.201	451.88
330.43	444.88
330.658	448.88
330.887	453.88
331.115	459.88
331.344	450.88
331.572	427.88
331.801	423.88
332.03	444.88
332.258	433.88
332.486	411.88
332.715	419.88
332.943	437.88
333.172	442.88
333.4	440.88
333.629	445.88
333.857	466.88
334.085	493.88
334.314	464.88
334.542	473.88
334.771	487.88
334.999	456.88
335.227	461.88
335.455	462.88
335.684	449.88
335.912	436.88
336.14	443.88
336.369	417.88
336.597	426.88
336.825	427.88
337.053	429.88
337.281	445.88
337.51	405.88
337.738	419.88
337.966	428.88
338.194	416.88
338.422	412.88
338.65	410.88
338.878	420.88
339.106	415.88
339.334	415.88
339.562	392.88
339.79	426.88
340.018	396.88
340.246	420.88
340.474	431.88
340.702	382.88
340.93	423.88
341.158	415.88
341.386	409.88
341.614	401.88
341.842	434.88
342.07	397.88
342.298	397.88
342.526	394.88
342.754	402.88
342.981	405.88
343.209	400.88
343.437	439.88
343.665	418.88
343.893	452.88
344.12	452.88
344.348	450.88
344.576	432.88
344.804	439.88
345.031	398.88
345.259	423.88
345.487	397.88
345.714	414.88
345.942	407.88
346.17	391.88
346.397	408.88
346.625	388.88
346.853	382.88
347.08	401.88
347.308	396.88
347.535	394.88
347.763	399.88
347.99	384.88
348.218	388.88
348.445	405.88
348.673	399.88
348.9	388.88
349.128	387.88
349.355	364.88
349.583	395.88
349.81	391.88
350.037	356.88
350.265	367.88
350.492	354.88
350.72	388.88
350.947	368.88
351.174	380.88
351.402	382.88
351.629	390.88
351.856	393.88
352.083	394.88
352.311	372.88
352.538	377.88
352.765	380.88
352.992	373.88
353.22	386.88
353.447	372.88
353.674	367.88
353.901	362.88
354.128	371.88
354.355	391.88
354.583	374.88
354.81	374.88
355.037	393.88
355.264	375.88
355.491	363.88
355.718	375.88
355.945	381.88
356.172	368.88
356.399	366.88
356.626	372.88
356.853	376.88
357.08	366.88
357.307	386.88
357.534	382.88
357.761	377.88
357.988	373.88
358.215	382.88
358.441	363.88
358.668	370.88
358.895	376.88
359.122	385.88
359.349	370.88
359.576	377.88
359.802	386.88
360.029	404.88
360.256	397.88
360.483	386.88
360.709	380.88
360.936	378.88
361.163	389.88
361.39	390.88
361.616	396.88
361.843	381.88
362.07	386.88
362.296	399.88
362.523	375.88
362.749	395.88
362.976	385.88
363.203	400.88
363.429	378.88
363.656	371.88
363.882	368.88
364.109	381.88
364.335	390.88
364.562	376.88
364.788	370.88
365.015	377.88
365.241	387.88
365.468	380.88
365.694	378.88
365.92	363.88
366.147	363.88
366.373	366.88
366.599	396.88
366.826	398.88
367.052	364.88
367.278	378.88
367.505	370.88
367.731	373.88
367.957	388.88
368.184	374.88
368.41	379.88
368.636	380.88
368.862	372.88
369.089	384.88
369.315	389.88
369.541	383.88
369.767	383.88
369.993	373.88
370.219	375.88
370.445	392.88
370.672	372.88
370.898	380.88
371.124	378.88
371.35	386.88
371.576	414.88
371.802	392.88
372.028	401.88
372.254	401.88
372.48	389.88
372.706	366.88
372.932	392.88
373.158	395.88
373.384	396.88
373.61	407.88
373.835	402.88
374.061	386.88
374.287	406.88
374.513	398.88
374.739	382.88
374.965	406.88
375.191	418.88
375.416	401.88
375.642	399.88
375.868	401.88
376.094	392.88
376.319	376.88
376.545	394.88
376.771	382.88
376.997	387.88
377.222	382.88
377.448	388.88
377.674	392.88
377.899	382.88
378.125	376.88
378.35	394.88
378.576	381.88
378.802	388.88
379.027	392.88
379.253	372.88
379.478	388.88
379.704	395.88
379.929	389.88
380.155	407.88
380.38	388.88
380.606	389.88
380.831	381.88
381.057	391.88
381.282	398.88
381.507	383.88
381.733	406.88
381.958	394.88
382.184	381.88
382.409	410.88
382.634	400.88
382.86	413.88
383.085	429.88
383.31	400.88
383.535	421.88
383.761	391.88
383.986	411.88
384.211	412.88
384.436	428.88
384.662	444.88
384.887	450.88
385.112	435.88
385.337	447.88
385.562	439.88
385.787	451.88
386.013	463.88
386.238	468.88
386.463	449.88
386.688	457.88
386.913	443.88
387.138	424.88
387.363	469.88
387.588	446.88
387.813	436.88
388.038	427.88
388.263	447.88
388.488	460.88
388.713	456.88
388.938	426.88
389.163	429.88
389.387	432.88
389.612	435.88
389.837	423.88
390.062	423.88
390.287	427.88
390.512	438.88
390.736	447.88
390.961	436.88
391.186	434.88
391.411	455.88
391.636	468.88
391.86	455.88
392.085	465.88
392.31	456.88
392.534	473.88
392.759	478.88
392.984	466.88
393.208	446.88
393.433	451.88
393.658	458.88
393.882	439.88
394.107	440.88
394.331	484.88
394.556	435.88
394.78	471.88
395.005	449.88
395.229	482.88
395.454	468.88
395.678	466.88
395.903	490.88
396.127	490.88
396.352	477.88
396.576	465.88
396.801	463.88
397.025	459.88
397.249	451.88
397.474	477.88
397.698	467.88
397.922	483.88
398.147	485.88
398.371	488.88
398.595	508.88
398.82	502.88
399.044	537.88
399.268	562.88
399.492	611.88
399.717	640.88
399.941	678.88
400.165	676.88
400.389	655.88
400.613	587.88
400.837	542.88
401.062	538.88
401.286	522.88
401.51	536.88
401.734	540.88
401.958	512.88
402.182	517.88
402.406	529.88
402.63	538.88
402.854	527.88
403.078	528.88
403.302	523.88
403.526	558.88
403.75	541.88
403.974	566.88
404.198	550.88
404.422	572.88
404.645	556.88
404.869	578.88
405.093	578.88
405.317	593.88
405.541	590.88
405.765	571.88
405.988	559.88
406.212	546.88
406.436	536.88
406.66	562.88
406.883	587.88
407.107	606.88
407.331	672.88
407.555	691.88
407.778	705.88
408.002	633.88
408.226	589.88
408.449	596.88
408.673	600.88
408.896	598.88
409.12	612.88
409.344	596.88
409.567	552.88
409.791	570.88
410.014	552.88
410.238	528.88
410.461	540.88
410.685	535.88
410.908	537.88
411.132	587.88
411.355	575.88
411.578	557.88
411.802	532.88
412.025	519.88
412.249	532.88
412.472	559.88
412.695	556.88
412.919	564.88
413.142	514.88
413.365	518.88
413.589	518.88
413.812	522.88
414.035	524.88
414.258	525.88
414.482	485.88
414.705	502.88
414.928	531.88
415.151	497.88
415.374	487.88
415.597	486.88
415.821	507.88
416.044	537.88
416.267	520.88
416.49	517.88
416.713	514.88
416.936	504.88
417.159	509.88
417.382	515.88
417.605	501.88
417.828	528.88
418.051	534.88
418.274	502.88
418.497	496.88
418.72	494.88
418.943	494.88
419.166	556.88
419.389	573.88
419.611	568.88
419.834	543.88
420.057	578.88
420.28	534.88
420.503	513.88
420.726	526.88
420.948	531.88
421.171	560.88
421.394	570.88
421.617	549.88
421.839	514.88
422.062	523.88
422.285	539.88
422.507	571.88
422.73	613.88
422.953	592.88
423.175	542.88
423.398	542.88
423.621	524.88
423.843	554.88
424.066	550.88
424.288	544.88
424.511	567.88
424.733	607.88
424.956	649.88
425.178	614.88
425.401	640.88
425.623	634.88
425.846	556.88
426.068	539.88
426.291	528.88
426.513	521.88
426.735	522.88
426.958	542.88
427.18	606.88
427.402	713.88
427.625	761.88
427.847	636.88
428.069	559.88
428.292	525.88
428.514	494.88
428.736	491.88
428.958	471.88
429.181	460.88
429.403	478.88
429.625	490.88
429.847	506.88
430.069	539.88
430.292	555.88
430.514	488.88
430.736	484.88
430.958	477.88
431.18	468.88
431.402	482.88
431.624	464.88
431.846	457.88
432.068	480.88
432.29	477.88
432.512	467.88
432.734	471.88
432.956	489.88
433.178	463.88
433.4	478.88
433.622	463.88
433.844	485.88
434.066	476.88
434.287	472.88
434.509	493.88
434.731	527.88
434.953	515.88
435.175	523.88
435.397	569.88
435.618	524.88
435.84	552.88
436.062	632.88
436.284	660.88
436.505	549.88
436.727	535.88
436.949	494.88
437.17	510.88
437.392	508.88
437.614	505.88
437.835	503.88
438.057	564.88
438.278	618.88
438.5	614.88
438.721	704.88
438.943	680.88
439.165	535.88
439.386	503.88
439.608	508.88
439.829	525.88
440.05	508.88
440.272	520.88
440.493	525.88
440.715	503.88
440.936	504.88
441.158	523.88
441.379	483.88
441.6	540.88
441.822	537.88
442.043	536.88
442.264	620.88
442.486	638.88
442.707	574.88
442.928	531.88
443.149	561.88
443.371	572.88
443.592	572.88
443.813	643.88
444.034	705.88
444.255	601.88
444.476	570.88
444.698	563.88
444.919	573.88
445.14	634.88
445.361	584.88
445.582	583.88
445.803	619.88
446.024	639.88
446.245	660.88
446.466	602.88
446.687	551.88
446.908	528.88
447.129	491.88
447.35	490.88
447.571	495.88
447.792	474.88
448.013	487.88
448.234	489.88
448.455	506.88
448.675	602.88
448.896	687.88
449.117	591.88
449.338	544.88
449.559	632.88
449.779	698.88
450	576.88
450.221	495.88
450.442	462.88
450.662	477.88
450.883	463.88
451.104	455.88
451.324	459.88
451.545	431.88
451.766	454.88
451.986	431.88
452.207	426.88
452.428	417.88
452.648	421.88
452.869	450.88
453.089	427.88
453.31	444.88
453.53	446.88
453.751	440.88
453.971	437.88
454.192	432.88
454.412	409.88
454.633	436.88
454.853	440.88
455.073	423.88
455.294	432.88
455.514	490.88
455.734	485.88
455.955	440.88
456.175	424.88
456.395	418.88
456.616	406.88
456.836	407.88
457.056	422.88
457.276	398.88
457.497	415.88
457.717	417.88
457.937	406.88
458.157	421.88
458.377	463.88
458.598	454.88
458.818	469.88
459.038	514.88
459.258	549.88
459.478	490.88
459.698	472.88
459.918	489.88
460.138	500.88
460.358	495.88
460.578	504.88
460.798	505.88
461.018	516.88
461.238	510.88
461.458	534.88
461.678	500.88
461.898	515.88
462.118	514.88
462.338	552.88
462.558	562.88
462.777	564.88
462.997	574.88
463.217	589.88
463.437	591.88
463.657	572.88
463.876	571.88
464.096	546.88
464.316	562.88
464.536	557.88
464.755	553.88
464.975	548.88
465.195	536.88
465.414	565.88
465.634	539.88
465.854	501.88
466.073	479.88
466.293	476.88
466.512	470.88
466.732	468.88
466.951	470.88
467.171	447.88
467.391	442.88
467.61	468.88
467.829	452.88
468.049	471.88
468.268	457.88
468.488	435.88
468.707	428.88
468.927	448.88
469.146	442.88
469.365	444.88
469.585	428.88
469.804	465.88
470.023	456.88
470.243	474.88
470.462	444.88
470.681	459.88
470.901	456.88
471.12	475.88
471.339	476.88
471.558	460.88
471.777	437.88
471.997	454.88
472.216	442.88
472.435	471.88
472.654	462.88
472.873	450.88
473.092	456.88
473.311	460.88
473.53	458.88
473.749	446.88
473.968	486.88
474.187	542.88
474.406	568.88
474.625	489.88
474.844	481.88
475.063	449.88
475.282	466.88
475.501	451.88
475.72	453.88
475.939	467.88
476.158	463.88
476.377	471.88
476.596	484.88
476.814	462.88
477.033	472.88
477.252	492.88
477.471	515.88
477.69	500.88
477.908	505.88
478.127	505.88
478.346	507.88
478.564	541.88
478.783	536.88
479.002	523.88
479.22	533.88
479.439	533.88
479.658	544.88
479.876	552.88
480.095	552.88
480.313	596.88
480.532	579.88
480.751	567.88
480.969	567.88
481.188	580.88
481.406	568.88
481.624	565.88
481.843	518.88
482.061	550.88
482.28	541.88
482.498	506.88
482.717	525.88
482.935	530.88
483.153	521.88
483.372	521.88
483.59	539.88
483.808	528.88
484.027	530.88
484.245	519.88
484.463	536.88
484.681	529.88
484.9	546.88
485.118	528.88
485.336	533.88
485.554	540.88
485.772	557.88
485.99	538.88
486.209	545.88
486.427	571.88
486.645	552.88
486.863	538.88
487.081	546.88
487.299	544.88
487.517	566.88
487.735	538.88
487.953	553.88
488.171	563.88
488.389	564.88
488.607	556.88
488.825	573.88
489.043	562.88
489.261	545.88
489.479	591.88
489.696	582.88
489.914	561.88
490.132	576.88
490.35	557.88
490.568	559.88
490.786	569.88
491.003	602.88
491.221	612.88
491.439	613.88
491.657	631.88
491.874	620.88
492.092	614.88
492.31	608.88
492.527	642.88
492.745	624.88
492.963	642.88
493.18	634.88
493.398	654.88
493.615	654.88
493.833	634.88
494.05	621.88
494.268	641.88
494.485	628.88
494.703	664.88
494.92	652.88
495.138	639.88
495.355	640.88
495.573	644.88
495.79	658.88
496.008	634.88
496.225	645.88
496.442	654.88
496.66	665.88
496.877	644.88
497.094	671.88
497.312	688.88
497.529	648.88
497.746	698.88
497.963	706.88
498.181	731.88
498.398	744.88
498.615	782.88
498.832	798.88
499.049	830.88
499.267	843.88
499.484	920.88
499.701	957.88
499.918	994.88
500.135	1080.88
500.352	1164.88
500.569	1194.88
500.786	1187.88
501.003	1146.88
501.22	1087.88
501.437	1038.88
501.654	967.88
