Data from 1973.PennyLincolnUp.Lamp.En5.5.200Scan.071719.P1.Changed Mount._HRD10591_15-45-20-853.txt Node
Date: Thu Jul 18 15:45:20 EDT 2019
User: cochatt
Spectrometer: HR+D1059
Trigger mode: 1
Integration Time (sec): 1.000000E-1
Scans to average: 1
Electric dark correction enabled: true
Nonlinearity correction enabled: false
Boxcar width: 0
XAxis mode: Wavelengths
Number of Pixels in Spectrum: 2048
>>>>>Begin Spectral Data<<<<<
223.165	-9.56
223.4	-9.56
223.635	-9.56
223.869	-26.56
224.104	-7.56
224.338	-17.56
224.573	-8.56
224.808	0.44
225.042	-4.56
225.277	-5.56
225.511	-1.56
225.746	12.44
225.98	-12.56
226.215	14.44
226.449	13.44
226.683	11.44
226.918	19.44
227.152	22.44
227.387	51.44
227.621	50.44
227.856	39.44
228.09	40.44
228.324	58.44
228.559	56.44
228.793	58.44
229.027	103.44
229.262	91.44
229.496	111.44
229.73	139.44
229.964	136.44
230.199	111.44
230.433	114.44
230.667	117.44
230.901	111.44
231.136	117.44
231.37	116.44
231.604	114.44
231.838	110.44
232.072	106.44
232.306	123.44
232.541	126.44
232.775	116.44
233.009	114.44
233.243	118.44
233.477	102.44
233.711	114.44
233.945	122.44
234.179	114.44
234.413	120.44
234.647	109.44
234.881	126.44
235.115	120.44
235.349	122.44
235.583	127.44
235.817	128.44
236.051	137.44
236.285	141.44
236.519	129.44
236.753	142.44
236.987	134.44
237.221	166.44
237.455	209.44
237.689	191.44
237.922	130.44
238.156	130.44
238.39	125.44
238.624	138.44
238.858	138.44
239.091	134.44
239.325	128.44
239.559	133.44
239.793	135.44
240.027	128.44
240.26	142.44
240.494	163.44
240.728	152.44
240.961	139.44
241.195	149.44
241.429	142.44
241.662	156.44
241.896	124.44
242.13	139.44
242.363	138.44
242.597	134.44
242.83	134.44
243.064	153.44
243.298	134.44
243.531	128.44
243.765	156.44
243.998	136.44
244.232	166.44
244.465	136.44
244.699	137.44
244.932	141.44
245.166	142.44
245.399	150.44
245.633	149.44
245.866	147.44
246.099	164.44
246.333	147.44
246.566	165.44
246.8	155.44
247.033	169.44
247.266	160.44
247.5	167.44
247.733	172.44
247.966	186.44
248.2	164.44
248.433	183.44
248.666	196.44
248.899	186.44
249.133	210.44
249.366	202.44
249.599	204.44
249.832	194.44
250.066	188.44
250.299	201.44
250.532	199.44
250.765	198.44
250.998	230.44
251.231	231.44
251.465	218.44
251.698	203.44
251.931	196.44
252.164	202.44
252.397	189.44
252.63	210.44
252.863	211.44
253.096	234.44
253.329	247.44
253.562	239.44
253.795	232.44
254.028	215.44
254.261	216.44
254.494	234.44
254.727	264.44
254.96	282.44
255.193	264.44
255.426	258.44
255.659	250.44
255.892	242.44
256.124	244.44
256.357	241.44
256.59	244.44
256.823	207.44
257.056	215.44
257.289	216.44
257.521	239.44
257.754	219.44
257.987	217.44
258.22	226.44
258.452	232.44
258.685	219.44
258.918	226.44
259.151	235.44
259.383	242.44
259.616	223.44
259.849	236.44
260.081	226.44
260.314	264.44
260.547	271.44
260.779	243.44
261.012	251.44
261.244	230.44
261.477	238.44
261.71	239.44
261.942	244.44
262.175	244.44
262.407	218.44
262.64	231.44
262.872	225.44
263.105	233.44
263.337	231.44
263.57	204.44
263.802	227.44
264.035	223.44
264.267	226.44
264.499	238.44
264.732	218.44
264.964	230.44
265.197	244.44
265.429	231.44
265.661	198.44
265.894	254.44
266.126	233.44
266.358	236.44
266.591	231.44
266.823	232.44
267.055	265.44
267.287	266.44
267.52	264.44
267.752	246.44
267.984	247.44
268.216	246.44
268.448	262.44
268.681	256.44
268.913	270.44
269.145	287.44
269.377	286.44
269.609	286.44
269.841	304.44
270.073	303.44
270.306	327.44
270.538	312.44
270.77	347.44
271.002	333.44
271.234	328.44
271.466	308.44
271.698	328.44
271.93	319.44
272.162	340.44
272.394	324.44
272.626	323.44
272.858	294.44
273.09	302.44
273.322	290.44
273.553	275.44
273.785	282.44
274.017	265.44
274.249	294.44
274.481	298.44
274.713	293.44
274.945	296.44
275.176	292.44
275.408	293.44
275.64	272.44
275.872	278.44
276.104	312.44
276.335	290.44
276.567	305.44
276.799	301.44
277.031	333.44
277.262	320.44
277.494	334.44
277.726	338.44
277.957	317.44
278.189	307.44
278.421	310.44
278.652	317.44
278.884	303.44
279.115	291.44
279.347	290.44
279.579	282.44
279.81	301.44
280.042	295.44
280.273	306.44
280.505	302.44
280.736	294.44
280.968	301.44
281.199	295.44
281.431	299.44
281.662	306.44
281.894	314.44
282.125	295.44
282.356	310.44
282.588	313.44
282.819	319.44
283.051	293.44
283.282	290.44
283.513	306.44
283.745	328.44
283.976	303.44
284.207	332.44
284.439	308.44
284.67	309.44
284.901	317.44
285.132	323.44
285.364	317.44
285.595	311.44
285.826	302.44
286.057	316.44
286.288	335.44
286.52	324.44
286.751	310.44
286.982	326.44
287.213	333.44
287.444	338.44
287.675	328.44
287.906	335.44
288.138	345.44
288.369	332.44
288.6	323.44
288.831	350.44
289.062	345.44
289.293	330.44
289.524	321.44
289.755	346.44
289.986	339.44
290.217	330.44
290.448	335.44
290.679	325.44
290.91	335.44
291.141	349.44
291.371	324.44
291.602	326.44
291.833	327.44
292.064	312.44
292.295	323.44
292.526	328.44
292.757	358.44
292.987	335.44
293.218	334.44
293.449	325.44
293.68	332.44
293.91	328.44
294.141	314.44
294.372	334.44
294.603	328.44
294.833	356.44
295.064	343.44
295.295	351.44
295.525	340.44
295.756	339.44
295.987	343.44
296.217	366.44
296.448	367.44
296.679	344.44
296.909	340.44
297.14	349.44
297.37	350.44
297.601	361.44
297.831	362.44
298.062	329.44
298.292	348.44
298.523	355.44
298.753	350.44
298.984	345.44
299.214	345.44
299.445	361.44
299.675	362.44
299.905	356.44
300.136	357.44
300.366	357.44
300.597	344.44
300.827	368.44
301.057	358.44
301.288	375.44
301.518	374.44
301.748	377.44
301.979	379.44
302.209	364.44
302.439	367.44
302.669	376.44
302.9	368.44
303.13	362.44
303.36	366.44
303.59	383.44
303.82	390.44
304.051	395.44
304.281	415.44
304.511	382.44
304.741	376.44
304.971	376.44
305.201	357.44
305.431	379.44
305.661	367.44
305.891	378.44
306.121	378.44
306.352	384.44
306.582	367.44
306.812	364.44
307.042	374.44
307.272	366.44
307.502	354.44
307.731	379.44
307.961	370.44
308.191	380.44
308.421	378.44
308.651	370.44
308.881	378.44
309.111	386.44
309.341	390.44
309.571	399.44
309.8	403.44
310.03	384.44
310.26	400.44
310.49	387.44
310.72	400.44
310.949	423.44
311.179	418.44
311.409	391.44
311.639	410.44
311.868	434.44
312.098	426.44
312.328	401.44
312.557	421.44
312.787	416.44
313.017	411.44
313.246	416.44
313.476	427.44
313.706	413.44
313.935	416.44
314.165	431.44
314.394	416.44
314.624	441.44
314.853	416.44
315.083	432.44
315.312	413.44
315.542	426.44
315.771	416.44
316.001	413.44
316.23	420.44
316.46	419.44
316.689	414.44
316.919	422.44
317.148	414.44
317.377	411.44
317.607	428.44
317.836	419.44
318.065	412.44
318.295	407.44
318.524	414.44
318.753	404.44
318.983	431.44
319.212	415.44
319.441	428.44
319.67	429.44
319.9	422.44
320.129	424.44
320.358	389.44
320.587	397.44
320.816	436.44
321.046	438.44
321.275	457.44
321.504	427.44
321.733	419.44
321.962	434.44
322.191	436.44
322.42	459.44
322.649	457.44
322.878	460.44
323.108	446.44
323.337	485.44
323.566	487.44
323.795	531.44
324.024	546.44
324.253	620.44
324.482	810.44
324.71	1147.44
324.939	1616.44
325.168	1420.44
325.397	798.44
325.626	583.44
325.855	514.44
326.084	516.44
326.313	499.44
326.542	501.44
326.77	526.44
326.999	591.44
327.228	740.44
327.457	1026.44
327.686	1224.44
327.914	871.44
328.143	644.44
328.372	595.44
328.6	565.44
328.829	521.44
329.058	547.44
329.287	567.44
329.515	522.44
329.744	516.44
329.972	515.44
330.201	522.44
330.43	559.44
330.658	556.44
330.887	580.44
331.115	580.44
331.344	518.44
331.572	512.44
331.801	515.44
332.03	504.44
332.258	483.44
332.486	502.44
332.715	521.44
332.943	507.44
333.172	508.44
333.4	539.44
333.629	539.44
333.857	570.44
334.085	540.44
334.314	556.44
334.542	581.44
334.771	572.44
334.999	565.44
335.227	534.44
335.455	525.44
335.684	532.44
335.912	513.44
336.14	515.44
336.369	501.44
336.597	534.44
336.825	488.44
337.053	495.44
337.281	494.44
337.51	510.44
337.738	493.44
337.966	490.44
338.194	478.44
338.422	489.44
338.65	500.44
338.878	474.44
339.106	468.44
339.334	491.44
339.562	471.44
339.79	490.44
340.018	460.44
340.246	479.44
340.474	511.44
340.702	493.44
340.93	473.44
341.158	464.44
341.386	459.44
341.614	462.44
341.842	484.44
342.07	464.44
342.298	445.44
342.526	459.44
342.754	434.44
342.981	451.44
343.209	449.44
343.437	472.44
343.665	491.44
343.893	502.44
344.12	525.44
344.348	532.44
344.576	505.44
344.804	491.44
345.031	489.44
345.259	498.44
345.487	463.44
345.714	460.44
345.942	462.44
346.17	448.44
346.397	460.44
346.625	443.44
346.853	445.44
347.08	457.44
347.308	434.44
347.535	438.44
347.763	435.44
347.99	442.44
348.218	448.44
348.445	457.44
348.673	432.44
348.9	440.44
349.128	445.44
349.355	427.44
349.583	431.44
349.81	424.44
350.037	443.44
350.265	418.44
350.492	429.44
350.72	438.44
350.947	413.44
351.174	463.44
351.402	452.44
351.629	449.44
351.856	456.44
352.083	427.44
352.311	432.44
352.538	469.44
352.765	446.44
352.992	444.44
353.22	436.44
353.447	439.44
353.674	442.44
353.901	434.44
354.128	463.44
354.355	448.44
354.583	417.44
354.81	434.44
355.037	423.44
355.264	426.44
355.491	405.44
355.718	432.44
355.945	437.44
356.172	435.44
356.399	421.44
356.626	420.44
356.853	431.44
357.08	430.44
357.307	411.44
357.534	406.44
357.761	439.44
357.988	411.44
358.215	420.44
358.441	423.44
358.668	428.44
358.895	431.44
359.122	413.44
359.349	436.44
359.576	432.44
359.802	475.44
360.029	455.44
360.256	468.44
360.483	487.44
360.709	457.44
360.936	453.44
361.163	436.44
361.39	428.44
361.616	439.44
361.843	457.44
362.07	449.44
362.296	432.44
362.523	437.44
362.749	446.44
362.976	455.44
363.203	439.44
363.429	408.44
363.656	427.44
363.882	436.44
364.109	420.44
364.335	428.44
364.562	438.44
364.788	424.44
365.015	440.44
365.241	431.44
365.468	434.44
365.694	444.44
365.92	419.44
366.147	425.44
366.373	415.44
366.599	442.44
366.826	423.44
367.052	408.44
367.278	439.44
367.505	421.44
367.731	444.44
367.957	424.44
368.184	420.44
368.41	428.44
368.636	436.44
368.862	462.44
369.089	439.44
369.315	446.44
369.541	428.44
369.767	447.44
369.993	448.44
370.219	422.44
370.445	429.44
370.672	417.44
370.898	434.44
371.124	442.44
371.35	430.44
371.576	436.44
371.802	446.44
372.028	442.44
372.254	454.44
372.48	445.44
372.706	455.44
372.932	468.44
373.158	445.44
373.384	430.44
373.61	463.44
373.835	451.44
374.061	426.44
374.287	450.44
374.513	443.44
374.739	452.44
374.965	469.44
375.191	440.44
375.416	453.44
375.642	475.44
375.868	463.44
376.094	449.44
376.319	437.44
376.545	436.44
376.771	467.44
376.997	434.44
377.222	437.44
377.448	424.44
377.674	428.44
377.899	431.44
378.125	430.44
378.35	439.44
378.576	420.44
378.802	464.44
379.027	444.44
379.253	444.44
379.478	451.44
379.704	437.44
379.929	438.44
380.155	451.44
380.38	461.44
380.606	430.44
380.831	430.44
381.057	460.44
381.282	452.44
381.507	437.44
381.733	416.44
381.958	461.44
382.184	443.44
382.409	458.44
382.634	449.44
382.86	448.44
383.085	457.44
383.31	458.44
383.535	462.44
383.761	460.44
383.986	465.44
384.211	468.44
384.436	493.44
384.662	481.44
384.887	490.44
385.112	457.44
385.337	495.44
385.562	471.44
385.787	499.44
386.013	520.44
386.238	511.44
386.463	518.44
386.688	502.44
386.913	515.44
387.138	514.44
387.363	494.44
387.588	489.44
387.813	478.44
388.038	508.44
388.263	500.44
388.488	524.44
388.713	491.44
388.938	519.44
389.163	498.44
389.387	511.44
389.612	489.44
389.837	502.44
390.062	492.44
390.287	494.44
390.512	498.44
390.736	501.44
390.961	493.44
391.186	482.44
391.411	522.44
391.636	534.44
391.86	527.44
392.085	519.44
392.31	525.44
392.534	531.44
392.759	512.44
392.984	515.44
393.208	514.44
393.433	498.44
393.658	506.44
393.882	499.44
394.107	512.44
394.331	501.44
394.556	506.44
394.78	492.44
395.005	514.44
395.229	536.44
395.454	531.44
395.678	550.44
395.903	548.44
396.127	571.44
396.352	555.44
396.576	499.44
396.801	519.44
397.025	510.44
397.249	539.44
397.474	527.44
397.698	544.44
397.922	549.44
398.147	579.44
398.371	567.44
398.595	555.44
398.82	582.44
399.044	612.44
399.268	612.44
399.492	687.44
399.717	736.44
399.941	771.44
400.165	770.44
400.389	738.44
400.613	671.44
400.837	632.44
401.062	603.44
401.286	604.44
401.51	584.44
401.734	593.44
401.958	607.44
402.182	575.44
402.406	587.44
402.63	594.44
402.854	607.44
403.078	596.44
403.302	616.44
403.526	626.44
403.75	626.44
403.974	621.44
404.198	640.44
404.422	632.44
404.645	642.44
404.869	607.44
405.093	677.44
405.317	697.44
405.541	711.44
405.765	671.44
405.988	634.44
406.212	642.44
406.436	656.44
406.66	663.44
406.883	669.44
407.107	685.44
407.331	731.44
407.555	782.44
407.778	790.44
408.002	730.44
408.226	685.44
408.449	678.44
408.673	662.44
408.896	679.44
409.12	723.44
409.344	681.44
409.567	622.44
409.791	634.44
410.014	623.44
410.238	603.44
410.461	631.44
410.685	614.44
410.908	615.44
411.132	664.44
411.355	658.44
411.578	625.44
411.802	593.44
412.025	603.44
412.249	627.44
412.472	647.44
412.695	652.44
412.919	637.44
413.142	592.44
413.365	605.44
413.589	605.44
413.812	576.44
414.035	577.44
414.258	595.44
414.482	598.44
414.705	563.44
414.928	555.44
415.151	572.44
415.374	570.44
415.597	584.44
415.821	590.44
416.044	591.44
416.267	590.44
416.49	578.44
416.713	569.44
416.936	572.44
417.159	571.44
417.382	567.44
417.605	585.44
417.828	594.44
418.051	582.44
418.274	574.44
418.497	584.44
418.72	582.44
418.943	583.44
419.166	622.44
419.389	638.44
419.611	603.44
419.834	607.44
420.057	634.44
420.28	592.44
420.503	596.44
420.726	597.44
420.948	600.44
421.171	633.44
421.394	657.44
421.617	626.44
421.839	606.44
422.062	576.44
422.285	595.44
422.507	650.44
422.73	749.44
422.953	725.44
423.175	646.44
423.398	608.44
423.621	600.44
423.843	652.44
424.066	644.44
424.288	629.44
424.511	663.44
424.733	693.44
424.956	751.44
425.178	724.44
425.401	717.44
425.623	741.44
425.846	630.44
426.068	629.44
426.291	617.44
426.513	596.44
426.735	597.44
426.958	664.44
427.18	700.44
427.402	824.44
427.625	890.44
427.847	754.44
428.069	672.44
428.292	616.44
428.514	604.44
428.736	564.44
428.958	578.44
429.181	562.44
429.403	543.44
429.625	551.44
429.847	597.44
430.069	638.44
430.292	668.44
430.514	564.44
430.736	550.44
430.958	546.44
431.18	542.44
431.402	541.44
431.624	546.44
431.846	537.44
432.068	530.44
432.29	543.44
432.512	541.44
432.734	565.44
432.956	529.44
433.178	557.44
433.4	557.44
433.622	558.44
433.844	553.44
434.066	545.44
434.287	535.44
434.509	543.44
434.731	548.44
434.953	594.44
435.175	585.44
435.397	598.44
435.618	612.44
435.84	619.44
436.062	692.44
436.284	778.44
436.505	666.44
436.727	599.44
436.949	575.44
437.17	573.44
437.392	571.44
437.614	585.44
437.835	588.44
438.057	656.44
438.278	755.44
438.5	732.44
438.721	828.44
438.943	798.44
439.165	654.44
439.386	625.44
439.608	621.44
439.829	589.44
440.05	617.44
440.272	635.44
440.493	631.44
440.715	568.44
440.936	568.44
441.158	556.44
441.379	548.44
441.6	599.44
441.822	618.44
442.043	650.44
442.264	722.44
442.486	763.44
442.707	670.44
442.928	624.44
443.149	628.44
443.371	656.44
443.592	700.44
443.813	735.44
444.034	835.44
444.255	694.44
444.476	650.44
444.698	651.44
444.919	675.44
445.14	733.44
445.361	708.44
445.582	652.44
445.803	717.44
446.024	766.44
446.245	782.44
446.466	699.44
446.687	632.44
446.908	592.44
447.129	572.44
447.35	547.44
447.571	559.44
447.792	555.44
448.013	550.44
448.234	552.44
448.455	582.44
448.675	700.44
448.896	810.44
449.117	695.44
449.338	655.44
449.559	716.44
449.779	838.44
450	682.44
450.221	581.44
450.442	542.44
450.662	516.44
450.883	532.44
451.104	555.44
451.324	538.44
451.545	515.44
451.766	531.44
451.986	509.44
452.207	482.44
452.428	493.44
452.648	493.44
452.869	506.44
453.089	509.44
453.31	530.44
453.53	503.44
453.751	500.44
453.971	478.44
454.192	514.44
454.412	487.44
454.633	479.44
454.853	483.44
455.073	510.44
455.294	520.44
455.514	562.44
455.734	539.44
455.955	499.44
456.175	471.44
456.395	462.44
456.616	470.44
456.836	470.44
457.056	463.44
457.276	475.44
457.497	483.44
457.717	463.44
457.937	454.44
458.157	492.44
458.377	485.44
458.598	517.44
458.818	543.44
459.038	606.44
459.258	624.44
459.478	571.44
459.698	568.44
459.918	555.44
460.138	551.44
460.358	584.44
460.578	582.44
460.798	577.44
461.018	596.44
461.238	586.44
461.458	565.44
461.678	570.44
461.898	591.44
462.118	565.44
462.338	576.44
462.558	635.44
462.777	626.44
462.997	642.44
463.217	676.44
463.437	674.44
463.657	646.44
463.876	663.44
464.096	594.44
464.316	608.44
464.536	638.44
464.755	621.44
464.975	612.44
465.195	603.44
465.414	664.44
465.634	595.44
465.854	578.44
466.073	541.44
466.293	541.44
466.512	498.44
466.732	537.44
466.951	486.44
467.171	491.44
467.391	526.44
467.61	511.44
467.829	524.44
468.049	519.44
468.268	517.44
468.488	531.44
468.707	498.44
468.927	509.44
469.146	485.44
469.365	504.44
469.585	507.44
469.804	514.44
470.023	522.44
470.243	521.44
470.462	520.44
470.681	541.44
470.901	540.44
471.12	520.44
471.339	510.44
471.558	535.44
471.777	501.44
471.997	522.44
472.216	508.44
472.435	505.44
472.654	504.44
472.873	507.44
473.092	494.44
473.311	498.44
473.53	504.44
473.749	541.44
473.968	557.44
474.187	631.44
474.406	647.44
474.625	575.44
474.844	533.44
475.063	547.44
475.282	523.44
475.501	519.44
475.72	519.44
475.939	540.44
476.158	555.44
476.377	540.44
476.596	536.44
476.814	536.44
477.033	564.44
477.252	535.44
477.471	557.44
477.69	580.44
477.908	566.44
478.127	565.44
478.346	559.44
478.564	564.44
478.783	595.44
479.002	598.44
479.22	602.44
479.439	607.44
479.658	605.44
479.876	618.44
480.095	628.44
480.313	667.44
480.532	669.44
480.751	646.44
480.969	650.44
481.188	665.44
481.406	687.44
481.624	653.44
481.843	618.44
482.061	611.44
482.28	576.44
482.498	599.44
482.717	603.44
482.935	601.44
483.153	592.44
483.372	586.44
483.59	599.44
483.808	594.44
484.027	610.44
484.245	622.44
484.463	606.44
484.681	607.44
484.9	608.44
485.118	626.44
485.336	613.44
485.554	630.44
485.772	608.44
485.99	619.44
486.209	630.44
486.427	640.44
486.645	625.44
486.863	630.44
487.081	646.44
487.299	656.44
487.517	626.44
487.735	619.44
487.953	638.44
488.171	625.44
488.389	611.44
488.607	632.44
488.825	650.44
489.043	649.44
489.261	641.44
489.479	644.44
489.696	633.44
489.914	640.44
490.132	666.44
490.35	648.44
490.568	676.44
490.786	674.44
491.003	665.44
491.221	675.44
491.439	706.44
491.657	710.44
491.874	714.44
492.092	707.44
492.31	716.44
492.527	761.44
492.745	725.44
492.963	746.44
493.18	731.44
493.398	715.44
493.615	730.44
493.833	748.44
494.05	728.44
494.268	750.44
494.485	754.44
494.703	739.44
494.92	776.44
495.138	731.44
495.355	742.44
495.573	727.44
495.79	764.44
496.008	762.44
496.225	736.44
496.442	771.44
496.66	766.44
496.877	747.44
497.094	746.44
497.312	791.44
497.529	774.44
497.746	805.44
497.963	802.44
498.181	822.44
498.398	872.44
498.615	879.44
498.832	912.44
499.049	945.44
499.267	975.44
499.484	1008.44
499.701	1060.44
499.918	1149.44
500.135	1252.44
500.352	1290.44
500.569	1324.44
500.786	1350.44
501.003	1343.44
501.22	1246.44
501.437	1167.44
501.654	1106.44
