Data from 1973.PennyLincolnUp.Lamp.En5.5.200Scan.071719.P1.Changed Mount._HRD10591_15-45-29-853.txt Node
Date: Thu Jul 18 15:45:29 EDT 2019
User: cochatt
Spectrometer: HR+D1059
Trigger mode: 1
Integration Time (sec): 1.000000E-1
Scans to average: 1
Electric dark correction enabled: true
Nonlinearity correction enabled: false
Boxcar width: 0
XAxis mode: Wavelengths
Number of Pixels in Spectrum: 2048
>>>>>Begin Spectral Data<<<<<
223.165	-21.5
223.4	-21.5
223.635	-21.5
223.869	-20.5
224.104	-10.5
224.338	-14.5
224.573	-24.5
224.808	-0.5
225.042	-12.5
225.277	-1.5
225.511	-8.5
225.746	4.5
225.98	10.5
226.215	16.5
226.449	8.5
226.683	14.5
226.918	34.5
227.152	25.5
227.387	28.5
227.621	35.5
227.856	41.5
228.09	52.5
228.324	36.5
228.559	57.5
228.793	69.5
229.027	101.5
229.262	101.5
229.496	122.5
229.73	133.5
229.964	150.5
230.199	123.5
230.433	117.5
230.667	109.5
230.901	114.5
231.136	109.5
231.37	101.5
231.604	107.5
231.838	115.5
232.072	114.5
232.306	102.5
232.541	106.5
232.775	120.5
233.009	124.5
233.243	110.5
233.477	113.5
233.711	127.5
233.945	112.5
234.179	110.5
234.413	116.5
234.647	124.5
234.881	122.5
235.115	115.5
235.349	132.5
235.583	125.5
235.817	128.5
236.051	130.5
236.285	121.5
236.519	130.5
236.753	134.5
236.987	151.5
237.221	167.5
237.455	210.5
237.689	180.5
237.922	131.5
238.156	130.5
238.39	124.5
238.624	120.5
238.858	140.5
239.091	121.5
239.325	120.5
239.559	133.5
239.793	125.5
240.027	132.5
240.26	132.5
240.494	151.5
240.728	144.5
240.961	148.5
241.195	152.5
241.429	126.5
241.662	140.5
241.896	135.5
242.13	129.5
242.363	141.5
242.597	142.5
242.83	137.5
243.064	140.5
243.298	148.5
243.531	140.5
243.765	143.5
243.998	148.5
244.232	138.5
244.465	150.5
244.699	139.5
244.932	146.5
245.166	157.5
245.399	163.5
245.633	148.5
245.866	159.5
246.099	143.5
246.333	152.5
246.566	166.5
246.8	153.5
247.033	158.5
247.266	163.5
247.5	164.5
247.733	181.5
247.966	165.5
248.2	179.5
248.433	171.5
248.666	169.5
248.899	187.5
249.133	184.5
249.366	196.5
249.599	189.5
249.832	188.5
250.066	196.5
250.299	170.5
250.532	191.5
250.765	197.5
250.998	217.5
251.231	217.5
251.465	212.5
251.698	215.5
251.931	193.5
252.164	202.5
252.397	198.5
252.63	198.5
252.863	206.5
253.096	224.5
253.329	228.5
253.562	225.5
253.795	210.5
254.028	214.5
254.261	216.5
254.494	225.5
254.727	234.5
254.96	273.5
255.193	264.5
255.426	256.5
255.659	242.5
255.892	234.5
256.124	218.5
256.357	234.5
256.59	219.5
256.823	216.5
257.056	204.5
257.289	213.5
257.521	200.5
257.754	210.5
257.987	228.5
258.22	221.5
258.452	212.5
258.685	206.5
258.918	220.5
259.151	224.5
259.383	230.5
259.616	229.5
259.849	237.5
260.081	254.5
260.314	264.5
260.547	243.5
260.779	248.5
261.012	245.5
261.244	247.5
261.477	226.5
261.71	233.5
261.942	221.5
262.175	244.5
262.407	246.5
262.64	231.5
262.872	225.5
263.105	226.5
263.337	228.5
263.57	234.5
263.802	236.5
264.035	231.5
264.267	218.5
264.499	225.5
264.732	227.5
264.964	236.5
265.197	236.5
265.429	224.5
265.661	220.5
265.894	224.5
266.126	233.5
266.358	242.5
266.591	233.5
266.823	250.5
267.055	255.5
267.287	258.5
267.52	226.5
267.752	234.5
267.984	248.5
268.216	248.5
268.448	249.5
268.681	259.5
268.913	265.5
269.145	265.5
269.377	276.5
269.609	304.5
269.841	277.5
270.073	297.5
270.306	312.5
270.538	318.5
270.77	319.5
271.002	294.5
271.234	320.5
271.466	310.5
271.698	307.5
271.93	320.5
272.162	342.5
272.394	334.5
272.626	305.5
272.858	302.5
273.09	287.5
273.322	290.5
273.553	270.5
273.785	290.5
274.017	281.5
274.249	285.5
274.481	283.5
274.713	287.5
274.945	301.5
275.176	277.5
275.408	270.5
275.64	268.5
275.872	269.5
276.104	292.5
276.335	283.5
276.567	284.5
276.799	288.5
277.031	334.5
277.262	345.5
277.494	325.5
277.726	323.5
277.957	308.5
278.189	281.5
278.421	301.5
278.652	297.5
278.884	307.5
279.115	304.5
279.347	286.5
279.579	304.5
279.81	280.5
280.042	282.5
280.273	290.5
280.505	294.5
280.736	288.5
280.968	268.5
281.199	300.5
281.431	298.5
281.662	301.5
281.894	292.5
282.125	307.5
282.356	325.5
282.588	337.5
282.819	304.5
283.051	318.5
283.282	329.5
283.513	293.5
283.745	318.5
283.976	314.5
284.207	312.5
284.439	323.5
284.67	308.5
284.901	314.5
285.132	333.5
285.364	304.5
285.595	304.5
285.826	314.5
286.057	328.5
286.288	312.5
286.52	325.5
286.751	305.5
286.982	335.5
287.213	317.5
287.444	295.5
287.675	316.5
287.906	334.5
288.138	327.5
288.369	334.5
288.6	343.5
288.831	315.5
289.062	316.5
289.293	316.5
289.524	332.5
289.755	328.5
289.986	320.5
290.217	323.5
290.448	328.5
290.679	322.5
290.91	329.5
291.141	325.5
291.371	334.5
291.602	334.5
291.833	341.5
292.064	328.5
292.295	340.5
292.526	323.5
292.757	321.5
292.987	329.5
293.218	313.5
293.449	338.5
293.68	316.5
293.91	319.5
294.141	316.5
294.372	322.5
294.603	330.5
294.833	346.5
295.064	336.5
295.295	343.5
295.525	322.5
295.756	334.5
295.987	333.5
296.217	364.5
296.448	360.5
296.679	334.5
296.909	339.5
297.14	343.5
297.37	341.5
297.601	327.5
297.831	331.5
298.062	339.5
298.292	343.5
298.523	348.5
298.753	341.5
298.984	341.5
299.214	329.5
299.445	312.5
299.675	344.5
299.905	357.5
300.136	330.5
300.366	348.5
300.597	348.5
300.827	370.5
301.057	372.5
301.288	369.5
301.518	355.5
301.748	356.5
301.979	368.5
302.209	360.5
302.439	373.5
302.669	374.5
302.9	373.5
303.13	366.5
303.36	386.5
303.59	373.5
303.82	378.5
304.051	391.5
304.281	390.5
304.511	379.5
304.741	368.5
304.971	372.5
305.201	360.5
305.431	360.5
305.661	384.5
305.891	382.5
306.121	370.5
306.352	357.5
306.582	365.5
306.812	359.5
307.042	344.5
307.272	353.5
307.502	356.5
307.731	379.5
307.961	356.5
308.191	366.5
308.421	377.5
308.651	371.5
308.881	375.5
309.111	357.5
309.341	392.5
309.571	400.5
309.8	399.5
310.03	377.5
310.26	388.5
310.49	413.5
310.72	420.5
310.949	411.5
311.179	426.5
311.409	410.5
311.639	405.5
311.868	403.5
312.098	413.5
312.328	406.5
312.557	418.5
312.787	428.5
313.017	428.5
313.246	397.5
313.476	416.5
313.706	406.5
313.935	400.5
314.165	419.5
314.394	414.5
314.624	417.5
314.853	415.5
315.083	414.5
315.312	402.5
315.542	415.5
315.771	396.5
316.001	408.5
316.23	419.5
316.46	419.5
316.689	406.5
316.919	415.5
317.148	415.5
317.377	424.5
317.607	415.5
317.836	431.5
318.065	406.5
318.295	418.5
318.524	418.5
318.753	391.5
318.983	395.5
319.212	397.5
319.441	411.5
319.67	426.5
319.9	397.5
320.129	418.5
320.358	402.5
320.587	410.5
320.816	417.5
321.046	415.5
321.275	444.5
321.504	433.5
321.733	413.5
321.962	435.5
322.191	441.5
322.42	441.5
322.649	454.5
322.878	460.5
323.108	468.5
323.337	496.5
323.566	497.5
323.795	514.5
324.024	548.5
324.253	626.5
324.482	824.5
324.71	1202.5
324.939	1696.5
325.168	1459.5
325.397	846.5
325.626	599.5
325.855	508.5
326.084	506.5
326.313	505.5
326.542	488.5
326.77	528.5
326.999	588.5
327.228	728.5
327.457	1069.5
327.686	1294.5
327.914	923.5
328.143	660.5
328.372	587.5
328.6	551.5
328.829	536.5
329.058	544.5
329.287	552.5
329.515	526.5
329.744	524.5
329.972	533.5
330.201	521.5
330.43	573.5
330.658	569.5
330.887	582.5
331.115	573.5
331.344	528.5
331.572	506.5
331.801	518.5
332.03	496.5
332.258	510.5
332.486	488.5
332.715	489.5
332.943	489.5
333.172	496.5
333.4	516.5
333.629	548.5
333.857	571.5
334.085	545.5
334.314	564.5
334.542	576.5
334.771	580.5
334.999	545.5
335.227	532.5
335.455	514.5
335.684	544.5
335.912	505.5
336.14	472.5
336.369	503.5
336.597	507.5
336.825	498.5
337.053	479.5
337.281	478.5
337.51	473.5
337.738	491.5
337.966	497.5
338.194	493.5
338.422	470.5
338.65	468.5
338.878	436.5
339.106	477.5
339.334	487.5
339.562	467.5
339.79	472.5
340.018	455.5
340.246	453.5
340.474	471.5
340.702	468.5
340.93	462.5
341.158	480.5
341.386	475.5
341.614	459.5
341.842	479.5
342.07	452.5
342.298	481.5
342.526	449.5
342.754	456.5
342.981	478.5
343.209	461.5
343.437	478.5
343.665	480.5
343.893	506.5
344.12	504.5
344.348	496.5
344.576	512.5
344.804	486.5
345.031	468.5
345.259	493.5
345.487	490.5
345.714	468.5
345.942	446.5
346.17	471.5
346.397	460.5
346.625	448.5
346.853	449.5
347.08	460.5
347.308	454.5
347.535	444.5
347.763	427.5
347.99	443.5
348.218	452.5
348.445	462.5
348.673	474.5
348.9	477.5
349.128	456.5
349.355	432.5
349.583	452.5
349.81	414.5
350.037	438.5
350.265	437.5
350.492	419.5
350.72	422.5
350.947	461.5
351.174	444.5
351.402	469.5
351.629	458.5
351.856	453.5
352.083	444.5
352.311	443.5
352.538	452.5
352.765	448.5
352.992	449.5
353.22	434.5
353.447	420.5
353.674	437.5
353.901	422.5
354.128	424.5
354.355	407.5
354.583	438.5
354.81	423.5
355.037	427.5
355.264	428.5
355.491	428.5
355.718	429.5
355.945	406.5
356.172	408.5
356.399	409.5
356.626	433.5
356.853	423.5
357.08	402.5
357.307	403.5
357.534	413.5
357.761	405.5
357.988	436.5
358.215	450.5
358.441	405.5
358.668	444.5
358.895	420.5
359.122	434.5
359.349	431.5
359.576	447.5
359.802	457.5
360.029	486.5
360.256	449.5
360.483	466.5
360.709	444.5
360.936	438.5
361.163	453.5
361.39	440.5
361.616	430.5
361.843	438.5
362.07	433.5
362.296	454.5
362.523	437.5
362.749	394.5
362.976	432.5
363.203	421.5
363.429	429.5
363.656	427.5
363.882	432.5
364.109	422.5
364.335	420.5
364.562	418.5
364.788	442.5
365.015	440.5
365.241	430.5
365.468	446.5
365.694	425.5
365.92	443.5
366.147	424.5
366.373	421.5
366.599	423.5
366.826	422.5
367.052	433.5
367.278	427.5
367.505	417.5
367.731	409.5
367.957	404.5
368.184	424.5
368.41	441.5
368.636	450.5
368.862	442.5
369.089	443.5
369.315	425.5
369.541	438.5
369.767	432.5
369.993	424.5
370.219	421.5
370.445	423.5
370.672	434.5
370.898	434.5
371.124	429.5
371.35	431.5
371.576	424.5
371.802	420.5
372.028	426.5
372.254	433.5
372.48	427.5
372.706	477.5
372.932	429.5
373.158	446.5
373.384	454.5
373.61	423.5
373.835	443.5
374.061	426.5
374.287	442.5
374.513	429.5
374.739	447.5
374.965	442.5
375.191	458.5
375.416	452.5
375.642	466.5
375.868	461.5
376.094	450.5
376.319	416.5
376.545	435.5
376.771	458.5
376.997	427.5
377.222	436.5
377.448	428.5
377.674	441.5
377.899	418.5
378.125	434.5
378.35	425.5
378.576	430.5
378.802	422.5
379.027	458.5
379.253	429.5
379.478	452.5
379.704	411.5
379.929	443.5
380.155	438.5
380.38	440.5
380.606	430.5
380.831	426.5
381.057	447.5
381.282	450.5
381.507	451.5
381.733	446.5
381.958	428.5
382.184	424.5
382.409	440.5
382.634	453.5
382.86	441.5
383.085	465.5
383.31	459.5
383.535	457.5
383.761	455.5
383.986	482.5
384.211	472.5
384.436	470.5
384.662	474.5
384.887	482.5
385.112	461.5
385.337	501.5
385.562	483.5
385.787	481.5
386.013	480.5
386.238	494.5
386.463	501.5
386.688	475.5
386.913	471.5
387.138	470.5
387.363	509.5
387.588	477.5
387.813	493.5
388.038	482.5
388.263	490.5
388.488	494.5
388.713	504.5
388.938	534.5
389.163	514.5
389.387	505.5
389.612	480.5
389.837	481.5
390.062	466.5
390.287	503.5
390.512	490.5
390.736	481.5
390.961	467.5
391.186	490.5
391.411	514.5
391.636	509.5
391.86	515.5
392.085	533.5
392.31	537.5
392.534	515.5
392.759	518.5
392.984	507.5
393.208	504.5
393.433	484.5
393.658	492.5
393.882	485.5
394.107	486.5
394.331	490.5
394.556	497.5
394.78	510.5
395.005	509.5
395.229	494.5
395.454	520.5
395.678	528.5
395.903	520.5
396.127	532.5
396.352	545.5
396.576	512.5
396.801	507.5
397.025	501.5
397.249	530.5
397.474	516.5
397.698	512.5
397.922	562.5
398.147	559.5
398.371	575.5
398.595	563.5
398.82	585.5
399.044	573.5
399.268	629.5
399.492	678.5
399.717	735.5
399.941	755.5
400.165	728.5
400.389	714.5
400.613	651.5
400.837	629.5
401.062	581.5
401.286	603.5
401.51	571.5
401.734	591.5
401.958	589.5
402.182	605.5
402.406	599.5
402.63	612.5
402.854	596.5
403.078	586.5
403.302	600.5
403.526	601.5
403.75	620.5
403.974	606.5
404.198	627.5
404.422	619.5
404.645	636.5
404.869	615.5
405.093	652.5
405.317	660.5
405.541	704.5
405.765	654.5
405.988	612.5
406.212	638.5
406.436	627.5
406.66	690.5
406.883	650.5
407.107	680.5
407.331	709.5
407.555	762.5
407.778	792.5
408.002	721.5
408.226	693.5
408.449	680.5
408.673	677.5
408.896	665.5
409.12	714.5
409.344	682.5
409.567	635.5
409.791	619.5
410.014	607.5
410.238	601.5
410.461	613.5
410.685	628.5
410.908	617.5
411.132	637.5
411.355	658.5
411.578	668.5
411.802	596.5
412.025	605.5
412.249	604.5
412.472	613.5
412.695	654.5
412.919	652.5
413.142	620.5
413.365	609.5
413.589	586.5
413.812	573.5
414.035	570.5
414.258	574.5
414.482	549.5
414.705	574.5
414.928	558.5
415.151	568.5
415.374	576.5
415.597	572.5
415.821	561.5
416.044	572.5
416.267	562.5
416.49	548.5
416.713	576.5
416.936	556.5
417.159	562.5
417.382	549.5
417.605	572.5
417.828	570.5
418.051	631.5
418.274	591.5
418.497	573.5
418.72	584.5
418.943	585.5
419.166	612.5
419.389	632.5
419.611	605.5
419.834	600.5
420.057	591.5
420.28	593.5
420.503	573.5
420.726	574.5
420.948	585.5
421.171	607.5
421.394	644.5
421.617	601.5
421.839	599.5
422.062	601.5
422.285	600.5
422.507	630.5
422.73	716.5
422.953	704.5
423.175	646.5
423.398	640.5
423.621	634.5
423.843	631.5
424.066	611.5
424.288	612.5
424.511	639.5
424.733	681.5
424.956	748.5
425.178	710.5
425.401	713.5
425.623	742.5
425.846	632.5
426.068	588.5
426.291	617.5
426.513	598.5
426.735	601.5
426.958	645.5
427.18	716.5
427.402	812.5
427.625	903.5
427.847	768.5
428.069	668.5
428.292	612.5
428.514	600.5
428.736	583.5
428.958	576.5
429.181	537.5
429.403	544.5
429.625	558.5
429.847	555.5
430.069	664.5
430.292	647.5
430.514	569.5
430.736	544.5
430.958	553.5
431.18	544.5
431.402	500.5
431.624	536.5
431.846	533.5
432.068	537.5
432.29	554.5
432.512	543.5
432.734	549.5
432.956	554.5
433.178	555.5
433.4	549.5
433.622	520.5
433.844	536.5
434.066	527.5
434.287	535.5
434.509	568.5
434.731	562.5
434.953	587.5
435.175	593.5
435.397	612.5
435.618	592.5
435.84	634.5
436.062	692.5
436.284	754.5
436.505	647.5
436.727	589.5
436.949	567.5
437.17	573.5
437.392	542.5
437.614	571.5
437.835	572.5
438.057	634.5
438.278	713.5
438.5	734.5
438.721	839.5
438.943	782.5
439.165	648.5
439.386	629.5
439.608	587.5
439.829	592.5
440.05	628.5
440.272	654.5
440.493	602.5
440.715	562.5
440.936	598.5
441.158	590.5
441.379	576.5
441.6	603.5
441.822	616.5
442.043	668.5
442.264	725.5
442.486	752.5
442.707	654.5
442.928	631.5
443.149	638.5
443.371	641.5
443.592	696.5
443.813	759.5
444.034	828.5
444.255	705.5
444.476	640.5
444.698	647.5
444.919	657.5
445.14	716.5
445.361	683.5
445.582	665.5
445.803	697.5
446.024	775.5
446.245	791.5
446.466	733.5
446.687	626.5
446.908	596.5
447.129	580.5
447.35	572.5
447.571	540.5
447.792	550.5
448.013	556.5
448.234	563.5
448.455	592.5
448.675	709.5
448.896	805.5
449.117	678.5
449.338	632.5
449.559	741.5
449.779	836.5
450	666.5
450.221	579.5
450.442	526.5
450.662	532.5
450.883	555.5
451.104	553.5
451.324	540.5
451.545	538.5
451.766	490.5
451.986	490.5
452.207	503.5
452.428	509.5
452.648	480.5
452.869	488.5
453.089	485.5
453.31	484.5
453.53	506.5
453.751	488.5
453.971	514.5
454.192	506.5
454.412	489.5
454.633	477.5
454.853	465.5
455.073	487.5
455.294	510.5
455.514	563.5
455.734	576.5
455.955	484.5
456.175	476.5
456.395	468.5
456.616	440.5
456.836	440.5
457.056	453.5
457.276	464.5
457.497	486.5
457.717	477.5
457.937	464.5
458.157	490.5
458.377	466.5
458.598	503.5
458.818	546.5
459.038	600.5
459.258	640.5
459.478	567.5
459.698	543.5
459.918	552.5
460.138	545.5
460.358	558.5
460.578	562.5
460.798	582.5
461.018	564.5
461.238	583.5
461.458	573.5
461.678	540.5
461.898	588.5
462.118	552.5
462.338	613.5
462.558	609.5
462.777	599.5
462.997	658.5
463.217	662.5
463.437	665.5
463.657	644.5
463.876	632.5
464.096	635.5
464.316	630.5
464.536	624.5
464.755	618.5
464.975	614.5
465.195	614.5
465.414	649.5
465.634	596.5
465.854	573.5
466.073	551.5
466.293	530.5
466.512	538.5
466.732	516.5
466.951	530.5
467.171	520.5
467.391	513.5
467.61	521.5
467.829	533.5
468.049	516.5
468.268	518.5
468.488	487.5
468.707	505.5
468.927	491.5
469.146	487.5
469.365	510.5
469.585	470.5
469.804	525.5
470.023	545.5
470.243	537.5
470.462	552.5
470.681	508.5
470.901	527.5
471.12	533.5
471.339	520.5
471.558	516.5
471.777	514.5
471.997	503.5
472.216	514.5
472.435	520.5
472.654	539.5
472.873	500.5
473.092	501.5
473.311	490.5
473.53	522.5
473.749	520.5
473.968	535.5
474.187	614.5
474.406	645.5
474.625	546.5
474.844	519.5
475.063	518.5
475.282	522.5
475.501	518.5
475.72	524.5
475.939	533.5
476.158	532.5
476.377	507.5
476.596	526.5
476.814	545.5
477.033	513.5
477.252	524.5
477.471	534.5
477.69	551.5
477.908	552.5
478.127	578.5
478.346	582.5
478.564	584.5
478.783	592.5
479.002	600.5
479.22	603.5
479.439	597.5
479.658	601.5
479.876	649.5
480.095	632.5
480.313	665.5
480.532	633.5
480.751	649.5
480.969	643.5
481.188	676.5
481.406	689.5
481.624	641.5
481.843	604.5
482.061	596.5
482.28	572.5
482.498	607.5
482.717	609.5
482.935	590.5
483.153	584.5
483.372	552.5
483.59	591.5
483.808	586.5
484.027	583.5
484.245	610.5
484.463	579.5
484.681	593.5
484.9	594.5
485.118	615.5
485.336	612.5
485.554	613.5
485.772	607.5
485.99	610.5
486.209	618.5
486.427	618.5
486.645	627.5
486.863	628.5
487.081	636.5
487.299	635.5
487.517	633.5
487.735	627.5
487.953	644.5
488.171	631.5
488.389	641.5
488.607	615.5
488.825	627.5
489.043	616.5
489.261	637.5
489.479	634.5
489.696	654.5
489.914	651.5
490.132	662.5
490.35	670.5
490.568	657.5
490.786	674.5
491.003	696.5
491.221	692.5
491.439	693.5
491.657	715.5
491.874	694.5
492.092	706.5
492.31	726.5
492.527	729.5
492.745	722.5
492.963	722.5
493.18	726.5
493.398	733.5
493.615	729.5
493.833	724.5
494.05	736.5
494.268	733.5
494.485	717.5
494.703	727.5
494.92	737.5
495.138	727.5
495.355	730.5
495.573	730.5
495.79	758.5
496.008	736.5
496.225	732.5
496.442	730.5
496.66	756.5
496.877	747.5
497.094	766.5
497.312	766.5
497.529	773.5
497.746	804.5
497.963	785.5
498.181	828.5
498.398	836.5
498.615	889.5
498.832	908.5
499.049	925.5
499.267	924.5
499.484	995.5
499.701	1053.5
499.918	1093.5
500.135	1238.5
500.352	1301.5
500.569	1346.5
500.786	1320.5
501.003	1284.5
501.22	1222.5
501.437	1132.5
501.654	1106.5
501.871	1068.5
502.088	990.5
502.305	990.5
502.522	930.5
502.739	885.5
502.956	858.5
503.172	826.5
503.389	805.5
503.606	790.5
503.823	803.5
504.04	754.5
504.256	811.5
504.473	795.5
504.69	796.5
504.907	754.5
505.123	747.5
505.34	715.5
505.557	724.5
505.773	728.5
505.99	701.5
506.207	699.5
506.423	708.5
506.64	704.5
506.856	680.5
507.073	672.5
507.289	688.5
507.506	673.5
507.722	668.5
507.939	700.5
508.155	686.5
508.372	645.5
508.588	632.5
508.805	644.5
509.021	648.5
509.238	650.5
509.454	667.5
509.67	660.5
509.887	648.5
510.103	630.5
510.319	664.5
510.536	708.5
510.752	1030.5
510.968	916.5
511.184	653.5
511.401	630.5
511.617	614.5
511.833	607.5
512.049	630.5
512.265	624.5
512.481	615.5
512.698	619.5
512.914	610.5
513.13	605.5
513.346	604.5
513.562	596.5
513.778	615.5
513.994	595.5
514.21	612.5
514.426	646.5
514.642	642.5
514.858	672.5
515.074	706.5
515.29	796.5
515.506	1060.5
515.721	908.5
515.937	724.5
516.153	654.5
516.369	646.5
516.585	646.5
516.801	649.5
517.016	679.5
517.232	692.5
517.448	679.5
517.664	701.5
517.879	709.5
518.095	706.5
518.311	692.5
518.527	697.5
518.742	677.5
518.958	652.5
519.173	650.5
519.389	638.5
