Data from 1973.PennyLincolnUp.Lamp.En5.5.200Scan.071719.P1.Changed Mount._HRD10591_15-45-41-852.txt Node
Date: Thu Jul 18 15:45:41 EDT 2019
User: cochatt
Spectrometer: HR+D1059
Trigger mode: 1
Integration Time (sec): 1.000000E-1
Scans to average: 1
Electric dark correction enabled: true
Nonlinearity correction enabled: false
Boxcar width: 0
XAxis mode: Wavelengths
Number of Pixels in Spectrum: 2048
>>>>>Begin Spectral Data<<<<<
223.165	-16.75
223.4	-16.75
223.635	-16.75
223.869	-9.75
224.104	-15.75
224.338	-15.75
224.573	-18.75
224.808	-18.75
225.042	-14.75
225.277	3.25
225.511	-10.75
225.746	6.25
225.98	15.25
226.215	-2.75
226.449	14.25
226.683	15.25
226.918	28.25
227.152	41.25
227.387	39.25
227.621	41.25
227.856	36.25
228.09	42.25
228.324	44.25
228.559	70.25
228.793	82.25
229.027	86.25
229.262	96.25
229.496	119.25
229.73	117.25
229.964	137.25
230.199	109.25
230.433	113.25
230.667	112.25
230.901	125.25
231.136	105.25
231.37	115.25
231.604	117.25
231.838	115.25
232.072	104.25
232.306	112.25
232.541	122.25
232.775	126.25
233.009	129.25
233.243	115.25
233.477	125.25
233.711	114.25
233.945	128.25
234.179	122.25
234.413	110.25
234.647	104.25
234.881	122.25
235.115	125.25
235.349	124.25
235.583	133.25
235.817	122.25
236.051	120.25
236.285	127.25
236.519	117.25
236.753	142.25
236.987	133.25
237.221	169.25
237.455	220.25
237.689	177.25
237.922	133.25
238.156	133.25
238.39	125.25
238.624	129.25
238.858	133.25
239.091	133.25
239.325	138.25
239.559	129.25
239.793	133.25
240.027	137.25
240.26	131.25
240.494	124.25
240.728	152.25
240.961	148.25
241.195	160.25
241.429	142.25
241.662	144.25
241.896	140.25
242.13	144.25
242.363	140.25
242.597	133.25
242.83	147.25
243.064	137.25
243.298	145.25
243.531	132.25
243.765	145.25
243.998	144.25
244.232	156.25
244.465	148.25
244.699	157.25
244.932	159.25
245.166	147.25
245.399	151.25
245.633	142.25
245.866	135.25
246.099	151.25
246.333	162.25
246.566	163.25
246.8	148.25
247.033	148.25
247.266	164.25
247.5	163.25
247.733	162.25
247.966	174.25
248.2	164.25
248.433	183.25
248.666	162.25
248.899	198.25
249.133	188.25
249.366	195.25
249.599	179.25
249.832	180.25
250.066	183.25
250.299	181.25
250.532	204.25
250.765	185.25
250.998	204.25
251.231	207.25
251.465	210.25
251.698	195.25
251.931	184.25
252.164	198.25
252.397	183.25
252.63	199.25
252.863	213.25
253.096	228.25
253.329	220.25
253.562	218.25
253.795	211.25
254.028	206.25
254.261	200.25
254.494	201.25
254.727	248.25
254.96	255.25
255.193	251.25
255.426	239.25
255.659	215.25
255.892	215.25
256.124	231.25
256.357	215.25
256.59	213.25
256.823	205.25
257.056	229.25
257.289	215.25
257.521	210.25
257.754	215.25
257.987	191.25
258.22	200.25
258.452	222.25
258.685	218.25
258.918	211.25
259.151	218.25
259.383	236.25
259.616	218.25
259.849	225.25
260.081	243.25
260.314	261.25
260.547	238.25
260.779	253.25
261.012	255.25
261.244	242.25
261.477	226.25
261.71	206.25
261.942	228.25
262.175	213.25
262.407	230.25
262.64	211.25
262.872	215.25
263.105	229.25
263.337	239.25
263.57	235.25
263.802	231.25
264.035	213.25
264.267	227.25
264.499	209.25
264.732	238.25
264.964	232.25
265.197	214.25
265.429	220.25
265.661	228.25
265.894	220.25
266.126	229.25
266.358	229.25
266.591	230.25
266.823	231.25
267.055	235.25
267.287	219.25
267.52	243.25
267.752	262.25
267.984	233.25
268.216	238.25
268.448	238.25
268.681	252.25
268.913	256.25
269.145	272.25
269.377	285.25
269.609	280.25
269.841	271.25
270.073	285.25
270.306	295.25
270.538	321.25
270.77	330.25
271.002	302.25
271.234	287.25
271.466	304.25
271.698	295.25
271.93	304.25
272.162	333.25
272.394	311.25
272.626	313.25
272.858	303.25
273.09	291.25
273.322	286.25
273.553	285.25
273.785	276.25
274.017	297.25
274.249	271.25
274.481	275.25
274.713	275.25
274.945	285.25
275.176	273.25
275.408	287.25
275.64	297.25
275.872	263.25
276.104	263.25
276.335	284.25
276.567	281.25
276.799	300.25
277.031	316.25
277.262	309.25
277.494	328.25
277.726	297.25
277.957	296.25
278.189	291.25
278.421	300.25
278.652	293.25
278.884	293.25
279.115	297.25
279.347	290.25
279.579	288.25
279.81	295.25
280.042	289.25
280.273	297.25
280.505	312.25
280.736	294.25
280.968	299.25
281.199	305.25
281.431	289.25
281.662	282.25
281.894	280.25
282.125	298.25
282.356	305.25
282.588	317.25
282.819	301.25
283.051	282.25
283.282	301.25
283.513	282.25
283.745	291.25
283.976	297.25
284.207	324.25
284.439	310.25
284.67	311.25
284.901	319.25
285.132	330.25
285.364	293.25
285.595	298.25
285.826	313.25
286.057	319.25
286.288	329.25
286.52	303.25
286.751	317.25
286.982	311.25
287.213	308.25
287.444	311.25
287.675	303.25
287.906	318.25
288.138	332.25
288.369	325.25
288.6	341.25
288.831	318.25
289.062	321.25
289.293	333.25
289.524	309.25
289.755	328.25
289.986	311.25
290.217	342.25
290.448	308.25
290.679	318.25
290.91	311.25
291.141	315.25
291.371	321.25
291.602	344.25
291.833	307.25
292.064	309.25
292.295	329.25
292.526	346.25
292.757	329.25
292.987	321.25
293.218	315.25
293.449	327.25
293.68	316.25
293.91	323.25
294.141	332.25
294.372	314.25
294.603	307.25
294.833	345.25
295.064	313.25
295.295	326.25
295.525	321.25
295.756	334.25
295.987	332.25
296.217	342.25
296.448	343.25
296.679	332.25
296.909	345.25
297.14	336.25
297.37	359.25
297.601	335.25
297.831	343.25
298.062	315.25
298.292	340.25
298.523	334.25
298.753	336.25
298.984	339.25
299.214	326.25
299.445	333.25
299.675	335.25
299.905	355.25
300.136	344.25
300.366	338.25
300.597	340.25
300.827	349.25
301.057	342.25
301.288	352.25
301.518	362.25
301.748	355.25
301.979	373.25
302.209	375.25
302.439	356.25
302.669	361.25
302.9	353.25
303.13	360.25
303.36	361.25
303.59	361.25
303.82	362.25
304.051	367.25
304.281	360.25
304.511	344.25
304.741	347.25
304.971	367.25
305.201	349.25
305.431	357.25
305.661	369.25
305.891	369.25
306.121	377.25
306.352	375.25
306.582	365.25
306.812	363.25
307.042	379.25
307.272	352.25
307.502	353.25
307.731	362.25
307.961	369.25
308.191	351.25
308.421	366.25
308.651	360.25
308.881	373.25
309.111	367.25
309.341	373.25
309.571	364.25
309.8	364.25
310.03	373.25
310.26	395.25
310.49	387.25
310.72	404.25
310.949	393.25
311.179	406.25
311.409	397.25
311.639	403.25
311.868	406.25
312.098	418.25
312.328	397.25
312.557	394.25
312.787	405.25
313.017	411.25
313.246	403.25
313.476	406.25
313.706	380.25
313.935	397.25
314.165	419.25
314.394	424.25
314.624	421.25
314.853	394.25
315.083	389.25
315.312	413.25
315.542	399.25
315.771	387.25
316.001	393.25
316.23	386.25
316.46	385.25
316.689	401.25
316.919	412.25
317.148	419.25
317.377	400.25
317.607	417.25
317.836	398.25
318.065	401.25
318.295	401.25
318.524	392.25
318.753	392.25
318.983	408.25
319.212	397.25
319.441	414.25
319.67	409.25
319.9	413.25
320.129	387.25
320.358	405.25
320.587	396.25
320.816	420.25
321.046	404.25
321.275	419.25
321.504	439.25
321.733	423.25
321.962	437.25
322.191	424.25
322.42	431.25
322.649	435.25
322.878	440.25
323.108	435.25
323.337	436.25
323.566	483.25
323.795	504.25
324.024	523.25
324.253	600.25
324.482	741.25
324.71	1094.25
324.939	1543.25
325.168	1353.25
325.397	751.25
325.626	581.25
325.855	505.25
326.084	489.25
326.313	483.25
326.542	467.25
326.77	501.25
326.999	559.25
327.228	725.25
327.457	959.25
327.686	1217.25
327.914	844.25
328.143	629.25
328.372	536.25
328.6	518.25
328.829	519.25
329.058	504.25
329.287	510.25
329.515	513.25
329.744	489.25
329.972	501.25
330.201	503.25
330.43	532.25
330.658	530.25
330.887	544.25
331.115	519.25
331.344	515.25
331.572	513.25
331.801	500.25
332.03	485.25
332.258	493.25
332.486	479.25
332.715	490.25
332.943	480.25
333.172	515.25
333.4	500.25
333.629	521.25
333.857	522.25
334.085	531.25
334.314	542.25
334.542	554.25
334.771	546.25
334.999	517.25
335.227	504.25
335.455	495.25
335.684	478.25
335.912	478.25
336.14	500.25
336.369	477.25
336.597	492.25
336.825	482.25
337.053	491.25
337.281	478.25
337.51	469.25
337.738	478.25
337.966	459.25
338.194	465.25
338.422	489.25
338.65	474.25
338.878	477.25
339.106	466.25
339.334	462.25
339.562	455.25
339.79	416.25
340.018	465.25
340.246	464.25
340.474	474.25
340.702	461.25
340.93	445.25
341.158	458.25
341.386	455.25
341.614	468.25
341.842	452.25
342.07	437.25
342.298	450.25
342.526	450.25
342.754	433.25
342.981	429.25
343.209	441.25
343.437	464.25
343.665	484.25
343.893	479.25
344.12	505.25
344.348	497.25
344.576	474.25
344.804	478.25
345.031	472.25
345.259	467.25
345.487	458.25
345.714	473.25
345.942	450.25
346.17	424.25
346.397	444.25
346.625	444.25
346.853	425.25
347.08	424.25
347.308	453.25
347.535	425.25
347.763	445.25
347.99	425.25
348.218	413.25
348.445	437.25
348.673	429.25
348.9	414.25
349.128	427.25
349.355	406.25
349.583	417.25
349.81	424.25
350.037	405.25
350.265	427.25
350.492	420.25
350.72	419.25
350.947	424.25
351.174	460.25
351.402	449.25
351.629	432.25
351.856	432.25
352.083	419.25
352.311	418.25
352.538	431.25
352.765	436.25
352.992	407.25
353.22	429.25
353.447	426.25
353.674	429.25
353.901	399.25
354.128	413.25
354.355	432.25
354.583	425.25
354.81	424.25
355.037	391.25
355.264	402.25
355.491	397.25
355.718	398.25
355.945	402.25
356.172	421.25
356.399	409.25
356.626	416.25
356.853	404.25
357.08	401.25
357.307	426.25
357.534	407.25
357.761	418.25
357.988	403.25
358.215	399.25
358.441	397.25
358.668	421.25
358.895	391.25
359.122	394.25
359.349	407.25
359.576	429.25
359.802	423.25
360.029	445.25
360.256	458.25
360.483	439.25
360.709	425.25
360.936	427.25
361.163	440.25
361.39	421.25
361.616	424.25
361.843	407.25
362.07	414.25
362.296	428.25
362.523	420.25
362.749	448.25
362.976	435.25
363.203	415.25
363.429	405.25
363.656	406.25
363.882	388.25
364.109	422.25
364.335	417.25
364.562	414.25
364.788	403.25
365.015	420.25
365.241	409.25
365.468	417.25
365.694	401.25
365.92	382.25
366.147	411.25
366.373	422.25
366.599	416.25
366.826	408.25
367.052	406.25
367.278	416.25
367.505	413.25
367.731	428.25
367.957	418.25
368.184	408.25
368.41	408.25
368.636	412.25
368.862	446.25
369.089	421.25
369.315	415.25
369.541	424.25
369.767	430.25
369.993	419.25
370.219	431.25
370.445	411.25
370.672	443.25
370.898	417.25
371.124	411.25
371.35	424.25
371.576	406.25
371.802	423.25
372.028	435.25
372.254	428.25
372.48	419.25
372.706	445.25
372.932	437.25
373.158	441.25
373.384	427.25
373.61	415.25
373.835	414.25
374.061	441.25
374.287	433.25
374.513	432.25
374.739	433.25
374.965	449.25
375.191	431.25
375.416	461.25
375.642	435.25
375.868	429.25
376.094	428.25
376.319	436.25
376.545	435.25
376.771	417.25
376.997	411.25
377.222	425.25
377.448	428.25
377.674	423.25
377.899	411.25
378.125	411.25
378.35	413.25
378.576	414.25
378.802	412.25
379.027	430.25
379.253	427.25
379.478	407.25
379.704	424.25
379.929	432.25
380.155	436.25
380.38	421.25
380.606	408.25
380.831	415.25
381.057	417.25
381.282	431.25
381.507	419.25
381.733	437.25
381.958	436.25
382.184	438.25
382.409	442.25
382.634	438.25
382.86	433.25
383.085	435.25
383.31	425.25
383.535	473.25
383.761	443.25
383.986	427.25
384.211	433.25
384.436	450.25
384.662	458.25
384.887	458.25
385.112	465.25
385.337	470.25
385.562	463.25
385.787	468.25
386.013	504.25
386.238	507.25
386.463	477.25
386.688	491.25
386.913	476.25
387.138	488.25
387.363	484.25
387.588	472.25
387.813	449.25
388.038	469.25
388.263	475.25
388.488	469.25
388.713	486.25
388.938	476.25
389.163	464.25
389.387	492.25
389.612	480.25
389.837	486.25
390.062	458.25
390.287	491.25
390.512	456.25
390.736	470.25
390.961	476.25
391.186	459.25
391.411	488.25
391.636	479.25
391.86	511.25
392.085	504.25
392.31	528.25
392.534	488.25
392.759	485.25
392.984	493.25
393.208	492.25
393.433	501.25
393.658	505.25
393.882	503.25
394.107	513.25
394.331	507.25
394.556	493.25
394.78	493.25
395.005	503.25
395.229	471.25
395.454	501.25
395.678	502.25
395.903	512.25
396.127	540.25
396.352	532.25
396.576	499.25
396.801	474.25
397.025	495.25
397.249	507.25
397.474	517.25
397.698	492.25
397.922	527.25
398.147	517.25
398.371	546.25
398.595	536.25
398.82	567.25
399.044	572.25
399.268	619.25
399.492	651.25
399.717	700.25
399.941	725.25
400.165	739.25
400.389	684.25
400.613	613.25
400.837	583.25
401.062	575.25
401.286	556.25
401.51	549.25
401.734	571.25
401.958	580.25
402.182	569.25
402.406	549.25
402.63	565.25
402.854	571.25
403.078	576.25
403.302	600.25
403.526	585.25
403.75	616.25
403.974	601.25
404.198	571.25
404.422	606.25
404.645	586.25
404.869	612.25
405.093	632.25
405.317	642.25
405.541	703.25
405.765	632.25
405.988	618.25
406.212	613.25
406.436	616.25
406.66	647.25
406.883	638.25
407.107	659.25
407.331	719.25
407.555	760.25
407.778	769.25
408.002	688.25
408.226	643.25
408.449	661.25
408.673	642.25
408.896	649.25
409.12	686.25
409.344	667.25
409.567	618.25
409.791	577.25
410.014	579.25
410.238	586.25
410.461	593.25
410.685	610.25
410.908	591.25
411.132	621.25
411.355	651.25
411.578	607.25
411.802	604.25
412.025	585.25
412.249	589.25
412.472	614.25
412.695	636.25
412.919	621.25
413.142	581.25
413.365	592.25
413.589	564.25
413.812	549.25
414.035	566.25
414.258	547.25
414.482	549.25
414.705	545.25
414.928	563.25
415.151	570.25
415.374	544.25
415.597	551.25
415.821	535.25
416.044	539.25
416.267	536.25
416.49	535.25
416.713	539.25
416.936	543.25
417.159	535.25
417.382	574.25
417.605	550.25
417.828	566.25
418.051	571.25
418.274	577.25
418.497	553.25
418.72	577.25
418.943	537.25
419.166	583.25
419.389	593.25
419.611	603.25
419.834	591.25
420.057	591.25
420.28	583.25
420.503	587.25
420.726	585.25
420.948	580.25
421.171	582.25
421.394	616.25
421.617	591.25
421.839	573.25
422.062	589.25
422.285	578.25
422.507	633.25
422.73	672.25
422.953	650.25
423.175	599.25
423.398	595.25
423.621	593.25
423.843	637.25
424.066	617.25
424.288	621.25
424.511	614.25
424.733	663.25
424.956	716.25
425.178	657.25
425.401	692.25
425.623	697.25
425.846	602.25
426.068	597.25
426.291	557.25
426.513	586.25
426.735	601.25
426.958	580.25
427.18	686.25
427.402	792.25
427.625	841.25
427.847	716.25
428.069	639.25
428.292	603.25
428.514	558.25
428.736	552.25
428.958	546.25
429.181	547.25
429.403	518.25
429.625	546.25
429.847	571.25
430.069	651.25
430.292	623.25
430.514	558.25
430.736	547.25
430.958	541.25
431.18	519.25
431.402	509.25
431.624	495.25
431.846	512.25
432.068	519.25
432.29	530.25
432.512	530.25
432.734	549.25
432.956	548.25
433.178	527.25
433.4	537.25
433.622	521.25
433.844	511.25
434.066	501.25
434.287	537.25
434.509	529.25
434.731	556.25
434.953	563.25
435.175	569.25
435.397	571.25
435.618	574.25
435.84	593.25
436.062	676.25
436.284	730.25
436.505	649.25
436.727	559.25
436.949	545.25
437.17	542.25
437.392	519.25
437.614	549.25
437.835	552.25
438.057	620.25
438.278	703.25
438.5	710.25
438.721	792.25
438.943	759.25
439.165	613.25
439.386	569.25
439.608	557.25
439.829	574.25
440.05	595.25
440.272	604.25
440.493	587.25
440.715	543.25
440.936	529.25
441.158	539.25
441.379	549.25
441.6	577.25
441.822	598.25
442.043	607.25
442.264	665.25
442.486	736.25
442.707	635.25
442.928	606.25
443.149	587.25
443.371	614.25
443.592	656.25
443.813	730.25
444.034	782.25
444.255	676.25
444.476	609.25
444.698	633.25
444.919	624.25
445.14	709.25
445.361	647.25
445.582	606.25
445.803	664.25
446.024	725.25
446.245	738.25
446.466	676.25
446.687	602.25
446.908	584.25
447.129	531.25
447.35	552.25
447.571	533.25
447.792	514.25
448.013	542.25
448.234	547.25
448.455	575.25
448.675	669.25
448.896	757.25
449.117	664.25
449.338	629.25
449.559	713.25
449.779	803.25
450	653.25
450.221	558.25
450.442	552.25
450.662	537.25
450.883	528.25
451.104	526.25
451.324	512.25
451.545	501.25
451.766	491.25
451.986	491.25
452.207	469.25
452.428	482.25
452.648	464.25
452.869	483.25
453.089	467.25
453.31	488.25
453.53	488.25
453.751	488.25
453.971	459.25
454.192	482.25
454.412	467.25
454.633	473.25
454.853	464.25
455.073	465.25
455.294	475.25
455.514	539.25
455.734	508.25
455.955	483.25
456.175	445.25
456.395	457.25
456.616	465.25
456.836	468.25
457.056	439.25
457.276	425.25
457.497	449.25
457.717	455.25
457.937	447.25
458.157	474.25
458.377	464.25
458.598	469.25
458.818	534.25
459.038	584.25
459.258	584.25
459.478	536.25
459.698	521.25
459.918	529.25
460.138	564.25
460.358	545.25
460.578	548.25
460.798	552.25
461.018	570.25
461.238	593.25
461.458	553.25
461.678	534.25
461.898	533.25
462.118	553.25
462.338	568.25
462.558	578.25
462.777	596.25
462.997	623.25
463.217	649.25
463.437	658.25
463.657	632.25
463.876	591.25
464.096	614.25
464.316	606.25
464.536	587.25
464.755	626.25
464.975	594.25
465.195	604.25
465.414	617.25
465.634	583.25
465.854	523.25
466.073	515.25
466.293	509.25
466.512	510.25
466.732	504.25
466.951	504.25
467.171	496.25
467.391	513.25
467.61	510.25
467.829	491.25
468.049	504.25
468.268	509.25
468.488	498.25
468.707	475.25
468.927	462.25
469.146	461.25
469.365	475.25
469.585	494.25
469.804	487.25
470.023	507.25
470.243	494.25
470.462	520.25
470.681	528.25
470.901	493.25
471.12	484.25
471.339	506.25
471.558	496.25
471.777	511.25
471.997	502.25
472.216	500.25
472.435	519.25
472.654	518.25
472.873	496.25
473.092	485.25
473.311	496.25
473.53	479.25
473.749	517.25
473.968	547.25
474.187	607.25
474.406	628.25
474.625	545.25
474.844	489.25
475.063	514.25
475.282	504.25
475.501	519.25
475.72	502.25
475.939	500.25
476.158	494.25
476.377	510.25
476.596	487.25
476.814	521.25
477.033	524.25
477.252	507.25
477.471	533.25
477.69	519.25
477.908	541.25
478.127	538.25
478.346	559.25
478.564	565.25
478.783	567.25
479.002	586.25
479.22	588.25
479.439	594.25
479.658	593.25
479.876	591.25
480.095	604.25
480.313	643.25
480.532	618.25
480.751	640.25
480.969	636.25
481.188	627.25
481.406	656.25
481.624	619.25
481.843	591.25
482.061	594.25
482.28	596.25
482.498	583.25
482.717	578.25
482.935	578.25
483.153	576.25
483.372	584.25
483.59	587.25
483.808	571.25
484.027	575.25
484.245	579.25
484.463	558.25
484.681	593.25
484.9	570.25
485.118	595.25
485.336	585.25
485.554	576.25
485.772	590.25
485.99	589.25
486.209	608.25
486.427	599.25
486.645	609.25
486.863	621.25
487.081	602.25
487.299	600.25
487.517	615.25
487.735	601.25
487.953	615.25
488.171	611.25
488.389	611.25
488.607	625.25
488.825	630.25
489.043	600.25
489.261	623.25
489.479	596.25
489.696	607.25
489.914	625.25
490.132	624.25
490.35	632.25
490.568	635.25
490.786	637.25
491.003	651.25
491.221	691.25
491.439	653.25
491.657	665.25
491.874	668.25
492.092	680.25
492.31	668.25
492.527	680.25
492.745	696.25
492.963	694.25
493.18	695.25
493.398	712.25
493.615	719.25
493.833	700.25
494.05	700.25
494.268	693.25
494.485	700.25
494.703	705.25
494.92	720.25
495.138	715.25
495.355	703.25
495.573	701.25
495.79	704.25
496.008	721.25
496.225	713.25
496.442	700.25
496.66	737.25
496.877	715.25
497.094	755.25
497.312	761.25
497.529	762.25
497.746	736.25
497.963	796.25
498.181	810.25
498.398	816.25
498.615	859.25
498.832	839.25
499.049	894.25
499.267	939.25
499.484	983.25
499.701	1008.25
499.918	1068.25
500.135	1142.25
500.352	1213.25
500.569	1267.25
500.786	1261.25
501.003	1253.25
501.22	1168.25
501.437	1115.25
501.654	1056.25
