Data from 1973.PennyLincolnUp.Lamp.En5.5.200Scan.071719.P1.Changed Mount._HRD10591_15-45-47-852.txt Node
Date: Thu Jul 18 15:45:47 EDT 2019
User: cochatt
Spectrometer: HR+D1059
Trigger mode: 1
Integration Time (sec): 1.000000E-1
Scans to average: 1
Electric dark correction enabled: true
Nonlinearity correction enabled: false
Boxcar width: 0
XAxis mode: Wavelengths
Number of Pixels in Spectrum: 2048
>>>>>Begin Spectral Data<<<<<
223.165	-18.62
223.4	-18.62
223.635	-18.62
223.869	-13.62
224.104	-12.62
224.338	-14.62
224.573	-13.62
224.808	-19.62
225.042	-2.62
225.277	-15.62
225.511	-13.62
225.746	-2.62
225.98	2.38
226.215	15.38
226.449	11.38
226.683	36.38
226.918	28.38
227.152	33.38
227.387	24.38
227.621	22.38
227.856	38.38
228.09	42.38
228.324	49.38
228.559	61.38
228.793	69.38
229.027	92.38
229.262	102.38
229.496	122.38
229.73	120.38
229.964	140.38
230.199	105.38
230.433	119.38
230.667	113.38
230.901	108.38
231.136	103.38
231.37	114.38
231.604	114.38
231.838	123.38
232.072	114.38
232.306	104.38
232.541	124.38
232.775	103.38
233.009	120.38
233.243	122.38
233.477	116.38
233.711	107.38
233.945	134.38
234.179	126.38
234.413	109.38
234.647	119.38
234.881	103.38
235.115	117.38
235.349	134.38
235.583	135.38
235.817	120.38
236.051	120.38
236.285	124.38
236.519	122.38
236.753	120.38
236.987	128.38
237.221	171.38
237.455	206.38
237.689	157.38
237.922	141.38
238.156	130.38
238.39	108.38
238.624	117.38
238.858	116.38
239.091	133.38
239.325	125.38
239.559	120.38
239.793	128.38
240.027	132.38
240.26	125.38
240.494	157.38
240.728	152.38
240.961	139.38
241.195	148.38
241.429	133.38
241.662	143.38
241.896	141.38
242.13	155.38
242.363	145.38
242.597	143.38
242.83	143.38
243.064	152.38
243.298	139.38
243.531	148.38
243.765	150.38
243.998	147.38
244.232	147.38
244.465	143.38
244.699	156.38
244.932	154.38
245.166	154.38
245.399	161.38
245.633	157.38
245.866	145.38
246.099	145.38
246.333	167.38
246.566	159.38
246.8	157.38
247.033	150.38
247.266	164.38
247.5	157.38
247.733	169.38
247.966	172.38
248.2	176.38
248.433	173.38
248.666	165.38
248.899	196.38
249.133	176.38
249.366	203.38
249.599	189.38
249.832	188.38
250.066	186.38
250.299	184.38
250.532	186.38
250.765	203.38
250.998	220.38
251.231	240.38
251.465	222.38
251.698	228.38
251.931	192.38
252.164	202.38
252.397	196.38
252.63	191.38
252.863	197.38
253.096	225.38
253.329	221.38
253.562	235.38
253.795	226.38
254.028	219.38
254.261	220.38
254.494	220.38
254.727	255.38
254.96	294.38
255.193	272.38
255.426	264.38
255.659	233.38
255.892	246.38
256.124	238.38
256.357	245.38
256.59	228.38
256.823	202.38
257.056	214.38
257.289	234.38
257.521	225.38
257.754	227.38
257.987	226.38
258.22	227.38
258.452	220.38
258.685	205.38
258.918	203.38
259.151	224.38
259.383	220.38
259.616	247.38
259.849	226.38
260.081	236.38
260.314	264.38
260.547	272.38
260.779	258.38
261.012	240.38
261.244	220.38
261.477	228.38
261.71	253.38
261.942	245.38
262.175	237.38
262.407	229.38
262.64	219.38
262.872	217.38
263.105	232.38
263.337	235.38
263.57	227.38
263.802	219.38
264.035	245.38
264.267	231.38
264.499	232.38
264.732	217.38
264.964	231.38
265.197	231.38
265.429	245.38
265.661	230.38
265.894	236.38
266.126	236.38
266.358	234.38
266.591	243.38
266.823	250.38
267.055	230.38
267.287	244.38
267.52	245.38
267.752	242.38
267.984	260.38
268.216	242.38
268.448	266.38
268.681	268.38
268.913	268.38
269.145	265.38
269.377	311.38
269.609	278.38
269.841	276.38
270.073	290.38
270.306	299.38
270.538	336.38
270.77	327.38
271.002	309.38
271.234	313.38
271.466	326.38
271.698	316.38
271.93	331.38
272.162	323.38
272.394	328.38
272.626	309.38
272.858	326.38
273.09	283.38
273.322	287.38
273.553	289.38
273.785	304.38
274.017	290.38
274.249	270.38
274.481	295.38
274.713	283.38
274.945	281.38
275.176	287.38
275.408	308.38
275.64	290.38
275.872	271.38
276.104	278.38
276.335	300.38
276.567	306.38
276.799	308.38
277.031	294.38
277.262	347.38
277.494	310.38
277.726	329.38
277.957	323.38
278.189	298.38
278.421	293.38
278.652	301.38
278.884	295.38
279.115	306.38
279.347	283.38
279.579	297.38
279.81	285.38
280.042	295.38
280.273	302.38
280.505	299.38
280.736	308.38
280.968	308.38
281.199	312.38
281.431	308.38
281.662	290.38
281.894	311.38
282.125	320.38
282.356	317.38
282.588	327.38
282.819	343.38
283.051	310.38
283.282	311.38
283.513	317.38
283.745	312.38
283.976	337.38
284.207	312.38
284.439	324.38
284.67	312.38
284.901	321.38
285.132	312.38
285.364	305.38
285.595	305.38
285.826	305.38
286.057	339.38
286.288	312.38
286.52	313.38
286.751	326.38
286.982	318.38
287.213	329.38
287.444	335.38
287.675	313.38
287.906	334.38
288.138	333.38
288.369	345.38
288.6	330.38
288.831	331.38
289.062	348.38
289.293	361.38
289.524	326.38
289.755	310.38
289.986	341.38
290.217	332.38
290.448	292.38
290.679	310.38
290.91	323.38
291.141	327.38
291.371	345.38
291.602	327.38
291.833	333.38
292.064	350.38
292.295	327.38
292.526	319.38
292.757	326.38
292.987	329.38
293.218	319.38
293.449	337.38
293.68	334.38
293.91	330.38
294.141	327.38
294.372	334.38
294.603	340.38
294.833	340.38
295.064	325.38
295.295	332.38
295.525	324.38
295.756	325.38
295.987	344.38
296.217	366.38
296.448	362.38
296.679	357.38
296.909	342.38
297.14	378.38
297.37	328.38
297.601	347.38
297.831	338.38
298.062	349.38
298.292	344.38
298.523	358.38
298.753	354.38
298.984	343.38
299.214	351.38
299.445	343.38
299.675	353.38
299.905	374.38
300.136	358.38
300.366	371.38
300.597	360.38
300.827	374.38
301.057	344.38
301.288	376.38
301.518	367.38
301.748	359.38
301.979	391.38
302.209	373.38
302.439	369.38
302.669	389.38
302.9	362.38
303.13	376.38
303.36	386.38
303.59	373.38
303.82	363.38
304.051	378.38
304.281	384.38
304.511	376.38
304.741	379.38
304.971	373.38
305.201	377.38
305.431	359.38
305.661	385.38
305.891	382.38
306.121	348.38
306.352	361.38
306.582	384.38
306.812	378.38
307.042	365.38
307.272	361.38
307.502	363.38
307.731	376.38
307.961	369.38
308.191	358.38
308.421	404.38
308.651	377.38
308.881	348.38
309.111	388.38
309.341	398.38
309.571	388.38
309.8	411.38
310.03	394.38
310.26	396.38
310.49	398.38
310.72	402.38
310.949	417.38
311.179	420.38
311.409	425.38
311.639	399.38
311.868	398.38
312.098	405.38
312.328	410.38
312.557	438.38
312.787	410.38
313.017	432.38
313.246	411.38
313.476	401.38
313.706	406.38
313.935	423.38
314.165	428.38
314.394	412.38
314.624	423.38
314.853	415.38
315.083	403.38
315.312	416.38
315.542	406.38
315.771	421.38
316.001	411.38
316.23	424.38
316.46	405.38
316.689	429.38
316.919	412.38
317.148	405.38
317.377	419.38
317.607	419.38
317.836	427.38
318.065	429.38
318.295	417.38
318.524	406.38
318.753	409.38
318.983	421.38
319.212	396.38
319.441	419.38
319.67	418.38
319.9	421.38
320.129	442.38
320.358	416.38
320.587	387.38
320.816	441.38
321.046	436.38
321.275	433.38
321.504	425.38
321.733	415.38
321.962	416.38
322.191	430.38
322.42	443.38
322.649	460.38
322.878	459.38
323.108	456.38
323.337	483.38
323.566	486.38
323.795	491.38
324.024	536.38
324.253	604.38
324.482	785.38
324.71	1165.38
324.939	1663.38
325.168	1424.38
325.397	804.38
325.626	576.38
325.855	541.38
326.084	501.38
326.313	505.38
326.542	496.38
326.77	531.38
326.999	594.38
327.228	741.38
327.457	1035.38
327.686	1242.38
327.914	892.38
328.143	619.38
328.372	563.38
328.6	539.38
328.829	545.38
329.058	514.38
329.287	569.38
329.515	520.38
329.744	532.38
329.972	501.38
330.201	526.38
330.43	546.38
330.658	590.38
330.887	613.38
331.115	573.38
331.344	538.38
331.572	497.38
331.801	526.38
332.03	537.38
332.258	500.38
332.486	496.38
332.715	480.38
332.943	517.38
333.172	522.38
333.4	529.38
333.629	531.38
333.857	569.38
334.085	571.38
334.314	551.38
334.542	600.38
334.771	589.38
334.999	548.38
335.227	512.38
335.455	518.38
335.684	509.38
335.912	529.38
336.14	490.38
336.369	494.38
336.597	493.38
336.825	524.38
337.053	530.38
337.281	501.38
337.51	495.38
337.738	478.38
337.966	496.38
338.194	508.38
338.422	500.38
338.65	501.38
338.878	487.38
339.106	468.38
339.334	478.38
339.562	467.38
339.79	486.38
340.018	472.38
340.246	480.38
340.474	453.38
340.702	478.38
340.93	474.38
341.158	477.38
341.386	481.38
341.614	485.38
341.842	478.38
342.07	472.38
342.298	473.38
342.526	472.38
342.754	454.38
342.981	444.38
343.209	449.38
343.437	482.38
343.665	500.38
343.893	517.38
344.12	510.38
344.348	516.38
344.576	504.38
344.804	510.38
345.031	488.38
345.259	473.38
345.487	474.38
345.714	474.38
345.942	456.38
346.17	447.38
346.397	460.38
346.625	439.38
346.853	422.38
347.08	436.38
347.308	437.38
347.535	457.38
347.763	460.38
347.99	492.38
348.218	457.38
348.445	460.38
348.673	455.38
348.9	467.38
349.128	427.38
349.355	440.38
349.583	436.38
349.81	443.38
350.037	443.38
350.265	441.38
350.492	448.38
350.72	448.38
350.947	450.38
351.174	436.38
351.402	442.38
351.629	446.38
351.856	468.38
352.083	449.38
352.311	453.38
352.538	455.38
352.765	454.38
352.992	452.38
353.22	440.38
353.447	438.38
353.674	432.38
353.901	424.38
354.128	411.38
354.355	424.38
354.583	428.38
354.81	433.38
355.037	430.38
355.264	411.38
355.491	428.38
355.718	429.38
355.945	414.38
356.172	432.38
356.399	425.38
356.626	425.38
356.853	436.38
357.08	432.38
357.307	435.38
357.534	441.38
357.761	437.38
357.988	430.38
358.215	411.38
358.441	453.38
358.668	446.38
358.895	449.38
359.122	418.38
359.349	416.38
359.576	452.38
359.802	456.38
360.029	489.38
360.256	503.38
360.483	456.38
360.709	449.38
360.936	462.38
361.163	444.38
361.39	457.38
361.616	459.38
361.843	455.38
362.07	434.38
362.296	460.38
362.523	433.38
362.749	450.38
362.976	446.38
363.203	454.38
363.429	406.38
363.656	445.38
363.882	432.38
364.109	441.38
364.335	422.38
364.562	416.38
364.788	405.38
365.015	421.38
365.241	409.38
365.468	440.38
365.694	433.38
365.92	434.38
366.147	431.38
366.373	437.38
366.599	428.38
366.826	422.38
367.052	415.38
367.278	434.38
367.505	454.38
367.731	410.38
367.957	425.38
368.184	429.38
368.41	443.38
368.636	443.38
368.862	432.38
369.089	417.38
369.315	438.38
369.541	440.38
369.767	427.38
369.993	424.38
370.219	428.38
370.445	436.38
370.672	419.38
370.898	422.38
371.124	432.38
371.35	444.38
371.576	416.38
371.802	445.38
372.028	432.38
372.254	446.38
372.48	444.38
372.706	455.38
372.932	441.38
373.158	443.38
373.384	459.38
373.61	434.38
373.835	437.38
374.061	434.38
374.287	451.38
374.513	469.38
374.739	452.38
374.965	454.38
375.191	458.38
375.416	443.38
375.642	450.38
375.868	458.38
376.094	439.38
376.319	438.38
376.545	459.38
376.771	451.38
376.997	454.38
377.222	449.38
377.448	465.38
377.674	427.38
377.899	437.38
378.125	423.38
378.35	438.38
378.576	438.38
378.802	415.38
379.027	451.38
379.253	435.38
379.478	424.38
379.704	434.38
379.929	447.38
380.155	421.38
380.38	457.38
380.606	434.38
380.831	441.38
381.057	450.38
381.282	437.38
381.507	448.38
381.733	447.38
381.958	441.38
382.184	436.38
382.409	475.38
382.634	469.38
382.86	449.38
383.085	451.38
383.31	453.38
383.535	472.38
383.761	480.38
383.986	470.38
384.211	472.38
384.436	461.38
384.662	485.38
384.887	489.38
385.112	472.38
385.337	482.38
385.562	498.38
385.787	514.38
386.013	505.38
386.238	517.38
386.463	494.38
386.688	510.38
386.913	489.38
387.138	492.38
387.363	483.38
387.588	508.38
387.813	476.38
388.038	485.38
388.263	508.38
388.488	474.38
388.713	510.38
388.938	506.38
389.163	490.38
389.387	498.38
389.612	489.38
389.837	500.38
390.062	486.38
390.287	479.38
390.512	485.38
390.736	496.38
390.961	498.38
391.186	502.38
391.411	487.38
391.636	525.38
391.86	527.38
392.085	522.38
392.31	523.38
392.534	525.38
392.759	523.38
392.984	532.38
393.208	496.38
393.433	516.38
393.658	500.38
393.882	484.38
394.107	518.38
394.331	526.38
394.556	502.38
394.78	524.38
395.005	512.38
395.229	519.38
395.454	530.38
395.678	551.38
395.903	548.38
396.127	513.38
396.352	554.38
396.576	538.38
396.801	535.38
397.025	520.38
397.249	530.38
397.474	530.38
397.698	551.38
397.922	528.38
398.147	556.38
398.371	570.38
398.595	571.38
398.82	568.38
399.044	624.38
399.268	635.38
399.492	695.38
399.717	722.38
399.941	784.38
400.165	753.38
400.389	732.38
400.613	672.38
400.837	640.38
401.062	609.38
401.286	601.38
401.51	580.38
401.734	558.38
401.958	594.38
402.182	599.38
402.406	592.38
402.63	599.38
402.854	621.38
403.078	593.38
403.302	617.38
403.526	628.38
403.75	638.38
403.974	613.38
404.198	618.38
404.422	647.38
404.645	624.38
404.869	624.38
405.093	653.38
405.317	685.38
405.541	699.38
405.765	638.38
405.988	638.38
406.212	643.38
406.436	646.38
406.66	698.38
406.883	645.38
407.107	662.38
407.331	741.38
407.555	790.38
407.778	788.38
408.002	745.38
408.226	677.38
408.449	685.38
408.673	646.38
408.896	694.38
409.12	715.38
409.344	692.38
409.567	651.38
409.791	622.38
410.014	612.38
410.238	608.38
410.461	580.38
410.685	588.38
410.908	634.38
411.132	649.38
411.355	678.38
411.578	654.38
411.802	602.38
412.025	610.38
412.249	611.38
412.472	638.38
412.695	628.38
412.919	639.38
413.142	601.38
413.365	584.38
413.589	605.38
413.812	576.38
414.035	571.38
414.258	584.38
414.482	568.38
414.705	577.38
414.928	566.38
415.151	597.38
415.374	577.38
415.597	586.38
415.821	573.38
416.044	561.38
416.267	569.38
416.49	574.38
416.713	560.38
416.936	570.38
417.159	571.38
417.382	565.38
417.605	588.38
417.828	582.38
418.051	600.38
418.274	594.38
418.497	580.38
418.72	560.38
418.943	576.38
419.166	605.38
419.389	666.38
419.611	632.38
419.834	624.38
420.057	644.38
420.28	611.38
420.503	589.38
420.726	580.38
420.948	604.38
421.171	651.38
421.394	646.38
421.617	616.38
421.839	602.38
422.062	582.38
422.285	587.38
422.507	667.38
422.73	724.38
422.953	702.38
423.175	652.38
423.398	607.38
423.621	608.38
423.843	635.38
424.066	666.38
424.288	619.38
424.511	640.38
424.733	677.38
424.956	748.38
425.178	725.38
425.401	737.38
425.623	724.38
425.846	637.38
426.068	623.38
426.291	621.38
426.513	612.38
426.735	609.38
426.958	646.38
427.18	716.38
427.402	824.38
427.625	898.38
427.847	809.38
428.069	670.38
428.292	638.38
428.514	595.38
428.736	575.38
428.958	538.38
429.181	566.38
429.403	557.38
429.625	570.38
429.847	619.38
430.069	664.38
430.292	672.38
430.514	576.38
430.736	569.38
430.958	577.38
431.18	537.38
431.402	530.38
431.624	560.38
431.846	551.38
432.068	542.38
432.29	551.38
432.512	533.38
432.734	549.38
432.956	547.38
433.178	551.38
433.4	545.38
433.622	568.38
433.844	545.38
434.066	563.38
434.287	550.38
434.509	554.38
434.731	556.38
434.953	590.38
435.175	606.38
435.397	613.38
435.618	601.38
435.84	627.38
436.062	733.38
436.284	765.38
436.505	664.38
436.727	607.38
436.949	588.38
437.17	567.38
437.392	551.38
437.614	588.38
437.835	603.38
438.057	636.38
438.278	729.38
438.5	748.38
438.721	828.38
438.943	812.38
439.165	653.38
439.386	594.38
439.608	597.38
439.829	584.38
440.05	617.38
440.272	620.38
440.493	620.38
440.715	587.38
440.936	589.38
441.158	579.38
441.379	576.38
441.6	580.38
441.822	612.38
442.043	652.38
442.264	694.38
442.486	742.38
442.707	658.38
442.928	614.38
443.149	632.38
443.371	638.38
443.592	680.38
443.813	783.38
444.034	845.38
444.255	710.38
444.476	678.38
444.698	662.38
444.919	636.38
445.14	752.38
445.361	678.38
445.582	657.38
445.803	700.38
446.024	782.38
446.245	800.38
446.466	713.38
446.687	644.38
446.908	601.38
447.129	581.38
447.35	572.38
447.571	571.38
447.792	567.38
448.013	557.38
448.234	554.38
448.455	598.38
448.675	680.38
448.896	797.38
449.117	699.38
449.338	640.38
449.559	762.38
449.779	846.38
450	683.38
450.221	582.38
450.442	552.38
450.662	538.38
450.883	536.38
451.104	546.38
451.324	524.38
451.545	525.38
451.766	512.38
451.986	487.38
452.207	497.38
452.428	489.38
452.648	498.38
452.869	482.38
453.089	501.38
453.31	527.38
453.53	501.38
453.751	478.38
453.971	476.38
454.192	505.38
454.412	490.38
454.633	488.38
454.853	505.38
455.073	475.38
455.294	525.38
455.514	544.38
455.734	554.38
455.955	494.38
456.175	500.38
456.395	478.38
456.616	490.38
456.836	466.38
457.056	498.38
457.276	451.38
457.497	471.38
457.717	473.38
457.937	488.38
458.157	475.38
458.377	489.38
458.598	511.38
458.818	562.38
459.038	611.38
459.258	640.38
459.478	582.38
459.698	544.38
459.918	547.38
460.138	558.38
460.358	565.38
460.578	569.38
460.798	577.38
461.018	581.38
461.238	592.38
461.458	588.38
461.678	573.38
461.898	603.38
462.118	577.38
462.338	603.38
462.558	610.38
462.777	624.38
462.997	633.38
463.217	662.38
463.437	673.38
463.657	653.38
463.876	642.38
464.096	657.38
464.316	615.38
464.536	662.38
464.755	612.38
464.975	626.38
465.195	646.38
465.414	662.38
465.634	617.38
465.854	585.38
466.073	526.38
466.293	516.38
466.512	501.38
466.732	509.38
466.951	524.38
467.171	514.38
467.391	538.38
467.61	503.38
467.829	520.38
468.049	508.38
468.268	538.38
468.488	521.38
468.707	499.38
468.927	511.38
469.146	502.38
469.365	516.38
469.585	499.38
469.804	531.38
470.023	540.38
470.243	553.38
470.462	522.38
470.681	550.38
470.901	546.38
471.12	534.38
471.339	535.38
471.558	547.38
471.777	549.38
471.997	517.38
472.216	512.38
472.435	538.38
472.654	527.38
472.873	506.38
473.092	512.38
473.311	521.38
473.53	548.38
473.749	541.38
473.968	557.38
474.187	638.38
474.406	632.38
474.625	570.38
474.844	515.38
475.063	524.38
475.282	529.38
475.501	524.38
475.72	546.38
475.939	534.38
476.158	534.38
476.377	524.38
476.596	541.38
476.814	554.38
477.033	545.38
477.252	548.38
477.471	553.38
477.69	582.38
477.908	575.38
478.127	582.38
478.346	573.38
478.564	588.38
478.783	584.38
479.002	588.38
479.22	625.38
479.439	632.38
479.658	617.38
479.876	636.38
480.095	640.38
480.313	662.38
480.532	656.38
480.751	656.38
480.969	686.38
481.188	674.38
481.406	674.38
481.624	659.38
481.843	612.38
482.061	647.38
482.28	627.38
482.498	597.38
482.717	603.38
482.935	611.38
483.153	585.38
483.372	594.38
483.59	593.38
483.808	579.38
484.027	582.38
484.245	593.38
484.463	601.38
484.681	611.38
484.9	610.38
485.118	619.38
485.336	634.38
485.554	590.38
485.772	615.38
485.99	635.38
486.209	633.38
486.427	613.38
486.645	631.38
486.863	610.38
487.081	638.38
487.299	642.38
487.517	630.38
487.735	630.38
487.953	640.38
488.171	630.38
488.389	638.38
488.607	633.38
488.825	644.38
489.043	654.38
489.261	633.38
489.479	651.38
489.696	649.38
489.914	660.38
490.132	674.38
490.35	667.38
490.568	688.38
490.786	680.38
491.003	680.38
491.221	707.38
491.439	716.38
491.657	716.38
491.874	706.38
492.092	710.38
492.31	732.38
492.527	730.38
492.745	737.38
492.963	746.38
493.18	749.38
493.398	728.38
493.615	755.38
493.833	737.38
494.05	745.38
494.268	762.38
494.485	724.38
494.703	745.38
494.92	743.38
495.138	744.38
495.355	747.38
495.573	765.38
495.79	766.38
496.008	765.38
496.225	750.38
496.442	760.38
496.66	761.38
496.877	751.38
497.094	762.38
497.312	772.38
497.529	795.38
497.746	792.38
497.963	803.38
498.181	826.38
498.398	849.38
498.615	879.38
498.832	904.38
499.049	930.38
499.267	971.38
499.484	1037.38
499.701	1089.38
499.918	1140.38
500.135	1225.38
500.352	1293.38
500.569	1350.38
500.786	1317.38
501.003	1339.38
501.22	1217.38
501.437	1167.38
501.654	1088.38
