Data from 1973.PennyLincolnUp.Lamp.En5.5.200Scan.071719.P1.Changed Mount._HRD10591_15-46-01-853.txt Node
Date: Thu Jul 18 15:46:01 EDT 2019
User: cochatt
Spectrometer: HR+D1059
Trigger mode: 1
Integration Time (sec): 1.000000E-1
Scans to average: 1
Electric dark correction enabled: true
Nonlinearity correction enabled: false
Boxcar width: 0
XAxis mode: Wavelengths
Number of Pixels in Spectrum: 2048
>>>>>Begin Spectral Data<<<<<
223.165	-23.94
223.4	-23.94
223.635	-23.94
223.869	-23.94
224.104	-9.94
224.338	-5.94
224.573	-9.94
224.808	-11.94
225.042	11.06
225.277	-14.94
225.511	-11.94
225.746	6.06
225.98	-4.94
226.215	12.06
226.449	12.06
226.683	17.06
226.918	24.06
227.152	35.06
227.387	32.06
227.621	33.06
227.856	43.06
228.09	34.06
228.324	50.06
228.559	58.06
228.793	61.06
229.027	96.06
229.262	117.06
229.496	106.06
229.73	118.06
229.964	141.06
230.199	121.06
230.433	119.06
230.667	108.06
230.901	96.06
231.136	117.06
231.37	100.06
231.604	117.06
231.838	117.06
232.072	119.06
232.306	112.06
232.541	135.06
232.775	118.06
233.009	118.06
233.243	125.06
233.477	114.06
233.711	113.06
233.945	129.06
234.179	134.06
234.413	124.06
234.647	124.06
234.881	116.06
235.115	119.06
235.349	125.06
235.583	124.06
235.817	124.06
236.051	130.06
236.285	112.06
236.519	122.06
236.753	129.06
236.987	141.06
237.221	165.06
237.455	203.06
237.689	158.06
237.922	130.06
238.156	118.06
238.39	133.06
238.624	122.06
238.858	124.06
239.091	125.06
239.325	129.06
239.559	138.06
239.793	130.06
240.027	138.06
240.26	146.06
240.494	158.06
240.728	137.06
240.961	160.06
241.195	146.06
241.429	137.06
241.662	140.06
241.896	128.06
242.13	144.06
242.363	132.06
242.597	140.06
242.83	129.06
243.064	128.06
243.298	133.06
243.531	138.06
243.765	149.06
243.998	148.06
244.232	142.06
244.465	140.06
244.699	160.06
244.932	149.06
245.166	157.06
245.399	142.06
245.633	158.06
245.866	160.06
246.099	156.06
246.333	160.06
246.566	151.06
246.8	151.06
247.033	143.06
247.266	166.06
247.5	164.06
247.733	163.06
247.966	183.06
248.2	175.06
248.433	170.06
248.666	160.06
248.899	175.06
249.133	190.06
249.366	197.06
249.599	176.06
249.832	173.06
250.066	180.06
250.299	190.06
250.532	196.06
250.765	210.06
250.998	217.06
251.231	224.06
251.465	220.06
251.698	203.06
251.931	201.06
252.164	196.06
252.397	194.06
252.63	196.06
252.863	202.06
253.096	218.06
253.329	215.06
253.562	219.06
253.795	211.06
254.028	207.06
254.261	230.06
254.494	248.06
254.727	232.06
254.96	275.06
255.193	256.06
255.426	222.06
255.659	244.06
255.892	218.06
256.124	220.06
256.357	221.06
256.59	208.06
256.823	212.06
257.056	209.06
257.289	206.06
257.521	203.06
257.754	192.06
257.987	198.06
258.22	217.06
258.452	212.06
258.685	227.06
258.918	206.06
259.151	221.06
259.383	220.06
259.616	220.06
259.849	242.06
260.081	237.06
260.314	254.06
260.547	248.06
260.779	244.06
261.012	228.06
261.244	220.06
261.477	230.06
261.71	209.06
261.942	218.06
262.175	231.06
262.407	215.06
262.64	219.06
262.872	211.06
263.105	209.06
263.337	212.06
263.57	230.06
263.802	217.06
264.035	209.06
264.267	232.06
264.499	212.06
264.732	232.06
264.964	216.06
265.197	229.06
265.429	219.06
265.661	207.06
265.894	220.06
266.126	223.06
266.358	222.06
266.591	221.06
266.823	237.06
267.055	233.06
267.287	248.06
267.52	217.06
267.752	249.06
267.984	229.06
268.216	228.06
268.448	261.06
268.681	260.06
268.913	265.06
269.145	280.06
269.377	273.06
269.609	268.06
269.841	265.06
270.073	284.06
270.306	270.06
270.538	323.06
270.77	324.06
271.002	294.06
271.234	290.06
271.466	310.06
271.698	321.06
271.93	322.06
272.162	325.06
272.394	294.06
272.626	299.06
272.858	302.06
273.09	281.06
273.322	302.06
273.553	290.06
273.785	289.06
274.017	264.06
274.249	264.06
274.481	279.06
274.713	277.06
274.945	270.06
275.176	284.06
275.408	281.06
275.64	279.06
275.872	270.06
276.104	280.06
276.335	281.06
276.567	292.06
276.799	309.06
277.031	308.06
277.262	319.06
277.494	337.06
277.726	306.06
277.957	328.06
278.189	302.06
278.421	297.06
278.652	297.06
278.884	292.06
279.115	292.06
279.347	277.06
279.579	285.06
279.81	290.06
280.042	279.06
280.273	286.06
280.505	284.06
280.736	299.06
280.968	284.06
281.199	291.06
281.431	298.06
281.662	293.06
281.894	288.06
282.125	289.06
282.356	305.06
282.588	311.06
282.819	327.06
283.051	307.06
283.282	294.06
283.513	299.06
283.745	304.06
283.976	318.06
284.207	319.06
284.439	330.06
284.67	322.06
284.901	317.06
285.132	316.06
285.364	316.06
285.595	297.06
285.826	305.06
286.057	315.06
286.288	296.06
286.52	311.06
286.751	329.06
286.982	314.06
287.213	318.06
287.444	324.06
287.675	308.06
287.906	321.06
288.138	326.06
288.369	334.06
288.6	318.06
288.831	327.06
289.062	342.06
289.293	332.06
289.524	325.06
289.755	321.06
289.986	341.06
290.217	306.06
290.448	304.06
290.679	309.06
290.91	327.06
291.141	317.06
291.371	325.06
291.602	314.06
291.833	304.06
292.064	301.06
292.295	301.06
292.526	312.06
292.757	306.06
292.987	326.06
293.218	322.06
293.449	329.06
293.68	319.06
293.91	316.06
294.141	305.06
294.372	327.06
294.603	323.06
294.833	317.06
295.064	314.06
295.295	339.06
295.525	321.06
295.756	312.06
295.987	315.06
296.217	327.06
296.448	330.06
296.679	361.06
296.909	330.06
297.14	335.06
297.37	348.06
297.601	346.06
297.831	340.06
298.062	332.06
298.292	328.06
298.523	354.06
298.753	353.06
298.984	327.06
299.214	352.06
299.445	320.06
299.675	326.06
299.905	327.06
300.136	324.06
300.366	326.06
300.597	357.06
300.827	338.06
301.057	353.06
301.288	366.06
301.518	346.06
301.748	337.06
301.979	349.06
302.209	358.06
302.439	355.06
302.669	364.06
302.9	381.06
303.13	376.06
303.36	370.06
303.59	373.06
303.82	374.06
304.051	362.06
304.281	364.06
304.511	371.06
304.741	365.06
304.971	349.06
305.201	345.06
305.431	375.06
305.661	361.06
305.891	346.06
306.121	376.06
306.352	347.06
306.582	342.06
306.812	349.06
307.042	368.06
307.272	363.06
307.502	355.06
307.731	364.06
307.961	349.06
308.191	359.06
308.421	370.06
308.651	376.06
308.881	378.06
309.111	385.06
309.341	384.06
309.571	389.06
309.8	391.06
310.03	385.06
310.26	390.06
310.49	371.06
310.72	409.06
310.949	418.06
311.179	407.06
311.409	392.06
311.639	399.06
311.868	379.06
312.098	397.06
312.328	402.06
312.557	408.06
312.787	398.06
313.017	416.06
313.246	410.06
313.476	386.06
313.706	397.06
313.935	401.06
314.165	411.06
314.394	414.06
314.624	406.06
314.853	409.06
315.083	395.06
315.312	398.06
315.542	398.06
315.771	395.06
316.001	383.06
316.23	406.06
316.46	404.06
316.689	397.06
316.919	399.06
317.148	415.06
317.377	407.06
317.607	406.06
317.836	406.06
318.065	398.06
318.295	407.06
318.524	414.06
318.753	407.06
318.983	388.06
319.212	386.06
319.441	405.06
319.67	414.06
319.9	402.06
320.129	398.06
320.358	401.06
320.587	398.06
320.816	421.06
321.046	436.06
321.275	412.06
321.504	413.06
321.733	428.06
321.962	423.06
322.191	419.06
322.42	440.06
322.649	432.06
322.878	441.06
323.108	419.06
323.337	461.06
323.566	477.06
323.795	488.06
324.024	512.06
324.253	586.06
324.482	752.06
324.71	1110.06
324.939	1522.06
325.168	1353.06
325.397	740.06
325.626	550.06
325.855	521.06
326.084	499.06
326.313	486.06
326.542	476.06
326.77	497.06
326.999	571.06
327.228	735.06
327.457	990.06
327.686	1180.06
327.914	857.06
328.143	636.06
328.372	570.06
328.6	548.06
328.829	516.06
329.058	513.06
329.287	532.06
329.515	510.06
329.744	497.06
329.972	512.06
330.201	489.06
330.43	534.06
330.658	546.06
330.887	543.06
331.115	554.06
331.344	537.06
331.572	491.06
331.801	498.06
332.03	505.06
332.258	482.06
332.486	480.06
332.715	477.06
332.943	490.06
333.172	496.06
333.4	526.06
333.629	536.06
333.857	544.06
334.085	550.06
334.314	539.06
334.542	563.06
334.771	570.06
334.999	534.06
335.227	516.06
335.455	509.06
335.684	496.06
335.912	475.06
336.14	468.06
336.369	497.06
336.597	470.06
336.825	514.06
337.053	492.06
337.281	488.06
337.51	488.06
337.738	476.06
337.966	469.06
338.194	466.06
338.422	468.06
338.65	481.06
338.878	460.06
339.106	450.06
339.334	487.06
339.562	471.06
339.79	461.06
340.018	467.06
340.246	451.06
340.474	455.06
340.702	451.06
340.93	447.06
341.158	450.06
341.386	447.06
341.614	448.06
341.842	466.06
342.07	451.06
342.298	451.06
342.526	429.06
342.754	454.06
342.981	453.06
343.209	430.06
343.437	442.06
343.665	464.06
343.893	479.06
344.12	484.06
344.348	471.06
344.576	483.06
344.804	482.06
345.031	464.06
345.259	444.06
345.487	465.06
345.714	442.06
345.942	443.06
346.17	452.06
346.397	430.06
346.625	435.06
346.853	441.06
347.08	451.06
347.308	434.06
347.535	425.06
347.763	428.06
347.99	423.06
348.218	436.06
348.445	446.06
348.673	442.06
348.9	427.06
349.128	438.06
349.355	445.06
349.583	418.06
349.81	427.06
350.037	426.06
350.265	409.06
350.492	420.06
350.72	412.06
350.947	430.06
351.174	428.06
351.402	424.06
351.629	421.06
351.856	443.06
352.083	448.06
352.311	433.06
352.538	441.06
352.765	433.06
352.992	435.06
353.22	430.06
353.447	416.06
353.674	405.06
353.901	417.06
354.128	422.06
354.355	430.06
354.583	419.06
354.81	419.06
355.037	420.06
355.264	404.06
355.491	417.06
355.718	404.06
355.945	383.06
356.172	420.06
356.399	416.06
356.626	387.06
356.853	406.06
357.08	412.06
357.307	418.06
357.534	397.06
357.761	400.06
357.988	441.06
358.215	411.06
358.441	427.06
358.668	390.06
358.895	419.06
359.122	429.06
359.349	409.06
359.576	423.06
359.802	458.06
360.029	463.06
360.256	462.06
360.483	450.06
360.709	432.06
360.936	436.06
361.163	427.06
361.39	438.06
361.616	432.06
361.843	420.06
362.07	424.06
362.296	437.06
362.523	421.06
362.749	429.06
362.976	402.06
363.203	409.06
363.429	398.06
363.656	418.06
363.882	402.06
364.109	425.06
364.335	421.06
364.562	418.06
364.788	399.06
365.015	416.06
365.241	420.06
365.468	424.06
365.694	420.06
365.92	420.06
366.147	401.06
366.373	419.06
366.599	419.06
366.826	412.06
367.052	401.06
367.278	413.06
367.505	407.06
367.731	416.06
367.957	441.06
368.184	421.06
368.41	410.06
368.636	436.06
368.862	451.06
369.089	441.06
369.315	433.06
369.541	425.06
369.767	408.06
369.993	406.06
370.219	431.06
370.445	422.06
370.672	418.06
370.898	426.06
371.124	413.06
371.35	432.06
371.576	444.06
371.802	427.06
372.028	424.06
372.254	422.06
372.48	429.06
372.706	432.06
372.932	422.06
373.158	440.06
373.384	430.06
373.61	436.06
373.835	429.06
374.061	447.06
374.287	416.06
374.513	422.06
374.739	421.06
374.965	444.06
375.191	433.06
375.416	447.06
375.642	442.06
375.868	445.06
376.094	440.06
376.319	407.06
376.545	438.06
376.771	426.06
376.997	426.06
377.222	414.06
377.448	410.06
377.674	427.06
377.899	430.06
378.125	428.06
378.35	442.06
378.576	421.06
378.802	416.06
379.027	429.06
379.253	427.06
379.478	422.06
379.704	434.06
379.929	420.06
380.155	420.06
380.38	421.06
380.606	416.06
380.831	431.06
381.057	435.06
381.282	428.06
381.507	443.06
381.733	442.06
381.958	434.06
382.184	435.06
382.409	450.06
382.634	437.06
382.86	456.06
383.085	451.06
383.31	460.06
383.535	439.06
383.761	462.06
383.986	458.06
384.211	451.06
384.436	450.06
384.662	452.06
384.887	480.06
385.112	467.06
385.337	467.06
385.562	473.06
385.787	477.06
386.013	494.06
386.238	497.06
386.463	494.06
386.688	478.06
386.913	480.06
387.138	481.06
387.363	466.06
387.588	481.06
387.813	484.06
388.038	492.06
388.263	479.06
388.488	473.06
388.713	476.06
388.938	496.06
389.163	493.06
389.387	476.06
389.612	469.06
389.837	485.06
390.062	482.06
390.287	474.06
390.512	448.06
390.736	477.06
390.961	464.06
391.186	473.06
391.411	505.06
391.636	513.06
391.86	517.06
392.085	522.06
392.31	503.06
392.534	515.06
392.759	484.06
392.984	501.06
393.208	505.06
393.433	502.06
393.658	495.06
393.882	498.06
394.107	477.06
394.331	508.06
394.556	496.06
394.78	487.06
395.005	481.06
395.229	493.06
395.454	486.06
395.678	498.06
395.903	531.06
396.127	552.06
396.352	534.06
396.576	511.06
396.801	498.06
397.025	504.06
397.249	523.06
397.474	508.06
397.698	519.06
397.922	525.06
398.147	560.06
398.371	545.06
398.595	562.06
398.82	568.06
399.044	583.06
399.268	609.06
399.492	654.06
399.717	704.06
399.941	732.06
400.165	722.06
400.389	723.06
400.613	658.06
400.837	600.06
401.062	589.06
401.286	577.06
401.51	579.06
401.734	565.06
401.958	569.06
402.182	569.06
402.406	569.06
402.63	573.06
402.854	583.06
403.078	595.06
403.302	593.06
403.526	600.06
403.75	589.06
403.974	604.06
404.198	580.06
404.422	606.06
404.645	604.06
404.869	612.06
405.093	654.06
405.317	668.06
405.541	676.06
405.765	627.06
405.988	610.06
406.212	622.06
406.436	608.06
406.66	636.06
406.883	626.06
407.107	661.06
407.331	702.06
407.555	759.06
407.778	768.06
408.002	723.06
408.226	657.06
408.449	674.06
408.673	637.06
408.896	640.06
409.12	696.06
409.344	662.06
409.567	621.06
409.791	617.06
410.014	587.06
410.238	588.06
410.461	586.06
410.685	589.06
410.908	600.06
411.132	628.06
411.355	664.06
411.578	628.06
411.802	574.06
412.025	590.06
412.249	595.06
412.472	622.06
412.695	628.06
412.919	614.06
413.142	583.06
413.365	583.06
413.589	573.06
413.812	566.06
414.035	562.06
414.258	549.06
414.482	561.06
414.705	576.06
414.928	560.06
415.151	569.06
415.374	558.06
415.597	555.06
415.821	543.06
416.044	542.06
416.267	547.06
416.49	567.06
416.713	558.06
416.936	571.06
417.159	572.06
417.382	547.06
417.605	550.06
417.828	590.06
418.051	580.06
418.274	566.06
418.497	562.06
418.72	569.06
418.943	549.06
419.166	562.06
419.389	611.06
419.611	608.06
419.834	585.06
420.057	603.06
420.28	619.06
420.503	588.06
420.726	589.06
420.948	598.06
421.171	605.06
421.394	632.06
421.617	600.06
421.839	574.06
422.062	589.06
422.285	577.06
422.507	628.06
422.73	689.06
422.953	662.06
423.175	619.06
423.398	610.06
423.621	610.06
423.843	626.06
424.066	613.06
424.288	614.06
424.511	627.06
424.733	672.06
424.956	730.06
425.178	694.06
425.401	699.06
425.623	718.06
425.846	633.06
426.068	597.06
426.291	582.06
426.513	588.06
426.735	591.06
426.958	624.06
427.18	678.06
427.402	789.06
427.625	884.06
427.847	737.06
428.069	672.06
428.292	604.06
428.514	576.06
428.736	579.06
428.958	547.06
429.181	543.06
429.403	540.06
429.625	542.06
429.847	582.06
430.069	633.06
430.292	618.06
430.514	581.06
430.736	564.06
430.958	558.06
431.18	523.06
431.402	547.06
431.624	518.06
431.846	506.06
432.068	526.06
432.29	511.06
432.512	546.06
432.734	524.06
432.956	527.06
433.178	542.06
433.4	546.06
433.622	545.06
433.844	520.06
434.066	541.06
434.287	516.06
434.509	533.06
434.731	539.06
434.953	556.06
435.175	560.06
435.397	575.06
435.618	578.06
435.84	648.06
436.062	701.06
436.284	756.06
436.505	633.06
436.727	596.06
436.949	562.06
437.17	549.06
437.392	556.06
437.614	551.06
437.835	567.06
438.057	639.06
438.278	696.06
438.5	745.06
438.721	764.06
438.943	752.06
439.165	641.06
439.386	581.06
439.608	590.06
439.829	570.06
440.05	626.06
440.272	624.06
440.493	600.06
440.715	562.06
440.936	577.06
441.158	563.06
441.379	552.06
441.6	580.06
441.822	588.06
442.043	634.06
442.264	666.06
442.486	724.06
442.707	616.06
442.928	595.06
443.149	616.06
443.371	630.06
443.592	669.06
443.813	726.06
444.034	802.06
444.255	677.06
444.476	633.06
444.698	650.06
444.919	644.06
445.14	692.06
445.361	639.06
445.582	619.06
445.803	655.06
446.024	725.06
446.245	748.06
446.466	694.06
446.687	613.06
446.908	580.06
447.129	549.06
447.35	533.06
447.571	553.06
447.792	498.06
448.013	512.06
448.234	525.06
448.455	567.06
448.675	664.06
448.896	762.06
449.117	669.06
449.338	634.06
449.559	711.06
449.779	802.06
450	643.06
450.221	553.06
450.442	542.06
450.662	515.06
450.883	510.06
451.104	513.06
451.324	504.06
451.545	504.06
451.766	486.06
451.986	499.06
452.207	481.06
452.428	474.06
452.648	471.06
452.869	476.06
453.089	486.06
453.31	516.06
453.53	478.06
453.751	485.06
453.971	499.06
454.192	465.06
454.412	462.06
454.633	457.06
454.853	454.06
455.073	477.06
455.294	508.06
455.514	526.06
455.734	536.06
455.955	485.06
456.175	456.06
456.395	468.06
456.616	462.06
456.836	426.06
457.056	450.06
457.276	443.06
457.497	455.06
457.717	478.06
457.937	456.06
458.157	451.06
458.377	482.06
458.598	502.06
458.818	530.06
459.038	602.06
459.258	636.06
459.478	564.06
459.698	531.06
459.918	518.06
460.138	538.06
460.358	551.06
460.578	546.06
460.798	568.06
461.018	572.06
461.238	570.06
461.458	534.06
461.678	554.06
461.898	588.06
462.118	590.06
462.338	580.06
462.558	581.06
462.777	597.06
462.997	642.06
463.217	626.06
463.437	639.06
463.657	635.06
463.876	605.06
464.096	632.06
464.316	608.06
464.536	617.06
464.755	620.06
464.975	589.06
465.195	589.06
465.414	614.06
465.634	574.06
465.854	553.06
466.073	544.06
466.293	530.06
466.512	501.06
466.732	493.06
466.951	491.06
467.171	485.06
467.391	497.06
467.61	535.06
467.829	524.06
468.049	515.06
468.268	498.06
468.488	480.06
468.707	485.06
468.927	503.06
469.146	487.06
469.365	498.06
469.585	487.06
469.804	511.06
470.023	507.06
470.243	499.06
470.462	504.06
470.681	505.06
470.901	512.06
471.12	517.06
471.339	511.06
471.558	487.06
471.777	498.06
471.997	496.06
472.216	502.06
472.435	497.06
472.654	516.06
472.873	479.06
473.092	512.06
473.311	493.06
473.53	497.06
473.749	490.06
473.968	538.06
474.187	613.06
474.406	629.06
474.625	543.06
474.844	501.06
475.063	509.06
475.282	496.06
475.501	490.06
475.72	530.06
475.939	519.06
476.158	522.06
476.377	536.06
476.596	528.06
476.814	552.06
477.033	541.06
477.252	536.06
477.471	529.06
477.69	530.06
477.908	543.06
478.127	553.06
478.346	573.06
478.564	552.06
478.783	566.06
479.002	578.06
479.22	589.06
479.439	583.06
479.658	606.06
479.876	627.06
480.095	598.06
480.313	631.06
480.532	626.06
480.751	628.06
480.969	617.06
481.188	645.06
481.406	636.06
481.624	619.06
481.843	616.06
482.061	608.06
482.28	606.06
482.498	584.06
482.717	581.06
482.935	580.06
483.153	571.06
483.372	581.06
483.59	581.06
483.808	564.06
484.027	572.06
484.245	571.06
484.463	565.06
484.681	568.06
484.9	596.06
485.118	580.06
485.336	573.06
485.554	594.06
485.772	581.06
485.99	590.06
486.209	604.06
486.427	585.06
486.645	609.06
486.863	619.06
487.081	612.06
487.299	621.06
487.517	602.06
487.735	616.06
487.953	632.06
488.171	612.06
488.389	626.06
488.607	616.06
488.825	612.06
489.043	606.06
489.261	618.06
489.479	625.06
489.696	636.06
489.914	632.06
490.132	629.06
490.35	659.06
490.568	668.06
490.786	664.06
491.003	657.06
491.221	676.06
491.439	697.06
491.657	662.06
491.874	686.06
492.092	685.06
492.31	710.06
492.527	712.06
492.745	718.06
492.963	689.06
493.18	716.06
493.398	708.06
493.615	725.06
493.833	722.06
494.05	712.06
494.268	736.06
494.485	724.06
494.703	716.06
494.92	729.06
495.138	744.06
495.355	735.06
495.573	745.06
495.79	739.06
496.008	731.06
496.225	713.06
496.442	733.06
496.66	708.06
496.877	727.06
497.094	749.06
497.312	748.06
497.529	748.06
497.746	796.06
497.963	758.06
498.181	812.06
498.398	807.06
498.615	834.06
498.832	902.06
499.049	924.06
499.267	949.06
499.484	989.06
499.701	1069.06
499.918	1109.06
500.135	1156.06
500.352	1264.06
500.569	1301.06
500.786	1292.06
501.003	1259.06
501.22	1178.06
501.437	1134.06
501.654	1051.06
