Data from 1973.PennyLincolnUp.Lamp.En5.5.200Scan.071719.P1.Changed Mount._HRD10591_15-45-05-852.txt Node
Date: Thu Jul 18 15:45:05 EDT 2019
User: cochatt
Spectrometer: HR+D1059
Trigger mode: 1
Integration Time (sec): 1.000000E-1
Scans to average: 1
Electric dark correction enabled: true
Nonlinearity correction enabled: false
Boxcar width: 0
XAxis mode: Wavelengths
Number of Pixels in Spectrum: 2048
>>>>>Begin Spectral Data<<<<<
223.165	-4.75
223.4	-4.75
223.635	-4.75
223.869	-18.75
224.104	-15.75
224.338	-7.75
224.573	-9.75
224.808	-18.75
225.042	-11.75
225.277	-9.75
225.511	3.25
225.746	-2.75
225.98	10.25
226.215	6.25
226.449	21.25
226.683	9.25
226.918	27.25
227.152	22.25
227.387	26.25
227.621	30.25
227.856	31.25
228.09	45.25
228.324	49.25
228.559	51.25
228.793	79.25
229.027	98.25
229.262	96.25
229.496	116.25
229.73	119.25
229.964	128.25
230.199	106.25
230.433	104.25
230.667	111.25
230.901	115.25
231.136	121.25
231.37	112.25
231.604	105.25
231.838	119.25
232.072	94.25
232.306	98.25
232.541	107.25
232.775	100.25
233.009	104.25
233.243	107.25
233.477	100.25
233.711	115.25
233.945	127.25
234.179	112.25
234.413	119.25
234.647	114.25
234.881	110.25
235.115	116.25
235.349	119.25
235.583	122.25
235.817	104.25
236.051	143.25
236.285	143.25
236.519	117.25
236.753	121.25
236.987	126.25
237.221	149.25
237.455	200.25
237.689	162.25
237.922	141.25
238.156	127.25
238.39	119.25
238.624	121.25
238.858	124.25
239.091	129.25
239.325	128.25
239.559	122.25
239.793	117.25
240.027	135.25
240.26	138.25
240.494	142.25
240.728	145.25
240.961	153.25
241.195	133.25
241.429	140.25
241.662	145.25
241.896	137.25
242.13	123.25
242.363	128.25
242.597	132.25
242.83	133.25
243.064	132.25
243.298	133.25
243.531	131.25
243.765	129.25
243.998	145.25
244.232	133.25
244.465	131.25
244.699	144.25
244.932	152.25
245.166	141.25
245.399	153.25
245.633	149.25
245.866	147.25
246.099	135.25
246.333	142.25
246.566	150.25
246.8	144.25
247.033	154.25
247.266	147.25
247.5	168.25
247.733	163.25
247.966	149.25
248.2	175.25
248.433	157.25
248.666	167.25
248.899	176.25
249.133	194.25
249.366	199.25
249.599	170.25
249.832	177.25
250.066	159.25
250.299	164.25
250.532	185.25
250.765	207.25
250.998	194.25
251.231	199.25
251.465	201.25
251.698	190.25
251.931	175.25
252.164	202.25
252.397	202.25
252.63	203.25
252.863	194.25
253.096	205.25
253.329	218.25
253.562	220.25
253.795	224.25
254.028	203.25
254.261	217.25
254.494	225.25
254.727	231.25
254.96	257.25
255.193	243.25
255.426	221.25
255.659	226.25
255.892	223.25
256.124	227.25
256.357	222.25
256.59	215.25
256.823	199.25
257.056	217.25
257.289	207.25
257.521	215.25
257.754	214.25
257.987	216.25
258.22	216.25
258.452	203.25
258.685	210.25
258.918	218.25
259.151	194.25
259.383	221.25
259.616	201.25
259.849	221.25
260.081	228.25
260.314	230.25
260.547	253.25
260.779	222.25
261.012	231.25
261.244	222.25
261.477	214.25
261.71	216.25
261.942	206.25
262.175	232.25
262.407	228.25
262.64	211.25
262.872	204.25
263.105	226.25
263.337	219.25
263.57	223.25
263.802	226.25
264.035	217.25
264.267	218.25
264.499	219.25
264.732	211.25
264.964	212.25
265.197	228.25
265.429	230.25
265.661	223.25
265.894	229.25
266.126	223.25
266.358	232.25
266.591	218.25
266.823	233.25
267.055	242.25
267.287	257.25
267.52	231.25
267.752	241.25
267.984	224.25
268.216	247.25
268.448	245.25
268.681	241.25
268.913	262.25
269.145	257.25
269.377	274.25
269.609	265.25
269.841	277.25
270.073	280.25
270.306	285.25
270.538	306.25
270.77	312.25
271.002	308.25
271.234	292.25
271.466	303.25
271.698	291.25
271.93	287.25
272.162	294.25
272.394	314.25
272.626	279.25
272.858	286.25
273.09	275.25
273.322	281.25
273.553	272.25
273.785	262.25
274.017	274.25
274.249	286.25
274.481	287.25
274.713	277.25
274.945	273.25
275.176	264.25
275.408	269.25
275.64	272.25
275.872	263.25
276.104	273.25
276.335	276.25
276.567	286.25
276.799	285.25
277.031	295.25
277.262	305.25
277.494	306.25
277.726	304.25
277.957	303.25
278.189	290.25
278.421	280.25
278.652	285.25
278.884	283.25
279.115	282.25
279.347	282.25
279.579	273.25
279.81	269.25
280.042	293.25
280.273	274.25
280.505	285.25
280.736	287.25
280.968	273.25
281.199	287.25
281.431	290.25
281.662	275.25
281.894	290.25
282.125	287.25
282.356	298.25
282.588	318.25
282.819	297.25
283.051	308.25
283.282	285.25
283.513	276.25
283.745	286.25
283.976	292.25
284.207	294.25
284.439	319.25
284.67	318.25
284.901	275.25
285.132	300.25
285.364	290.25
285.595	293.25
285.826	295.25
286.057	288.25
286.288	301.25
286.52	307.25
286.751	299.25
286.982	303.25
287.213	295.25
287.444	297.25
287.675	306.25
287.906	326.25
288.138	319.25
288.369	340.25
288.6	328.25
288.831	325.25
289.062	329.25
289.293	329.25
289.524	316.25
289.755	326.25
289.986	293.25
290.217	311.25
290.448	294.25
290.679	309.25
290.91	319.25
291.141	307.25
291.371	319.25
291.602	322.25
291.833	314.25
292.064	313.25
292.295	306.25
292.526	318.25
292.757	305.25
292.987	305.25
293.218	298.25
293.449	317.25
293.68	331.25
293.91	305.25
294.141	312.25
294.372	305.25
294.603	325.25
294.833	316.25
295.064	319.25
295.295	324.25
295.525	317.25
295.756	322.25
295.987	342.25
296.217	340.25
296.448	341.25
296.679	335.25
296.909	317.25
297.14	317.25
297.37	322.25
297.601	319.25
297.831	334.25
298.062	336.25
298.292	316.25
298.523	330.25
298.753	335.25
298.984	328.25
299.214	330.25
299.445	330.25
299.675	342.25
299.905	340.25
300.136	330.25
300.366	331.25
300.597	346.25
300.827	332.25
301.057	344.25
301.288	352.25
301.518	355.25
301.748	349.25
301.979	357.25
302.209	360.25
302.439	355.25
302.669	358.25
302.9	355.25
303.13	353.25
303.36	378.25
303.59	351.25
303.82	365.25
304.051	361.25
304.281	358.25
304.511	366.25
304.741	350.25
304.971	342.25
305.201	346.25
305.431	358.25
305.661	345.25
305.891	332.25
306.121	343.25
306.352	365.25
306.582	357.25
306.812	346.25
307.042	355.25
307.272	341.25
307.502	342.25
307.731	355.25
307.961	362.25
308.191	356.25
308.421	351.25
308.651	343.25
308.881	390.25
309.111	358.25
309.341	366.25
309.571	381.25
309.8	355.25
310.03	363.25
310.26	387.25
310.49	387.25
310.72	377.25
310.949	375.25
311.179	390.25
311.409	394.25
311.639	372.25
311.868	375.25
312.098	385.25
312.328	400.25
312.557	392.25
312.787	425.25
313.017	392.25
313.246	377.25
313.476	383.25
313.706	392.25
313.935	389.25
314.165	396.25
314.394	423.25
314.624	392.25
314.853	392.25
315.083	402.25
315.312	394.25
315.542	399.25
315.771	408.25
316.001	387.25
316.23	383.25
316.46	390.25
316.689	377.25
316.919	406.25
317.148	392.25
317.377	401.25
317.607	402.25
317.836	398.25
318.065	388.25
318.295	393.25
318.524	398.25
318.753	404.25
318.983	395.25
319.212	405.25
319.441	390.25
319.67	401.25
319.9	393.25
320.129	392.25
320.358	406.25
320.587	396.25
320.816	413.25
321.046	421.25
321.275	413.25
321.504	413.25
321.733	404.25
321.962	420.25
322.191	434.25
322.42	435.25
322.649	425.25
322.878	410.25
323.108	442.25
323.337	454.25
323.566	470.25
323.795	467.25
324.024	486.25
324.253	549.25
324.482	723.25
324.71	1061.25
324.939	1432.25
325.168	1285.25
325.397	738.25
325.626	558.25
325.855	489.25
326.084	468.25
326.313	454.25
326.542	477.25
326.77	497.25
326.999	549.25
327.228	668.25
327.457	943.25
327.686	1135.25
327.914	815.25
328.143	599.25
328.372	531.25
328.6	524.25
328.829	502.25
329.058	496.25
329.287	503.25
329.515	521.25
329.744	490.25
329.972	474.25
330.201	488.25
330.43	512.25
330.658	523.25
330.887	527.25
331.115	522.25
331.344	493.25
331.572	496.25
331.801	467.25
332.03	486.25
332.258	481.25
332.486	473.25
332.715	486.25
332.943	482.25
333.172	459.25
333.4	486.25
333.629	513.25
333.857	525.25
334.085	532.25
334.314	535.25
334.542	550.25
334.771	557.25
334.999	515.25
335.227	486.25
335.455	482.25
335.684	509.25
335.912	479.25
336.14	471.25
336.369	473.25
336.597	491.25
336.825	488.25
337.053	468.25
337.281	475.25
337.51	465.25
337.738	458.25
337.966	462.25
338.194	485.25
338.422	463.25
338.65	461.25
338.878	436.25
339.106	459.25
339.334	469.25
339.562	435.25
339.79	456.25
340.018	466.25
340.246	451.25
340.474	453.25
340.702	448.25
340.93	424.25
341.158	429.25
341.386	429.25
341.614	453.25
341.842	447.25
342.07	441.25
342.298	431.25
342.526	442.25
342.754	434.25
342.981	451.25
343.209	426.25
343.437	441.25
343.665	458.25
343.893	458.25
344.12	491.25
344.348	467.25
344.576	474.25
344.804	463.25
345.031	465.25
345.259	464.25
345.487	446.25
345.714	433.25
345.942	451.25
346.17	434.25
346.397	443.25
346.625	429.25
346.853	419.25
347.08	415.25
347.308	422.25
347.535	439.25
347.763	429.25
347.99	431.25
348.218	451.25
348.445	445.25
348.673	419.25
348.9	425.25
349.128	426.25
349.355	420.25
349.583	406.25
349.81	422.25
350.037	415.25
350.265	433.25
350.492	421.25
350.72	399.25
350.947	406.25
351.174	425.25
351.402	433.25
351.629	415.25
351.856	412.25
352.083	423.25
352.311	421.25
352.538	442.25
352.765	443.25
352.992	442.25
353.22	427.25
353.447	425.25
353.674	395.25
353.901	399.25
354.128	411.25
354.355	400.25
354.583	400.25
354.81	416.25
355.037	413.25
355.264	407.25
355.491	388.25
355.718	394.25
355.945	399.25
356.172	395.25
356.399	404.25
356.626	398.25
356.853	423.25
357.08	405.25
357.307	417.25
357.534	392.25
357.761	388.25
357.988	405.25
358.215	416.25
358.441	386.25
358.668	382.25
358.895	420.25
359.122	401.25
359.349	419.25
359.576	435.25
359.802	425.25
360.029	448.25
360.256	450.25
360.483	424.25
360.709	451.25
360.936	411.25
361.163	428.25
361.39	429.25
361.616	422.25
361.843	421.25
362.07	422.25
362.296	415.25
362.523	424.25
362.749	418.25
362.976	397.25
363.203	400.25
363.429	427.25
363.656	418.25
363.882	405.25
364.109	402.25
364.335	396.25
364.562	406.25
364.788	404.25
365.015	423.25
365.241	415.25
365.468	419.25
365.694	400.25
365.92	402.25
366.147	402.25
366.373	424.25
366.599	399.25
366.826	385.25
367.052	376.25
367.278	378.25
367.505	420.25
367.731	403.25
367.957	396.25
368.184	410.25
368.41	437.25
368.636	427.25
368.862	407.25
369.089	409.25
369.315	417.25
369.541	402.25
369.767	395.25
369.993	423.25
370.219	409.25
370.445	405.25
370.672	404.25
370.898	407.25
371.124	405.25
371.35	428.25
371.576	392.25
371.802	417.25
372.028	427.25
372.254	446.25
372.48	393.25
372.706	431.25
372.932	441.25
373.158	418.25
373.384	431.25
373.61	422.25
373.835	417.25
374.061	409.25
374.287	418.25
374.513	437.25
374.739	426.25
374.965	440.25
375.191	424.25
375.416	447.25
375.642	429.25
375.868	430.25
376.094	405.25
376.319	409.25
376.545	421.25
376.771	410.25
376.997	418.25
377.222	431.25
377.448	423.25
377.674	414.25
377.899	401.25
378.125	422.25
378.35	407.25
378.576	425.25
378.802	404.25
379.027	431.25
379.253	411.25
379.478	409.25
379.704	420.25
379.929	416.25
380.155	423.25
380.38	415.25
380.606	434.25
380.831	406.25
381.057	416.25
381.282	399.25
381.507	436.25
381.733	402.25
381.958	433.25
382.184	417.25
382.409	417.25
382.634	418.25
382.86	430.25
383.085	430.25
383.31	447.25
383.535	444.25
383.761	434.25
383.986	469.25
384.211	456.25
384.436	439.25
384.662	453.25
384.887	484.25
385.112	458.25
385.337	457.25
385.562	463.25
385.787	478.25
386.013	483.25
386.238	473.25
386.463	447.25
386.688	468.25
386.913	458.25
387.138	465.25
387.363	482.25
387.588	456.25
387.813	468.25
388.038	463.25
388.263	475.25
388.488	457.25
388.713	461.25
388.938	471.25
389.163	484.25
389.387	471.25
389.612	468.25
389.837	462.25
390.062	471.25
390.287	476.25
390.512	459.25
390.736	460.25
390.961	488.25
391.186	462.25
391.411	476.25
391.636	486.25
391.86	511.25
392.085	515.25
392.31	507.25
392.534	484.25
392.759	507.25
392.984	469.25
393.208	482.25
393.433	478.25
393.658	485.25
393.882	473.25
394.107	477.25
394.331	477.25
394.556	484.25
394.78	489.25
395.005	510.25
395.229	486.25
395.454	485.25
395.678	507.25
395.903	515.25
396.127	530.25
396.352	540.25
396.576	471.25
396.801	486.25
397.025	497.25
397.249	497.25
397.474	512.25
397.698	504.25
397.922	510.25
398.147	517.25
398.371	526.25
398.595	518.25
398.82	544.25
399.044	550.25
399.268	601.25
399.492	652.25
399.717	702.25
399.941	710.25
400.165	695.25
400.389	694.25
400.613	624.25
400.837	578.25
401.062	551.25
401.286	563.25
401.51	532.25
401.734	551.25
401.958	559.25
402.182	573.25
402.406	581.25
402.63	548.25
402.854	582.25
403.078	570.25
403.302	590.25
403.526	578.25
403.75	582.25
403.974	603.25
404.198	583.25
404.422	561.25
404.645	599.25
404.869	598.25
405.093	622.25
405.317	635.25
405.541	686.25
405.765	632.25
405.988	585.25
406.212	610.25
406.436	617.25
406.66	653.25
406.883	616.25
407.107	653.25
407.331	671.25
407.555	757.25
407.778	719.25
408.002	669.25
408.226	648.25
408.449	637.25
408.673	637.25
408.896	664.25
409.12	642.25
409.344	645.25
409.567	599.25
409.791	588.25
410.014	574.25
410.238	587.25
410.461	593.25
410.685	588.25
410.908	579.25
411.132	606.25
411.355	627.25
411.578	615.25
411.802	593.25
412.025	587.25
412.249	558.25
412.472	580.25
412.695	631.25
412.919	626.25
413.142	587.25
413.365	565.25
413.589	551.25
413.812	549.25
414.035	553.25
414.258	532.25
414.482	548.25
414.705	515.25
414.928	532.25
415.151	549.25
415.374	542.25
415.597	538.25
415.821	517.25
416.044	545.25
416.267	498.25
416.49	542.25
416.713	533.25
416.936	529.25
417.159	541.25
417.382	554.25
417.605	533.25
417.828	569.25
418.051	580.25
418.274	543.25
418.497	544.25
418.72	537.25
418.943	543.25
419.166	577.25
419.389	602.25
419.611	590.25
419.834	581.25
420.057	587.25
420.28	568.25
420.503	550.25
420.726	547.25
420.948	578.25
421.171	607.25
421.394	618.25
421.617	589.25
421.839	576.25
422.062	570.25
422.285	577.25
422.507	609.25
422.73	671.25
422.953	644.25
423.175	583.25
423.398	554.25
423.621	587.25
423.843	594.25
424.066	589.25
424.288	603.25
424.511	613.25
424.733	652.25
424.956	710.25
425.178	663.25
425.401	651.25
425.623	703.25
425.846	596.25
426.068	577.25
426.291	572.25
426.513	578.25
426.735	570.25
426.958	596.25
427.18	666.25
427.402	777.25
427.625	829.25
427.847	736.25
428.069	649.25
428.292	583.25
428.514	548.25
428.736	529.25
428.958	550.25
429.181	531.25
429.403	523.25
429.625	566.25
429.847	536.25
430.069	609.25
430.292	616.25
430.514	563.25
430.736	543.25
430.958	516.25
431.18	504.25
431.402	493.25
431.624	489.25
431.846	528.25
432.068	514.25
432.29	489.25
432.512	519.25
432.734	524.25
432.956	508.25
433.178	513.25
433.4	516.25
433.622	488.25
433.844	527.25
434.066	521.25
434.287	497.25
434.509	519.25
434.731	541.25
434.953	558.25
435.175	562.25
435.397	585.25
435.618	574.25
435.84	590.25
436.062	669.25
436.284	713.25
436.505	610.25
436.727	553.25
436.949	546.25
437.17	527.25
437.392	523.25
437.614	533.25
437.835	555.25
438.057	631.25
438.278	705.25
438.5	687.25
438.721	769.25
438.943	760.25
439.165	612.25
439.386	591.25
439.608	568.25
439.829	545.25
440.05	565.25
440.272	607.25
440.493	574.25
440.715	531.25
440.936	548.25
441.158	522.25
441.379	521.25
441.6	558.25
441.822	577.25
442.043	610.25
442.264	662.25
442.486	701.25
442.707	630.25
442.928	575.25
443.149	583.25
443.371	612.25
443.592	621.25
443.813	714.25
444.034	759.25
444.255	678.25
444.476	610.25
444.698	623.25
444.919	601.25
445.14	719.25
445.361	657.25
445.582	615.25
445.803	642.25
446.024	722.25
446.245	702.25
446.466	643.25
446.687	598.25
446.908	557.25
447.129	538.25
447.35	533.25
447.571	529.25
447.792	501.25
448.013	515.25
448.234	532.25
448.455	576.25
448.675	653.25
448.896	759.25
449.117	656.25
449.338	588.25
449.559	692.25
449.779	778.25
450	657.25
450.221	561.25
450.442	511.25
450.662	532.25
450.883	513.25
451.104	506.25
451.324	503.25
451.545	486.25
451.766	473.25
451.986	475.25
452.207	450.25
452.428	483.25
452.648	458.25
452.869	467.25
453.089	461.25
453.31	501.25
453.53	468.25
453.751	469.25
453.971	463.25
454.192	466.25
454.412	453.25
454.633	473.25
454.853	462.25
455.073	460.25
455.294	474.25
455.514	521.25
455.734	479.25
455.955	480.25
456.175	459.25
456.395	444.25
456.616	435.25
456.836	437.25
457.056	441.25
457.276	434.25
457.497	449.25
457.717	440.25
457.937	451.25
458.157	465.25
458.377	465.25
458.598	478.25
458.818	528.25
459.038	585.25
459.258	578.25
459.478	539.25
459.698	530.25
459.918	526.25
460.138	510.25
460.358	538.25
460.578	536.25
460.798	565.25
461.018	559.25
461.238	573.25
461.458	560.25
461.678	501.25
461.898	565.25
462.118	529.25
462.338	571.25
462.558	574.25
462.777	606.25
462.997	602.25
463.217	606.25
463.437	639.25
463.657	629.25
463.876	571.25
464.096	597.25
464.316	581.25
464.536	594.25
464.755	575.25
464.975	581.25
465.195	601.25
465.414	602.25
465.634	553.25
465.854	546.25
466.073	509.25
466.293	484.25
466.512	495.25
466.732	465.25
466.951	490.25
467.171	487.25
467.391	482.25
467.61	506.25
467.829	487.25
468.049	495.25
468.268	476.25
468.488	458.25
468.707	462.25
468.927	476.25
469.146	465.25
469.365	459.25
469.585	484.25
469.804	488.25
470.023	509.25
470.243	503.25
470.462	511.25
470.681	499.25
470.901	501.25
471.12	473.25
471.339	503.25
471.558	486.25
471.777	479.25
471.997	511.25
472.216	508.25
472.435	529.25
472.654	494.25
472.873	481.25
473.092	461.25
473.311	466.25
473.53	474.25
473.749	487.25
473.968	533.25
474.187	593.25
474.406	610.25
474.625	513.25
474.844	510.25
475.063	509.25
475.282	508.25
475.501	505.25
475.72	470.25
475.939	492.25
476.158	509.25
476.377	494.25
476.596	490.25
476.814	515.25
477.033	515.25
477.252	521.25
477.471	554.25
477.69	559.25
477.908	554.25
478.127	536.25
478.346	547.25
478.564	565.25
478.783	551.25
479.002	586.25
479.22	570.25
479.439	545.25
479.658	560.25
479.876	577.25
480.095	571.25
480.313	609.25
480.532	614.25
480.751	634.25
480.969	606.25
481.188	651.25
481.406	638.25
481.624	598.25
481.843	577.25
482.061	602.25
482.28	581.25
482.498	552.25
482.717	585.25
482.935	572.25
483.153	559.25
483.372	557.25
483.59	560.25
483.808	546.25
484.027	557.25
484.245	573.25
484.463	577.25
484.681	586.25
484.9	587.25
485.118	569.25
485.336	567.25
485.554	568.25
485.772	569.25
485.99	565.25
486.209	576.25
486.427	589.25
486.645	573.25
486.863	590.25
487.081	613.25
487.299	586.25
487.517	577.25
487.735	580.25
487.953	613.25
488.171	587.25
488.389	583.25
488.607	595.25
488.825	586.25
489.043	592.25
489.261	597.25
489.479	601.25
489.696	615.25
489.914	619.25
490.132	596.25
490.35	623.25
490.568	611.25
490.786	625.25
491.003	640.25
491.221	642.25
491.439	647.25
491.657	669.25
491.874	685.25
492.092	677.25
492.31	689.25
492.527	677.25
492.745	671.25
492.963	671.25
493.18	655.25
493.398	689.25
493.615	693.25
493.833	676.25
494.05	709.25
494.268	697.25
494.485	686.25
494.703	675.25
494.92	710.25
495.138	714.25
495.355	687.25
495.573	686.25
495.79	703.25
496.008	705.25
496.225	721.25
496.442	705.25
496.66	708.25
496.877	704.25
497.094	715.25
497.312	721.25
497.529	739.25
497.746	725.25
497.963	769.25
498.181	785.25
498.398	807.25
498.615	823.25
498.832	858.25
499.049	847.25
499.267	895.25
499.484	961.25
499.701	1005.25
499.918	1072.25
500.135	1158.25
500.352	1203.25
500.569	1260.25
500.786	1261.25
501.003	1231.25
501.22	1159.25
501.437	1088.25
501.654	1051.25
