Data from 1973.PennyLincolnUp.Lamp.En5.5.200Scan.071719.P1.Changed Mount._HRD10591_15-43-31-852.txt Node
Date: Thu Jul 18 15:43:31 EDT 2019
User: cochatt
Spectrometer: HR+D1059
Trigger mode: 1
Integration Time (sec): 1.000000E-1
Scans to average: 1
Electric dark correction enabled: true
Nonlinearity correction enabled: false
Boxcar width: 0
XAxis mode: Wavelengths
Number of Pixels in Spectrum: 2048
>>>>>Begin Spectral Data<<<<<
223.165	-16.44
223.4	-16.44
223.635	-16.44
223.869	-14.44
224.104	-14.44
224.338	-14.44
224.573	-10.44
224.808	-21.44
225.042	-6.44
225.277	5.56
225.511	-14.44
225.746	-10.44
225.98	1.56
226.215	11.56
226.449	27.56
226.683	11.56
226.918	35.56
227.152	29.56
227.387	31.56
227.621	26.56
227.856	36.56
228.09	46.56
228.324	55.56
228.559	51.56
228.793	73.56
229.027	94.56
229.262	94.56
229.496	120.56
229.73	117.56
229.964	138.56
230.199	135.56
230.433	111.56
230.667	106.56
230.901	112.56
231.136	101.56
231.37	109.56
231.604	118.56
231.838	117.56
232.072	115.56
232.306	112.56
232.541	127.56
232.775	114.56
233.009	120.56
233.243	129.56
233.477	130.56
233.711	124.56
233.945	123.56
234.179	123.56
234.413	118.56
234.647	123.56
234.881	123.56
235.115	127.56
235.349	121.56
235.583	136.56
235.817	124.56
236.051	137.56
236.285	140.56
236.519	130.56
236.753	137.56
236.987	137.56
237.221	171.56
237.455	225.56
237.689	163.56
237.922	142.56
238.156	128.56
238.39	135.56
238.624	137.56
238.858	126.56
239.091	146.56
239.325	139.56
239.559	134.56
239.793	129.56
240.027	138.56
240.26	137.56
240.494	150.56
240.728	147.56
240.961	148.56
241.195	141.56
241.429	143.56
241.662	142.56
241.896	145.56
242.13	139.56
242.363	141.56
242.597	150.56
242.83	145.56
243.064	143.56
243.298	144.56
243.531	145.56
243.765	160.56
243.998	141.56
244.232	147.56
244.465	156.56
244.699	151.56
244.932	149.56
245.166	165.56
245.399	154.56
245.633	178.56
245.866	168.56
246.099	161.56
246.333	167.56
246.566	164.56
246.8	165.56
247.033	167.56
247.266	168.56
247.5	177.56
247.733	168.56
247.966	185.56
248.2	189.56
248.433	171.56
248.666	193.56
248.899	175.56
249.133	198.56
249.366	194.56
249.599	199.56
249.832	184.56
250.066	182.56
250.299	171.56
250.532	189.56
250.765	191.56
250.998	230.56
251.231	210.56
251.465	215.56
251.698	204.56
251.931	209.56
252.164	203.56
252.397	195.56
252.63	184.56
252.863	207.56
253.096	210.56
253.329	230.56
253.562	236.56
253.795	225.56
254.028	223.56
254.261	200.56
254.494	225.56
254.727	222.56
254.96	267.56
255.193	261.56
255.426	232.56
255.659	227.56
255.892	215.56
256.124	216.56
256.357	225.56
256.59	228.56
256.823	210.56
257.056	221.56
257.289	230.56
257.521	221.56
257.754	216.56
257.987	210.56
258.22	227.56
258.452	234.56
258.685	224.56
258.918	216.56
259.151	217.56
259.383	215.56
259.616	215.56
259.849	237.56
260.081	225.56
260.314	242.56
260.547	251.56
260.779	256.56
261.012	236.56
261.244	240.56
261.477	234.56
261.71	230.56
261.942	231.56
262.175	222.56
262.407	218.56
262.64	239.56
262.872	215.56
263.105	221.56
263.337	234.56
263.57	233.56
263.802	231.56
264.035	227.56
264.267	221.56
264.499	226.56
264.732	238.56
264.964	227.56
265.197	234.56
265.429	231.56
265.661	236.56
265.894	239.56
266.126	251.56
266.358	236.56
266.591	240.56
266.823	248.56
267.055	232.56
267.287	243.56
267.52	247.56
267.752	234.56
267.984	244.56
268.216	266.56
268.448	252.56
268.681	259.56
268.913	239.56
269.145	270.56
269.377	294.56
269.609	282.56
269.841	265.56
270.073	278.56
270.306	288.56
270.538	302.56
270.77	282.56
271.002	289.56
271.234	299.56
271.466	289.56
271.698	305.56
271.93	320.56
272.162	307.56
272.394	319.56
272.626	295.56
272.858	302.56
273.09	298.56
273.322	280.56
273.553	255.56
273.785	271.56
274.017	263.56
274.249	263.56
274.481	272.56
274.713	279.56
274.945	284.56
275.176	289.56
275.408	282.56
275.64	272.56
275.872	280.56
276.104	301.56
276.335	278.56
276.567	301.56
276.799	293.56
277.031	303.56
277.262	327.56
277.494	334.56
277.726	307.56
277.957	312.56
278.189	299.56
278.421	301.56
278.652	289.56
278.884	293.56
279.115	289.56
279.347	294.56
279.579	287.56
279.81	300.56
280.042	298.56
280.273	288.56
280.505	301.56
280.736	278.56
280.968	285.56
281.199	310.56
281.431	297.56
281.662	300.56
281.894	295.56
282.125	319.56
282.356	315.56
282.588	310.56
282.819	303.56
283.051	305.56
283.282	310.56
283.513	309.56
283.745	294.56
283.976	299.56
284.207	313.56
284.439	288.56
284.67	303.56
284.901	310.56
285.132	309.56
285.364	317.56
285.595	315.56
285.826	308.56
286.057	298.56
286.288	298.56
286.52	326.56
286.751	305.56
286.982	309.56
287.213	317.56
287.444	314.56
287.675	324.56
287.906	331.56
288.138	338.56
288.369	334.56
288.6	348.56
288.831	326.56
289.062	321.56
289.293	332.56
289.524	306.56
289.755	317.56
289.986	321.56
290.217	341.56
290.448	338.56
290.679	335.56
290.91	339.56
291.141	326.56
291.371	326.56
291.602	315.56
291.833	328.56
292.064	350.56
292.295	321.56
292.526	345.56
292.757	327.56
292.987	315.56
293.218	333.56
293.449	352.56
293.68	339.56
293.91	320.56
294.141	319.56
294.372	334.56
294.603	336.56
294.833	341.56
295.064	338.56
295.295	334.56
295.525	328.56
295.756	343.56
295.987	350.56
296.217	366.56
296.448	358.56
296.679	348.56
296.909	356.56
297.14	335.56
297.37	345.56
297.601	337.56
297.831	346.56
298.062	370.56
298.292	339.56
298.523	340.56
298.753	363.56
298.984	343.56
299.214	349.56
299.445	338.56
299.675	352.56
299.905	359.56
300.136	358.56
300.366	335.56
300.597	346.56
300.827	375.56
301.057	371.56
301.288	364.56
301.518	369.56
301.748	368.56
301.979	382.56
302.209	367.56
302.439	375.56
302.669	375.56
302.9	383.56
303.13	381.56
303.36	375.56
303.59	385.56
303.82	357.56
304.051	377.56
304.281	373.56
304.511	359.56
304.741	374.56
304.971	373.56
305.201	366.56
305.431	371.56
305.661	377.56
305.891	375.56
306.121	357.56
306.352	369.56
306.582	349.56
306.812	361.56
307.042	379.56
307.272	375.56
307.502	380.56
307.731	380.56
307.961	361.56
308.191	362.56
308.421	371.56
308.651	379.56
308.881	371.56
309.111	385.56
309.341	376.56
309.571	380.56
309.8	375.56
310.03	388.56
310.26	412.56
310.49	381.56
310.72	398.56
310.949	389.56
311.179	388.56
311.409	409.56
311.639	390.56
311.868	417.56
312.098	393.56
312.328	390.56
312.557	409.56
312.787	401.56
313.017	399.56
313.246	415.56
313.476	408.56
313.706	402.56
313.935	412.56
314.165	434.56
314.394	418.56
314.624	423.56
314.853	401.56
315.083	426.56
315.312	398.56
315.542	422.56
315.771	409.56
316.001	416.56
316.23	416.56
316.46	412.56
316.689	420.56
316.919	426.56
317.148	400.56
317.377	411.56
317.607	422.56
317.836	415.56
318.065	421.56
318.295	392.56
318.524	403.56
318.753	413.56
318.983	412.56
319.212	404.56
319.441	425.56
319.67	407.56
319.9	425.56
320.129	406.56
320.358	431.56
320.587	405.56
320.816	409.56
321.046	420.56
321.275	430.56
321.504	447.56
321.733	419.56
321.962	435.56
322.191	443.56
322.42	419.56
322.649	427.56
322.878	449.56
323.108	444.56
323.337	433.56
323.566	454.56
323.795	467.56
324.024	475.56
324.253	523.56
324.482	647.56
324.71	913.56
324.939	1298.56
325.168	1153.56
325.397	655.56
325.626	514.56
325.855	490.56
326.084	459.56
326.313	459.56
326.542	467.56
326.77	489.56
326.999	547.56
327.228	614.56
327.457	858.56
327.686	1041.56
327.914	736.56
328.143	556.56
328.372	523.56
328.6	484.56
328.829	507.56
329.058	491.56
329.287	526.56
329.515	475.56
329.744	499.56
329.972	482.56
330.201	493.56
330.43	490.56
330.658	549.56
330.887	546.56
331.115	543.56
331.344	498.56
331.572	476.56
331.801	473.56
332.03	492.56
332.258	497.56
332.486	491.56
332.715	482.56
332.943	503.56
333.172	529.56
333.4	519.56
333.629	536.56
333.857	528.56
334.085	551.56
334.314	567.56
334.542	563.56
334.771	586.56
334.999	559.56
335.227	535.56
335.455	513.56
335.684	529.56
335.912	520.56
336.14	496.56
336.369	495.56
336.597	529.56
336.825	519.56
337.053	487.56
337.281	506.56
337.51	513.56
337.738	493.56
337.966	498.56
338.194	486.56
338.422	503.56
338.65	476.56
338.878	485.56
339.106	470.56
339.334	495.56
339.562	473.56
339.79	461.56
340.018	465.56
340.246	470.56
340.474	477.56
340.702	479.56
340.93	462.56
341.158	461.56
341.386	465.56
341.614	481.56
341.842	471.56
342.07	469.56
342.298	464.56
342.526	475.56
342.754	464.56
342.981	459.56
343.209	456.56
343.437	481.56
343.665	491.56
343.893	503.56
344.12	539.56
344.348	514.56
344.576	521.56
344.804	488.56
345.031	485.56
345.259	485.56
345.487	482.56
345.714	496.56
345.942	466.56
346.17	467.56
346.397	462.56
346.625	476.56
346.853	460.56
347.08	451.56
347.308	463.56
347.535	457.56
347.763	488.56
347.99	456.56
348.218	457.56
348.445	464.56
348.673	487.56
348.9	462.56
349.128	442.56
349.355	445.56
349.583	454.56
349.81	451.56
350.037	451.56
350.265	458.56
350.492	434.56
350.72	448.56
350.947	462.56
351.174	452.56
351.402	459.56
351.629	456.56
351.856	449.56
352.083	468.56
352.311	469.56
352.538	449.56
352.765	475.56
352.992	433.56
353.22	460.56
353.447	434.56
353.674	455.56
353.901	449.56
354.128	462.56
354.355	435.56
354.583	462.56
354.81	432.56
355.037	453.56
355.264	459.56
355.491	433.56
355.718	450.56
355.945	442.56
356.172	428.56
356.399	455.56
356.626	446.56
356.853	434.56
357.08	450.56
357.307	442.56
357.534	435.56
357.761	442.56
357.988	455.56
358.215	444.56
358.441	451.56
358.668	441.56
358.895	475.56
359.122	453.56
359.349	450.56
359.576	456.56
359.802	467.56
360.029	487.56
360.256	494.56
360.483	457.56
360.709	466.56
360.936	485.56
361.163	447.56
361.39	458.56
361.616	473.56
361.843	464.56
362.07	453.56
362.296	466.56
362.523	437.56
362.749	449.56
362.976	454.56
363.203	433.56
363.429	459.56
363.656	446.56
363.882	434.56
364.109	465.56
364.335	453.56
364.562	434.56
364.788	477.56
365.015	429.56
365.241	459.56
365.468	457.56
365.694	462.56
365.92	468.56
366.147	479.56
366.373	467.56
366.599	473.56
366.826	453.56
367.052	441.56
367.278	458.56
367.505	457.56
367.731	463.56
367.957	467.56
368.184	447.56
368.41	459.56
368.636	446.56
368.862	457.56
369.089	466.56
369.315	482.56
369.541	464.56
369.767	449.56
369.993	456.56
370.219	455.56
370.445	465.56
370.672	482.56
370.898	462.56
371.124	464.56
371.35	480.56
371.576	459.56
371.802	476.56
372.028	485.56
372.254	496.56
372.48	480.56
372.706	486.56
372.932	482.56
373.158	479.56
373.384	477.56
373.61	464.56
373.835	494.56
374.061	471.56
374.287	495.56
374.513	487.56
374.739	482.56
374.965	493.56
375.191	494.56
375.416	483.56
375.642	507.56
375.868	464.56
376.094	477.56
376.319	488.56
376.545	495.56
376.771	467.56
376.997	486.56
377.222	468.56
377.448	477.56
377.674	463.56
377.899	482.56
378.125	455.56
378.35	480.56
378.576	460.56
378.802	495.56
379.027	472.56
379.253	474.56
379.478	463.56
379.704	477.56
379.929	491.56
380.155	483.56
380.38	480.56
380.606	476.56
380.831	464.56
381.057	477.56
381.282	468.56
381.507	486.56
381.733	499.56
381.958	480.56
382.184	479.56
382.409	474.56
382.634	500.56
382.86	496.56
383.085	494.56
383.31	503.56
383.535	506.56
383.761	535.56
383.986	522.56
384.211	527.56
384.436	535.56
384.662	536.56
384.887	551.56
385.112	530.56
385.337	543.56
385.562	544.56
385.787	542.56
386.013	559.56
386.238	549.56
386.463	571.56
386.688	561.56
386.913	546.56
387.138	541.56
387.363	549.56
387.588	535.56
387.813	536.56
388.038	559.56
388.263	540.56
388.488	563.56
388.713	544.56
388.938	530.56
389.163	535.56
389.387	549.56
389.612	546.56
389.837	555.56
390.062	539.56
390.287	543.56
390.512	559.56
390.736	538.56
390.961	552.56
391.186	539.56
391.411	549.56
391.636	554.56
391.86	565.56
392.085	559.56
392.31	565.56
392.534	591.56
392.759	553.56
392.984	544.56
393.208	554.56
393.433	569.56
393.658	573.56
393.882	552.56
394.107	559.56
394.331	555.56
394.556	568.56
394.78	532.56
395.005	560.56
395.229	562.56
395.454	581.56
395.678	577.56
395.903	587.56
396.127	612.56
396.352	619.56
396.576	558.56
396.801	553.56
397.025	571.56
397.249	567.56
397.474	577.56
397.698	600.56
397.922	601.56
398.147	610.56
398.371	603.56
398.595	622.56
398.82	614.56
399.044	655.56
399.268	687.56
399.492	762.56
399.717	793.56
399.941	801.56
400.165	810.56
400.389	802.56
400.613	727.56
400.837	678.56
401.062	654.56
401.286	643.56
401.51	637.56
401.734	624.56
401.958	635.56
402.182	649.56
402.406	638.56
402.63	650.56
402.854	648.56
403.078	663.56
403.302	685.56
403.526	650.56
403.75	665.56
403.974	682.56
404.198	678.56
404.422	681.56
404.645	711.56
404.869	665.56
405.093	703.56
405.317	722.56
405.541	749.56
405.765	698.56
405.988	699.56
406.212	699.56
406.436	701.56
406.66	727.56
406.883	721.56
407.107	735.56
407.331	787.56
407.555	823.56
407.778	842.56
408.002	785.56
408.226	728.56
408.449	734.56
408.673	731.56
408.896	719.56
409.12	761.56
409.344	747.56
409.567	720.56
409.791	667.56
410.014	675.56
410.238	681.56
410.461	669.56
410.685	658.56
410.908	691.56
411.132	705.56
411.355	689.56
411.578	715.56
411.802	679.56
412.025	640.56
412.249	673.56
412.472	685.56
412.695	702.56
412.919	679.56
413.142	657.56
413.365	645.56
413.589	665.56
413.812	635.56
414.035	629.56
414.258	614.56
414.482	606.56
414.705	634.56
414.928	615.56
415.151	631.56
415.374	620.56
415.597	638.56
415.821	647.56
416.044	604.56
416.267	637.56
416.49	649.56
416.713	630.56
416.936	609.56
417.159	649.56
417.382	623.56
417.605	631.56
417.828	631.56
418.051	638.56
418.274	652.56
418.497	625.56
418.72	634.56
418.943	639.56
419.166	659.56
419.389	711.56
419.611	675.56
419.834	683.56
420.057	679.56
420.28	667.56
420.503	648.56
420.726	634.56
420.948	649.56
421.171	672.56
421.394	698.56
421.617	659.56
421.839	609.56
422.062	649.56
422.285	654.56
422.507	714.56
422.73	745.56
422.953	734.56
423.175	697.56
423.398	663.56
423.621	664.56
423.843	679.56
424.066	692.56
424.288	678.56
424.511	702.56
424.733	738.56
424.956	797.56
425.178	744.56
425.401	773.56
425.623	797.56
425.846	671.56
426.068	659.56
426.291	642.56
426.513	648.56
426.735	656.56
426.958	706.56
427.18	762.56
427.402	867.56
427.625	918.56
427.847	794.56
428.069	717.56
428.292	653.56
428.514	618.56
428.736	595.56
428.958	633.56
429.181	626.56
429.403	587.56
429.625	593.56
429.847	648.56
430.069	697.56
430.292	677.56
430.514	607.56
430.736	611.56
430.958	609.56
431.18	591.56
431.402	596.56
431.624	577.56
431.846	588.56
432.068	588.56
432.29	600.56
432.512	595.56
432.734	595.56
432.956	610.56
433.178	584.56
433.4	619.56
433.622	602.56
433.844	589.56
434.066	605.56
434.287	590.56
434.509	615.56
434.731	619.56
434.953	622.56
435.175	658.56
435.397	654.56
435.618	669.56
435.84	675.56
436.062	737.56
436.284	825.56
436.505	698.56
436.727	642.56
436.949	635.56
437.17	603.56
437.392	603.56
437.614	618.56
437.835	623.56
438.057	690.56
438.278	745.56
438.5	760.56
438.721	837.56
438.943	827.56
439.165	676.56
439.386	633.56
439.608	633.56
439.829	629.56
440.05	660.56
440.272	667.56
440.493	683.56
440.715	609.56
440.936	616.56
441.158	636.56
441.379	613.56
441.6	666.56
441.822	661.56
442.043	672.56
442.264	737.56
442.486	814.56
442.707	709.56
442.928	654.56
443.149	675.56
443.371	697.56
443.592	715.56
443.813	805.56
444.034	881.56
444.255	733.56
444.476	721.56
444.698	703.56
444.919	705.56
445.14	774.56
445.361	725.56
445.582	711.56
445.803	709.56
446.024	799.56
446.245	817.56
446.466	751.56
446.687	668.56
446.908	624.56
447.129	599.56
447.35	600.56
447.571	600.56
447.792	560.56
448.013	589.56
448.234	588.56
448.455	617.56
448.675	746.56
448.896	829.56
449.117	726.56
449.338	668.56
449.559	777.56
449.779	885.56
450	702.56
450.221	636.56
450.442	579.56
450.662	565.56
450.883	595.56
451.104	580.56
451.324	556.56
451.545	549.56
451.766	578.56
451.986	533.56
452.207	522.56
452.428	536.56
452.648	541.56
452.869	536.56
453.089	550.56
453.31	541.56
453.53	543.56
453.751	543.56
453.971	522.56
454.192	540.56
454.412	523.56
454.633	538.56
454.853	542.56
455.073	532.56
455.294	550.56
455.514	571.56
455.734	604.56
455.955	545.56
456.175	506.56
456.395	533.56
456.616	505.56
456.836	529.56
457.056	519.56
457.276	533.56
457.497	508.56
457.717	543.56
457.937	524.56
458.157	537.56
458.377	526.56
458.598	571.56
458.818	585.56
459.038	635.56
459.258	677.56
459.478	607.56
459.698	597.56
459.918	608.56
460.138	592.56
460.358	632.56
460.578	642.56
460.798	649.56
461.018	643.56
461.238	645.56
461.458	669.56
461.678	659.56
461.898	648.56
462.118	633.56
462.338	641.56
462.558	682.56
462.777	701.56
462.997	717.56
463.217	781.56
463.437	753.56
463.657	738.56
463.876	717.56
464.096	716.56
464.316	715.56
464.536	703.56
464.755	724.56
464.975	709.56
465.195	699.56
465.414	699.56
465.634	670.56
465.854	617.56
466.073	628.56
466.293	607.56
466.512	588.56
466.732	575.56
466.951	585.56
467.171	575.56
467.391	605.56
467.61	588.56
467.829	604.56
468.049	556.56
468.268	578.56
468.488	555.56
468.707	535.56
468.927	585.56
469.146	576.56
469.365	542.56
469.585	558.56
469.804	587.56
470.023	577.56
470.243	562.56
470.462	590.56
470.681	594.56
470.901	610.56
471.12	581.56
471.339	587.56
471.558	584.56
471.777	576.56
471.997	581.56
472.216	568.56
472.435	602.56
472.654	590.56
472.873	561.56
473.092	562.56
473.311	589.56
473.53	569.56
473.749	578.56
473.968	598.56
474.187	647.56
474.406	695.56
474.625	616.56
474.844	581.56
475.063	578.56
475.282	578.56
475.501	584.56
475.72	578.56
475.939	594.56
476.158	594.56
476.377	583.56
476.596	606.56
476.814	573.56
477.033	606.56
477.252	628.56
477.471	617.56
477.69	644.56
477.908	645.56
478.127	646.56
478.346	633.56
478.564	648.56
478.783	649.56
479.002	666.56
479.22	671.56
479.439	707.56
479.658	694.56
479.876	711.56
480.095	746.56
480.313	720.56
480.532	741.56
480.751	711.56
480.969	736.56
481.188	717.56
481.406	741.56
481.624	719.56
481.843	686.56
482.061	677.56
482.28	669.56
482.498	686.56
482.717	653.56
482.935	680.56
483.153	665.56
483.372	662.56
483.59	672.56
483.808	647.56
484.027	672.56
484.245	677.56
484.463	677.56
484.681	669.56
484.9	688.56
485.118	693.56
485.336	683.56
485.554	718.56
485.772	714.56
485.99	698.56
486.209	688.56
486.427	708.56
486.645	689.56
486.863	725.56
487.081	720.56
487.299	716.56
487.517	711.56
487.735	703.56
487.953	722.56
488.171	722.56
488.389	705.56
488.607	721.56
488.825	718.56
489.043	727.56
489.261	717.56
489.479	753.56
489.696	711.56
489.914	743.56
490.132	728.56
490.35	766.56
490.568	720.56
490.786	748.56
491.003	749.56
491.221	767.56
491.439	793.56
491.657	804.56
491.874	791.56
492.092	803.56
492.31	813.56
492.527	827.56
492.745	808.56
492.963	823.56
493.18	800.56
493.398	818.56
493.615	838.56
493.833	801.56
494.05	819.56
494.268	835.56
494.485	818.56
494.703	815.56
494.92	851.56
495.138	838.56
495.355	827.56
495.573	808.56
495.79	843.56
496.008	858.56
496.225	851.56
496.442	833.56
496.66	814.56
496.877	853.56
497.094	864.56
497.312	857.56
497.529	869.56
497.746	888.56
497.963	901.56
498.181	931.56
498.398	975.56
498.615	974.56
498.832	992.56
499.049	1067.56
499.267	1111.56
499.484	1177.56
499.701	1251.56
499.918	1295.56
500.135	1405.56
500.352	1541.56
500.569	1550.56
500.786	1561.56
501.003	1453.56
501.22	1424.56
501.437	1330.56
501.654	1255.56
