Data from 1973.PennyLincolnUp.Lamp.En5.5.200Scan.071719.P1.Changed Mount._HRD10591_15-45-36-853.txt Node
Date: Thu Jul 18 15:45:36 EDT 2019
User: cochatt
Spectrometer: HR+D1059
Trigger mode: 1
Integration Time (sec): 1.000000E-1
Scans to average: 1
Electric dark correction enabled: true
Nonlinearity correction enabled: false
Boxcar width: 0
XAxis mode: Wavelengths
Number of Pixels in Spectrum: 2048
>>>>>Begin Spectral Data<<<<<
223.165	-16.25
223.4	-16.25
223.635	-16.25
223.869	-24.25
224.104	-26.25
224.338	-11.25
224.573	-15.25
224.808	-22.25
225.042	-9.25
225.277	-4.25
225.511	-5.25
225.746	10.75
225.98	18.75
226.215	14.75
226.449	11.75
226.683	21.75
226.918	23.75
227.152	32.75
227.387	49.75
227.621	39.75
227.856	37.75
228.09	45.75
228.324	48.75
228.559	58.75
228.793	71.75
229.027	94.75
229.262	97.75
229.496	114.75
229.73	126.75
229.964	148.75
230.199	123.75
230.433	116.75
230.667	127.75
230.901	114.75
231.136	94.75
231.37	122.75
231.604	108.75
231.838	105.75
232.072	106.75
232.306	124.75
232.541	119.75
232.775	101.75
233.009	119.75
233.243	107.75
233.477	111.75
233.711	101.75
233.945	117.75
234.179	109.75
234.413	112.75
234.647	116.75
234.881	114.75
235.115	121.75
235.349	122.75
235.583	126.75
235.817	131.75
236.051	125.75
236.285	118.75
236.519	109.75
236.753	117.75
236.987	125.75
237.221	156.75
237.455	210.75
237.689	169.75
237.922	135.75
238.156	131.75
238.39	119.75
238.624	126.75
238.858	127.75
239.091	134.75
239.325	121.75
239.559	125.75
239.793	122.75
240.027	149.75
240.26	147.75
240.494	155.75
240.728	150.75
240.961	149.75
241.195	136.75
241.429	150.75
241.662	145.75
241.896	143.75
242.13	121.75
242.363	134.75
242.597	136.75
242.83	147.75
243.064	131.75
243.298	140.75
243.531	137.75
243.765	134.75
243.998	142.75
244.232	150.75
244.465	139.75
244.699	143.75
244.932	150.75
245.166	153.75
245.399	157.75
245.633	156.75
245.866	147.75
246.099	158.75
246.333	162.75
246.566	167.75
246.8	154.75
247.033	163.75
247.266	151.75
247.5	179.75
247.733	186.75
247.966	179.75
248.2	181.75
248.433	173.75
248.666	163.75
248.899	193.75
249.133	198.75
249.366	199.75
249.599	197.75
249.832	175.75
250.066	181.75
250.299	177.75
250.532	191.75
250.765	205.75
250.998	223.75
251.231	219.75
251.465	224.75
251.698	208.75
251.931	195.75
252.164	191.75
252.397	197.75
252.63	200.75
252.863	213.75
253.096	209.75
253.329	208.75
253.562	217.75
253.795	211.75
254.028	226.75
254.261	211.75
254.494	215.75
254.727	262.75
254.96	277.75
255.193	271.75
255.426	261.75
255.659	255.75
255.892	243.75
256.124	228.75
256.357	245.75
256.59	221.75
256.823	229.75
257.056	207.75
257.289	216.75
257.521	212.75
257.754	222.75
257.987	211.75
258.22	216.75
258.452	222.75
258.685	217.75
258.918	218.75
259.151	213.75
259.383	227.75
259.616	229.75
259.849	228.75
260.081	222.75
260.314	265.75
260.547	273.75
260.779	259.75
261.012	253.75
261.244	239.75
261.477	221.75
261.71	228.75
261.942	218.75
262.175	231.75
262.407	221.75
262.64	224.75
262.872	246.75
263.105	230.75
263.337	237.75
263.57	222.75
263.802	208.75
264.035	229.75
264.267	227.75
264.499	220.75
264.732	226.75
264.964	231.75
265.197	239.75
265.429	211.75
265.661	244.75
265.894	229.75
266.126	230.75
266.358	215.75
266.591	230.75
266.823	245.75
267.055	257.75
267.287	250.75
267.52	246.75
267.752	243.75
267.984	223.75
268.216	234.75
268.448	251.75
268.681	253.75
268.913	257.75
269.145	292.75
269.377	294.75
269.609	280.75
269.841	291.75
270.073	284.75
270.306	309.75
270.538	326.75
270.77	314.75
271.002	309.75
271.234	315.75
271.466	325.75
271.698	313.75
271.93	316.75
272.162	330.75
272.394	329.75
272.626	309.75
272.858	296.75
273.09	301.75
273.322	295.75
273.553	286.75
273.785	285.75
274.017	280.75
274.249	281.75
274.481	288.75
274.713	279.75
274.945	294.75
275.176	283.75
275.408	275.75
275.64	275.75
275.872	277.75
276.104	298.75
276.335	299.75
276.567	305.75
276.799	294.75
277.031	312.75
277.262	307.75
277.494	319.75
277.726	303.75
277.957	324.75
278.189	313.75
278.421	305.75
278.652	278.75
278.884	299.75
279.115	287.75
279.347	284.75
279.579	292.75
279.81	291.75
280.042	285.75
280.273	281.75
280.505	296.75
280.736	286.75
280.968	288.75
281.199	302.75
281.431	293.75
281.662	299.75
281.894	293.75
282.125	305.75
282.356	311.75
282.588	317.75
282.819	325.75
283.051	320.75
283.282	292.75
283.513	309.75
283.745	317.75
283.976	330.75
284.207	307.75
284.439	318.75
284.67	320.75
284.901	305.75
285.132	321.75
285.364	303.75
285.595	304.75
285.826	319.75
286.057	323.75
286.288	317.75
286.52	296.75
286.751	319.75
286.982	323.75
287.213	312.75
287.444	303.75
287.675	309.75
287.906	353.75
288.138	335.75
288.369	351.75
288.6	330.75
288.831	329.75
289.062	337.75
289.293	339.75
289.524	329.75
289.755	322.75
289.986	321.75
290.217	327.75
290.448	344.75
290.679	328.75
290.91	323.75
291.141	343.75
291.371	335.75
291.602	323.75
291.833	340.75
292.064	317.75
292.295	320.75
292.526	335.75
292.757	341.75
292.987	323.75
293.218	330.75
293.449	343.75
293.68	334.75
293.91	341.75
294.141	329.75
294.372	325.75
294.603	344.75
294.833	313.75
295.064	329.75
295.295	348.75
295.525	316.75
295.756	318.75
295.987	355.75
296.217	364.75
296.448	369.75
296.679	333.75
296.909	336.75
297.14	334.75
297.37	339.75
297.601	317.75
297.831	338.75
298.062	350.75
298.292	358.75
298.523	355.75
298.753	354.75
298.984	348.75
299.214	347.75
299.445	352.75
299.675	356.75
299.905	377.75
300.136	373.75
300.366	350.75
300.597	364.75
300.827	389.75
301.057	342.75
301.288	339.75
301.518	386.75
301.748	371.75
301.979	383.75
302.209	389.75
302.439	371.75
302.669	379.75
302.9	350.75
303.13	369.75
303.36	364.75
303.59	389.75
303.82	369.75
304.051	369.75
304.281	377.75
304.511	356.75
304.741	346.75
304.971	366.75
305.201	370.75
305.431	366.75
305.661	371.75
305.891	365.75
306.121	361.75
306.352	371.75
306.582	353.75
306.812	346.75
307.042	376.75
307.272	377.75
307.502	362.75
307.731	354.75
307.961	378.75
308.191	375.75
308.421	387.75
308.651	376.75
308.881	369.75
309.111	368.75
309.341	364.75
309.571	387.75
309.8	389.75
310.03	391.75
310.26	408.75
310.49	390.75
310.72	415.75
310.949	427.75
311.179	419.75
311.409	405.75
311.639	395.75
311.868	409.75
312.098	403.75
312.328	417.75
312.557	425.75
312.787	440.75
313.017	417.75
313.246	417.75
313.476	399.75
313.706	411.75
313.935	426.75
314.165	428.75
314.394	413.75
314.624	411.75
314.853	411.75
315.083	418.75
315.312	420.75
315.542	404.75
315.771	413.75
316.001	413.75
316.23	402.75
316.46	403.75
316.689	424.75
316.919	439.75
317.148	421.75
317.377	412.75
317.607	425.75
317.836	414.75
318.065	397.75
318.295	414.75
318.524	402.75
318.753	407.75
318.983	424.75
319.212	385.75
319.441	420.75
319.67	401.75
319.9	427.75
320.129	414.75
320.358	411.75
320.587	404.75
320.816	400.75
321.046	422.75
321.275	429.75
321.504	414.75
321.733	442.75
321.962	426.75
322.191	449.75
322.42	426.75
322.649	438.75
322.878	457.75
323.108	446.75
323.337	477.75
323.566	509.75
323.795	500.75
324.024	522.75
324.253	634.75
324.482	776.75
324.71	1098.75
324.939	1575.75
325.168	1397.75
325.397	782.75
325.626	593.75
325.855	511.75
326.084	505.75
326.313	492.75
326.542	475.75
326.77	517.75
326.999	591.75
327.228	738.75
327.457	1023.75
327.686	1213.75
327.914	872.75
328.143	631.75
328.372	573.75
328.6	538.75
328.829	522.75
329.058	527.75
329.287	555.75
329.515	522.75
329.744	519.75
329.972	509.75
330.201	498.75
330.43	539.75
330.658	542.75
330.887	579.75
331.115	587.75
331.344	531.75
331.572	498.75
331.801	489.75
332.03	491.75
332.258	495.75
332.486	495.75
332.715	486.75
332.943	498.75
333.172	499.75
333.4	546.75
333.629	543.75
333.857	542.75
334.085	570.75
334.314	566.75
334.542	583.75
334.771	586.75
334.999	535.75
335.227	537.75
335.455	517.75
335.684	525.75
335.912	514.75
336.14	491.75
336.369	502.75
336.597	492.75
336.825	494.75
337.053	482.75
337.281	495.75
337.51	470.75
337.738	466.75
337.966	469.75
338.194	469.75
338.422	480.75
338.65	489.75
338.878	467.75
339.106	477.75
339.334	471.75
339.562	489.75
339.79	469.75
340.018	477.75
340.246	461.75
340.474	468.75
340.702	468.75
340.93	471.75
341.158	454.75
341.386	457.75
341.614	477.75
341.842	462.75
342.07	465.75
342.298	475.75
342.526	471.75
342.754	464.75
342.981	459.75
343.209	443.75
343.437	469.75
343.665	459.75
343.893	511.75
344.12	494.75
344.348	515.75
344.576	477.75
344.804	489.75
345.031	476.75
345.259	456.75
345.487	454.75
345.714	455.75
345.942	473.75
346.17	430.75
346.397	454.75
346.625	434.75
346.853	443.75
347.08	432.75
347.308	444.75
347.535	449.75
347.763	438.75
347.99	460.75
348.218	467.75
348.445	462.75
348.673	455.75
348.9	447.75
349.128	450.75
349.355	430.75
349.583	435.75
349.81	433.75
350.037	430.75
350.265	403.75
350.492	437.75
350.72	433.75
350.947	439.75
351.174	420.75
351.402	448.75
351.629	427.75
351.856	449.75
352.083	443.75
352.311	430.75
352.538	459.75
352.765	462.75
352.992	434.75
353.22	433.75
353.447	442.75
353.674	447.75
353.901	431.75
354.128	428.75
354.355	422.75
354.583	425.75
354.81	432.75
355.037	417.75
355.264	418.75
355.491	397.75
355.718	417.75
355.945	420.75
356.172	431.75
356.399	419.75
356.626	414.75
356.853	417.75
357.08	410.75
357.307	420.75
357.534	428.75
357.761	411.75
357.988	435.75
358.215	424.75
358.441	414.75
358.668	410.75
358.895	417.75
359.122	435.75
359.349	413.75
359.576	422.75
359.802	456.75
360.029	463.75
360.256	463.75
360.483	451.75
360.709	445.75
360.936	438.75
361.163	444.75
361.39	413.75
361.616	442.75
361.843	435.75
362.07	431.75
362.296	443.75
362.523	414.75
362.749	435.75
362.976	437.75
363.203	426.75
363.429	425.75
363.656	413.75
363.882	418.75
364.109	418.75
364.335	412.75
364.562	419.75
364.788	430.75
365.015	446.75
365.241	413.75
365.468	426.75
365.694	422.75
365.92	403.75
366.147	412.75
366.373	418.75
366.599	421.75
366.826	408.75
367.052	425.75
367.278	430.75
367.505	418.75
367.731	435.75
367.957	410.75
368.184	409.75
368.41	419.75
368.636	453.75
368.862	468.75
369.089	448.75
369.315	437.75
369.541	430.75
369.767	437.75
369.993	414.75
370.219	424.75
370.445	419.75
370.672	438.75
370.898	422.75
371.124	435.75
371.35	438.75
371.576	425.75
371.802	453.75
372.028	417.75
372.254	433.75
372.48	440.75
372.706	444.75
372.932	438.75
373.158	447.75
373.384	424.75
373.61	440.75
373.835	458.75
374.061	441.75
374.287	435.75
374.513	458.75
374.739	444.75
374.965	443.75
375.191	484.75
375.416	443.75
375.642	445.75
375.868	454.75
376.094	453.75
376.319	423.75
376.545	445.75
376.771	441.75
376.997	438.75
377.222	438.75
377.448	452.75
377.674	475.75
377.899	442.75
378.125	425.75
378.35	422.75
378.576	454.75
378.802	438.75
379.027	434.75
379.253	434.75
379.478	427.75
379.704	431.75
379.929	431.75
380.155	427.75
380.38	419.75
380.606	411.75
380.831	411.75
381.057	440.75
381.282	439.75
381.507	453.75
381.733	453.75
381.958	447.75
382.184	448.75
382.409	451.75
382.634	437.75
382.86	455.75
383.085	443.75
383.31	441.75
383.535	458.75
383.761	463.75
383.986	481.75
384.211	465.75
384.436	487.75
384.662	472.75
384.887	493.75
385.112	471.75
385.337	481.75
385.562	485.75
385.787	471.75
386.013	500.75
386.238	503.75
386.463	476.75
386.688	499.75
386.913	482.75
387.138	473.75
387.363	491.75
387.588	507.75
387.813	501.75
388.038	491.75
388.263	485.75
388.488	469.75
388.713	475.75
388.938	478.75
389.163	494.75
389.387	499.75
389.612	476.75
389.837	484.75
390.062	489.75
390.287	491.75
390.512	483.75
390.736	470.75
390.961	466.75
391.186	475.75
391.411	494.75
391.636	522.75
391.86	527.75
392.085	515.75
392.31	537.75
392.534	501.75
392.759	495.75
392.984	496.75
393.208	511.75
393.433	484.75
393.658	511.75
393.882	485.75
394.107	478.75
394.331	511.75
394.556	494.75
394.78	497.75
395.005	473.75
395.229	492.75
395.454	503.75
395.678	505.75
395.903	511.75
396.127	549.75
396.352	544.75
396.576	518.75
396.801	508.75
397.025	515.75
397.249	518.75
397.474	515.75
397.698	546.75
397.922	553.75
398.147	534.75
398.371	585.75
398.595	556.75
398.82	574.75
399.044	584.75
399.268	624.75
399.492	671.75
399.717	731.75
399.941	719.75
400.165	763.75
400.389	725.75
400.613	664.75
400.837	618.75
401.062	631.75
401.286	586.75
401.51	565.75
401.734	557.75
401.958	581.75
402.182	574.75
402.406	612.75
402.63	597.75
402.854	599.75
403.078	605.75
403.302	596.75
403.526	617.75
403.75	620.75
403.974	612.75
404.198	599.75
404.422	615.75
404.645	607.75
404.869	618.75
405.093	664.75
405.317	656.75
405.541	703.75
405.765	654.75
405.988	615.75
406.212	631.75
406.436	630.75
406.66	661.75
406.883	650.75
407.107	663.75
407.331	705.75
407.555	767.75
407.778	781.75
408.002	730.75
408.226	673.75
408.449	671.75
408.673	655.75
408.896	669.75
409.12	700.75
409.344	677.75
409.567	625.75
409.791	613.75
410.014	582.75
410.238	582.75
410.461	598.75
410.685	588.75
410.908	607.75
411.132	637.75
411.355	651.75
411.578	629.75
411.802	610.75
412.025	600.75
412.249	609.75
412.472	631.75
412.695	632.75
412.919	617.75
413.142	596.75
413.365	585.75
413.589	583.75
413.812	559.75
414.035	575.75
414.258	557.75
414.482	567.75
414.705	582.75
414.928	562.75
415.151	582.75
415.374	561.75
415.597	534.75
415.821	566.75
416.044	580.75
416.267	571.75
416.49	565.75
416.713	546.75
416.936	565.75
417.159	547.75
417.382	571.75
417.605	572.75
417.828	574.75
418.051	600.75
418.274	590.75
418.497	578.75
418.72	564.75
418.943	555.75
419.166	618.75
419.389	617.75
419.611	626.75
419.834	588.75
420.057	607.75
420.28	597.75
420.503	586.75
420.726	580.75
420.948	597.75
421.171	625.75
421.394	661.75
421.617	602.75
421.839	578.75
422.062	583.75
422.285	603.75
422.507	640.75
422.73	705.75
422.953	709.75
423.175	633.75
423.398	631.75
423.621	606.75
423.843	641.75
424.066	639.75
424.288	641.75
424.511	621.75
424.733	690.75
424.956	728.75
425.178	699.75
425.401	705.75
425.623	734.75
425.846	659.75
426.068	625.75
426.291	611.75
426.513	597.75
426.735	603.75
426.958	655.75
427.18	712.75
427.402	796.75
427.625	858.75
427.847	755.75
428.069	685.75
428.292	597.75
428.514	581.75
428.736	563.75
428.958	558.75
429.181	548.75
429.403	555.75
429.625	554.75
429.847	571.75
430.069	652.75
430.292	631.75
430.514	565.75
430.736	557.75
430.958	543.75
431.18	537.75
431.402	560.75
431.624	533.75
431.846	547.75
432.068	524.75
432.29	509.75
432.512	548.75
432.734	531.75
432.956	547.75
433.178	543.75
433.4	556.75
433.622	539.75
433.844	541.75
434.066	525.75
434.287	522.75
434.509	553.75
434.731	584.75
434.953	569.75
435.175	601.75
435.397	599.75
435.618	605.75
435.84	633.75
436.062	684.75
436.284	742.75
436.505	649.75
436.727	589.75
436.949	595.75
437.17	559.75
437.392	555.75
437.614	557.75
437.835	580.75
438.057	674.75
438.278	774.75
438.5	733.75
438.721	797.75
438.943	776.75
439.165	635.75
439.386	581.75
439.608	594.75
439.829	614.75
440.05	610.75
440.272	616.75
440.493	609.75
440.715	589.75
440.936	570.75
441.158	576.75
441.379	587.75
441.6	572.75
441.822	613.75
442.043	642.75
442.264	677.75
442.486	744.75
442.707	651.75
442.928	627.75
443.149	610.75
443.371	625.75
443.592	667.75
443.813	756.75
444.034	839.75
444.255	695.75
444.476	662.75
444.698	630.75
444.919	650.75
445.14	751.75
445.361	675.75
445.582	665.75
445.803	666.75
446.024	743.75
446.245	737.75
446.466	683.75
446.687	613.75
446.908	583.75
447.129	561.75
447.35	547.75
447.571	548.75
447.792	535.75
448.013	550.75
448.234	540.75
448.455	581.75
448.675	665.75
448.896	788.75
449.117	683.75
449.338	641.75
449.559	731.75
449.779	840.75
450	675.75
450.221	575.75
450.442	556.75
450.662	542.75
450.883	513.75
451.104	558.75
451.324	513.75
451.545	531.75
451.766	485.75
451.986	484.75
452.207	484.75
452.428	474.75
452.648	488.75
452.869	476.75
453.089	518.75
453.31	489.75
453.53	494.75
453.751	490.75
453.971	479.75
454.192	490.75
454.412	484.75
454.633	478.75
454.853	473.75
455.073	498.75
455.294	519.75
455.514	537.75
455.734	545.75
455.955	492.75
456.175	470.75
456.395	454.75
456.616	477.75
456.836	465.75
457.056	446.75
457.276	449.75
457.497	478.75
457.717	447.75
457.937	468.75
458.157	446.75
458.377	461.75
458.598	484.75
458.818	566.75
459.038	576.75
459.258	647.75
459.478	570.75
459.698	537.75
459.918	532.75
460.138	529.75
460.358	549.75
460.578	559.75
460.798	581.75
461.018	571.75
461.238	572.75
461.458	580.75
461.678	551.75
461.898	574.75
462.118	590.75
462.338	569.75
462.558	598.75
462.777	577.75
462.997	619.75
463.217	642.75
463.437	653.75
463.657	635.75
463.876	614.75
464.096	631.75
464.316	638.75
464.536	611.75
464.755	631.75
464.975	589.75
465.195	614.75
465.414	629.75
465.634	597.75
465.854	544.75
466.073	541.75
466.293	517.75
466.512	511.75
466.732	498.75
466.951	506.75
467.171	539.75
467.391	515.75
467.61	505.75
467.829	504.75
468.049	514.75
468.268	519.75
468.488	510.75
468.707	492.75
468.927	487.75
469.146	499.75
469.365	503.75
469.585	483.75
469.804	493.75
470.023	533.75
470.243	529.75
470.462	540.75
470.681	535.75
470.901	523.75
471.12	527.75
471.339	512.75
471.558	499.75
471.777	536.75
471.997	505.75
472.216	487.75
472.435	529.75
472.654	512.75
472.873	511.75
473.092	506.75
473.311	501.75
473.53	516.75
473.749	530.75
473.968	525.75
474.187	608.75
474.406	646.75
474.625	562.75
474.844	522.75
475.063	535.75
475.282	528.75
475.501	516.75
475.72	515.75
475.939	526.75
476.158	528.75
476.377	518.75
476.596	510.75
476.814	549.75
477.033	523.75
477.252	558.75
477.471	540.75
477.69	547.75
477.908	577.75
478.127	578.75
478.346	559.75
478.564	578.75
478.783	589.75
479.002	595.75
479.22	609.75
479.439	605.75
479.658	610.75
479.876	616.75
480.095	635.75
480.313	634.75
480.532	672.75
480.751	639.75
480.969	635.75
481.188	659.75
481.406	669.75
481.624	612.75
481.843	610.75
482.061	613.75
482.28	601.75
482.498	585.75
482.717	573.75
482.935	602.75
483.153	598.75
483.372	583.75
483.59	581.75
483.808	587.75
484.027	565.75
484.245	566.75
484.463	595.75
484.681	602.75
484.9	595.75
485.118	630.75
485.336	606.75
485.554	604.75
485.772	612.75
485.99	608.75
486.209	598.75
486.427	605.75
486.645	617.75
486.863	633.75
487.081	633.75
487.299	632.75
487.517	612.75
487.735	622.75
487.953	633.75
488.171	650.75
488.389	639.75
488.607	633.75
488.825	620.75
489.043	649.75
489.261	637.75
489.479	663.75
489.696	670.75
489.914	637.75
490.132	661.75
490.35	639.75
490.568	656.75
490.786	685.75
491.003	679.75
491.221	653.75
491.439	698.75
491.657	707.75
491.874	709.75
492.092	684.75
492.31	717.75
492.527	737.75
492.745	701.75
492.963	707.75
493.18	746.75
493.398	720.75
493.615	719.75
493.833	725.75
494.05	713.75
494.268	738.75
494.485	730.75
494.703	734.75
494.92	718.75
495.138	744.75
495.355	728.75
495.573	729.75
495.79	735.75
496.008	751.75
496.225	728.75
496.442	755.75
496.66	739.75
496.877	749.75
497.094	746.75
497.312	757.75
497.529	789.75
497.746	810.75
497.963	807.75
498.181	807.75
498.398	841.75
498.615	847.75
498.832	910.75
499.049	910.75
499.267	981.75
499.484	991.75
499.701	1061.75
499.918	1128.75
500.135	1198.75
500.352	1289.75
500.569	1355.75
500.786	1306.75
501.003	1285.75
501.22	1230.75
501.437	1155.75
501.654	1063.75
