Data from 1973.PennyLincolnUp.Lamp.En5.5.200Scan.071719.P1.Changed Mount._HRD10591_15-45-14-853.txt Node
Date: Thu Jul 18 15:45:14 EDT 2019
User: cochatt
Spectrometer: HR+D1059
Trigger mode: 1
Integration Time (sec): 1.000000E-1
Scans to average: 1
Electric dark correction enabled: true
Nonlinearity correction enabled: false
Boxcar width: 0
XAxis mode: Wavelengths
Number of Pixels in Spectrum: 2048
>>>>>Begin Spectral Data<<<<<
223.165	-13.31
223.4	-13.31
223.635	-13.31
223.869	-22.31
224.104	-15.31
224.338	-18.31
224.573	-17.31
224.808	-4.31
225.042	-14.31
225.277	-4.31
225.511	-11.31
225.746	17.69
225.98	2.69
226.215	7.69
226.449	14.69
226.683	24.69
226.918	19.69
227.152	33.69
227.387	44.69
227.621	32.69
227.856	39.69
228.09	50.69
228.324	48.69
228.559	61.69
228.793	62.69
229.027	84.69
229.262	116.69
229.496	111.69
229.73	113.69
229.964	147.69
230.199	110.69
230.433	112.69
230.667	121.69
230.901	113.69
231.136	99.69
231.37	118.69
231.604	102.69
231.838	114.69
232.072	112.69
232.306	106.69
232.541	115.69
232.775	109.69
233.009	112.69
233.243	115.69
233.477	100.69
233.711	107.69
233.945	126.69
234.179	107.69
234.413	119.69
234.647	132.69
234.881	126.69
235.115	116.69
235.349	124.69
235.583	122.69
235.817	123.69
236.051	129.69
236.285	128.69
236.519	121.69
236.753	148.69
236.987	132.69
237.221	178.69
237.455	219.69
237.689	176.69
237.922	136.69
238.156	114.69
238.39	129.69
238.624	130.69
238.858	125.69
239.091	116.69
239.325	131.69
239.559	138.69
239.793	128.69
240.027	132.69
240.26	134.69
240.494	153.69
240.728	154.69
240.961	134.69
241.195	145.69
241.429	129.69
241.662	127.69
241.896	142.69
242.13	128.69
242.363	126.69
242.597	123.69
242.83	141.69
243.064	138.69
243.298	141.69
243.531	140.69
243.765	140.69
243.998	164.69
244.232	139.69
244.465	140.69
244.699	158.69
244.932	164.69
245.166	155.69
245.399	154.69
245.633	147.69
245.866	149.69
246.099	154.69
246.333	148.69
246.566	161.69
246.8	149.69
247.033	145.69
247.266	174.69
247.5	164.69
247.733	171.69
247.966	188.69
248.2	172.69
248.433	176.69
248.666	182.69
248.899	188.69
249.133	204.69
249.366	200.69
249.599	191.69
249.832	190.69
250.066	171.69
250.299	196.69
250.532	187.69
250.765	198.69
250.998	212.69
251.231	218.69
251.465	233.69
251.698	199.69
251.931	199.69
252.164	192.69
252.397	186.69
252.63	204.69
252.863	192.69
253.096	195.69
253.329	216.69
253.562	217.69
253.795	218.69
254.028	213.69
254.261	228.69
254.494	220.69
254.727	265.69
254.96	267.69
255.193	263.69
255.426	247.69
255.659	230.69
255.892	237.69
256.124	235.69
256.357	212.69
256.59	216.69
256.823	225.69
257.056	233.69
257.289	206.69
257.521	216.69
257.754	234.69
257.987	208.69
258.22	214.69
258.452	208.69
258.685	220.69
258.918	210.69
259.151	231.69
259.383	209.69
259.616	210.69
259.849	230.69
260.081	221.69
260.314	244.69
260.547	261.69
260.779	249.69
261.012	242.69
261.244	234.69
261.477	234.69
261.71	216.69
261.942	231.69
262.175	236.69
262.407	255.69
262.64	235.69
262.872	208.69
263.105	216.69
263.337	230.69
263.57	214.69
263.802	235.69
264.035	230.69
264.267	209.69
264.499	213.69
264.732	240.69
264.964	216.69
265.197	228.69
265.429	233.69
265.661	224.69
265.894	215.69
266.126	229.69
266.358	241.69
266.591	230.69
266.823	243.69
267.055	236.69
267.287	253.69
267.52	237.69
267.752	246.69
267.984	256.69
268.216	235.69
268.448	240.69
268.681	248.69
268.913	254.69
269.145	278.69
269.377	268.69
269.609	293.69
269.841	293.69
270.073	298.69
270.306	312.69
270.538	314.69
270.77	317.69
271.002	310.69
271.234	296.69
271.466	307.69
271.698	313.69
271.93	319.69
272.162	324.69
272.394	337.69
272.626	331.69
272.858	311.69
273.09	282.69
273.322	275.69
273.553	262.69
273.785	267.69
274.017	271.69
274.249	269.69
274.481	278.69
274.713	280.69
274.945	290.69
275.176	284.69
275.408	285.69
275.64	287.69
275.872	274.69
276.104	278.69
276.335	292.69
276.567	301.69
276.799	288.69
277.031	310.69
277.262	333.69
277.494	344.69
277.726	351.69
277.957	317.69
278.189	298.69
278.421	314.69
278.652	299.69
278.884	306.69
279.115	275.69
279.347	297.69
279.579	289.69
279.81	297.69
280.042	305.69
280.273	288.69
280.505	295.69
280.736	292.69
280.968	310.69
281.199	289.69
281.431	305.69
281.662	296.69
281.894	308.69
282.125	289.69
282.356	300.69
282.588	308.69
282.819	319.69
283.051	294.69
283.282	310.69
283.513	314.69
283.745	306.69
283.976	329.69
284.207	320.69
284.439	309.69
284.67	324.69
284.901	314.69
285.132	320.69
285.364	314.69
285.595	329.69
285.826	305.69
286.057	321.69
286.288	319.69
286.52	313.69
286.751	308.69
286.982	330.69
287.213	314.69
287.444	313.69
287.675	322.69
287.906	335.69
288.138	335.69
288.369	333.69
288.6	354.69
288.831	343.69
289.062	332.69
289.293	348.69
289.524	313.69
289.755	319.69
289.986	336.69
290.217	330.69
290.448	316.69
290.679	329.69
290.91	324.69
291.141	333.69
291.371	338.69
291.602	316.69
291.833	340.69
292.064	321.69
292.295	325.69
292.526	327.69
292.757	338.69
292.987	336.69
293.218	315.69
293.449	338.69
293.68	323.69
293.91	344.69
294.141	301.69
294.372	323.69
294.603	344.69
294.833	353.69
295.064	335.69
295.295	344.69
295.525	324.69
295.756	349.69
295.987	349.69
296.217	354.69
296.448	380.69
296.679	341.69
296.909	346.69
297.14	331.69
297.37	346.69
297.601	345.69
297.831	350.69
298.062	332.69
298.292	335.69
298.523	344.69
298.753	342.69
298.984	338.69
299.214	345.69
299.445	349.69
299.675	361.69
299.905	357.69
300.136	362.69
300.366	352.69
300.597	361.69
300.827	368.69
301.057	367.69
301.288	381.69
301.518	378.69
301.748	377.69
301.979	381.69
302.209	382.69
302.439	390.69
302.669	381.69
302.9	370.69
303.13	372.69
303.36	382.69
303.59	390.69
303.82	367.69
304.051	361.69
304.281	362.69
304.511	370.69
304.741	385.69
304.971	377.69
305.201	355.69
305.431	386.69
305.661	376.69
305.891	368.69
306.121	376.69
306.352	373.69
306.582	348.69
306.812	359.69
307.042	392.69
307.272	374.69
307.502	374.69
307.731	383.69
307.961	377.69
308.191	368.69
308.421	388.69
308.651	368.69
308.881	371.69
309.111	382.69
309.341	402.69
309.571	382.69
309.8	388.69
310.03	396.69
310.26	392.69
310.49	392.69
310.72	402.69
310.949	400.69
311.179	421.69
311.409	419.69
311.639	391.69
311.868	396.69
312.098	420.69
312.328	414.69
312.557	395.69
312.787	412.69
313.017	429.69
313.246	408.69
313.476	416.69
313.706	409.69
313.935	430.69
314.165	423.69
314.394	429.69
314.624	428.69
314.853	427.69
315.083	423.69
315.312	404.69
315.542	409.69
315.771	419.69
316.001	396.69
316.23	397.69
316.46	388.69
316.689	420.69
316.919	418.69
317.148	421.69
317.377	413.69
317.607	421.69
317.836	401.69
318.065	402.69
318.295	415.69
318.524	424.69
318.753	416.69
318.983	417.69
319.212	417.69
319.441	414.69
319.67	419.69
319.9	419.69
320.129	406.69
320.358	427.69
320.587	408.69
320.816	406.69
321.046	416.69
321.275	426.69
321.504	412.69
321.733	415.69
321.962	436.69
322.191	435.69
322.42	425.69
322.649	443.69
322.878	458.69
323.108	458.69
323.337	472.69
323.566	468.69
323.795	486.69
324.024	538.69
324.253	591.69
324.482	788.69
324.71	1152.69
324.939	1588.69
325.168	1366.69
325.397	763.69
325.626	609.69
325.855	514.69
326.084	498.69
326.313	509.69
326.542	490.69
326.77	509.69
326.999	605.69
327.228	727.69
327.457	1047.69
327.686	1229.69
327.914	866.69
328.143	632.69
328.372	580.69
328.6	556.69
328.829	560.69
329.058	552.69
329.287	550.69
329.515	546.69
329.744	505.69
329.972	496.69
330.201	508.69
330.43	533.69
330.658	539.69
330.887	555.69
331.115	561.69
331.344	543.69
331.572	511.69
331.801	500.69
332.03	516.69
332.258	504.69
332.486	486.69
332.715	506.69
332.943	493.69
333.172	530.69
333.4	508.69
333.629	524.69
333.857	530.69
334.085	546.69
334.314	574.69
334.542	566.69
334.771	580.69
334.999	557.69
335.227	520.69
335.455	522.69
335.684	524.69
335.912	496.69
336.14	496.69
336.369	504.69
336.597	498.69
336.825	514.69
337.053	511.69
337.281	474.69
337.51	510.69
337.738	508.69
337.966	483.69
338.194	487.69
338.422	484.69
338.65	487.69
338.878	473.69
339.106	466.69
339.334	486.69
339.562	474.69
339.79	470.69
340.018	453.69
340.246	465.69
340.474	500.69
340.702	489.69
340.93	459.69
341.158	451.69
341.386	453.69
341.614	455.69
341.842	472.69
342.07	463.69
342.298	457.69
342.526	468.69
342.754	451.69
342.981	456.69
343.209	435.69
343.437	459.69
343.665	462.69
343.893	527.69
344.12	526.69
344.348	510.69
344.576	475.69
344.804	497.69
345.031	485.69
345.259	504.69
345.487	472.69
345.714	465.69
345.942	457.69
346.17	428.69
346.397	443.69
346.625	444.69
346.853	441.69
347.08	445.69
347.308	451.69
347.535	444.69
347.763	448.69
347.99	439.69
348.218	438.69
348.445	454.69
348.673	444.69
348.9	452.69
349.128	432.69
349.355	449.69
349.583	404.69
349.81	433.69
350.037	424.69
350.265	430.69
350.492	446.69
350.72	450.69
350.947	461.69
351.174	442.69
351.402	452.69
351.629	418.69
351.856	412.69
352.083	450.69
352.311	446.69
352.538	460.69
352.765	457.69
352.992	435.69
353.22	424.69
353.447	438.69
353.674	412.69
353.901	410.69
354.128	444.69
354.355	428.69
354.583	401.69
354.81	427.69
355.037	432.69
355.264	421.69
355.491	434.69
355.718	439.69
355.945	435.69
356.172	427.69
356.399	422.69
356.626	402.69
356.853	424.69
357.08	436.69
357.307	427.69
357.534	411.69
357.761	419.69
357.988	414.69
358.215	428.69
358.441	432.69
358.668	416.69
358.895	435.69
359.122	440.69
359.349	428.69
359.576	456.69
359.802	460.69
360.029	486.69
360.256	478.69
360.483	448.69
360.709	434.69
360.936	449.69
361.163	438.69
361.39	438.69
361.616	424.69
361.843	428.69
362.07	434.69
362.296	424.69
362.523	454.69
362.749	445.69
362.976	455.69
363.203	421.69
363.429	442.69
363.656	408.69
363.882	412.69
364.109	436.69
364.335	442.69
364.562	423.69
364.788	439.69
365.015	427.69
365.241	429.69
365.468	435.69
365.694	429.69
365.92	412.69
366.147	427.69
366.373	424.69
366.599	402.69
366.826	430.69
367.052	420.69
367.278	424.69
367.505	445.69
367.731	432.69
367.957	425.69
368.184	432.69
368.41	424.69
368.636	423.69
368.862	459.69
369.089	451.69
369.315	423.69
369.541	425.69
369.767	434.69
369.993	421.69
370.219	441.69
370.445	442.69
370.672	435.69
370.898	425.69
371.124	424.69
371.35	414.69
371.576	429.69
371.802	430.69
372.028	440.69
372.254	440.69
372.48	436.69
372.706	435.69
372.932	430.69
373.158	440.69
373.384	416.69
373.61	445.69
373.835	453.69
374.061	454.69
374.287	422.69
374.513	449.69
374.739	467.69
374.965	442.69
375.191	449.69
375.416	464.69
375.642	461.69
375.868	440.69
376.094	429.69
376.319	428.69
376.545	445.69
376.771	447.69
376.997	446.69
377.222	452.69
377.448	443.69
377.674	428.69
377.899	436.69
378.125	428.69
378.35	447.69
378.576	426.69
378.802	432.69
379.027	422.69
379.253	443.69
379.478	457.69
379.704	433.69
379.929	443.69
380.155	461.69
380.38	425.69
380.606	431.69
380.831	456.69
381.057	446.69
381.282	428.69
381.507	437.69
381.733	446.69
381.958	450.69
382.184	443.69
382.409	447.69
382.634	466.69
382.86	457.69
383.085	476.69
383.31	462.69
383.535	465.69
383.761	460.69
383.986	476.69
384.211	457.69
384.436	473.69
384.662	487.69
384.887	490.69
385.112	469.69
385.337	494.69
385.562	498.69
385.787	494.69
386.013	504.69
386.238	510.69
386.463	517.69
386.688	494.69
386.913	498.69
387.138	499.69
387.363	498.69
387.588	489.69
387.813	472.69
388.038	497.69
388.263	484.69
388.488	476.69
388.713	504.69
388.938	487.69
389.163	496.69
389.387	498.69
389.612	478.69
389.837	510.69
390.062	480.69
390.287	482.69
390.512	487.69
390.736	497.69
390.961	520.69
391.186	488.69
391.411	493.69
391.636	505.69
391.86	497.69
392.085	524.69
392.31	537.69
392.534	526.69
392.759	550.69
392.984	514.69
393.208	496.69
393.433	491.69
393.658	504.69
393.882	508.69
394.107	521.69
394.331	503.69
394.556	506.69
394.78	491.69
395.005	541.69
395.229	498.69
395.454	511.69
395.678	536.69
395.903	529.69
396.127	539.69
396.352	535.69
396.576	538.69
396.801	477.69
397.025	528.69
397.249	523.69
397.474	546.69
397.698	534.69
397.922	561.69
398.147	562.69
398.371	568.69
398.595	586.69
398.82	565.69
399.044	578.69
399.268	614.69
399.492	686.69
399.717	723.69
399.941	784.69
400.165	754.69
400.389	766.69
400.613	668.69
400.837	628.69
401.062	599.69
401.286	586.69
401.51	570.69
401.734	593.69
401.958	588.69
402.182	596.69
402.406	600.69
402.63	596.69
402.854	605.69
403.078	603.69
403.302	607.69
403.526	619.69
403.75	635.69
403.974	601.69
404.198	624.69
404.422	632.69
404.645	629.69
404.869	608.69
405.093	648.69
405.317	674.69
405.541	715.69
405.765	643.69
405.988	618.69
406.212	652.69
406.436	641.69
406.66	660.69
406.883	678.69
407.107	683.69
407.331	709.69
407.555	798.69
407.778	802.69
408.002	742.69
408.226	689.69
408.449	673.69
408.673	672.69
408.896	684.69
409.12	722.69
409.344	670.69
409.567	628.69
409.791	619.69
410.014	601.69
410.238	605.69
410.461	604.69
410.685	616.69
410.908	621.69
411.132	649.69
411.355	681.69
411.578	669.69
411.802	608.69
412.025	601.69
412.249	614.69
412.472	629.69
412.695	654.69
412.919	643.69
413.142	610.69
413.365	608.69
413.589	566.69
413.812	579.69
414.035	587.69
414.258	557.69
414.482	565.69
414.705	562.69
414.928	592.69
415.151	564.69
415.374	582.69
415.597	585.69
415.821	580.69
416.044	570.69
416.267	566.69
416.49	583.69
416.713	575.69
416.936	577.69
417.159	553.69
417.382	557.69
417.605	572.69
417.828	589.69
418.051	593.69
418.274	585.69
418.497	551.69
418.72	567.69
418.943	582.69
419.166	606.69
419.389	613.69
419.611	624.69
419.834	608.69
420.057	603.69
420.28	600.69
420.503	624.69
420.726	591.69
420.948	595.69
421.171	638.69
421.394	664.69
421.617	589.69
421.839	600.69
422.062	603.69
422.285	610.69
422.507	651.69
422.73	724.69
422.953	700.69
423.175	638.69
423.398	640.69
423.621	610.69
423.843	645.69
424.066	631.69
424.288	603.69
424.511	644.69
424.733	684.69
424.956	750.69
425.178	734.69
425.401	710.69
425.623	729.69
425.846	657.69
426.068	604.69
426.291	613.69
426.513	594.69
426.735	612.69
426.958	643.69
427.18	716.69
427.402	818.69
427.625	872.69
427.847	748.69
428.069	657.69
428.292	610.69
428.514	602.69
428.736	580.69
428.958	577.69
429.181	560.69
429.403	594.69
429.625	562.69
429.847	596.69
430.069	631.69
430.292	625.69
430.514	550.69
430.736	569.69
430.958	525.69
431.18	534.69
431.402	518.69
431.624	524.69
431.846	530.69
432.068	554.69
432.29	548.69
432.512	527.69
432.734	546.69
432.956	560.69
433.178	543.69
433.4	554.69
433.622	552.69
433.844	539.69
434.066	541.69
434.287	543.69
434.509	551.69
434.731	560.69
434.953	571.69
435.175	587.69
435.397	596.69
435.618	634.69
435.84	619.69
436.062	718.69
436.284	804.69
436.505	652.69
436.727	589.69
436.949	586.69
437.17	572.69
437.392	568.69
437.614	572.69
437.835	612.69
438.057	660.69
438.278	737.69
438.5	754.69
438.721	800.69
438.943	779.69
439.165	652.69
439.386	585.69
439.608	612.69
439.829	605.69
440.05	596.69
440.272	649.69
440.493	596.69
440.715	576.69
440.936	542.69
441.158	586.69
441.379	572.69
441.6	588.69
441.822	611.69
442.043	648.69
442.264	704.69
442.486	746.69
442.707	654.69
442.928	630.69
443.149	625.69
443.371	645.69
443.592	660.69
443.813	772.69
444.034	833.69
444.255	690.69
444.476	645.69
444.698	656.69
444.919	658.69
445.14	755.69
445.361	688.69
445.582	659.69
445.803	705.69
446.024	758.69
446.245	778.69
446.466	704.69
446.687	629.69
446.908	586.69
447.129	549.69
447.35	558.69
447.571	554.69
447.792	561.69
448.013	545.69
448.234	554.69
448.455	601.69
448.675	726.69
448.896	781.69
449.117	690.69
449.338	655.69
449.559	718.69
449.779	838.69
450	685.69
450.221	599.69
450.442	534.69
450.662	539.69
450.883	538.69
451.104	549.69
451.324	532.69
451.545	517.69
451.766	499.69
451.986	508.69
452.207	487.69
452.428	504.69
452.648	491.69
452.869	492.69
453.089	496.69
453.31	491.69
453.53	493.69
453.751	471.69
453.971	508.69
454.192	481.69
454.412	480.69
454.633	450.69
454.853	485.69
455.073	487.69
455.294	528.69
455.514	567.69
455.734	548.69
455.955	495.69
456.175	479.69
456.395	455.69
456.616	460.69
456.836	464.69
457.056	479.69
457.276	462.69
457.497	515.69
457.717	451.69
457.937	478.69
458.157	475.69
458.377	490.69
458.598	514.69
458.818	548.69
459.038	613.69
459.258	631.69
459.478	566.69
459.698	537.69
459.918	565.69
460.138	542.69
460.358	559.69
460.578	574.69
460.798	578.69
461.018	572.69
461.238	561.69
461.458	587.69
461.678	558.69
461.898	591.69
462.118	568.69
462.338	615.69
462.558	599.69
462.777	617.69
462.997	644.69
463.217	679.69
463.437	671.69
463.657	654.69
463.876	642.69
464.096	621.69
464.316	620.69
464.536	634.69
464.755	620.69
464.975	614.69
465.195	632.69
465.414	640.69
465.634	594.69
465.854	587.69
466.073	528.69
466.293	534.69
466.512	525.69
466.732	532.69
466.951	499.69
467.171	490.69
467.391	506.69
467.61	507.69
467.829	521.69
468.049	542.69
468.268	505.69
468.488	505.69
468.707	493.69
468.927	482.69
469.146	492.69
469.365	505.69
469.585	516.69
469.804	519.69
470.023	524.69
470.243	541.69
470.462	506.69
470.681	520.69
470.901	521.69
471.12	531.69
471.339	525.69
471.558	533.69
471.777	509.69
471.997	512.69
472.216	528.69
472.435	526.69
472.654	517.69
472.873	508.69
473.092	498.69
473.311	525.69
473.53	509.69
473.749	512.69
473.968	545.69
474.187	631.69
474.406	633.69
474.625	583.69
474.844	548.69
475.063	530.69
475.282	516.69
475.501	504.69
475.72	528.69
475.939	517.69
476.158	530.69
476.377	537.69
476.596	532.69
476.814	532.69
477.033	529.69
477.252	528.69
477.471	582.69
477.69	550.69
477.908	550.69
478.127	591.69
478.346	566.69
478.564	586.69
478.783	610.69
479.002	597.69
479.22	619.69
479.439	620.69
479.658	624.69
479.876	624.69
480.095	646.69
480.313	671.69
480.532	642.69
480.751	645.69
480.969	657.69
481.188	664.69
481.406	672.69
481.624	656.69
481.843	625.69
482.061	605.69
482.28	602.69
482.498	580.69
482.717	599.69
482.935	571.69
483.153	593.69
483.372	590.69
483.59	601.69
483.808	581.69
484.027	588.69
484.245	621.69
484.463	587.69
484.681	607.69
484.9	608.69
485.118	620.69
485.336	626.69
485.554	611.69
485.772	626.69
485.99	617.69
486.209	650.69
486.427	610.69
486.645	637.69
486.863	642.69
487.081	615.69
487.299	621.69
487.517	632.69
487.735	624.69
487.953	629.69
488.171	640.69
488.389	643.69
488.607	634.69
488.825	624.69
489.043	642.69
489.261	631.69
489.479	658.69
489.696	640.69
489.914	634.69
490.132	674.69
490.35	674.69
490.568	645.69
490.786	658.69
491.003	681.69
491.221	689.69
491.439	690.69
491.657	691.69
491.874	724.69
492.092	705.69
492.31	707.69
492.527	698.69
492.745	718.69
492.963	719.69
493.18	719.69
493.398	738.69
493.615	747.69
493.833	775.69
494.05	740.69
494.268	752.69
494.485	759.69
494.703	729.69
494.92	764.69
495.138	744.69
495.355	721.69
495.573	734.69
495.79	772.69
496.008	716.69
496.225	734.69
496.442	749.69
496.66	744.69
496.877	766.69
497.094	757.69
497.312	745.69
497.529	771.69
497.746	778.69
497.963	800.69
498.181	827.69
498.398	864.69
498.615	886.69
498.832	906.69
499.049	944.69
499.267	971.69
499.484	1022.69
499.701	1084.69
499.918	1138.69
500.135	1179.69
500.352	1312.69
500.569	1342.69
500.786	1314.69
501.003	1300.69
501.22	1229.69
501.437	1139.69
501.654	1094.69
