Data from 1973.PennyLincolnUp.Lamp.En5.5.200Scan.071719.P1.Changed Mount._HRD10591_15-44-04-852.txt Node
Date: Thu Jul 18 15:44:04 EDT 2019
User: cochatt
Spectrometer: HR+D1059
Trigger mode: 1
Integration Time (sec): 1.000000E-1
Scans to average: 1
Electric dark correction enabled: true
Nonlinearity correction enabled: false
Boxcar width: 0
XAxis mode: Wavelengths
Number of Pixels in Spectrum: 2048
>>>>>Begin Spectral Data<<<<<
223.165	-11.75
223.4	-11.75
223.635	-11.75
223.869	-16.75
224.104	-33.75
224.338	-5.75
224.573	-21.75
224.808	-6.75
225.042	-4.75
225.277	0.25
225.511	3.25
225.746	3.25
225.98	-7.75
226.215	0.25
226.449	22.25
226.683	20.25
226.918	28.25
227.152	31.25
227.387	34.25
227.621	38.25
227.856	40.25
228.09	45.25
228.324	47.25
228.559	65.25
228.793	44.25
229.027	86.25
229.262	105.25
229.496	122.25
229.73	123.25
229.964	129.25
230.199	109.25
230.433	123.25
230.667	105.25
230.901	109.25
231.136	107.25
231.37	107.25
231.604	111.25
231.838	119.25
232.072	112.25
232.306	119.25
232.541	126.25
232.775	114.25
233.009	114.25
233.243	115.25
233.477	103.25
233.711	116.25
233.945	116.25
234.179	123.25
234.413	122.25
234.647	117.25
234.881	126.25
235.115	115.25
235.349	119.25
235.583	123.25
235.817	132.25
236.051	102.25
236.285	110.25
236.519	101.25
236.753	130.25
236.987	128.25
237.221	164.25
237.455	198.25
237.689	166.25
237.922	155.25
238.156	126.25
238.39	134.25
238.624	117.25
238.858	124.25
239.091	125.25
239.325	115.25
239.559	123.25
239.793	134.25
240.027	124.25
240.26	138.25
240.494	162.25
240.728	134.25
240.961	140.25
241.195	136.25
241.429	136.25
241.662	127.25
241.896	127.25
242.13	121.25
242.363	125.25
242.597	127.25
242.83	145.25
243.064	128.25
243.298	137.25
243.531	157.25
243.765	148.25
243.998	147.25
244.232	148.25
244.465	141.25
244.699	154.25
244.932	141.25
245.166	132.25
245.399	151.25
245.633	148.25
245.866	141.25
246.099	142.25
246.333	151.25
246.566	149.25
246.8	134.25
247.033	148.25
247.266	150.25
247.5	158.25
247.733	162.25
247.966	169.25
248.2	176.25
248.433	165.25
248.666	188.25
248.899	184.25
249.133	188.25
249.366	190.25
249.599	176.25
249.832	172.25
250.066	166.25
250.299	184.25
250.532	203.25
250.765	207.25
250.998	211.25
251.231	215.25
251.465	197.25
251.698	213.25
251.931	183.25
252.164	179.25
252.397	206.25
252.63	200.25
252.863	190.25
253.096	202.25
253.329	204.25
253.562	213.25
253.795	226.25
254.028	207.25
254.261	216.25
254.494	213.25
254.727	226.25
254.96	252.25
255.193	249.25
255.426	234.25
255.659	234.25
255.892	224.25
256.124	215.25
256.357	223.25
256.59	218.25
256.823	202.25
257.056	203.25
257.289	206.25
257.521	211.25
257.754	207.25
257.987	222.25
258.22	218.25
258.452	201.25
258.685	212.25
258.918	198.25
259.151	196.25
259.383	218.25
259.616	227.25
259.849	228.25
260.081	250.25
260.314	238.25
260.547	233.25
260.779	234.25
261.012	237.25
261.244	234.25
261.477	238.25
261.71	209.25
261.942	224.25
262.175	202.25
262.407	211.25
262.64	209.25
262.872	209.25
263.105	226.25
263.337	210.25
263.57	219.25
263.802	219.25
264.035	224.25
264.267	222.25
264.499	202.25
264.732	228.25
264.964	231.25
265.197	215.25
265.429	212.25
265.661	199.25
265.894	210.25
266.126	229.25
266.358	225.25
266.591	232.25
266.823	224.25
267.055	230.25
267.287	230.25
267.52	222.25
267.752	223.25
267.984	224.25
268.216	223.25
268.448	238.25
268.681	253.25
268.913	242.25
269.145	252.25
269.377	280.25
269.609	260.25
269.841	258.25
270.073	262.25
270.306	292.25
270.538	309.25
270.77	303.25
271.002	295.25
271.234	284.25
271.466	282.25
271.698	297.25
271.93	304.25
272.162	304.25
272.394	309.25
272.626	297.25
272.858	290.25
273.09	271.25
273.322	268.25
273.553	263.25
273.785	257.25
274.017	267.25
274.249	260.25
274.481	263.25
274.713	270.25
274.945	286.25
275.176	258.25
275.408	275.25
275.64	273.25
275.872	280.25
276.104	275.25
276.335	288.25
276.567	273.25
276.799	280.25
277.031	289.25
277.262	299.25
277.494	313.25
277.726	293.25
277.957	286.25
278.189	266.25
278.421	285.25
278.652	268.25
278.884	264.25
279.115	289.25
279.347	283.25
279.579	281.25
279.81	287.25
280.042	294.25
280.273	263.25
280.505	281.25
280.736	295.25
280.968	302.25
281.199	283.25
281.431	288.25
281.662	270.25
281.894	291.25
282.125	286.25
282.356	294.25
282.588	308.25
282.819	295.25
283.051	297.25
283.282	296.25
283.513	292.25
283.745	290.25
283.976	267.25
284.207	297.25
284.439	302.25
284.67	291.25
284.901	303.25
285.132	310.25
285.364	308.25
285.595	309.25
285.826	307.25
286.057	299.25
286.288	280.25
286.52	295.25
286.751	284.25
286.982	297.25
287.213	292.25
287.444	290.25
287.675	314.25
287.906	300.25
288.138	310.25
288.369	306.25
288.6	317.25
288.831	326.25
289.062	301.25
289.293	328.25
289.524	294.25
289.755	303.25
289.986	313.25
290.217	309.25
290.448	326.25
290.679	318.25
290.91	308.25
291.141	317.25
291.371	292.25
291.602	312.25
291.833	311.25
292.064	311.25
292.295	327.25
292.526	292.25
292.757	308.25
292.987	327.25
293.218	333.25
293.449	331.25
293.68	325.25
293.91	308.25
294.141	321.25
294.372	332.25
294.603	321.25
294.833	309.25
295.064	304.25
295.295	306.25
295.525	311.25
295.756	318.25
295.987	323.25
296.217	329.25
296.448	343.25
296.679	334.25
296.909	335.25
297.14	319.25
297.37	325.25
297.601	337.25
297.831	320.25
298.062	324.25
298.292	311.25
298.523	339.25
298.753	313.25
298.984	327.25
299.214	326.25
299.445	341.25
299.675	319.25
299.905	316.25
300.136	341.25
300.366	354.25
300.597	319.25
300.827	345.25
301.057	346.25
301.288	343.25
301.518	332.25
301.748	337.25
301.979	339.25
302.209	344.25
302.439	367.25
302.669	341.25
302.9	342.25
303.13	365.25
303.36	342.25
303.59	350.25
303.82	355.25
304.051	338.25
304.281	351.25
304.511	345.25
304.741	367.25
304.971	349.25
305.201	348.25
305.431	347.25
305.661	327.25
305.891	330.25
306.121	358.25
306.352	346.25
306.582	348.25
306.812	344.25
307.042	348.25
307.272	342.25
307.502	352.25
307.731	341.25
307.961	351.25
308.191	349.25
308.421	367.25
308.651	360.25
308.881	336.25
309.111	329.25
309.341	347.25
309.571	354.25
309.8	358.25
310.03	373.25
310.26	361.25
310.49	384.25
310.72	378.25
310.949	382.25
311.179	388.25
311.409	396.25
311.639	364.25
311.868	373.25
312.098	370.25
312.328	380.25
312.557	392.25
312.787	418.25
313.017	397.25
313.246	400.25
313.476	379.25
313.706	370.25
313.935	377.25
314.165	388.25
314.394	391.25
314.624	379.25
314.853	387.25
315.083	394.25
315.312	378.25
315.542	390.25
315.771	376.25
316.001	381.25
316.23	364.25
316.46	372.25
316.689	418.25
316.919	378.25
317.148	391.25
317.377	393.25
317.607	388.25
317.836	374.25
318.065	372.25
318.295	379.25
318.524	394.25
318.753	400.25
318.983	375.25
319.212	367.25
319.441	380.25
319.67	390.25
319.9	390.25
320.129	384.25
320.358	387.25
320.587	384.25
320.816	408.25
321.046	382.25
321.275	391.25
321.504	392.25
321.733	379.25
321.962	376.25
322.191	399.25
322.42	407.25
322.649	413.25
322.878	412.25
323.108	431.25
323.337	438.25
323.566	438.25
323.795	460.25
324.024	471.25
324.253	564.25
324.482	726.25
324.71	1049.25
324.939	1472.25
325.168	1280.25
325.397	703.25
325.626	522.25
325.855	478.25
326.084	450.25
326.313	428.25
326.542	447.25
326.77	467.25
326.999	538.25
327.228	694.25
327.457	941.25
327.686	1115.25
327.914	788.25
328.143	577.25
328.372	544.25
328.6	500.25
328.829	497.25
329.058	496.25
329.287	505.25
329.515	479.25
329.744	466.25
329.972	486.25
330.201	504.25
330.43	493.25
330.658	494.25
330.887	524.25
331.115	521.25
331.344	471.25
331.572	487.25
331.801	461.25
332.03	472.25
332.258	484.25
332.486	469.25
332.715	462.25
332.943	478.25
333.172	482.25
333.4	502.25
333.629	519.25
333.857	526.25
334.085	495.25
334.314	541.25
334.542	542.25
334.771	542.25
334.999	514.25
335.227	496.25
335.455	487.25
335.684	473.25
335.912	487.25
336.14	460.25
336.369	464.25
336.597	472.25
336.825	471.25
337.053	462.25
337.281	465.25
337.51	458.25
337.738	471.25
337.966	456.25
338.194	463.25
338.422	454.25
338.65	446.25
338.878	436.25
339.106	435.25
339.334	439.25
339.562	417.25
339.79	414.25
340.018	446.25
340.246	422.25
340.474	439.25
340.702	428.25
340.93	448.25
341.158	439.25
341.386	406.25
341.614	429.25
341.842	454.25
342.07	425.25
342.298	424.25
342.526	419.25
342.754	419.25
342.981	419.25
343.209	420.25
343.437	422.25
343.665	448.25
343.893	467.25
344.12	483.25
344.348	464.25
344.576	454.25
344.804	462.25
345.031	463.25
345.259	449.25
345.487	444.25
345.714	437.25
345.942	429.25
346.17	422.25
346.397	437.25
346.625	429.25
346.853	408.25
347.08	414.25
347.308	410.25
347.535	409.25
347.763	404.25
347.99	410.25
348.218	437.25
348.445	430.25
348.673	436.25
348.9	427.25
349.128	407.25
349.355	414.25
349.583	403.25
349.81	398.25
350.037	398.25
350.265	420.25
350.492	391.25
350.72	415.25
350.947	418.25
351.174	404.25
351.402	416.25
351.629	424.25
351.856	428.25
352.083	418.25
352.311	414.25
352.538	404.25
352.765	420.25
352.992	400.25
353.22	402.25
353.447	428.25
353.674	407.25
353.901	400.25
354.128	399.25
354.355	395.25
354.583	390.25
354.81	420.25
355.037	426.25
355.264	398.25
355.491	385.25
355.718	401.25
355.945	393.25
356.172	400.25
356.399	399.25
356.626	401.25
356.853	375.25
357.08	406.25
357.307	395.25
357.534	396.25
357.761	413.25
357.988	400.25
358.215	385.25
358.441	400.25
358.668	400.25
358.895	400.25
359.122	395.25
359.349	409.25
359.576	410.25
359.802	415.25
360.029	440.25
360.256	430.25
360.483	427.25
360.709	420.25
360.936	432.25
361.163	413.25
361.39	416.25
361.616	414.25
361.843	405.25
362.07	403.25
362.296	424.25
362.523	414.25
362.749	415.25
362.976	397.25
363.203	406.25
363.429	392.25
363.656	408.25
363.882	408.25
364.109	415.25
364.335	395.25
364.562	398.25
364.788	387.25
365.015	391.25
365.241	414.25
365.468	419.25
365.694	393.25
365.92	392.25
366.147	390.25
366.373	412.25
366.599	404.25
366.826	388.25
367.052	389.25
367.278	408.25
367.505	400.25
367.731	386.25
367.957	414.25
368.184	393.25
368.41	404.25
368.636	393.25
368.862	420.25
369.089	405.25
369.315	403.25
369.541	399.25
369.767	403.25
369.993	391.25
370.219	400.25
370.445	424.25
370.672	406.25
370.898	397.25
371.124	387.25
371.35	412.25
371.576	413.25
371.802	387.25
372.028	420.25
372.254	399.25
372.48	408.25
372.706	425.25
372.932	425.25
373.158	439.25
373.384	440.25
373.61	426.25
373.835	422.25
374.061	414.25
374.287	426.25
374.513	426.25
374.739	428.25
374.965	429.25
375.191	430.25
375.416	426.25
375.642	430.25
375.868	418.25
376.094	423.25
376.319	411.25
376.545	406.25
376.771	409.25
376.997	407.25
377.222	404.25
377.448	397.25
377.674	420.25
377.899	412.25
378.125	407.25
378.35	432.25
378.576	427.25
378.802	405.25
379.027	399.25
379.253	400.25
379.478	402.25
379.704	400.25
379.929	399.25
380.155	395.25
380.38	413.25
380.606	415.25
380.831	430.25
381.057	414.25
381.282	395.25
381.507	418.25
381.733	423.25
381.958	410.25
382.184	439.25
382.409	416.25
382.634	414.25
382.86	401.25
383.085	431.25
383.31	436.25
383.535	432.25
383.761	428.25
383.986	446.25
384.211	457.25
384.436	453.25
384.662	470.25
384.887	458.25
385.112	442.25
385.337	447.25
385.562	436.25
385.787	444.25
386.013	481.25
386.238	467.25
386.463	458.25
386.688	489.25
386.913	471.25
387.138	459.25
387.363	473.25
387.588	452.25
387.813	442.25
388.038	476.25
388.263	471.25
388.488	482.25
388.713	458.25
388.938	457.25
389.163	464.25
389.387	458.25
389.612	435.25
389.837	458.25
390.062	455.25
390.287	458.25
390.512	442.25
390.736	457.25
390.961	469.25
391.186	480.25
391.411	466.25
391.636	462.25
391.86	487.25
392.085	482.25
392.31	502.25
392.534	476.25
392.759	484.25
392.984	447.25
393.208	470.25
393.433	463.25
393.658	472.25
393.882	485.25
394.107	457.25
394.331	470.25
394.556	460.25
394.78	477.25
395.005	468.25
395.229	483.25
395.454	487.25
395.678	488.25
395.903	498.25
396.127	511.25
396.352	499.25
396.576	501.25
396.801	477.25
397.025	498.25
397.249	502.25
397.474	509.25
397.698	519.25
397.922	498.25
398.147	511.25
398.371	520.25
398.595	514.25
398.82	525.25
399.044	564.25
399.268	553.25
399.492	650.25
399.717	683.25
399.941	713.25
400.165	667.25
400.389	677.25
400.613	609.25
400.837	579.25
401.062	551.25
401.286	548.25
401.51	551.25
401.734	538.25
401.958	541.25
402.182	539.25
402.406	562.25
402.63	542.25
402.854	558.25
403.078	564.25
403.302	571.25
403.526	591.25
403.75	568.25
403.974	566.25
404.198	574.25
404.422	601.25
404.645	568.25
404.869	562.25
405.093	602.25
405.317	629.25
405.541	653.25
405.765	621.25
405.988	564.25
406.212	582.25
406.436	611.25
406.66	614.25
406.883	596.25
407.107	618.25
407.331	679.25
407.555	730.25
407.778	725.25
408.002	677.25
408.226	651.25
408.449	623.25
408.673	593.25
408.896	632.25
409.12	655.25
409.344	625.25
409.567	583.25
409.791	568.25
410.014	543.25
410.238	573.25
410.461	566.25
410.685	550.25
410.908	574.25
411.132	616.25
411.355	628.25
411.578	608.25
411.802	557.25
412.025	546.25
412.249	588.25
412.472	572.25
412.695	608.25
412.919	599.25
413.142	568.25
413.365	551.25
413.589	544.25
413.812	547.25
414.035	515.25
414.258	540.25
414.482	547.25
414.705	537.25
414.928	535.25
415.151	511.25
415.374	517.25
415.597	522.25
415.821	538.25
416.044	534.25
416.267	511.25
416.49	518.25
416.713	494.25
416.936	522.25
417.159	528.25
417.382	521.25
417.605	518.25
417.828	529.25
418.051	546.25
418.274	539.25
418.497	507.25
418.72	531.25
418.943	540.25
419.166	563.25
419.389	567.25
419.611	557.25
419.834	562.25
420.057	566.25
420.28	556.25
420.503	568.25
420.726	570.25
420.948	565.25
421.171	564.25
421.394	603.25
421.617	576.25
421.839	542.25
422.062	546.25
422.285	531.25
422.507	582.25
422.73	671.25
422.953	649.25
423.175	578.25
423.398	588.25
423.621	579.25
423.843	575.25
424.066	596.25
424.288	597.25
424.511	578.25
424.733	654.25
424.956	695.25
425.178	671.25
425.401	675.25
425.623	694.25
425.846	586.25
426.068	549.25
426.291	572.25
426.513	565.25
426.735	570.25
426.958	599.25
427.18	653.25
427.402	769.25
427.625	820.25
427.847	697.25
428.069	618.25
428.292	582.25
428.514	550.25
428.736	538.25
428.958	522.25
429.181	516.25
429.403	512.25
429.625	515.25
429.847	542.25
430.069	595.25
430.292	605.25
430.514	526.25
430.736	536.25
430.958	510.25
431.18	491.25
431.402	519.25
431.624	492.25
431.846	492.25
432.068	500.25
432.29	480.25
432.512	497.25
432.734	512.25
432.956	522.25
433.178	507.25
433.4	513.25
433.622	493.25
433.844	472.25
434.066	500.25
434.287	491.25
434.509	521.25
434.731	518.25
434.953	552.25
435.175	555.25
435.397	572.25
435.618	556.25
435.84	609.25
436.062	662.25
436.284	735.25
436.505	588.25
436.727	560.25
436.949	519.25
437.17	523.25
437.392	527.25
437.614	525.25
437.835	532.25
438.057	630.25
438.278	688.25
438.5	694.25
438.721	789.25
438.943	730.25
439.165	592.25
439.386	556.25
439.608	550.25
439.829	559.25
440.05	556.25
440.272	598.25
440.493	585.25
440.715	534.25
440.936	504.25
441.158	522.25
441.379	535.25
441.6	560.25
441.822	569.25
442.043	574.25
442.264	667.25
442.486	703.25
442.707	596.25
442.928	553.25
443.149	592.25
443.371	592.25
443.592	632.25
443.813	707.25
444.034	770.25
444.255	671.25
444.476	601.25
444.698	602.25
444.919	606.25
445.14	677.25
445.361	650.25
445.582	618.25
445.803	635.25
446.024	699.25
446.245	710.25
446.466	662.25
446.687	583.25
446.908	549.25
447.129	521.25
447.35	522.25
447.571	508.25
447.792	514.25
448.013	511.25
448.234	514.25
448.455	553.25
448.675	642.25
448.896	737.25
449.117	645.25
449.338	615.25
449.559	700.25
449.779	777.25
450	651.25
450.221	531.25
450.442	480.25
450.662	493.25
450.883	504.25
451.104	494.25
451.324	484.25
451.545	482.25
451.766	469.25
451.986	468.25
452.207	451.25
452.428	459.25
452.648	456.25
452.869	466.25
453.089	463.25
453.31	475.25
453.53	448.25
453.751	458.25
453.971	450.25
454.192	468.25
454.412	445.25
454.633	449.25
454.853	455.25
455.073	452.25
455.294	462.25
455.514	525.25
455.734	522.25
455.955	448.25
456.175	442.25
456.395	448.25
456.616	432.25
456.836	434.25
457.056	434.25
457.276	421.25
457.497	454.25
457.717	440.25
457.937	433.25
458.157	439.25
458.377	450.25
458.598	460.25
458.818	504.25
459.038	574.25
459.258	584.25
459.478	540.25
459.698	506.25
459.918	494.25
460.138	526.25
460.358	554.25
460.578	534.25
460.798	538.25
461.018	536.25
461.238	521.25
461.458	542.25
461.678	551.25
461.898	550.25
462.118	536.25
462.338	552.25
462.558	568.25
462.777	555.25
462.997	567.25
463.217	602.25
463.437	614.25
463.657	613.25
463.876	581.25
464.096	610.25
464.316	580.25
464.536	579.25
464.755	581.25
464.975	557.25
465.195	587.25
465.414	596.25
465.634	556.25
465.854	531.25
466.073	496.25
466.293	490.25
466.512	485.25
466.732	473.25
466.951	493.25
467.171	477.25
467.391	486.25
467.61	469.25
467.829	468.25
468.049	485.25
468.268	445.25
468.488	472.25
468.707	457.25
468.927	458.25
469.146	449.25
469.365	450.25
469.585	471.25
469.804	487.25
470.023	487.25
470.243	492.25
470.462	487.25
470.681	504.25
470.901	498.25
471.12	499.25
471.339	508.25
471.558	495.25
471.777	483.25
471.997	477.25
472.216	488.25
472.435	487.25
472.654	482.25
472.873	489.25
473.092	473.25
473.311	478.25
473.53	467.25
473.749	468.25
473.968	507.25
474.187	570.25
474.406	607.25
474.625	515.25
474.844	483.25
475.063	479.25
475.282	510.25
475.501	473.25
475.72	482.25
475.939	492.25
476.158	505.25
476.377	478.25
476.596	495.25
476.814	478.25
477.033	467.25
477.252	495.25
477.471	502.25
477.69	532.25
477.908	521.25
478.127	539.25
478.346	548.25
478.564	559.25
478.783	535.25
479.002	543.25
479.22	557.25
479.439	579.25
479.658	590.25
479.876	583.25
480.095	577.25
480.313	615.25
480.532	612.25
480.751	599.25
480.969	590.25
481.188	624.25
481.406	636.25
481.624	603.25
481.843	574.25
482.061	554.25
482.28	557.25
482.498	567.25
482.717	534.25
482.935	540.25
483.153	532.25
483.372	533.25
483.59	566.25
483.808	559.25
484.027	556.25
484.245	554.25
484.463	539.25
484.681	552.25
484.9	545.25
485.118	553.25
485.336	578.25
485.554	573.25
485.772	581.25
485.99	580.25
486.209	568.25
486.427	569.25
486.645	602.25
486.863	581.25
487.081	585.25
487.299	600.25
487.517	591.25
487.735	580.25
487.953	587.25
488.171	608.25
488.389	600.25
488.607	588.25
488.825	592.25
489.043	608.25
489.261	592.25
489.479	580.25
489.696	596.25
489.914	600.25
490.132	585.25
490.35	590.25
490.568	613.25
490.786	646.25
491.003	637.25
491.221	645.25
491.439	646.25
491.657	620.25
491.874	647.25
492.092	683.25
492.31	663.25
492.527	646.25
492.745	658.25
492.963	660.25
493.18	687.25
493.398	660.25
493.615	682.25
493.833	691.25
494.05	694.25
494.268	668.25
494.485	682.25
494.703	675.25
494.92	681.25
495.138	677.25
495.355	660.25
495.573	693.25
495.79	670.25
496.008	672.25
496.225	671.25
496.442	679.25
496.66	705.25
496.877	674.25
497.094	697.25
497.312	704.25
497.529	706.25
497.746	733.25
497.963	739.25
498.181	732.25
498.398	774.25
498.615	794.25
498.832	802.25
499.049	842.25
499.267	869.25
499.484	927.25
499.701	964.25
499.918	1058.25
500.135	1126.25
500.352	1184.25
500.569	1208.25
500.786	1246.25
501.003	1198.25
501.22	1119.25
501.437	1068.25
501.654	1039.25
