Data from 1973.PennyLincolnUp.Lamp.En5.5.200Scan.071719.P1.Changed Mount._HRD10591_15-45-02-852.txt Node
Date: Thu Jul 18 15:45:02 EDT 2019
User: cochatt
Spectrometer: HR+D1059
Trigger mode: 1
Integration Time (sec): 1.000000E-1
Scans to average: 1
Electric dark correction enabled: true
Nonlinearity correction enabled: false
Boxcar width: 0
XAxis mode: Wavelengths
Number of Pixels in Spectrum: 2048
>>>>>Begin Spectral Data<<<<<
223.165	-27.69
223.4	-27.69
223.635	-27.69
223.869	-21.69
224.104	-8.69
224.338	-5.69
224.573	-0.69
224.808	-11.69
225.042	-7.69
225.277	-5.69
225.511	1.31
225.746	-14.69
225.98	-13.69
226.215	15.31
226.449	17.31
226.683	20.31
226.918	27.31
227.152	36.31
227.387	32.31
227.621	38.31
227.856	43.31
228.09	39.31
228.324	53.31
228.559	60.31
228.793	66.31
229.027	97.31
229.262	113.31
229.496	109.31
229.73	121.31
229.964	123.31
230.199	111.31
230.433	111.31
230.667	113.31
230.901	102.31
231.136	100.31
231.37	111.31
231.604	106.31
231.838	112.31
232.072	119.31
232.306	109.31
232.541	121.31
232.775	105.31
233.009	120.31
233.243	121.31
233.477	123.31
233.711	107.31
233.945	121.31
234.179	125.31
234.413	106.31
234.647	113.31
234.881	120.31
235.115	127.31
235.349	114.31
235.583	115.31
235.817	114.31
236.051	113.31
236.285	114.31
236.519	113.31
236.753	119.31
236.987	125.31
237.221	150.31
237.455	194.31
237.689	177.31
237.922	128.31
238.156	121.31
238.39	129.31
238.624	137.31
238.858	130.31
239.091	117.31
239.325	119.31
239.559	134.31
239.793	137.31
240.027	125.31
240.26	125.31
240.494	141.31
240.728	159.31
240.961	137.31
241.195	152.31
241.429	134.31
241.662	132.31
241.896	134.31
242.13	126.31
242.363	124.31
242.597	134.31
242.83	139.31
243.064	143.31
243.298	144.31
243.531	133.31
243.765	141.31
243.998	140.31
244.232	153.31
244.465	143.31
244.699	153.31
244.932	165.31
245.166	153.31
245.399	150.31
245.633	153.31
245.866	133.31
246.099	149.31
246.333	155.31
246.566	142.31
246.8	165.31
247.033	152.31
247.266	158.31
247.5	153.31
247.733	164.31
247.966	172.31
248.2	189.31
248.433	166.31
248.666	173.31
248.899	189.31
249.133	191.31
249.366	194.31
249.599	193.31
249.832	198.31
250.066	184.31
250.299	174.31
250.532	182.31
250.765	207.31
250.998	207.31
251.231	218.31
251.465	193.31
251.698	207.31
251.931	202.31
252.164	203.31
252.397	201.31
252.63	218.31
252.863	188.31
253.096	211.31
253.329	231.31
253.562	239.31
253.795	235.31
254.028	206.31
254.261	205.31
254.494	222.31
254.727	244.31
254.96	257.31
255.193	249.31
255.426	243.31
255.659	212.31
255.892	225.31
256.124	233.31
256.357	221.31
256.59	202.31
256.823	231.31
257.056	218.31
257.289	204.31
257.521	200.31
257.754	201.31
257.987	202.31
258.22	225.31
258.452	210.31
258.685	214.31
258.918	214.31
259.151	206.31
259.383	228.31
259.616	232.31
259.849	221.31
260.081	234.31
260.314	267.31
260.547	242.31
260.779	246.31
261.012	236.31
261.244	229.31
261.477	228.31
261.71	225.31
261.942	227.31
262.175	225.31
262.407	219.31
262.64	223.31
262.872	227.31
263.105	221.31
263.337	216.31
263.57	234.31
263.802	230.31
264.035	220.31
264.267	224.31
264.499	211.31
264.732	219.31
264.964	229.31
265.197	227.31
265.429	234.31
265.661	227.31
265.894	230.31
266.126	245.31
266.358	219.31
266.591	232.31
266.823	231.31
267.055	239.31
267.287	243.31
267.52	230.31
267.752	229.31
267.984	236.31
268.216	229.31
268.448	234.31
268.681	242.31
268.913	249.31
269.145	248.31
269.377	290.31
269.609	281.31
269.841	271.31
270.073	278.31
270.306	302.31
270.538	314.31
270.77	315.31
271.002	300.31
271.234	289.31
271.466	298.31
271.698	288.31
271.93	296.31
272.162	324.31
272.394	328.31
272.626	300.31
272.858	292.31
273.09	294.31
273.322	271.31
273.553	278.31
273.785	278.31
274.017	264.31
274.249	262.31
274.481	264.31
274.713	274.31
274.945	286.31
275.176	258.31
275.408	275.31
275.64	279.31
275.872	280.31
276.104	269.31
276.335	273.31
276.567	267.31
276.799	298.31
277.031	313.31
277.262	323.31
277.494	312.31
277.726	320.31
277.957	315.31
278.189	307.31
278.421	295.31
278.652	267.31
278.884	281.31
279.115	290.31
279.347	287.31
279.579	291.31
279.81	286.31
280.042	276.31
280.273	306.31
280.505	282.31
280.736	310.31
280.968	273.31
281.199	299.31
281.431	302.31
281.662	304.31
281.894	299.31
282.125	293.31
282.356	298.31
282.588	329.31
282.819	315.31
283.051	309.31
283.282	289.31
283.513	309.31
283.745	285.31
283.976	301.31
284.207	306.31
284.439	296.31
284.67	322.31
284.901	314.31
285.132	323.31
285.364	299.31
285.595	291.31
285.826	299.31
286.057	325.31
286.288	295.31
286.52	283.31
286.751	301.31
286.982	302.31
287.213	294.31
287.444	306.31
287.675	315.31
287.906	331.31
288.138	307.31
288.369	321.31
288.6	319.31
288.831	322.31
289.062	319.31
289.293	313.31
289.524	297.31
289.755	335.31
289.986	324.31
290.217	321.31
290.448	326.31
290.679	333.31
290.91	313.31
291.141	328.31
291.371	313.31
291.602	310.31
291.833	300.31
292.064	313.31
292.295	313.31
292.526	331.31
292.757	329.31
292.987	328.31
293.218	321.31
293.449	344.31
293.68	315.31
293.91	309.31
294.141	311.31
294.372	313.31
294.603	332.31
294.833	328.31
295.064	334.31
295.295	325.31
295.525	319.31
295.756	313.31
295.987	335.31
296.217	340.31
296.448	344.31
296.679	339.31
296.909	330.31
297.14	322.31
297.37	331.31
297.601	337.31
297.831	349.31
298.062	327.31
298.292	330.31
298.523	334.31
298.753	342.31
298.984	330.31
299.214	333.31
299.445	334.31
299.675	333.31
299.905	339.31
300.136	336.31
300.366	346.31
300.597	351.31
300.827	344.31
301.057	366.31
301.288	360.31
301.518	345.31
301.748	370.31
301.979	341.31
302.209	362.31
302.439	348.31
302.669	377.31
302.9	354.31
303.13	343.31
303.36	350.31
303.59	350.31
303.82	369.31
304.051	360.31
304.281	383.31
304.511	353.31
304.741	357.31
304.971	359.31
305.201	349.31
305.431	369.31
305.661	362.31
305.891	374.31
306.121	349.31
306.352	362.31
306.582	330.31
306.812	351.31
307.042	377.31
307.272	373.31
307.502	339.31
307.731	356.31
307.961	367.31
308.191	359.31
308.421	375.31
308.651	347.31
308.881	359.31
309.111	379.31
309.341	352.31
309.571	372.31
309.8	391.31
310.03	392.31
310.26	377.31
310.49	399.31
310.72	395.31
310.949	371.31
311.179	412.31
311.409	399.31
311.639	387.31
311.868	389.31
312.098	396.31
312.328	373.31
312.557	406.31
312.787	407.31
313.017	420.31
313.246	392.31
313.476	393.31
313.706	400.31
313.935	387.31
314.165	411.31
314.394	415.31
314.624	403.31
314.853	414.31
315.083	397.31
315.312	412.31
315.542	392.31
315.771	381.31
316.001	371.31
316.23	379.31
316.46	383.31
316.689	393.31
316.919	395.31
317.148	416.31
317.377	407.31
317.607	408.31
317.836	385.31
318.065	396.31
318.295	403.31
318.524	393.31
318.753	399.31
318.983	404.31
319.212	390.31
319.441	397.31
319.67	417.31
319.9	397.31
320.129	397.31
320.358	412.31
320.587	401.31
320.816	393.31
321.046	410.31
321.275	391.31
321.504	396.31
321.733	405.31
321.962	411.31
322.191	421.31
322.42	424.31
322.649	422.31
322.878	430.31
323.108	448.31
323.337	457.31
323.566	463.31
323.795	490.31
324.024	494.31
324.253	586.31
324.482	711.31
324.71	1031.31
324.939	1469.31
325.168	1311.31
325.397	711.31
325.626	562.31
325.855	490.31
326.084	468.31
326.313	464.31
326.542	488.31
326.77	514.31
326.999	573.31
327.228	678.31
327.457	927.31
327.686	1146.31
327.914	809.31
328.143	581.31
328.372	546.31
328.6	483.31
328.829	498.31
329.058	527.31
329.287	531.31
329.515	503.31
329.744	470.31
329.972	485.31
330.201	527.31
330.43	513.31
330.658	532.31
330.887	569.31
331.115	531.31
331.344	524.31
331.572	497.31
331.801	483.31
332.03	485.31
332.258	478.31
332.486	470.31
332.715	472.31
332.943	476.31
333.172	482.31
333.4	512.31
333.629	491.31
333.857	537.31
334.085	514.31
334.314	528.31
334.542	549.31
334.771	578.31
334.999	508.31
335.227	521.31
335.455	501.31
335.684	494.31
335.912	486.31
336.14	496.31
336.369	490.31
336.597	486.31
336.825	489.31
337.053	466.31
337.281	470.31
337.51	458.31
337.738	459.31
337.966	459.31
338.194	442.31
338.422	459.31
338.65	467.31
338.878	452.31
339.106	450.31
339.334	470.31
339.562	461.31
339.79	451.31
340.018	445.31
340.246	452.31
340.474	466.31
340.702	459.31
340.93	441.31
341.158	457.31
341.386	448.31
341.614	457.31
341.842	450.31
342.07	448.31
342.298	456.31
342.526	459.31
342.754	433.31
342.981	451.31
343.209	436.31
343.437	439.31
343.665	483.31
343.893	467.31
344.12	506.31
344.348	498.31
344.576	477.31
344.804	471.31
345.031	457.31
345.259	453.31
345.487	456.31
345.714	450.31
345.942	441.31
346.17	443.31
346.397	426.31
346.625	427.31
346.853	445.31
347.08	433.31
347.308	427.31
347.535	430.31
347.763	410.31
347.99	414.31
348.218	433.31
348.445	436.31
348.673	431.31
348.9	412.31
349.128	420.31
349.355	431.31
349.583	419.31
349.81	411.31
350.037	410.31
350.265	418.31
350.492	439.31
350.72	409.31
350.947	423.31
351.174	423.31
351.402	435.31
351.629	426.31
351.856	413.31
352.083	429.31
352.311	419.31
352.538	458.31
352.765	416.31
352.992	433.31
353.22	424.31
353.447	422.31
353.674	406.31
353.901	405.31
354.128	404.31
354.355	395.31
354.583	401.31
354.81	410.31
355.037	408.31
355.264	411.31
355.491	440.31
355.718	419.31
355.945	405.31
356.172	393.31
356.399	405.31
356.626	417.31
356.853	409.31
357.08	405.31
357.307	419.31
357.534	418.31
357.761	421.31
357.988	381.31
358.215	401.31
358.441	417.31
358.668	405.31
358.895	414.31
359.122	399.31
359.349	427.31
359.576	424.31
359.802	432.31
360.029	423.31
360.256	441.31
360.483	445.31
360.709	430.31
360.936	447.31
361.163	410.31
361.39	423.31
361.616	424.31
361.843	422.31
362.07	442.31
362.296	429.31
362.523	407.31
362.749	426.31
362.976	408.31
363.203	430.31
363.429	399.31
363.656	413.31
363.882	414.31
364.109	406.31
364.335	427.31
364.562	407.31
364.788	409.31
365.015	398.31
365.241	419.31
365.468	400.31
365.694	423.31
365.92	400.31
366.147	417.31
366.373	403.31
366.599	419.31
366.826	431.31
367.052	397.31
367.278	412.31
367.505	405.31
367.731	417.31
367.957	410.31
368.184	401.31
368.41	408.31
368.636	424.31
368.862	436.31
369.089	417.31
369.315	413.31
369.541	422.31
369.767	414.31
369.993	403.31
370.219	400.31
370.445	418.31
370.672	412.31
370.898	403.31
371.124	418.31
371.35	422.31
371.576	435.31
371.802	415.31
372.028	418.31
372.254	417.31
372.48	410.31
372.706	441.31
372.932	440.31
373.158	412.31
373.384	445.31
373.61	443.31
373.835	426.31
374.061	426.31
374.287	430.31
374.513	426.31
374.739	436.31
374.965	449.31
375.191	451.31
375.416	456.31
375.642	444.31
375.868	425.31
376.094	435.31
376.319	415.31
376.545	407.31
376.771	445.31
376.997	445.31
377.222	412.31
377.448	429.31
377.674	423.31
377.899	431.31
378.125	443.31
378.35	425.31
378.576	418.31
378.802	415.31
379.027	407.31
379.253	422.31
379.478	419.31
379.704	397.31
379.929	426.31
380.155	431.31
380.38	417.31
380.606	392.31
380.831	427.31
381.057	410.31
381.282	428.31
381.507	434.31
381.733	434.31
381.958	435.31
382.184	423.31
382.409	422.31
382.634	430.31
382.86	433.31
383.085	431.31
383.31	441.31
383.535	459.31
383.761	444.31
383.986	449.31
384.211	456.31
384.436	471.31
384.662	479.31
384.887	462.31
385.112	456.31
385.337	458.31
385.562	497.31
385.787	474.31
386.013	479.31
386.238	495.31
386.463	477.31
386.688	505.31
386.913	469.31
387.138	457.31
387.363	476.31
387.588	475.31
387.813	479.31
388.038	478.31
388.263	461.31
388.488	478.31
388.713	469.31
388.938	496.31
389.163	490.31
389.387	479.31
389.612	464.31
389.837	494.31
390.062	475.31
390.287	474.31
390.512	481.31
390.736	463.31
390.961	491.31
391.186	466.31
391.411	494.31
391.636	496.31
391.86	489.31
392.085	525.31
392.31	494.31
392.534	494.31
392.759	499.31
392.984	473.31
393.208	476.31
393.433	492.31
393.658	475.31
393.882	473.31
394.107	477.31
394.331	490.31
394.556	497.31
394.78	489.31
395.005	507.31
395.229	512.31
395.454	513.31
395.678	527.31
395.903	527.31
396.127	520.31
396.352	526.31
396.576	518.31
396.801	493.31
397.025	504.31
397.249	519.31
397.474	499.31
397.698	515.31
397.922	551.31
398.147	501.31
398.371	532.31
398.595	545.31
398.82	574.31
399.044	595.31
399.268	611.31
399.492	646.31
399.717	716.31
399.941	716.31
400.165	709.31
400.389	712.31
400.613	667.31
400.837	606.31
401.062	586.31
401.286	552.31
401.51	563.31
401.734	569.31
401.958	554.31
402.182	576.31
402.406	567.31
402.63	573.31
402.854	595.31
403.078	596.31
403.302	592.31
403.526	587.31
403.75	574.31
403.974	596.31
404.198	596.31
404.422	601.31
404.645	594.31
404.869	597.31
405.093	645.31
405.317	649.31
405.541	673.31
405.765	632.31
405.988	612.31
406.212	621.31
406.436	622.31
406.66	638.31
406.883	633.31
407.107	632.31
407.331	710.31
407.555	717.31
407.778	737.31
408.002	711.31
408.226	648.31
408.449	632.31
408.673	639.31
408.896	664.31
409.12	681.31
409.344	660.31
409.567	606.31
409.791	584.31
410.014	579.31
410.238	597.31
410.461	573.31
410.685	589.31
410.908	615.31
411.132	626.31
411.355	633.31
411.578	637.31
411.802	577.31
412.025	569.31
412.249	574.31
412.472	605.31
412.695	639.31
412.919	622.31
413.142	587.31
413.365	540.31
413.589	565.31
413.812	566.31
414.035	554.31
414.258	561.31
414.482	549.31
414.705	555.31
414.928	548.31
415.151	545.31
415.374	532.31
415.597	538.31
415.821	563.31
416.044	541.31
416.267	544.31
416.49	545.31
416.713	541.31
416.936	551.31
417.159	565.31
417.382	547.31
417.605	550.31
417.828	567.31
418.051	561.31
418.274	569.31
418.497	548.31
418.72	551.31
418.943	543.31
419.166	594.31
419.389	616.31
419.611	586.31
419.834	565.31
420.057	575.31
420.28	589.31
420.503	553.31
420.726	553.31
420.948	576.31
421.171	601.31
421.394	631.31
421.617	585.31
421.839	569.31
422.062	556.31
422.285	566.31
422.507	616.31
422.73	693.31
422.953	664.31
423.175	605.31
423.398	593.31
423.621	593.31
423.843	606.31
424.066	611.31
424.288	605.31
424.511	619.31
424.733	679.31
424.956	683.31
425.178	681.31
425.401	669.31
425.623	706.31
425.846	611.31
426.068	553.31
426.291	583.31
426.513	566.31
426.735	568.31
426.958	648.31
427.18	695.31
427.402	764.31
427.625	854.31
427.847	722.31
428.069	626.31
428.292	591.31
428.514	580.31
428.736	569.31
428.958	554.31
429.181	533.31
429.403	547.31
429.625	547.31
429.847	558.31
430.069	618.31
430.292	603.31
430.514	542.31
430.736	533.31
430.958	527.31
431.18	517.31
431.402	507.31
431.624	516.31
431.846	523.31
432.068	514.31
432.29	523.31
432.512	524.31
432.734	529.31
432.956	530.31
433.178	531.31
433.4	535.31
433.622	530.31
433.844	539.31
434.066	506.31
434.287	528.31
434.509	521.31
434.731	551.31
434.953	549.31
435.175	553.31
435.397	578.31
435.618	587.31
435.84	596.31
436.062	692.31
436.284	729.31
436.505	609.31
436.727	588.31
436.949	532.31
437.17	544.31
437.392	552.31
437.614	549.31
437.835	578.31
438.057	626.31
438.278	702.31
438.5	707.31
438.721	796.31
438.943	762.31
439.165	616.31
439.386	567.31
439.608	586.31
439.829	566.31
440.05	569.31
440.272	628.31
440.493	605.31
440.715	571.31
440.936	534.31
441.158	545.31
441.379	547.31
441.6	545.31
441.822	584.31
442.043	625.31
442.264	661.31
442.486	719.31
442.707	621.31
442.928	579.31
443.149	618.31
443.371	630.31
443.592	623.31
443.813	727.31
444.034	753.31
444.255	665.31
444.476	637.31
444.698	610.31
444.919	618.31
445.14	738.31
445.361	654.31
445.582	627.31
445.803	642.31
446.024	727.31
446.245	759.31
446.466	689.31
446.687	584.31
446.908	588.31
447.129	541.31
447.35	508.31
447.571	537.31
447.792	524.31
448.013	526.31
448.234	535.31
448.455	558.31
448.675	657.31
448.896	776.31
449.117	674.31
449.338	625.31
449.559	697.31
449.779	792.31
450	654.31
450.221	565.31
450.442	522.31
450.662	522.31
450.883	497.31
451.104	498.31
451.324	499.31
451.545	495.31
451.766	479.31
451.986	454.31
452.207	456.31
452.428	455.31
452.648	479.31
452.869	478.31
453.089	480.31
453.31	470.31
453.53	474.31
453.751	456.31
453.971	476.31
454.192	485.31
454.412	455.31
454.633	475.31
454.853	462.31
455.073	467.31
455.294	490.31
455.514	523.31
455.734	499.31
455.955	463.31
456.175	476.31
456.395	458.31
456.616	451.31
456.836	451.31
457.056	431.31
457.276	436.31
457.497	455.31
457.717	430.31
457.937	447.31
458.157	466.31
458.377	495.31
458.598	489.31
458.818	528.31
459.038	542.31
459.258	571.31
459.478	504.31
459.698	513.31
459.918	534.31
460.138	527.31
460.358	547.31
460.578	543.31
460.798	549.31
461.018	561.31
461.238	549.31
461.458	545.31
461.678	537.31
461.898	538.31
462.118	540.31
462.338	565.31
462.558	603.31
462.777	609.31
462.997	616.31
463.217	650.31
463.437	637.31
463.657	627.31
463.876	595.31
464.096	610.31
464.316	608.31
464.536	595.31
464.755	589.31
464.975	589.31
465.195	589.31
465.414	620.31
465.634	565.31
465.854	532.31
466.073	505.31
466.293	505.31
466.512	499.31
466.732	517.31
466.951	489.31
467.171	498.31
467.391	502.31
467.61	483.31
467.829	499.31
468.049	491.31
468.268	475.31
468.488	470.31
468.707	477.31
468.927	471.31
469.146	489.31
469.365	466.31
469.585	502.31
469.804	514.31
470.023	500.31
470.243	502.31
470.462	486.31
470.681	519.31
470.901	499.31
471.12	503.31
471.339	510.31
471.558	512.31
471.777	493.31
471.997	519.31
472.216	479.31
472.435	508.31
472.654	491.31
472.873	495.31
473.092	485.31
473.311	486.31
473.53	501.31
473.749	486.31
473.968	529.31
474.187	571.31
474.406	605.31
474.625	538.31
474.844	497.31
475.063	494.31
475.282	485.31
475.501	500.31
475.72	513.31
475.939	505.31
476.158	505.31
476.377	487.31
476.596	518.31
476.814	519.31
477.033	516.31
477.252	531.31
477.471	545.31
477.69	513.31
477.908	535.31
478.127	542.31
478.346	552.31
478.564	574.31
478.783	568.31
479.002	563.31
479.22	569.31
479.439	572.31
479.658	579.31
479.876	594.31
480.095	577.31
480.313	611.31
480.532	622.31
480.751	619.31
480.969	616.31
481.188	658.31
481.406	645.31
481.624	606.31
481.843	585.31
482.061	593.31
482.28	576.31
482.498	583.31
482.717	564.31
482.935	557.31
483.153	560.31
483.372	579.31
483.59	570.31
483.808	573.31
484.027	554.31
484.245	571.31
484.463	566.31
484.681	585.31
484.9	590.31
485.118	587.31
485.336	570.31
485.554	575.31
485.772	594.31
485.99	587.31
486.209	571.31
486.427	606.31
486.645	589.31
486.863	618.31
487.081	618.31
487.299	621.31
487.517	611.31
487.735	622.31
487.953	603.31
488.171	600.31
488.389	599.31
488.607	600.31
488.825	597.31
489.043	608.31
489.261	622.31
489.479	595.31
489.696	624.31
489.914	605.31
490.132	637.31
490.35	631.31
490.568	643.31
490.786	641.31
491.003	659.31
491.221	641.31
491.439	650.31
491.657	675.31
491.874	671.31
492.092	649.31
492.31	687.31
492.527	692.31
492.745	683.31
492.963	681.31
493.18	683.31
493.398	691.31
493.615	686.31
493.833	708.31
494.05	726.31
494.268	727.31
494.485	716.31
494.703	719.31
494.92	724.31
495.138	710.31
495.355	718.31
495.573	713.31
495.79	703.31
496.008	726.31
496.225	718.31
496.442	714.31
496.66	734.31
496.877	709.31
497.094	708.31
497.312	725.31
497.529	750.31
497.746	771.31
497.963	775.31
498.181	803.31
498.398	804.31
498.615	836.31
498.832	862.31
499.049	889.31
499.267	947.31
499.484	980.31
499.701	1011.31
499.918	1073.31
500.135	1144.31
500.352	1230.31
500.569	1256.31
500.786	1258.31
501.003	1230.31
501.22	1133.31
501.437	1059.31
501.654	1017.31
