Data from 1973.PennyLincolnUp.Lamp.En5.5.200Scan.071719.P1.Changed Mount._HRD10591_15-43-28-852.txt Node
Date: Thu Jul 18 15:43:28 EDT 2019
User: cochatt
Spectrometer: HR+D1059
Trigger mode: 1
Integration Time (sec): 1.000000E-1
Scans to average: 1
Electric dark correction enabled: true
Nonlinearity correction enabled: false
Boxcar width: 0
XAxis mode: Wavelengths
Number of Pixels in Spectrum: 2048
>>>>>Begin Spectral Data<<<<<
223.165	-7.81
223.4	-7.81
223.635	-7.81
223.869	-28.81
224.104	-26.81
224.338	0.19
224.573	-15.81
224.808	-9.81
225.042	-10.81
225.277	-5.81
225.511	-9.81
225.746	-10.81
225.98	2.19
226.215	16.19
226.449	12.19
226.683	21.19
226.918	40.19
227.152	34.19
227.387	35.19
227.621	29.19
227.856	19.19
228.09	36.19
228.324	37.19
228.559	49.19
228.793	64.19
229.027	105.19
229.262	112.19
229.496	120.19
229.73	145.19
229.964	158.19
230.199	142.19
230.433	125.19
230.667	121.19
230.901	121.19
231.136	118.19
231.37	114.19
231.604	135.19
231.838	129.19
232.072	129.19
232.306	113.19
232.541	109.19
232.775	123.19
233.009	121.19
233.243	116.19
233.477	122.19
233.711	125.19
233.945	112.19
234.179	133.19
234.413	138.19
234.647	122.19
234.881	121.19
235.115	134.19
235.349	123.19
235.583	126.19
235.817	126.19
236.051	129.19
236.285	136.19
236.519	148.19
236.753	141.19
236.987	160.19
237.221	210.19
237.455	259.19
237.689	197.19
237.922	170.19
238.156	148.19
238.39	132.19
238.624	143.19
238.858	154.19
239.091	136.19
239.325	136.19
239.559	142.19
239.793	153.19
240.027	156.19
240.26	145.19
240.494	182.19
240.728	172.19
240.961	155.19
241.195	160.19
241.429	169.19
241.662	141.19
241.896	152.19
242.13	146.19
242.363	147.19
242.597	155.19
242.83	149.19
243.064	151.19
243.298	162.19
243.531	155.19
243.765	146.19
243.998	153.19
244.232	165.19
244.465	162.19
244.699	168.19
244.932	153.19
245.166	168.19
245.399	168.19
245.633	163.19
245.866	171.19
246.099	164.19
246.333	166.19
246.566	175.19
246.8	178.19
247.033	159.19
247.266	192.19
247.5	189.19
247.733	195.19
247.966	187.19
248.2	196.19
248.433	210.19
248.666	199.19
248.899	212.19
249.133	217.19
249.366	236.19
249.599	239.19
249.832	209.19
250.066	216.19
250.299	199.19
250.532	187.19
250.765	218.19
250.998	248.19
251.231	262.19
251.465	245.19
251.698	232.19
251.931	245.19
252.164	210.19
252.397	224.19
252.63	220.19
252.863	240.19
253.096	231.19
253.329	254.19
253.562	251.19
253.795	234.19
254.028	239.19
254.261	241.19
254.494	238.19
254.727	289.19
254.96	306.19
255.193	310.19
255.426	272.19
255.659	254.19
255.892	242.19
256.124	243.19
256.357	262.19
256.59	266.19
256.823	246.19
257.056	224.19
257.289	224.19
257.521	239.19
257.754	252.19
257.987	238.19
258.22	247.19
258.452	240.19
258.685	256.19
258.918	244.19
259.151	245.19
259.383	244.19
259.616	245.19
259.849	279.19
260.081	272.19
260.314	257.19
260.547	278.19
260.779	298.19
261.012	252.19
261.244	242.19
261.477	260.19
261.71	276.19
261.942	269.19
262.175	267.19
262.407	238.19
262.64	258.19
262.872	231.19
263.105	258.19
263.337	254.19
263.57	256.19
263.802	245.19
264.035	242.19
264.267	256.19
264.499	247.19
264.732	259.19
264.964	248.19
265.197	261.19
265.429	254.19
265.661	254.19
265.894	260.19
266.126	264.19
266.358	245.19
266.591	251.19
266.823	271.19
267.055	277.19
267.287	277.19
267.52	273.19
267.752	261.19
267.984	271.19
268.216	264.19
268.448	273.19
268.681	254.19
268.913	270.19
269.145	308.19
269.377	314.19
269.609	312.19
269.841	306.19
270.073	334.19
270.306	335.19
270.538	374.19
270.77	349.19
271.002	338.19
271.234	336.19
271.466	343.19
271.698	365.19
271.93	378.19
272.162	349.19
272.394	368.19
272.626	353.19
272.858	328.19
273.09	321.19
273.322	314.19
273.553	289.19
273.785	308.19
274.017	321.19
274.249	296.19
274.481	327.19
274.713	318.19
274.945	326.19
275.176	334.19
275.408	323.19
275.64	320.19
275.872	321.19
276.104	318.19
276.335	317.19
276.567	329.19
276.799	332.19
277.031	356.19
277.262	378.19
277.494	386.19
277.726	354.19
277.957	335.19
278.189	336.19
278.421	346.19
278.652	336.19
278.884	315.19
279.115	328.19
279.347	338.19
279.579	346.19
279.81	353.19
280.042	355.19
280.273	344.19
280.505	344.19
280.736	335.19
280.968	314.19
281.199	322.19
281.431	357.19
281.662	304.19
281.894	325.19
282.125	333.19
282.356	360.19
282.588	380.19
282.819	369.19
283.051	337.19
283.282	349.19
283.513	341.19
283.745	344.19
283.976	317.19
284.207	346.19
284.439	373.19
284.67	348.19
284.901	361.19
285.132	360.19
285.364	351.19
285.595	355.19
285.826	341.19
286.057	351.19
286.288	342.19
286.52	338.19
286.751	349.19
286.982	353.19
287.213	341.19
287.444	361.19
287.675	368.19
287.906	352.19
288.138	374.19
288.369	381.19
288.6	378.19
288.831	363.19
289.062	370.19
289.293	380.19
289.524	379.19
289.755	367.19
289.986	339.19
290.217	366.19
290.448	362.19
290.679	377.19
290.91	365.19
291.141	366.19
291.371	372.19
291.602	344.19
291.833	353.19
292.064	361.19
292.295	372.19
292.526	373.19
292.757	360.19
292.987	343.19
293.218	364.19
293.449	355.19
293.68	380.19
293.91	372.19
294.141	373.19
294.372	357.19
294.603	358.19
294.833	360.19
295.064	356.19
295.295	352.19
295.525	358.19
295.756	363.19
295.987	364.19
296.217	391.19
296.448	408.19
296.679	393.19
296.909	370.19
297.14	388.19
297.37	387.19
297.601	378.19
297.831	370.19
298.062	384.19
298.292	398.19
298.523	403.19
298.753	388.19
298.984	400.19
299.214	378.19
299.445	385.19
299.675	404.19
299.905	410.19
300.136	406.19
300.366	390.19
300.597	409.19
300.827	388.19
301.057	443.19
301.288	412.19
301.518	412.19
301.748	423.19
301.979	417.19
302.209	401.19
302.439	415.19
302.669	419.19
302.9	402.19
303.13	414.19
303.36	409.19
303.59	425.19
303.82	421.19
304.051	423.19
304.281	422.19
304.511	410.19
304.741	417.19
304.971	406.19
305.201	417.19
305.431	419.19
305.661	421.19
305.891	402.19
306.121	404.19
306.352	432.19
306.582	420.19
306.812	421.19
307.042	418.19
307.272	427.19
307.502	416.19
307.731	421.19
307.961	431.19
308.191	437.19
308.421	422.19
308.651	433.19
308.881	428.19
309.111	444.19
309.341	415.19
309.571	437.19
309.8	457.19
310.03	435.19
310.26	480.19
310.49	444.19
310.72	460.19
310.949	478.19
311.179	494.19
311.409	470.19
311.639	443.19
311.868	458.19
312.098	473.19
312.328	475.19
312.557	485.19
312.787	484.19
313.017	494.19
313.246	477.19
313.476	458.19
313.706	455.19
313.935	482.19
314.165	489.19
314.394	503.19
314.624	474.19
314.853	467.19
315.083	477.19
315.312	455.19
315.542	472.19
315.771	461.19
316.001	480.19
316.23	458.19
316.46	469.19
316.689	473.19
316.919	475.19
317.148	473.19
317.377	480.19
317.607	486.19
317.836	471.19
318.065	468.19
318.295	448.19
318.524	463.19
318.753	475.19
318.983	467.19
319.212	465.19
319.441	478.19
319.67	513.19
319.9	465.19
320.129	455.19
320.358	486.19
320.587	477.19
320.816	487.19
321.046	482.19
321.275	479.19
321.504	499.19
321.733	504.19
321.962	489.19
322.191	501.19
322.42	509.19
322.649	542.19
322.878	534.19
323.108	529.19
323.337	567.19
323.566	603.19
323.795	647.19
324.024	682.19
324.253	787.19
324.482	1103.19
324.71	1758.19
324.939	2601.19
325.168	2277.19
325.397	1113.19
325.626	749.19
325.855	632.19
326.084	595.19
326.313	590.19
326.542	607.19
326.77	648.19
326.999	756.19
327.228	1020.19
327.457	1596.19
327.686	2004.19
327.914	1282.19
328.143	802.19
328.372	718.19
328.6	676.19
328.829	664.19
329.058	656.19
329.287	699.19
329.515	622.19
329.744	592.19
329.972	617.19
330.201	602.19
330.43	645.19
330.658	652.19
330.887	710.19
331.115	702.19
331.344	630.19
331.572	625.19
331.801	613.19
332.03	611.19
332.258	599.19
332.486	568.19
332.715	572.19
332.943	598.19
333.172	598.19
333.4	596.19
333.629	585.19
333.857	624.19
334.085	645.19
334.314	642.19
334.542	628.19
334.771	655.19
334.999	615.19
335.227	616.19
335.455	612.19
335.684	577.19
335.912	583.19
336.14	585.19
336.369	570.19
336.597	575.19
336.825	594.19
337.053	572.19
337.281	578.19
337.51	580.19
337.738	597.19
337.966	570.19
338.194	570.19
338.422	561.19
338.65	569.19
338.878	538.19
339.106	553.19
339.334	568.19
339.562	550.19
339.79	538.19
340.018	547.19
340.246	554.19
340.474	546.19
340.702	554.19
340.93	549.19
341.158	564.19
341.386	550.19
341.614	536.19
341.842	549.19
342.07	541.19
342.298	537.19
342.526	531.19
342.754	528.19
342.981	522.19
343.209	549.19
343.437	568.19
343.665	546.19
343.893	580.19
344.12	608.19
344.348	588.19
344.576	561.19
344.804	572.19
345.031	573.19
345.259	588.19
345.487	562.19
345.714	562.19
345.942	536.19
346.17	554.19
346.397	540.19
346.625	532.19
346.853	507.19
347.08	547.19
347.308	534.19
347.535	539.19
347.763	561.19
347.99	532.19
348.218	550.19
348.445	535.19
348.673	555.19
348.9	533.19
349.128	541.19
349.355	523.19
349.583	500.19
349.81	505.19
350.037	501.19
350.265	517.19
350.492	525.19
350.72	501.19
350.947	505.19
351.174	542.19
351.402	542.19
351.629	545.19
351.856	521.19
352.083	530.19
352.311	533.19
352.538	555.19
352.765	566.19
352.992	540.19
353.22	538.19
353.447	525.19
353.674	521.19
353.901	508.19
354.128	496.19
354.355	507.19
354.583	504.19
354.81	499.19
355.037	491.19
355.264	498.19
355.491	486.19
355.718	510.19
355.945	493.19
356.172	508.19
356.399	502.19
356.626	514.19
356.853	521.19
357.08	489.19
357.307	497.19
357.534	500.19
357.761	532.19
357.988	502.19
358.215	522.19
358.441	515.19
358.668	510.19
358.895	512.19
359.122	534.19
359.349	544.19
359.576	538.19
359.802	552.19
360.029	582.19
360.256	611.19
360.483	554.19
360.709	562.19
360.936	538.19
361.163	541.19
361.39	525.19
361.616	564.19
361.843	538.19
362.07	545.19
362.296	547.19
362.523	548.19
362.749	520.19
362.976	525.19
363.203	529.19
363.429	520.19
363.656	528.19
363.882	531.19
364.109	526.19
364.335	506.19
364.562	509.19
364.788	508.19
365.015	511.19
365.241	508.19
365.468	527.19
365.694	548.19
365.92	537.19
366.147	520.19
366.373	512.19
366.599	499.19
366.826	502.19
367.052	516.19
367.278	514.19
367.505	517.19
367.731	484.19
367.957	500.19
368.184	525.19
368.41	521.19
368.636	532.19
368.862	539.19
369.089	525.19
369.315	515.19
369.541	490.19
369.767	501.19
369.993	527.19
370.219	530.19
370.445	516.19
370.672	526.19
370.898	517.19
371.124	537.19
371.35	543.19
371.576	500.19
371.802	519.19
372.028	516.19
372.254	521.19
372.48	522.19
372.706	527.19
372.932	544.19
373.158	557.19
373.384	550.19
373.61	531.19
373.835	524.19
374.061	550.19
374.287	541.19
374.513	545.19
374.739	540.19
374.965	559.19
375.191	558.19
375.416	541.19
375.642	549.19
375.868	549.19
376.094	539.19
376.319	558.19
376.545	538.19
376.771	524.19
376.997	518.19
377.222	518.19
377.448	527.19
377.674	537.19
377.899	519.19
378.125	535.19
378.35	517.19
378.576	547.19
378.802	523.19
379.027	525.19
379.253	513.19
379.478	508.19
379.704	523.19
379.929	535.19
380.155	531.19
380.38	523.19
380.606	536.19
380.831	560.19
381.057	537.19
381.282	560.19
381.507	512.19
381.733	546.19
381.958	555.19
382.184	555.19
382.409	553.19
382.634	564.19
382.86	544.19
383.085	547.19
383.31	550.19
383.535	576.19
383.761	571.19
383.986	593.19
384.211	571.19
384.436	591.19
384.662	593.19
384.887	597.19
385.112	620.19
385.337	652.19
385.562	634.19
385.787	630.19
386.013	646.19
386.238	646.19
386.463	645.19
386.688	640.19
386.913	612.19
387.138	609.19
387.363	619.19
387.588	618.19
387.813	640.19
388.038	618.19
388.263	623.19
388.488	618.19
388.713	628.19
388.938	594.19
389.163	587.19
389.387	600.19
389.612	598.19
389.837	604.19
390.062	605.19
390.287	607.19
390.512	624.19
390.736	594.19
390.961	601.19
391.186	607.19
391.411	608.19
391.636	624.19
391.86	630.19
392.085	626.19
392.31	603.19
392.534	650.19
392.759	619.19
392.984	640.19
393.208	669.19
393.433	774.19
393.658	768.19
393.882	658.19
394.107	631.19
394.331	655.19
394.556	605.19
394.78	640.19
395.005	626.19
395.229	632.19
395.454	633.19
395.678	643.19
395.903	650.19
396.127	673.19
396.352	724.19
396.576	685.19
396.801	712.19
397.025	765.19
397.249	714.19
397.474	670.19
397.698	636.19
397.922	700.19
398.147	689.19
398.371	703.19
398.595	715.19
398.82	711.19
399.044	726.19
399.268	778.19
399.492	839.19
399.717	886.19
399.941	930.19
400.165	925.19
400.389	880.19
400.613	810.19
400.837	756.19
401.062	724.19
401.286	712.19
401.51	701.19
401.734	705.19
401.958	711.19
402.182	723.19
402.406	732.19
402.63	732.19
402.854	752.19
403.078	749.19
403.302	724.19
403.526	764.19
403.75	770.19
403.974	748.19
404.198	734.19
404.422	807.19
404.645	786.19
404.869	778.19
405.093	799.19
405.317	818.19
405.541	834.19
405.765	818.19
405.988	768.19
406.212	795.19
406.436	816.19
406.66	805.19
406.883	796.19
407.107	874.19
407.331	920.19
407.555	990.19
407.778	991.19
408.002	894.19
408.226	881.19
408.449	839.19
408.673	850.19
408.896	852.19
409.12	871.19
409.344	849.19
409.567	784.19
409.791	780.19
410.014	771.19
410.238	744.19
410.461	746.19
410.685	730.19
410.908	756.19
411.132	813.19
411.355	843.19
411.578	810.19
411.802	788.19
412.025	730.19
412.249	751.19
412.472	772.19
412.695	758.19
412.919	773.19
413.142	724.19
413.365	731.19
413.589	723.19
413.812	742.19
414.035	716.19
414.258	694.19
414.482	717.19
414.705	675.19
414.928	708.19
415.151	718.19
415.374	707.19
415.597	713.19
415.821	674.19
416.044	720.19
416.267	725.19
416.49	713.19
416.713	676.19
416.936	711.19
417.159	706.19
417.382	712.19
417.605	709.19
417.828	726.19
418.051	751.19
418.274	712.19
418.497	693.19
418.72	704.19
418.943	699.19
419.166	756.19
419.389	772.19
419.611	763.19
419.834	757.19
420.057	778.19
420.28	750.19
420.503	727.19
420.726	726.19
420.948	741.19
421.171	796.19
421.394	846.19
421.617	787.19
421.839	735.19
422.062	728.19
422.285	751.19
422.507	822.19
422.73	944.19
422.953	908.19
423.175	802.19
423.398	766.19
423.621	753.19
423.843	786.19
424.066	797.19
424.288	781.19
424.511	776.19
424.733	869.19
424.956	955.19
425.178	918.19
425.401	911.19
425.623	960.19
425.846	793.19
426.068	756.19
426.291	764.19
426.513	756.19
426.735	761.19
426.958	842.19
427.18	900.19
427.402	1078.19
427.625	1193.19
427.847	1041.19
428.069	885.19
428.292	792.19
428.514	740.19
428.736	708.19
428.958	700.19
429.181	717.19
429.403	658.19
429.625	682.19
429.847	736.19
430.069	825.19
430.292	809.19
430.514	734.19
430.736	700.19
430.958	685.19
431.18	674.19
431.402	665.19
431.624	676.19
431.846	658.19
432.068	656.19
432.29	669.19
432.512	676.19
432.734	684.19
432.956	666.19
433.178	693.19
433.4	694.19
433.622	680.19
433.844	682.19
434.066	684.19
434.287	677.19
434.509	710.19
434.731	685.19
434.953	713.19
435.175	762.19
435.397	779.19
435.618	758.19
435.84	793.19
436.062	912.19
436.284	988.19
436.505	836.19
436.727	776.19
436.949	705.19
437.17	700.19
437.392	697.19
437.614	731.19
437.835	768.19
438.057	845.19
438.278	1003.19
438.5	991.19
438.721	1066.19
438.943	1029.19
439.165	823.19
439.386	782.19
439.608	762.19
439.829	768.19
440.05	781.19
440.272	851.19
440.493	814.19
440.715	773.19
440.936	711.19
441.158	717.19
441.379	733.19
441.6	765.19
441.822	742.19
442.043	833.19
442.264	922.19
442.486	977.19
442.707	822.19
442.928	794.19
443.149	777.19
443.371	830.19
443.592	853.19
443.813	975.19
444.034	1056.19
444.255	906.19
444.476	834.19
444.698	835.19
444.919	827.19
445.14	888.19
445.361	853.19
445.582	854.19
445.803	900.19
446.024	1036.19
446.245	1019.19
446.466	953.19
446.687	791.19
446.908	760.19
447.129	732.19
447.35	690.19
447.571	698.19
447.792	658.19
448.013	677.19
448.234	690.19
448.455	740.19
448.675	919.19
448.896	1026.19
449.117	900.19
449.338	859.19
449.559	962.19
449.779	1116.19
450	866.19
450.221	740.19
450.442	688.19
450.662	701.19
450.883	677.19
451.104	696.19
451.324	682.19
451.545	674.19
451.766	639.19
451.986	646.19
452.207	603.19
452.428	614.19
452.648	652.19
452.869	619.19
453.089	639.19
453.31	638.19
453.53	635.19
453.751	631.19
453.971	632.19
454.192	653.19
454.412	640.19
454.633	606.19
454.853	617.19
455.073	617.19
455.294	650.19
455.514	720.19
455.734	719.19
455.955	612.19
456.175	589.19
456.395	589.19
456.616	599.19
456.836	570.19
457.056	607.19
457.276	586.19
457.497	617.19
457.717	574.19
457.937	576.19
458.157	597.19
458.377	610.19
458.598	641.19
458.818	710.19
459.038	798.19
459.258	822.19
459.478	741.19
459.698	697.19
459.918	693.19
460.138	694.19
460.358	715.19
460.578	726.19
460.798	757.19
461.018	743.19
461.238	728.19
461.458	740.19
461.678	728.19
461.898	722.19
462.118	739.19
462.338	732.19
462.558	780.19
462.777	779.19
462.997	829.19
463.217	869.19
463.437	865.19
463.657	835.19
463.876	782.19
464.096	800.19
464.316	804.19
464.536	790.19
464.755	794.19
464.975	797.19
465.195	830.19
465.414	886.19
465.634	804.19
465.854	729.19
466.073	730.19
466.293	685.19
466.512	666.19
466.732	658.19
466.951	648.19
467.171	654.19
467.391	668.19
467.61	680.19
467.829	680.19
468.049	676.19
468.268	639.19
468.488	654.19
468.707	648.19
468.927	650.19
469.146	639.19
469.365	651.19
469.585	636.19
469.804	665.19
470.023	649.19
470.243	682.19
470.462	669.19
470.681	690.19
470.901	672.19
471.12	666.19
471.339	673.19
471.558	686.19
471.777	670.19
471.997	667.19
472.216	668.19
472.435	662.19
472.654	663.19
472.873	660.19
473.092	650.19
473.311	643.19
473.53	680.19
473.749	666.19
473.968	686.19
474.187	813.19
474.406	843.19
474.625	722.19
474.844	666.19
475.063	651.19
475.282	655.19
475.501	668.19
475.72	648.19
475.939	658.19
476.158	653.19
476.377	657.19
476.596	705.19
476.814	700.19
477.033	697.19
477.252	697.19
477.471	715.19
477.69	724.19
477.908	742.19
478.127	742.19
478.346	743.19
478.564	771.19
478.783	752.19
479.002	775.19
479.22	793.19
479.439	764.19
479.658	841.19
479.876	810.19
480.095	816.19
480.313	880.19
480.532	862.19
480.751	818.19
480.969	854.19
481.188	880.19
481.406	870.19
481.624	834.19
481.843	822.19
482.061	784.19
482.28	781.19
482.498	772.19
482.717	768.19
482.935	779.19
483.153	772.19
483.372	796.19
483.59	759.19
483.808	757.19
484.027	788.19
484.245	772.19
484.463	799.19
484.681	790.19
484.9	813.19
485.118	792.19
485.336	792.19
485.554	785.19
485.772	790.19
485.99	826.19
486.209	842.19
486.427	814.19
486.645	840.19
486.863	829.19
487.081	863.19
487.299	852.19
487.517	821.19
487.735	844.19
487.953	838.19
488.171	820.19
488.389	817.19
488.607	845.19
488.825	843.19
489.043	834.19
489.261	835.19
489.479	861.19
489.696	872.19
489.914	865.19
490.132	880.19
490.35	862.19
490.568	873.19
490.786	856.19
491.003	874.19
491.221	909.19
491.439	919.19
491.657	930.19
491.874	926.19
492.092	929.19
492.31	942.19
492.527	963.19
492.745	939.19
492.963	968.19
493.18	954.19
493.398	963.19
493.615	979.19
493.833	959.19
494.05	987.19
494.268	976.19
494.485	995.19
494.703	989.19
494.92	974.19
495.138	976.19
495.355	940.19
495.573	975.19
495.79	1004.19
496.008	1005.19
496.225	967.19
496.442	973.19
496.66	986.19
496.877	972.19
497.094	1004.19
497.312	1008.19
497.529	1042.19
497.746	1045.19
497.963	1026.19
498.181	1129.19
498.398	1123.19
498.615	1155.19
498.832	1192.19
499.049	1212.19
499.267	1279.19
499.484	1348.19
499.701	1383.19
499.918	1488.19
500.135	1588.19
500.352	1701.19
500.569	1765.19
500.786	1736.19
501.003	1678.19
501.22	1585.19
