Data from 1973.PennyLincolnUp.Lamp.En5.5.200Scan.071719.P1.Changed Mount._HRD10591_15-46-09-853.txt Node
Date: Thu Jul 18 15:46:09 EDT 2019
User: cochatt
Spectrometer: HR+D1059
Trigger mode: 1
Integration Time (sec): 1.000000E-1
Scans to average: 1
Electric dark correction enabled: true
Nonlinearity correction enabled: false
Boxcar width: 0
XAxis mode: Wavelengths
Number of Pixels in Spectrum: 2048
>>>>>Begin Spectral Data<<<<<
223.165	-23.5
223.4	-23.5
223.635	-23.5
223.869	-14.5
224.104	-13.5
224.338	-12.5
224.573	-11.5
224.808	-19.5
225.042	-17.5
225.277	-27.5
225.511	-2.5
225.746	11.5
225.98	25.5
226.215	10.5
226.449	15.5
226.683	17.5
226.918	27.5
227.152	34.5
227.387	26.5
227.621	37.5
227.856	43.5
228.09	46.5
228.324	46.5
228.559	57.5
228.793	59.5
229.027	94.5
229.262	110.5
229.496	103.5
229.73	109.5
229.964	142.5
230.199	130.5
230.433	99.5
230.667	111.5
230.901	96.5
231.136	118.5
231.37	107.5
231.604	123.5
231.838	103.5
232.072	102.5
232.306	106.5
232.541	109.5
232.775	103.5
233.009	110.5
233.243	116.5
233.477	137.5
233.711	131.5
233.945	132.5
234.179	105.5
234.413	125.5
234.647	116.5
234.881	104.5
235.115	122.5
235.349	113.5
235.583	113.5
235.817	126.5
236.051	143.5
236.285	134.5
236.519	138.5
236.753	135.5
236.987	149.5
237.221	183.5
237.455	212.5
237.689	175.5
237.922	135.5
238.156	131.5
238.39	129.5
238.624	119.5
238.858	130.5
239.091	121.5
239.325	120.5
239.559	125.5
239.793	127.5
240.027	137.5
240.26	148.5
240.494	156.5
240.728	140.5
240.961	149.5
241.195	139.5
241.429	146.5
241.662	134.5
241.896	148.5
242.13	133.5
242.363	134.5
242.597	141.5
242.83	149.5
243.064	142.5
243.298	142.5
243.531	151.5
243.765	139.5
243.998	141.5
244.232	143.5
244.465	141.5
244.699	148.5
244.932	157.5
245.166	151.5
245.399	167.5
245.633	155.5
245.866	163.5
246.099	155.5
246.333	150.5
246.566	164.5
246.8	151.5
247.033	152.5
247.266	153.5
247.5	162.5
247.733	166.5
247.966	185.5
248.2	169.5
248.433	172.5
248.666	166.5
248.899	189.5
249.133	193.5
249.366	197.5
249.599	205.5
249.832	175.5
250.066	185.5
250.299	174.5
250.532	179.5
250.765	196.5
250.998	230.5
251.231	222.5
251.465	223.5
251.698	199.5
251.931	202.5
252.164	223.5
252.397	211.5
252.63	197.5
252.863	196.5
253.096	208.5
253.329	233.5
253.562	214.5
253.795	203.5
254.028	207.5
254.261	199.5
254.494	227.5
254.727	236.5
254.96	278.5
255.193	252.5
255.426	243.5
255.659	215.5
255.892	210.5
256.124	241.5
256.357	246.5
256.59	219.5
256.823	202.5
257.056	198.5
257.289	208.5
257.521	216.5
257.754	198.5
257.987	215.5
258.22	213.5
258.452	214.5
258.685	213.5
258.918	214.5
259.151	209.5
259.383	218.5
259.616	217.5
259.849	210.5
260.081	242.5
260.314	240.5
260.547	250.5
260.779	260.5
261.012	228.5
261.244	242.5
261.477	230.5
261.71	236.5
261.942	206.5
262.175	249.5
262.407	238.5
262.64	221.5
262.872	230.5
263.105	218.5
263.337	227.5
263.57	227.5
263.802	232.5
264.035	226.5
264.267	234.5
264.499	217.5
264.732	214.5
264.964	206.5
265.197	230.5
265.429	228.5
265.661	231.5
265.894	226.5
266.126	230.5
266.358	243.5
266.591	232.5
266.823	233.5
267.055	223.5
267.287	235.5
267.52	243.5
267.752	215.5
267.984	233.5
268.216	274.5
268.448	227.5
268.681	246.5
268.913	250.5
269.145	258.5
269.377	284.5
269.609	286.5
269.841	279.5
270.073	285.5
270.306	285.5
270.538	313.5
270.77	316.5
271.002	317.5
271.234	305.5
271.466	301.5
271.698	305.5
271.93	317.5
272.162	309.5
272.394	314.5
272.626	297.5
272.858	299.5
273.09	283.5
273.322	274.5
273.553	293.5
273.785	287.5
274.017	262.5
274.249	273.5
274.481	265.5
274.713	281.5
274.945	280.5
275.176	308.5
275.408	285.5
275.64	297.5
275.872	272.5
276.104	290.5
276.335	273.5
276.567	280.5
276.799	285.5
277.031	307.5
277.262	321.5
277.494	349.5
277.726	338.5
277.957	310.5
278.189	309.5
278.421	311.5
278.652	290.5
278.884	306.5
279.115	289.5
279.347	312.5
279.579	295.5
279.81	291.5
280.042	287.5
280.273	298.5
280.505	289.5
280.736	296.5
280.968	291.5
281.199	290.5
281.431	292.5
281.662	294.5
281.894	310.5
282.125	301.5
282.356	315.5
282.588	324.5
282.819	320.5
283.051	321.5
283.282	288.5
283.513	298.5
283.745	321.5
283.976	318.5
284.207	305.5
284.439	300.5
284.67	290.5
284.901	310.5
285.132	296.5
285.364	313.5
285.595	309.5
285.826	308.5
286.057	306.5
286.288	314.5
286.52	329.5
286.751	324.5
286.982	301.5
287.213	311.5
287.444	313.5
287.675	323.5
287.906	331.5
288.138	323.5
288.369	314.5
288.6	323.5
288.831	326.5
289.062	315.5
289.293	328.5
289.524	319.5
289.755	322.5
289.986	322.5
290.217	318.5
290.448	297.5
290.679	330.5
290.91	328.5
291.141	302.5
291.371	340.5
291.602	311.5
291.833	325.5
292.064	329.5
292.295	318.5
292.526	327.5
292.757	314.5
292.987	309.5
293.218	335.5
293.449	317.5
293.68	324.5
293.91	332.5
294.141	312.5
294.372	329.5
294.603	349.5
294.833	334.5
295.064	317.5
295.295	314.5
295.525	346.5
295.756	340.5
295.987	327.5
296.217	361.5
296.448	357.5
296.679	332.5
296.909	338.5
297.14	335.5
297.37	325.5
297.601	341.5
297.831	351.5
298.062	345.5
298.292	350.5
298.523	339.5
298.753	336.5
298.984	356.5
299.214	338.5
299.445	328.5
299.675	350.5
299.905	358.5
300.136	346.5
300.366	348.5
300.597	357.5
300.827	359.5
301.057	376.5
301.288	365.5
301.518	369.5
301.748	376.5
301.979	366.5
302.209	369.5
302.439	346.5
302.669	381.5
302.9	363.5
303.13	369.5
303.36	369.5
303.59	370.5
303.82	366.5
304.051	366.5
304.281	357.5
304.511	366.5
304.741	355.5
304.971	366.5
305.201	363.5
305.431	344.5
305.661	382.5
305.891	351.5
306.121	345.5
306.352	379.5
306.582	358.5
306.812	371.5
307.042	381.5
307.272	363.5
307.502	356.5
307.731	375.5
307.961	370.5
308.191	382.5
308.421	362.5
308.651	354.5
308.881	355.5
309.111	364.5
309.341	349.5
309.571	397.5
309.8	387.5
310.03	382.5
310.26	385.5
310.49	390.5
310.72	411.5
310.949	384.5
311.179	403.5
311.409	405.5
311.639	396.5
311.868	414.5
312.098	390.5
312.328	390.5
312.557	392.5
312.787	406.5
313.017	413.5
313.246	399.5
313.476	416.5
313.706	400.5
313.935	414.5
314.165	437.5
314.394	411.5
314.624	407.5
314.853	391.5
315.083	414.5
315.312	418.5
315.542	387.5
315.771	409.5
316.001	397.5
316.23	412.5
316.46	398.5
316.689	406.5
316.919	398.5
317.148	427.5
317.377	414.5
317.607	402.5
317.836	403.5
318.065	382.5
318.295	419.5
318.524	385.5
318.753	404.5
318.983	380.5
319.212	406.5
319.441	392.5
319.67	404.5
319.9	417.5
320.129	398.5
320.358	426.5
320.587	408.5
320.816	427.5
321.046	414.5
321.275	403.5
321.504	447.5
321.733	407.5
321.962	420.5
322.191	416.5
322.42	434.5
322.649	447.5
322.878	441.5
323.108	468.5
323.337	455.5
323.566	482.5
323.795	505.5
324.024	527.5
324.253	598.5
324.482	783.5
324.71	1147.5
324.939	1602.5
325.168	1409.5
325.397	803.5
325.626	567.5
325.855	503.5
326.084	483.5
326.313	475.5
326.542	510.5
326.77	543.5
326.999	590.5
327.228	725.5
327.457	1062.5
327.686	1226.5
327.914	856.5
328.143	620.5
328.372	554.5
328.6	525.5
328.829	515.5
329.058	527.5
329.287	540.5
329.515	516.5
329.744	486.5
329.972	530.5
330.201	517.5
330.43	533.5
330.658	575.5
330.887	551.5
331.115	567.5
331.344	510.5
331.572	501.5
331.801	514.5
332.03	510.5
332.258	472.5
332.486	481.5
332.715	477.5
332.943	485.5
333.172	481.5
333.4	533.5
333.629	538.5
333.857	545.5
334.085	557.5
334.314	557.5
334.542	550.5
334.771	581.5
334.999	526.5
335.227	520.5
335.455	516.5
335.684	500.5
335.912	505.5
336.14	486.5
336.369	494.5
336.597	484.5
336.825	481.5
337.053	488.5
337.281	487.5
337.51	492.5
337.738	454.5
337.966	486.5
338.194	478.5
338.422	485.5
338.65	486.5
338.878	474.5
339.106	477.5
339.334	469.5
339.562	463.5
339.79	469.5
340.018	458.5
340.246	462.5
340.474	462.5
340.702	466.5
340.93	458.5
341.158	478.5
341.386	468.5
341.614	477.5
341.842	448.5
342.07	459.5
342.298	472.5
342.526	451.5
342.754	454.5
342.981	439.5
343.209	445.5
343.437	459.5
343.665	473.5
343.893	482.5
344.12	492.5
344.348	480.5
344.576	475.5
344.804	485.5
345.031	467.5
345.259	458.5
345.487	451.5
345.714	457.5
345.942	459.5
346.17	458.5
346.397	421.5
346.625	429.5
346.853	446.5
347.08	451.5
347.308	442.5
347.535	429.5
347.763	445.5
347.99	445.5
348.218	459.5
348.445	455.5
348.673	429.5
348.9	456.5
349.128	436.5
349.355	450.5
349.583	445.5
349.81	460.5
350.037	428.5
350.265	438.5
350.492	455.5
350.72	429.5
350.947	452.5
351.174	445.5
351.402	449.5
351.629	428.5
351.856	447.5
352.083	451.5
352.311	457.5
352.538	439.5
352.765	459.5
352.992	440.5
353.22	449.5
353.447	452.5
353.674	434.5
353.901	433.5
354.128	426.5
354.355	429.5
354.583	420.5
354.81	409.5
355.037	418.5
355.264	412.5
355.491	407.5
355.718	401.5
355.945	411.5
356.172	401.5
356.399	405.5
356.626	415.5
356.853	423.5
357.08	408.5
357.307	423.5
357.534	407.5
357.761	423.5
357.988	423.5
358.215	411.5
358.441	416.5
358.668	418.5
358.895	426.5
359.122	439.5
359.349	408.5
359.576	443.5
359.802	455.5
360.029	454.5
360.256	465.5
360.483	457.5
360.709	442.5
360.936	422.5
361.163	425.5
361.39	430.5
361.616	425.5
361.843	444.5
362.07	428.5
362.296	444.5
362.523	429.5
362.749	422.5
362.976	433.5
363.203	423.5
363.429	411.5
363.656	430.5
363.882	427.5
364.109	419.5
364.335	399.5
364.562	421.5
364.788	420.5
365.015	417.5
365.241	408.5
365.468	409.5
365.694	414.5
365.92	422.5
366.147	441.5
366.373	419.5
366.599	410.5
366.826	439.5
367.052	410.5
367.278	403.5
367.505	437.5
367.731	410.5
367.957	410.5
368.184	425.5
368.41	435.5
368.636	430.5
368.862	444.5
369.089	433.5
369.315	422.5
369.541	413.5
369.767	417.5
369.993	422.5
370.219	425.5
370.445	427.5
370.672	419.5
370.898	419.5
371.124	433.5
371.35	447.5
371.576	431.5
371.802	422.5
372.028	419.5
372.254	444.5
372.48	436.5
372.706	438.5
372.932	436.5
373.158	433.5
373.384	448.5
373.61	426.5
373.835	441.5
374.061	413.5
374.287	444.5
374.513	430.5
374.739	457.5
374.965	437.5
375.191	455.5
375.416	449.5
375.642	438.5
375.868	442.5
376.094	428.5
376.319	442.5
376.545	436.5
376.771	414.5
376.997	435.5
377.222	421.5
377.448	425.5
377.674	417.5
377.899	426.5
378.125	430.5
378.35	435.5
378.576	416.5
378.802	432.5
379.027	424.5
379.253	436.5
379.478	421.5
379.704	425.5
379.929	442.5
380.155	428.5
380.38	423.5
380.606	446.5
380.831	441.5
381.057	415.5
381.282	424.5
381.507	420.5
381.733	453.5
381.958	440.5
382.184	433.5
382.409	428.5
382.634	455.5
382.86	454.5
383.085	449.5
383.31	441.5
383.535	438.5
383.761	470.5
383.986	469.5
384.211	458.5
384.436	474.5
384.662	459.5
384.887	473.5
385.112	464.5
385.337	454.5
385.562	479.5
385.787	479.5
386.013	482.5
386.238	508.5
386.463	508.5
386.688	494.5
386.913	487.5
387.138	458.5
387.363	507.5
387.588	486.5
387.813	477.5
388.038	465.5
388.263	495.5
388.488	508.5
388.713	468.5
388.938	473.5
389.163	472.5
389.387	457.5
389.612	487.5
389.837	465.5
390.062	488.5
390.287	468.5
390.512	492.5
390.736	505.5
390.961	492.5
391.186	473.5
391.411	484.5
391.636	504.5
391.86	487.5
392.085	529.5
392.31	494.5
392.534	518.5
392.759	503.5
392.984	499.5
393.208	491.5
393.433	497.5
393.658	491.5
393.882	501.5
394.107	487.5
394.331	493.5
394.556	499.5
394.78	507.5
395.005	487.5
395.229	494.5
395.454	519.5
395.678	529.5
395.903	532.5
396.127	544.5
396.352	533.5
396.576	513.5
396.801	499.5
397.025	499.5
397.249	497.5
397.474	515.5
397.698	535.5
397.922	564.5
398.147	537.5
398.371	554.5
398.595	559.5
398.82	564.5
399.044	588.5
399.268	611.5
399.492	663.5
399.717	698.5
399.941	750.5
400.165	729.5
400.389	730.5
400.613	644.5
400.837	597.5
401.062	600.5
401.286	582.5
401.51	587.5
401.734	591.5
401.958	579.5
402.182	552.5
402.406	581.5
402.63	592.5
402.854	579.5
403.078	599.5
403.302	600.5
403.526	631.5
403.75	612.5
403.974	600.5
404.198	601.5
404.422	630.5
404.645	611.5
404.869	610.5
405.093	648.5
405.317	669.5
405.541	685.5
405.765	638.5
405.988	620.5
406.212	641.5
406.436	634.5
406.66	659.5
406.883	652.5
407.107	676.5
407.331	713.5
407.555	745.5
407.778	775.5
408.002	711.5
408.226	657.5
408.449	655.5
408.673	648.5
408.896	653.5
409.12	691.5
409.344	680.5
409.567	615.5
409.791	611.5
410.014	614.5
410.238	599.5
410.461	598.5
410.685	609.5
410.908	630.5
411.132	649.5
411.355	687.5
411.578	645.5
411.802	598.5
412.025	606.5
412.249	600.5
412.472	615.5
412.695	616.5
412.919	634.5
413.142	593.5
413.365	597.5
413.589	568.5
413.812	569.5
414.035	578.5
414.258	556.5
414.482	572.5
414.705	575.5
414.928	534.5
415.151	563.5
415.374	559.5
415.597	570.5
415.821	545.5
416.044	555.5
416.267	553.5
416.49	579.5
416.713	549.5
416.936	536.5
417.159	546.5
417.382	568.5
417.605	533.5
417.828	563.5
418.051	557.5
418.274	584.5
418.497	575.5
418.72	574.5
418.943	538.5
419.166	565.5
419.389	623.5
419.611	613.5
419.834	589.5
420.057	609.5
420.28	593.5
420.503	599.5
420.726	586.5
420.948	605.5
421.171	618.5
421.394	637.5
421.617	603.5
421.839	549.5
422.062	574.5
422.285	585.5
422.507	618.5
422.73	697.5
422.953	683.5
423.175	621.5
423.398	619.5
423.621	613.5
423.843	615.5
424.066	633.5
424.288	616.5
424.511	631.5
424.733	677.5
424.956	738.5
425.178	711.5
425.401	698.5
425.623	718.5
425.846	633.5
426.068	593.5
426.291	587.5
426.513	581.5
426.735	599.5
426.958	639.5
427.18	669.5
427.402	791.5
427.625	866.5
427.847	753.5
428.069	665.5
428.292	626.5
428.514	585.5
428.736	555.5
428.958	585.5
429.181	584.5
429.403	546.5
429.625	573.5
429.847	583.5
430.069	614.5
430.292	637.5
430.514	565.5
430.736	545.5
430.958	534.5
431.18	536.5
431.402	549.5
431.624	539.5
431.846	536.5
432.068	524.5
432.29	535.5
432.512	537.5
432.734	525.5
432.956	520.5
433.178	558.5
433.4	547.5
433.622	547.5
433.844	539.5
434.066	528.5
434.287	536.5
434.509	527.5
434.731	569.5
434.953	571.5
435.175	578.5
435.397	616.5
435.618	598.5
435.84	632.5
436.062	693.5
436.284	780.5
436.505	645.5
436.727	597.5
436.949	579.5
437.17	539.5
437.392	531.5
437.614	570.5
437.835	594.5
438.057	636.5
438.278	724.5
438.5	722.5
438.721	794.5
438.943	754.5
439.165	629.5
439.386	590.5
439.608	575.5
439.829	569.5
440.05	589.5
440.272	630.5
440.493	590.5
440.715	578.5
440.936	564.5
441.158	550.5
441.379	551.5
441.6	591.5
441.822	597.5
442.043	615.5
442.264	694.5
442.486	730.5
442.707	656.5
442.928	620.5
443.149	598.5
443.371	630.5
443.592	668.5
443.813	726.5
444.034	784.5
444.255	713.5
444.476	645.5
444.698	634.5
444.919	627.5
445.14	714.5
445.361	695.5
445.582	653.5
445.803	676.5
446.024	764.5
446.245	733.5
446.466	673.5
446.687	613.5
446.908	576.5
447.129	582.5
447.35	563.5
447.571	535.5
447.792	508.5
448.013	553.5
448.234	542.5
448.455	562.5
448.675	658.5
448.896	774.5
449.117	673.5
449.338	633.5
449.559	718.5
449.779	802.5
450	675.5
450.221	566.5
450.442	555.5
450.662	553.5
450.883	549.5
451.104	532.5
451.324	520.5
451.545	487.5
451.766	497.5
451.986	497.5
452.207	478.5
452.428	479.5
452.648	498.5
452.869	469.5
453.089	490.5
453.31	489.5
453.53	497.5
453.751	482.5
453.971	478.5
454.192	469.5
454.412	481.5
454.633	483.5
454.853	481.5
455.073	462.5
455.294	488.5
455.514	545.5
455.734	546.5
455.955	474.5
456.175	461.5
456.395	453.5
456.616	457.5
456.836	462.5
457.056	473.5
457.276	456.5
457.497	456.5
457.717	453.5
457.937	476.5
458.157	477.5
458.377	468.5
458.598	500.5
458.818	539.5
459.038	581.5
459.258	612.5
459.478	561.5
459.698	541.5
459.918	528.5
460.138	563.5
460.358	572.5
460.578	545.5
460.798	565.5
461.018	569.5
461.238	558.5
461.458	546.5
461.678	564.5
461.898	553.5
462.118	569.5
462.338	576.5
462.558	566.5
462.777	614.5
462.997	614.5
463.217	668.5
463.437	691.5
463.657	632.5
463.876	634.5
464.096	631.5
464.316	637.5
464.536	629.5
464.755	634.5
464.975	591.5
465.195	621.5
465.414	638.5
465.634	602.5
465.854	539.5
466.073	538.5
466.293	532.5
466.512	510.5
466.732	512.5
466.951	506.5
467.171	490.5
467.391	501.5
467.61	513.5
467.829	513.5
468.049	503.5
468.268	508.5
468.488	513.5
468.707	489.5
468.927	504.5
469.146	498.5
469.365	491.5
469.585	509.5
469.804	523.5
470.023	529.5
470.243	524.5
470.462	509.5
470.681	543.5
470.901	528.5
471.12	509.5
471.339	514.5
471.558	513.5
471.777	516.5
471.997	499.5
472.216	521.5
472.435	517.5
472.654	523.5
472.873	506.5
473.092	506.5
473.311	492.5
473.53	484.5
473.749	498.5
473.968	527.5
474.187	591.5
474.406	642.5
474.625	535.5
474.844	526.5
475.063	504.5
475.282	507.5
475.501	488.5
475.72	529.5
475.939	499.5
476.158	542.5
476.377	521.5
476.596	523.5
476.814	541.5
477.033	518.5
477.252	523.5
477.471	553.5
477.69	561.5
477.908	559.5
478.127	575.5
478.346	564.5
478.564	574.5
478.783	588.5
479.002	567.5
479.22	607.5
479.439	612.5
479.658	600.5
479.876	611.5
480.095	622.5
480.313	645.5
480.532	636.5
480.751	630.5
480.969	632.5
481.188	651.5
481.406	697.5
481.624	622.5
481.843	611.5
482.061	590.5
482.28	591.5
482.498	584.5
482.717	581.5
482.935	598.5
483.153	588.5
483.372	558.5
483.59	580.5
483.808	581.5
484.027	571.5
484.245	563.5
484.463	581.5
484.681	587.5
484.9	601.5
485.118	588.5
485.336	572.5
485.554	568.5
485.772	607.5
485.99	611.5
486.209	625.5
486.427	597.5
486.645	618.5
486.863	621.5
487.081	629.5
487.299	620.5
487.517	625.5
487.735	615.5
487.953	620.5
488.171	614.5
488.389	615.5
488.607	604.5
488.825	619.5
489.043	625.5
489.261	647.5
489.479	630.5
489.696	621.5
489.914	622.5
490.132	641.5
490.35	635.5
490.568	671.5
490.786	667.5
491.003	656.5
491.221	689.5
491.439	710.5
491.657	699.5
491.874	691.5
492.092	676.5
492.31	724.5
492.527	705.5
492.745	703.5
492.963	690.5
493.18	715.5
493.398	721.5
493.615	732.5
493.833	732.5
494.05	729.5
494.268	726.5
494.485	717.5
494.703	726.5
494.92	721.5
495.138	729.5
495.355	717.5
495.573	747.5
495.79	765.5
496.008	737.5
496.225	718.5
496.442	761.5
496.66	741.5
496.877	761.5
497.094	759.5
497.312	746.5
497.529	753.5
497.746	771.5
497.963	776.5
498.181	857.5
498.398	811.5
498.615	836.5
498.832	887.5
499.049	911.5
499.267	918.5
499.484	986.5
499.701	1058.5
499.918	1130.5
500.135	1207.5
500.352	1286.5
500.569	1319.5
500.786	1303.5
501.003	1260.5
501.22	1187.5
501.437	1123.5
501.654	1046.5
501.871	1033.5
502.088	999.5
502.305	899.5
502.522	913.5
502.739	873.5
502.956	821.5
503.172	803.5
503.389	803.5
503.606	788.5
503.823	765.5
504.04	767.5
504.256	743.5
504.473	764.5
504.69	790.5
504.907	753.5
505.123	735.5
505.34	715.5
505.557	702.5
505.773	699.5
505.99	710.5
506.207	712.5
506.423	692.5
506.64	660.5
506.856	671.5
507.073	688.5
507.289	671.5
507.506	636.5
507.722	658.5
507.939	659.5
508.155	656.5
508.372	637.5
508.588	648.5
508.805	653.5
509.021	667.5
509.238	639.5
509.454	669.5
509.67	653.5
509.887	644.5
510.103	613.5
510.319	641.5
510.536	687.5
510.752	956.5
510.968	818.5
511.184	649.5
511.401	633.5
511.617	602.5
511.833	609.5
512.049	593.5
512.265	609.5
512.481	604.5
512.698	604.5
512.914	604.5
513.13	597.5
513.346	583.5
513.562	615.5
513.778	572.5
513.994	609.5
514.21	618.5
514.426	610.5
514.642	634.5
514.858	654.5
515.074	673.5
515.29	758.5
515.506	1014.5
515.721	866.5
515.937	691.5
516.153	655.5
516.369	636.5
516.585	648.5
516.801	660.5
517.016	694.5
517.232	659.5
517.448	711.5
517.664	678.5
517.879	690.5
518.095	683.5
518.311	691.5
518.527	673.5
518.742	649.5
518.958	650.5
519.173	634.5
519.389	621.5
