Data from 1973.PennyLincolnUp.Lamp.En5.5.200Scan.071719.P1.Changed Mount._HRD10591_15-44-29-853.txt Node
Date: Thu Jul 18 15:44:29 EDT 2019
User: cochatt
Spectrometer: HR+D1059
Trigger mode: 1
Integration Time (sec): 1.000000E-1
Scans to average: 1
Electric dark correction enabled: true
Nonlinearity correction enabled: false
Boxcar width: 0
XAxis mode: Wavelengths
Number of Pixels in Spectrum: 2048
>>>>>Begin Spectral Data<<<<<
223.165	-29.19
223.4	-29.19
223.635	-29.19
223.869	-8.19
224.104	-24.19
224.338	-0.19
224.573	-3.19
224.808	-8.19
225.042	-2.19
225.277	-8.19
225.511	-10.19
225.746	3.81
225.98	1.81
226.215	6.81
226.449	4.81
226.683	20.81
226.918	26.81
227.152	28.81
227.387	30.81
227.621	39.81
227.856	55.81
228.09	46.81
228.324	57.81
228.559	71.81
228.793	63.81
229.027	91.81
229.262	98.81
229.496	95.81
229.73	133.81
229.964	153.81
230.199	111.81
230.433	112.81
230.667	113.81
230.901	105.81
231.136	116.81
231.37	115.81
231.604	112.81
231.838	113.81
232.072	100.81
232.306	109.81
232.541	102.81
232.775	108.81
233.009	121.81
233.243	123.81
233.477	135.81
233.711	109.81
233.945	111.81
234.179	121.81
234.413	129.81
234.647	136.81
234.881	122.81
235.115	114.81
235.349	123.81
235.583	119.81
235.817	140.81
236.051	133.81
236.285	121.81
236.519	140.81
236.753	128.81
236.987	129.81
237.221	162.81
237.455	197.81
237.689	174.81
237.922	139.81
238.156	138.81
238.39	124.81
238.624	141.81
238.858	117.81
239.091	126.81
239.325	133.81
239.559	129.81
239.793	115.81
240.027	133.81
240.26	131.81
240.494	148.81
240.728	141.81
240.961	147.81
241.195	159.81
241.429	144.81
241.662	143.81
241.896	133.81
242.13	138.81
242.363	147.81
242.597	156.81
242.83	136.81
243.064	118.81
243.298	139.81
243.531	125.81
243.765	126.81
243.998	136.81
244.232	149.81
244.465	153.81
244.699	172.81
244.932	151.81
245.166	169.81
245.399	164.81
245.633	160.81
245.866	148.81
246.099	160.81
246.333	152.81
246.566	137.81
246.8	156.81
247.033	167.81
247.266	159.81
247.5	158.81
247.733	157.81
247.966	163.81
248.2	172.81
248.433	183.81
248.666	175.81
248.899	185.81
249.133	187.81
249.366	199.81
249.599	203.81
249.832	183.81
250.066	179.81
250.299	173.81
250.532	189.81
250.765	206.81
250.998	206.81
251.231	228.81
251.465	198.81
251.698	199.81
251.931	205.81
252.164	198.81
252.397	196.81
252.63	195.81
252.863	216.81
253.096	210.81
253.329	208.81
253.562	223.81
253.795	211.81
254.028	213.81
254.261	207.81
254.494	224.81
254.727	233.81
254.96	252.81
255.193	252.81
255.426	219.81
255.659	223.81
255.892	229.81
256.124	233.81
256.357	226.81
256.59	220.81
256.823	220.81
257.056	219.81
257.289	210.81
257.521	204.81
257.754	213.81
257.987	202.81
258.22	215.81
258.452	215.81
258.685	217.81
258.918	213.81
259.151	205.81
259.383	219.81
259.616	231.81
259.849	212.81
260.081	243.81
260.314	255.81
260.547	245.81
260.779	239.81
261.012	236.81
261.244	231.81
261.477	239.81
261.71	230.81
261.942	217.81
262.175	217.81
262.407	229.81
262.64	221.81
262.872	235.81
263.105	221.81
263.337	215.81
263.57	222.81
263.802	210.81
264.035	201.81
264.267	225.81
264.499	229.81
264.732	195.81
264.964	220.81
265.197	200.81
265.429	216.81
265.661	214.81
265.894	235.81
266.126	230.81
266.358	227.81
266.591	243.81
266.823	227.81
267.055	235.81
267.287	236.81
267.52	238.81
267.752	233.81
267.984	250.81
268.216	247.81
268.448	236.81
268.681	257.81
268.913	251.81
269.145	267.81
269.377	260.81
269.609	263.81
269.841	273.81
270.073	285.81
270.306	287.81
270.538	301.81
270.77	319.81
271.002	296.81
271.234	301.81
271.466	296.81
271.698	296.81
271.93	312.81
272.162	318.81
272.394	302.81
272.626	302.81
272.858	301.81
273.09	276.81
273.322	275.81
273.553	273.81
273.785	295.81
274.017	276.81
274.249	282.81
274.481	277.81
274.713	287.81
274.945	288.81
275.176	286.81
275.408	267.81
275.64	267.81
275.872	276.81
276.104	287.81
276.335	288.81
276.567	277.81
276.799	288.81
277.031	308.81
277.262	318.81
277.494	321.81
277.726	304.81
277.957	293.81
278.189	288.81
278.421	280.81
278.652	291.81
278.884	291.81
279.115	284.81
279.347	288.81
279.579	292.81
279.81	313.81
280.042	287.81
280.273	310.81
280.505	279.81
280.736	295.81
280.968	283.81
281.199	293.81
281.431	287.81
281.662	285.81
281.894	315.81
282.125	288.81
282.356	315.81
282.588	308.81
282.819	333.81
283.051	301.81
283.282	288.81
283.513	294.81
283.745	294.81
283.976	290.81
284.207	311.81
284.439	318.81
284.67	317.81
284.901	319.81
285.132	302.81
285.364	315.81
285.595	307.81
285.826	292.81
286.057	317.81
286.288	311.81
286.52	305.81
286.751	324.81
286.982	316.81
287.213	305.81
287.444	314.81
287.675	326.81
287.906	321.81
288.138	329.81
288.369	327.81
288.6	344.81
288.831	311.81
289.062	316.81
289.293	303.81
289.524	334.81
289.755	308.81
289.986	304.81
290.217	303.81
290.448	330.81
290.679	317.81
290.91	312.81
291.141	315.81
291.371	330.81
291.602	317.81
291.833	325.81
292.064	332.81
292.295	326.81
292.526	300.81
292.757	303.81
292.987	326.81
293.218	313.81
293.449	335.81
293.68	317.81
293.91	319.81
294.141	301.81
294.372	313.81
294.603	326.81
294.833	319.81
295.064	323.81
295.295	319.81
295.525	320.81
295.756	314.81
295.987	337.81
296.217	335.81
296.448	342.81
296.679	340.81
296.909	342.81
297.14	323.81
297.37	326.81
297.601	312.81
297.831	332.81
298.062	348.81
298.292	332.81
298.523	336.81
298.753	336.81
298.984	335.81
299.214	341.81
299.445	349.81
299.675	336.81
299.905	330.81
300.136	349.81
300.366	331.81
300.597	342.81
300.827	359.81
301.057	344.81
301.288	350.81
301.518	364.81
301.748	351.81
301.979	355.81
302.209	346.81
302.439	368.81
302.669	373.81
302.9	365.81
303.13	347.81
303.36	358.81
303.59	355.81
303.82	364.81
304.051	366.81
304.281	362.81
304.511	347.81
304.741	346.81
304.971	351.81
305.201	358.81
305.431	371.81
305.661	366.81
305.891	339.81
306.121	352.81
306.352	349.81
306.582	368.81
306.812	363.81
307.042	360.81
307.272	345.81
307.502	371.81
307.731	363.81
307.961	357.81
308.191	355.81
308.421	371.81
308.651	355.81
308.881	371.81
309.111	362.81
309.341	381.81
309.571	375.81
309.8	369.81
310.03	381.81
310.26	376.81
310.49	366.81
310.72	380.81
310.949	399.81
311.179	408.81
311.409	391.81
311.639	392.81
311.868	386.81
312.098	375.81
312.328	411.81
312.557	386.81
312.787	397.81
313.017	407.81
313.246	389.81
313.476	399.81
313.706	390.81
313.935	419.81
314.165	409.81
314.394	422.81
314.624	397.81
314.853	401.81
315.083	391.81
315.312	386.81
315.542	408.81
315.771	409.81
316.001	383.81
316.23	383.81
316.46	391.81
316.689	397.81
316.919	380.81
317.148	391.81
317.377	403.81
317.607	387.81
317.836	388.81
318.065	405.81
318.295	396.81
318.524	387.81
318.753	396.81
318.983	392.81
319.212	385.81
319.441	397.81
319.67	408.81
319.9	399.81
320.129	403.81
320.358	385.81
320.587	402.81
320.816	407.81
321.046	387.81
321.275	413.81
321.504	406.81
321.733	396.81
321.962	408.81
322.191	441.81
322.42	424.81
322.649	429.81
322.878	455.81
323.108	457.81
323.337	465.81
323.566	436.81
323.795	485.81
324.024	501.81
324.253	582.81
324.482	743.81
324.71	1014.81
324.939	1455.81
325.168	1301.81
325.397	711.81
325.626	551.81
325.855	509.81
326.084	433.81
326.313	450.81
326.542	481.81
326.77	475.81
326.999	556.81
327.228	685.81
327.457	949.81
327.686	1145.81
327.914	807.81
328.143	599.81
328.372	540.81
328.6	523.81
328.829	478.81
329.058	488.81
329.287	512.81
329.515	502.81
329.744	488.81
329.972	469.81
330.201	486.81
330.43	522.81
330.658	529.81
330.887	540.81
331.115	520.81
331.344	495.81
331.572	471.81
331.801	456.81
332.03	496.81
332.258	492.81
332.486	484.81
332.715	484.81
332.943	494.81
333.172	489.81
333.4	499.81
333.629	518.81
333.857	529.81
334.085	512.81
334.314	536.81
334.542	540.81
334.771	546.81
334.999	511.81
335.227	498.81
335.455	496.81
335.684	481.81
335.912	479.81
336.14	493.81
336.369	470.81
336.597	486.81
336.825	478.81
337.053	477.81
337.281	477.81
337.51	483.81
337.738	473.81
337.966	447.81
338.194	453.81
338.422	459.81
338.65	462.81
338.878	490.81
339.106	460.81
339.334	480.81
339.562	473.81
339.79	455.81
340.018	449.81
340.246	454.81
340.474	442.81
340.702	452.81
340.93	424.81
341.158	445.81
341.386	471.81
341.614	464.81
341.842	439.81
342.07	456.81
342.298	439.81
342.526	446.81
342.754	424.81
342.981	448.81
343.209	440.81
343.437	465.81
343.665	459.81
343.893	460.81
344.12	500.81
344.348	493.81
344.576	477.81
344.804	473.81
345.031	454.81
345.259	469.81
345.487	469.81
345.714	430.81
345.942	404.81
346.17	437.81
346.397	423.81
346.625	422.81
346.853	417.81
347.08	412.81
347.308	435.81
347.535	425.81
347.763	423.81
347.99	425.81
348.218	447.81
348.445	430.81
348.673	426.81
348.9	419.81
349.128	407.81
349.355	415.81
349.583	405.81
349.81	415.81
350.037	415.81
350.265	414.81
350.492	424.81
350.72	404.81
350.947	432.81
351.174	408.81
351.402	441.81
351.629	439.81
351.856	430.81
352.083	421.81
352.311	430.81
352.538	429.81
352.765	423.81
352.992	424.81
353.22	412.81
353.447	408.81
353.674	415.81
353.901	422.81
354.128	404.81
354.355	379.81
354.583	414.81
354.81	415.81
355.037	394.81
355.264	419.81
355.491	420.81
355.718	412.81
355.945	401.81
356.172	400.81
356.399	420.81
356.626	401.81
356.853	386.81
357.08	407.81
357.307	405.81
357.534	386.81
357.761	415.81
357.988	405.81
358.215	425.81
358.441	401.81
358.668	398.81
358.895	405.81
359.122	402.81
359.349	411.81
359.576	413.81
359.802	441.81
360.029	437.81
360.256	445.81
360.483	435.81
360.709	408.81
360.936	436.81
361.163	421.81
361.39	427.81
361.616	440.81
361.843	444.81
362.07	433.81
362.296	414.81
362.523	418.81
362.749	418.81
362.976	408.81
363.203	421.81
363.429	395.81
363.656	422.81
363.882	424.81
364.109	414.81
364.335	414.81
364.562	413.81
364.788	409.81
365.015	415.81
365.241	402.81
365.468	416.81
365.694	424.81
365.92	413.81
366.147	406.81
366.373	407.81
366.599	402.81
366.826	413.81
367.052	411.81
367.278	412.81
367.505	410.81
367.731	420.81
367.957	409.81
368.184	420.81
368.41	406.81
368.636	421.81
368.862	444.81
369.089	429.81
369.315	430.81
369.541	404.81
369.767	420.81
369.993	412.81
370.219	431.81
370.445	435.81
370.672	401.81
370.898	425.81
371.124	423.81
371.35	423.81
371.576	412.81
371.802	427.81
372.028	413.81
372.254	417.81
372.48	411.81
372.706	435.81
372.932	425.81
373.158	432.81
373.384	439.81
373.61	413.81
373.835	423.81
374.061	448.81
374.287	447.81
374.513	446.81
374.739	433.81
374.965	435.81
375.191	431.81
375.416	432.81
375.642	421.81
375.868	438.81
376.094	426.81
376.319	420.81
376.545	414.81
376.771	431.81
376.997	432.81
377.222	430.81
377.448	432.81
377.674	435.81
377.899	422.81
378.125	416.81
378.35	426.81
378.576	416.81
378.802	403.81
379.027	415.81
379.253	434.81
379.478	404.81
379.704	413.81
379.929	442.81
380.155	420.81
380.38	417.81
380.606	423.81
380.831	413.81
381.057	426.81
381.282	402.81
381.507	431.81
381.733	415.81
381.958	401.81
382.184	431.81
382.409	422.81
382.634	439.81
382.86	404.81
383.085	435.81
383.31	434.81
383.535	429.81
383.761	442.81
383.986	466.81
384.211	448.81
384.436	455.81
384.662	471.81
384.887	451.81
385.112	464.81
385.337	491.81
385.562	476.81
385.787	473.81
386.013	475.81
386.238	464.81
386.463	479.81
386.688	504.81
386.913	474.81
387.138	458.81
387.363	471.81
387.588	459.81
387.813	465.81
388.038	466.81
388.263	471.81
388.488	464.81
388.713	451.81
388.938	447.81
389.163	478.81
389.387	473.81
389.612	453.81
389.837	451.81
390.062	486.81
390.287	477.81
390.512	466.81
390.736	459.81
390.961	478.81
391.186	476.81
391.411	482.81
391.636	499.81
391.86	495.81
392.085	496.81
392.31	516.81
392.534	495.81
392.759	504.81
392.984	480.81
393.208	500.81
393.433	475.81
393.658	473.81
393.882	470.81
394.107	474.81
394.331	470.81
394.556	477.81
394.78	485.81
395.005	500.81
395.229	474.81
395.454	512.81
395.678	496.81
395.903	515.81
396.127	513.81
396.352	505.81
396.576	495.81
396.801	485.81
397.025	513.81
397.249	505.81
397.474	506.81
397.698	516.81
397.922	524.81
398.147	548.81
398.371	533.81
398.595	537.81
398.82	557.81
399.044	575.81
399.268	580.81
399.492	622.81
399.717	688.81
399.941	726.81
400.165	716.81
400.389	693.81
400.613	613.81
400.837	599.81
401.062	606.81
401.286	553.81
401.51	565.81
401.734	546.81
401.958	533.81
402.182	567.81
402.406	603.81
402.63	582.81
402.854	575.81
403.078	556.81
403.302	584.81
403.526	597.81
403.75	614.81
403.974	593.81
404.198	573.81
404.422	604.81
404.645	616.81
404.869	596.81
405.093	643.81
405.317	621.81
405.541	679.81
405.765	601.81
405.988	601.81
406.212	604.81
406.436	625.81
406.66	637.81
406.883	621.81
407.107	645.81
407.331	702.81
407.555	759.81
407.778	747.81
408.002	709.81
408.226	671.81
408.449	646.81
408.673	634.81
408.896	637.81
409.12	668.81
409.344	659.81
409.567	602.81
409.791	590.81
410.014	592.81
410.238	605.81
410.461	553.81
410.685	572.81
410.908	605.81
411.132	637.81
411.355	658.81
411.578	622.81
411.802	595.81
412.025	587.81
412.249	589.81
412.472	572.81
412.695	661.81
412.919	621.81
413.142	573.81
413.365	571.81
413.589	564.81
413.812	555.81
414.035	549.81
414.258	546.81
414.482	543.81
414.705	550.81
414.928	543.81
415.151	547.81
415.374	527.81
415.597	546.81
415.821	544.81
416.044	547.81
416.267	541.81
416.49	560.81
416.713	517.81
416.936	565.81
417.159	552.81
417.382	554.81
417.605	537.81
417.828	551.81
418.051	554.81
418.274	561.81
418.497	559.81
418.72	564.81
418.943	549.81
419.166	583.81
419.389	602.81
419.611	576.81
419.834	600.81
420.057	588.81
420.28	598.81
420.503	594.81
420.726	546.81
420.948	572.81
421.171	599.81
421.394	613.81
421.617	566.81
421.839	549.81
422.062	563.81
422.285	571.81
422.507	600.81
422.73	683.81
422.953	654.81
423.175	592.81
423.398	591.81
423.621	576.81
423.843	605.81
424.066	604.81
424.288	590.81
424.511	607.81
424.733	650.81
424.956	734.81
425.178	726.81
425.401	683.81
425.623	689.81
425.846	594.81
426.068	567.81
426.291	569.81
426.513	564.81
426.735	590.81
426.958	604.81
427.18	670.81
427.402	783.81
427.625	855.81
427.847	738.81
428.069	644.81
428.292	591.81
428.514	550.81
428.736	533.81
428.958	531.81
429.181	521.81
429.403	529.81
429.625	525.81
429.847	558.81
430.069	590.81
430.292	606.81
430.514	545.81
430.736	521.81
430.958	529.81
431.18	528.81
431.402	544.81
431.624	514.81
431.846	535.81
432.068	521.81
432.29	515.81
432.512	499.81
432.734	537.81
432.956	487.81
433.178	523.81
433.4	520.81
433.622	531.81
433.844	516.81
434.066	531.81
434.287	531.81
434.509	516.81
434.731	543.81
434.953	552.81
435.175	590.81
435.397	582.81
435.618	587.81
435.84	604.81
436.062	651.81
436.284	725.81
436.505	627.81
436.727	567.81
436.949	560.81
437.17	515.81
437.392	508.81
437.614	536.81
437.835	549.81
438.057	651.81
438.278	709.81
438.5	727.81
438.721	759.81
438.943	740.81
439.165	623.81
439.386	560.81
439.608	572.81
439.829	562.81
440.05	613.81
440.272	618.81
440.493	572.81
440.715	546.81
440.936	552.81
441.158	523.81
441.379	544.81
441.6	598.81
441.822	598.81
442.043	590.81
442.264	703.81
442.486	708.81
442.707	616.81
442.928	596.81
443.149	597.81
443.371	628.81
443.592	654.81
443.813	721.81
444.034	797.81
444.255	672.81
444.476	608.81
444.698	635.81
444.919	592.81
445.14	755.81
445.361	675.81
445.582	635.81
445.803	651.81
446.024	723.81
446.245	729.81
446.466	677.81
446.687	597.81
446.908	584.81
447.129	548.81
447.35	518.81
447.571	520.81
447.792	527.81
448.013	538.81
448.234	540.81
448.455	559.81
448.675	653.81
448.896	749.81
449.117	658.81
449.338	609.81
449.559	717.81
449.779	793.81
450	649.81
450.221	547.81
450.442	513.81
450.662	527.81
450.883	510.81
451.104	543.81
451.324	523.81
451.545	506.81
451.766	463.81
451.986	467.81
452.207	479.81
452.428	472.81
452.648	457.81
452.869	472.81
453.089	483.81
453.31	500.81
453.53	499.81
453.751	459.81
453.971	455.81
454.192	484.81
454.412	476.81
454.633	443.81
454.853	468.81
455.073	452.81
455.294	458.81
455.514	547.81
455.734	551.81
455.955	465.81
456.175	466.81
456.395	453.81
456.616	446.81
456.836	439.81
457.056	455.81
457.276	440.81
457.497	457.81
457.717	447.81
457.937	460.81
458.157	477.81
458.377	471.81
458.598	475.81
458.818	519.81
459.038	565.81
459.258	596.81
459.478	553.81
459.698	541.81
459.918	517.81
460.138	536.81
460.358	553.81
460.578	550.81
460.798	533.81
461.018	543.81
461.238	558.81
461.458	539.81
461.678	508.81
461.898	565.81
462.118	559.81
462.338	569.81
462.558	586.81
462.777	584.81
462.997	597.81
463.217	645.81
463.437	646.81
463.657	600.81
463.876	585.81
464.096	610.81
464.316	616.81
464.536	600.81
464.755	583.81
464.975	580.81
465.195	615.81
465.414	612.81
465.634	555.81
465.854	523.81
466.073	516.81
466.293	499.81
466.512	499.81
466.732	507.81
466.951	489.81
467.171	480.81
467.391	503.81
467.61	494.81
467.829	497.81
468.049	497.81
468.268	492.81
468.488	495.81
468.707	462.81
468.927	489.81
469.146	475.81
469.365	463.81
469.585	489.81
469.804	474.81
470.023	486.81
470.243	504.81
470.462	537.81
470.681	502.81
470.901	492.81
471.12	489.81
471.339	496.81
471.558	500.81
471.777	489.81
471.997	483.81
472.216	500.81
472.435	513.81
472.654	496.81
472.873	488.81
473.092	468.81
473.311	475.81
473.53	478.81
473.749	477.81
473.968	525.81
474.187	605.81
474.406	631.81
474.625	537.81
474.844	499.81
475.063	493.81
475.282	510.81
475.501	487.81
475.72	509.81
475.939	521.81
476.158	494.81
476.377	491.81
476.596	502.81
476.814	523.81
477.033	526.81
477.252	537.81
477.471	524.81
477.69	531.81
477.908	516.81
478.127	544.81
478.346	554.81
478.564	589.81
478.783	572.81
479.002	557.81
479.22	575.81
479.439	571.81
479.658	552.81
479.876	599.81
480.095	598.81
480.313	654.81
480.532	645.81
480.751	625.81
480.969	610.81
481.188	632.81
481.406	635.81
481.624	604.81
481.843	587.81
482.061	575.81
482.28	550.81
482.498	572.81
482.717	555.81
482.935	572.81
483.153	545.81
483.372	565.81
483.59	561.81
483.808	539.81
484.027	578.81
484.245	565.81
484.463	583.81
484.681	602.81
484.9	593.81
485.118	576.81
485.336	560.81
485.554	588.81
485.772	576.81
485.99	568.81
486.209	582.81
486.427	606.81
486.645	597.81
486.863	612.81
487.081	609.81
487.299	580.81
487.517	587.81
487.735	626.81
487.953	577.81
488.171	606.81
488.389	607.81
488.607	617.81
488.825	607.81
489.043	594.81
489.261	622.81
489.479	625.81
489.696	627.81
489.914	619.81
490.132	631.81
490.35	631.81
490.568	614.81
490.786	626.81
491.003	649.81
491.221	640.81
491.439	676.81
491.657	677.81
491.874	684.81
492.092	677.81
492.31	659.81
492.527	676.81
492.745	675.81
492.963	683.81
493.18	708.81
493.398	677.81
493.615	688.81
493.833	706.81
494.05	693.81
494.268	704.81
494.485	698.81
494.703	687.81
494.92	721.81
495.138	695.81
495.355	707.81
495.573	733.81
495.79	683.81
496.008	695.81
496.225	695.81
496.442	696.81
496.66	718.81
496.877	739.81
497.094	737.81
497.312	737.81
497.529	748.81
497.746	741.81
497.963	741.81
498.181	781.81
498.398	801.81
498.615	816.81
498.832	862.81
499.049	895.81
499.267	927.81
499.484	961.81
499.701	1018.81
499.918	1047.81
500.135	1143.81
500.352	1221.81
500.569	1276.81
500.786	1301.81
501.003	1219.81
501.22	1121.81
501.437	1089.81
501.654	1029.81
