Data from 1973.PennyLincolnUp.Lamp.En5.5.200Scan.071719.P1.Changed Mount._HRD10591_15-45-51-853.txt Node
Date: Thu Jul 18 15:45:51 EDT 2019
User: cochatt
Spectrometer: HR+D1059
Trigger mode: 1
Integration Time (sec): 1.000000E-1
Scans to average: 1
Electric dark correction enabled: true
Nonlinearity correction enabled: false
Boxcar width: 0
XAxis mode: Wavelengths
Number of Pixels in Spectrum: 2048
>>>>>Begin Spectral Data<<<<<
223.165	-12.38
223.4	-12.38
223.635	-12.38
223.869	-12.38
224.104	-27.38
224.338	-8.38
224.573	-22.38
224.808	-11.38
225.042	-10.38
225.277	-4.38
225.511	5.62
225.746	-6.38
225.98	0.62
226.215	13.62
226.449	20.62
226.683	21.62
226.918	23.62
227.152	29.62
227.387	42.62
227.621	17.62
227.856	33.62
228.09	35.62
228.324	43.62
228.559	55.62
228.793	64.62
229.027	89.62
229.262	92.62
229.496	96.62
229.73	125.62
229.964	127.62
230.199	124.62
230.433	108.62
230.667	98.62
230.901	107.62
231.136	108.62
231.37	102.62
231.604	99.62
231.838	111.62
232.072	93.62
232.306	101.62
232.541	106.62
232.775	103.62
233.009	108.62
233.243	105.62
233.477	116.62
233.711	107.62
233.945	114.62
234.179	127.62
234.413	111.62
234.647	125.62
234.881	109.62
235.115	104.62
235.349	117.62
235.583	120.62
235.817	119.62
236.051	112.62
236.285	119.62
236.519	118.62
236.753	120.62
236.987	126.62
237.221	172.62
237.455	213.62
237.689	165.62
237.922	143.62
238.156	145.62
238.39	114.62
238.624	117.62
238.858	112.62
239.091	124.62
239.325	108.62
239.559	115.62
239.793	132.62
240.027	120.62
240.26	140.62
240.494	154.62
240.728	148.62
240.961	155.62
241.195	145.62
241.429	131.62
241.662	131.62
241.896	130.62
242.13	125.62
242.363	123.62
242.597	138.62
242.83	146.62
243.064	138.62
243.298	135.62
243.531	127.62
243.765	125.62
243.998	133.62
244.232	127.62
244.465	143.62
244.699	132.62
244.932	134.62
245.166	147.62
245.399	151.62
245.633	135.62
245.866	150.62
246.099	156.62
246.333	149.62
246.566	160.62
246.8	157.62
247.033	134.62
247.266	154.62
247.5	160.62
247.733	171.62
247.966	179.62
248.2	159.62
248.433	163.62
248.666	176.62
248.899	188.62
249.133	197.62
249.366	212.62
249.599	168.62
249.832	187.62
250.066	191.62
250.299	173.62
250.532	189.62
250.765	204.62
250.998	208.62
251.231	218.62
251.465	204.62
251.698	207.62
251.931	194.62
252.164	194.62
252.397	199.62
252.63	207.62
252.863	199.62
253.096	209.62
253.329	215.62
253.562	210.62
253.795	220.62
254.028	213.62
254.261	206.62
254.494	219.62
254.727	237.62
254.96	264.62
255.193	251.62
255.426	232.62
255.659	208.62
255.892	222.62
256.124	197.62
256.357	216.62
256.59	218.62
256.823	226.62
257.056	213.62
257.289	210.62
257.521	205.62
257.754	190.62
257.987	209.62
258.22	219.62
258.452	198.62
258.685	207.62
258.918	196.62
259.151	203.62
259.383	220.62
259.616	219.62
259.849	222.62
260.081	240.62
260.314	231.62
260.547	242.62
260.779	233.62
261.012	228.62
261.244	227.62
261.477	224.62
261.71	203.62
261.942	218.62
262.175	225.62
262.407	215.62
262.64	230.62
262.872	218.62
263.105	220.62
263.337	211.62
263.57	211.62
263.802	208.62
264.035	221.62
264.267	204.62
264.499	205.62
264.732	227.62
264.964	227.62
265.197	224.62
265.429	224.62
265.661	209.62
265.894	213.62
266.126	231.62
266.358	207.62
266.591	215.62
266.823	233.62
267.055	236.62
267.287	225.62
267.52	223.62
267.752	238.62
267.984	257.62
268.216	226.62
268.448	244.62
268.681	237.62
268.913	257.62
269.145	279.62
269.377	284.62
269.609	274.62
269.841	259.62
270.073	274.62
270.306	299.62
270.538	309.62
270.77	311.62
271.002	294.62
271.234	306.62
271.466	294.62
271.698	289.62
271.93	311.62
272.162	295.62
272.394	318.62
272.626	307.62
272.858	308.62
273.09	295.62
273.322	264.62
273.553	275.62
273.785	264.62
274.017	275.62
274.249	263.62
274.481	292.62
274.713	279.62
274.945	278.62
275.176	262.62
275.408	296.62
275.64	276.62
275.872	269.62
276.104	295.62
276.335	291.62
276.567	277.62
276.799	300.62
277.031	294.62
277.262	326.62
277.494	325.62
277.726	296.62
277.957	293.62
278.189	281.62
278.421	289.62
278.652	299.62
278.884	290.62
279.115	295.62
279.347	279.62
279.579	301.62
279.81	280.62
280.042	294.62
280.273	287.62
280.505	304.62
280.736	288.62
280.968	293.62
281.199	287.62
281.431	273.62
281.662	271.62
281.894	293.62
282.125	298.62
282.356	319.62
282.588	302.62
282.819	301.62
283.051	293.62
283.282	285.62
283.513	302.62
283.745	311.62
283.976	296.62
284.207	296.62
284.439	295.62
284.67	294.62
284.901	286.62
285.132	301.62
285.364	312.62
285.595	297.62
285.826	295.62
286.057	300.62
286.288	279.62
286.52	301.62
286.751	306.62
286.982	292.62
287.213	318.62
287.444	328.62
287.675	315.62
287.906	328.62
288.138	323.62
288.369	314.62
288.6	321.62
288.831	310.62
289.062	325.62
289.293	308.62
289.524	321.62
289.755	312.62
289.986	307.62
290.217	316.62
290.448	324.62
290.679	306.62
290.91	325.62
291.141	323.62
291.371	320.62
291.602	325.62
291.833	335.62
292.064	324.62
292.295	311.62
292.526	307.62
292.757	318.62
292.987	314.62
293.218	318.62
293.449	312.62
293.68	321.62
293.91	312.62
294.141	313.62
294.372	317.62
294.603	322.62
294.833	328.62
295.064	324.62
295.295	318.62
295.525	325.62
295.756	330.62
295.987	334.62
296.217	339.62
296.448	341.62
296.679	318.62
296.909	331.62
297.14	334.62
297.37	328.62
297.601	347.62
297.831	328.62
298.062	334.62
298.292	323.62
298.523	326.62
298.753	336.62
298.984	333.62
299.214	339.62
299.445	328.62
299.675	356.62
299.905	346.62
300.136	335.62
300.366	349.62
300.597	335.62
300.827	336.62
301.057	365.62
301.288	349.62
301.518	348.62
301.748	344.62
301.979	351.62
302.209	365.62
302.439	356.62
302.669	349.62
302.9	357.62
303.13	354.62
303.36	355.62
303.59	367.62
303.82	358.62
304.051	374.62
304.281	381.62
304.511	354.62
304.741	375.62
304.971	381.62
305.201	364.62
305.431	353.62
305.661	361.62
305.891	355.62
306.121	356.62
306.352	355.62
306.582	367.62
306.812	353.62
307.042	363.62
307.272	367.62
307.502	344.62
307.731	367.62
307.961	359.62
308.191	349.62
308.421	344.62
308.651	342.62
308.881	364.62
309.111	356.62
309.341	368.62
309.571	367.62
309.8	357.62
310.03	371.62
310.26	403.62
310.49	385.62
310.72	395.62
310.949	385.62
311.179	379.62
311.409	387.62
311.639	398.62
311.868	395.62
312.098	392.62
312.328	392.62
312.557	408.62
312.787	405.62
313.017	408.62
313.246	400.62
313.476	392.62
313.706	385.62
313.935	409.62
314.165	415.62
314.394	419.62
314.624	427.62
314.853	416.62
315.083	397.62
315.312	408.62
315.542	394.62
315.771	402.62
316.001	388.62
316.23	377.62
316.46	407.62
316.689	408.62
316.919	389.62
317.148	379.62
317.377	423.62
317.607	405.62
317.836	379.62
318.065	408.62
318.295	375.62
318.524	402.62
318.753	401.62
318.983	394.62
319.212	391.62
319.441	403.62
319.67	403.62
319.9	386.62
320.129	402.62
320.358	406.62
320.587	412.62
320.816	416.62
321.046	402.62
321.275	406.62
321.504	412.62
321.733	415.62
321.962	419.62
322.191	422.62
322.42	427.62
322.649	426.62
322.878	437.62
323.108	442.62
323.337	475.62
323.566	479.62
323.795	480.62
324.024	523.62
324.253	575.62
324.482	740.62
324.71	1074.62
324.939	1510.62
325.168	1347.62
325.397	755.62
325.626	563.62
325.855	482.62
326.084	483.62
326.313	465.62
326.542	484.62
326.77	508.62
326.999	574.62
327.228	681.62
327.457	996.62
327.686	1158.62
327.914	862.62
328.143	595.62
328.372	557.62
328.6	502.62
328.829	511.62
329.058	508.62
329.287	526.62
329.515	526.62
329.744	471.62
329.972	499.62
330.201	500.62
330.43	513.62
330.658	531.62
330.887	551.62
331.115	546.62
331.344	491.62
331.572	496.62
331.801	484.62
332.03	471.62
332.258	467.62
332.486	485.62
332.715	487.62
332.943	485.62
333.172	491.62
333.4	508.62
333.629	515.62
333.857	529.62
334.085	528.62
334.314	523.62
334.542	565.62
334.771	546.62
334.999	529.62
335.227	489.62
335.455	485.62
335.684	482.62
335.912	470.62
336.14	480.62
336.369	492.62
336.597	491.62
336.825	488.62
337.053	470.62
337.281	464.62
337.51	458.62
337.738	482.62
337.966	468.62
338.194	478.62
338.422	469.62
338.65	447.62
338.878	461.62
339.106	446.62
339.334	439.62
339.562	439.62
339.79	435.62
340.018	460.62
340.246	447.62
340.474	461.62
340.702	455.62
340.93	437.62
341.158	457.62
341.386	434.62
341.614	458.62
341.842	451.62
342.07	406.62
342.298	439.62
342.526	427.62
342.754	423.62
342.981	431.62
343.209	467.62
343.437	454.62
343.665	452.62
343.893	483.62
344.12	488.62
344.348	492.62
344.576	486.62
344.804	464.62
345.031	468.62
345.259	451.62
345.487	439.62
345.714	452.62
345.942	439.62
346.17	435.62
346.397	425.62
346.625	429.62
346.853	423.62
347.08	407.62
347.308	432.62
347.535	431.62
347.763	426.62
347.99	443.62
348.218	432.62
348.445	443.62
348.673	448.62
348.9	444.62
349.128	437.62
349.355	422.62
349.583	419.62
349.81	419.62
350.037	413.62
350.265	427.62
350.492	415.62
350.72	420.62
350.947	412.62
351.174	412.62
351.402	429.62
351.629	434.62
351.856	439.62
352.083	414.62
352.311	422.62
352.538	427.62
352.765	443.62
352.992	420.62
353.22	417.62
353.447	416.62
353.674	417.62
353.901	413.62
354.128	424.62
354.355	422.62
354.583	415.62
354.81	400.62
355.037	423.62
355.264	407.62
355.491	421.62
355.718	388.62
355.945	421.62
356.172	400.62
356.399	407.62
356.626	415.62
356.853	411.62
357.08	398.62
357.307	407.62
357.534	402.62
357.761	388.62
357.988	400.62
358.215	411.62
358.441	435.62
358.668	414.62
358.895	412.62
359.122	421.62
359.349	405.62
359.576	440.62
359.802	434.62
360.029	455.62
360.256	458.62
360.483	445.62
360.709	439.62
360.936	425.62
361.163	417.62
361.39	424.62
361.616	401.62
361.843	404.62
362.07	421.62
362.296	407.62
362.523	438.62
362.749	439.62
362.976	423.62
363.203	407.62
363.429	401.62
363.656	420.62
363.882	400.62
364.109	393.62
364.335	413.62
364.562	426.62
364.788	431.62
365.015	412.62
365.241	389.62
365.468	388.62
365.694	425.62
365.92	407.62
366.147	398.62
366.373	409.62
366.599	409.62
366.826	396.62
367.052	407.62
367.278	420.62
367.505	406.62
367.731	400.62
367.957	413.62
368.184	393.62
368.41	427.62
368.636	438.62
368.862	417.62
369.089	412.62
369.315	405.62
369.541	415.62
369.767	414.62
369.993	407.62
370.219	432.62
370.445	400.62
370.672	423.62
370.898	423.62
371.124	436.62
371.35	422.62
371.576	415.62
371.802	402.62
372.028	410.62
372.254	403.62
372.48	416.62
372.706	430.62
372.932	450.62
373.158	416.62
373.384	415.62
373.61	434.62
373.835	429.62
374.061	427.62
374.287	430.62
374.513	439.62
374.739	449.62
374.965	448.62
375.191	441.62
375.416	443.62
375.642	444.62
375.868	420.62
376.094	442.62
376.319	427.62
376.545	416.62
376.771	408.62
376.997	413.62
377.222	411.62
377.448	414.62
377.674	423.62
377.899	427.62
378.125	437.62
378.35	404.62
378.576	410.62
378.802	421.62
379.027	418.62
379.253	424.62
379.478	424.62
379.704	420.62
379.929	427.62
380.155	414.62
380.38	425.62
380.606	400.62
380.831	415.62
381.057	417.62
381.282	405.62
381.507	410.62
381.733	433.62
381.958	440.62
382.184	429.62
382.409	415.62
382.634	417.62
382.86	423.62
383.085	451.62
383.31	452.62
383.535	452.62
383.761	448.62
383.986	445.62
384.211	456.62
384.436	439.62
384.662	439.62
384.887	460.62
385.112	440.62
385.337	448.62
385.562	480.62
385.787	475.62
386.013	464.62
386.238	463.62
386.463	457.62
386.688	482.62
386.913	476.62
387.138	482.62
387.363	475.62
387.588	465.62
387.813	478.62
388.038	473.62
388.263	471.62
388.488	485.62
388.713	485.62
388.938	472.62
389.163	468.62
389.387	487.62
389.612	465.62
389.837	448.62
390.062	470.62
390.287	459.62
390.512	457.62
390.736	482.62
390.961	459.62
391.186	478.62
391.411	483.62
391.636	499.62
391.86	477.62
392.085	519.62
392.31	494.62
392.534	497.62
392.759	487.62
392.984	475.62
393.208	490.62
393.433	481.62
393.658	486.62
393.882	492.62
394.107	499.62
394.331	503.62
394.556	479.62
394.78	484.62
395.005	520.62
395.229	513.62
395.454	521.62
395.678	495.62
395.903	540.62
396.127	529.62
396.352	527.62
396.576	495.62
396.801	514.62
397.025	480.62
397.249	499.62
397.474	504.62
397.698	526.62
397.922	530.62
398.147	548.62
398.371	560.62
398.595	550.62
398.82	524.62
399.044	595.62
399.268	605.62
399.492	654.62
399.717	722.62
399.941	738.62
400.165	740.62
400.389	701.62
400.613	665.62
400.837	621.62
401.062	576.62
401.286	563.62
401.51	581.62
401.734	577.62
401.958	564.62
402.182	556.62
402.406	592.62
402.63	572.62
402.854	581.62
403.078	593.62
403.302	582.62
403.526	582.62
403.75	588.62
403.974	614.62
404.198	591.62
404.422	609.62
404.645	591.62
404.869	585.62
405.093	613.62
405.317	649.62
405.541	691.62
405.765	648.62
405.988	623.62
406.212	645.62
406.436	620.62
406.66	637.62
406.883	641.62
407.107	659.62
407.331	704.62
407.555	757.62
407.778	765.62
408.002	717.62
408.226	664.62
408.449	653.62
408.673	625.62
408.896	672.62
409.12	688.62
409.344	680.62
409.567	637.62
409.791	620.62
410.014	631.62
410.238	576.62
410.461	581.62
410.685	601.62
410.908	570.62
411.132	623.62
411.355	627.62
411.578	639.62
411.802	569.62
412.025	589.62
412.249	581.62
412.472	589.62
412.695	625.62
412.919	619.62
413.142	589.62
413.365	565.62
413.589	567.62
413.812	569.62
414.035	559.62
414.258	548.62
414.482	553.62
414.705	538.62
414.928	571.62
415.151	560.62
415.374	567.62
415.597	574.62
415.821	524.62
416.044	539.62
416.267	553.62
416.49	540.62
416.713	534.62
416.936	571.62
417.159	546.62
417.382	533.62
417.605	551.62
417.828	536.62
418.051	579.62
418.274	552.62
418.497	550.62
418.72	574.62
418.943	561.62
419.166	571.62
419.389	635.62
419.611	582.62
419.834	575.62
420.057	586.62
420.28	589.62
420.503	548.62
420.726	571.62
420.948	581.62
421.171	615.62
421.394	626.62
421.617	598.62
421.839	582.62
422.062	558.62
422.285	561.62
422.507	614.62
422.73	699.62
422.953	646.62
423.175	606.62
423.398	585.62
423.621	594.62
423.843	605.62
424.066	627.62
424.288	609.62
424.511	597.62
424.733	665.62
424.956	726.62
425.178	728.62
425.401	689.62
425.623	694.62
425.846	612.62
426.068	598.62
426.291	568.62
426.513	575.62
426.735	591.62
426.958	622.62
427.18	673.62
427.402	809.62
427.625	833.62
427.847	733.62
428.069	667.62
428.292	623.62
428.514	573.62
428.736	575.62
428.958	549.62
429.181	527.62
429.403	527.62
429.625	537.62
429.847	551.62
430.069	606.62
430.292	615.62
430.514	563.62
430.736	560.62
430.958	546.62
431.18	512.62
431.402	512.62
431.624	525.62
431.846	529.62
432.068	553.62
432.29	513.62
432.512	510.62
432.734	538.62
432.956	540.62
433.178	518.62
433.4	525.62
433.622	523.62
433.844	537.62
434.066	519.62
434.287	532.62
434.509	527.62
434.731	549.62
434.953	546.62
435.175	559.62
435.397	623.62
435.618	579.62
435.84	607.62
436.062	668.62
436.284	731.62
436.505	628.62
436.727	561.62
436.949	549.62
437.17	535.62
437.392	522.62
437.614	542.62
437.835	575.62
438.057	617.62
438.278	688.62
438.5	750.62
438.721	791.62
438.943	761.62
439.165	595.62
439.386	549.62
439.608	582.62
439.829	565.62
440.05	571.62
440.272	605.62
440.493	607.62
440.715	567.62
440.936	552.62
441.158	550.62
441.379	544.62
441.6	575.62
441.822	580.62
442.043	649.62
442.264	664.62
442.486	729.62
442.707	626.62
442.928	594.62
443.149	583.62
443.371	596.62
443.592	630.62
443.813	721.62
444.034	784.62
444.255	689.62
444.476	622.62
444.698	625.62
444.919	615.62
445.14	722.62
445.361	680.62
445.582	631.62
445.803	658.62
446.024	725.62
446.245	760.62
446.466	669.62
446.687	615.62
446.908	574.62
447.129	564.62
447.35	545.62
447.571	537.62
447.792	517.62
448.013	529.62
448.234	532.62
448.455	585.62
448.675	661.62
448.896	741.62
449.117	641.62
449.338	639.62
449.559	719.62
449.779	781.62
450	665.62
450.221	561.62
450.442	532.62
450.662	519.62
450.883	517.62
451.104	532.62
451.324	515.62
451.545	488.62
451.766	473.62
451.986	482.62
452.207	496.62
452.428	458.62
452.648	473.62
452.869	488.62
453.089	475.62
453.31	475.62
453.53	476.62
453.751	451.62
453.971	449.62
454.192	469.62
454.412	471.62
454.633	476.62
454.853	473.62
455.073	469.62
455.294	491.62
455.514	519.62
455.734	543.62
455.955	471.62
456.175	460.62
456.395	447.62
456.616	434.62
456.836	436.62
457.056	438.62
457.276	430.62
457.497	451.62
457.717	433.62
457.937	465.62
458.157	497.62
458.377	490.62
458.598	505.62
458.818	519.62
459.038	566.62
459.258	598.62
459.478	559.62
459.698	525.62
459.918	519.62
460.138	519.62
460.358	550.62
460.578	542.62
460.798	545.62
461.018	560.62
461.238	551.62
461.458	538.62
461.678	538.62
461.898	548.62
462.118	520.62
462.338	570.62
462.558	605.62
462.777	585.62
462.997	639.62
463.217	644.62
463.437	641.62
463.657	623.62
463.876	630.62
464.096	596.62
464.316	600.62
464.536	594.62
464.755	585.62
464.975	609.62
465.195	616.62
465.414	607.62
465.634	543.62
465.854	536.62
466.073	534.62
466.293	513.62
466.512	513.62
466.732	488.62
466.951	493.62
467.171	491.62
467.391	504.62
467.61	507.62
467.829	495.62
468.049	525.62
468.268	489.62
468.488	480.62
468.707	476.62
468.927	473.62
469.146	477.62
469.365	489.62
469.585	485.62
469.804	488.62
470.023	493.62
470.243	498.62
470.462	499.62
470.681	513.62
470.901	514.62
471.12	516.62
471.339	513.62
471.558	491.62
471.777	498.62
471.997	485.62
472.216	479.62
472.435	516.62
472.654	509.62
472.873	484.62
473.092	475.62
473.311	455.62
473.53	481.62
473.749	498.62
473.968	539.62
474.187	579.62
474.406	624.62
474.625	529.62
474.844	496.62
475.063	494.62
475.282	482.62
475.501	493.62
475.72	503.62
475.939	510.62
476.158	502.62
476.377	503.62
476.596	478.62
476.814	509.62
477.033	519.62
477.252	519.62
477.471	541.62
477.69	532.62
477.908	530.62
478.127	548.62
478.346	555.62
478.564	561.62
478.783	576.62
479.002	584.62
479.22	599.62
479.439	584.62
479.658	590.62
479.876	601.62
480.095	611.62
480.313	624.62
480.532	646.62
480.751	616.62
480.969	633.62
481.188	651.62
481.406	647.62
481.624	634.62
481.843	606.62
482.061	575.62
482.28	583.62
482.498	586.62
482.717	567.62
482.935	577.62
483.153	567.62
483.372	558.62
483.59	574.62
483.808	580.62
484.027	586.62
484.245	577.62
484.463	576.62
484.681	582.62
484.9	578.62
485.118	592.62
485.336	565.62
485.554	582.62
485.772	584.62
485.99	609.62
486.209	603.62
486.427	600.62
486.645	602.62
486.863	630.62
487.081	591.62
487.299	601.62
487.517	613.62
487.735	581.62
487.953	614.62
488.171	629.62
488.389	619.62
488.607	603.62
488.825	595.62
489.043	627.62
489.261	632.62
489.479	624.62
489.696	629.62
489.914	642.62
490.132	649.62
490.35	611.62
490.568	658.62
490.786	639.62
491.003	675.62
491.221	671.62
491.439	680.62
491.657	666.62
491.874	680.62
492.092	705.62
492.31	695.62
492.527	687.62
492.745	691.62
492.963	699.62
493.18	688.62
493.398	709.62
493.615	720.62
493.833	717.62
494.05	704.62
494.268	723.62
494.485	693.62
494.703	692.62
494.92	724.62
495.138	715.62
495.355	706.62
495.573	702.62
495.79	711.62
496.008	734.62
496.225	728.62
496.442	707.62
496.66	717.62
496.877	714.62
497.094	751.62
497.312	735.62
497.529	735.62
497.746	784.62
497.963	767.62
498.181	803.62
498.398	840.62
498.615	856.62
498.832	860.62
499.049	898.62
499.267	932.62
499.484	982.62
499.701	1035.62
499.918	1063.62
500.135	1180.62
500.352	1267.62
500.569	1293.62
500.786	1301.62
501.003	1263.62
501.22	1183.62
501.437	1116.62
501.654	1066.62
