Data from 1973.PennyLincolnUp.Lamp.En5.5.200Scan.071719.P1.Changed Mount._HRD10591_15-44-20-852.txt Node
Date: Thu Jul 18 15:44:20 EDT 2019
User: cochatt
Spectrometer: HR+D1059
Trigger mode: 1
Integration Time (sec): 1.000000E-1
Scans to average: 1
Electric dark correction enabled: true
Nonlinearity correction enabled: false
Boxcar width: 0
XAxis mode: Wavelengths
Number of Pixels in Spectrum: 2048
>>>>>Begin Spectral Data<<<<<
223.165	-4.44
223.4	-4.44
223.635	-4.44
223.869	-12.44
224.104	-22.44
224.338	-26.44
224.573	-11.44
224.808	-11.44
225.042	-1.44
225.277	-9.44
225.511	-2.44
225.746	3.56
225.98	1.56
226.215	8.56
226.449	25.56
226.683	16.56
226.918	13.56
227.152	32.56
227.387	41.56
227.621	26.56
227.856	45.56
228.09	41.56
228.324	47.56
228.559	50.56
228.793	57.56
229.027	72.56
229.262	86.56
229.496	97.56
229.73	106.56
229.964	121.56
230.199	117.56
230.433	117.56
230.667	110.56
230.901	99.56
231.136	116.56
231.37	117.56
231.604	114.56
231.838	105.56
232.072	119.56
232.306	112.56
232.541	111.56
232.775	107.56
233.009	109.56
233.243	118.56
233.477	110.56
233.711	103.56
233.945	120.56
234.179	119.56
234.413	114.56
234.647	113.56
234.881	124.56
235.115	115.56
235.349	127.56
235.583	122.56
235.817	121.56
236.051	116.56
236.285	129.56
236.519	119.56
236.753	105.56
236.987	133.56
237.221	161.56
237.455	199.56
237.689	152.56
237.922	145.56
238.156	129.56
238.39	125.56
238.624	125.56
238.858	126.56
239.091	123.56
239.325	128.56
239.559	134.56
239.793	120.56
240.027	122.56
240.26	128.56
240.494	165.56
240.728	149.56
240.961	143.56
241.195	149.56
241.429	127.56
241.662	115.56
241.896	137.56
242.13	125.56
242.363	119.56
242.597	155.56
242.83	128.56
243.064	140.56
243.298	147.56
243.531	149.56
243.765	135.56
243.998	147.56
244.232	159.56
244.465	156.56
244.699	145.56
244.932	150.56
245.166	159.56
245.399	158.56
245.633	151.56
245.866	168.56
246.099	151.56
246.333	140.56
246.566	149.56
246.8	149.56
247.033	158.56
247.266	142.56
247.5	174.56
247.733	148.56
247.966	170.56
248.2	170.56
248.433	159.56
248.666	185.56
248.899	174.56
249.133	185.56
249.366	213.56
249.599	166.56
249.832	172.56
250.066	178.56
250.299	175.56
250.532	180.56
250.765	201.56
250.998	218.56
251.231	228.56
251.465	208.56
251.698	214.56
251.931	174.56
252.164	181.56
252.397	188.56
252.63	198.56
252.863	197.56
253.096	216.56
253.329	209.56
253.562	213.56
253.795	224.56
254.028	206.56
254.261	217.56
254.494	199.56
254.727	228.56
254.96	255.56
255.193	247.56
255.426	204.56
255.659	213.56
255.892	227.56
256.124	231.56
256.357	220.56
256.59	215.56
256.823	218.56
257.056	191.56
257.289	214.56
257.521	219.56
257.754	233.56
257.987	223.56
258.22	194.56
258.452	195.56
258.685	218.56
258.918	192.56
259.151	215.56
259.383	234.56
259.616	213.56
259.849	207.56
260.081	229.56
260.314	241.56
260.547	259.56
260.779	246.56
261.012	229.56
261.244	223.56
261.477	217.56
261.71	207.56
261.942	235.56
262.175	217.56
262.407	221.56
262.64	210.56
262.872	224.56
263.105	206.56
263.337	219.56
263.57	222.56
263.802	209.56
264.035	203.56
264.267	223.56
264.499	221.56
264.732	228.56
264.964	211.56
265.197	226.56
265.429	210.56
265.661	230.56
265.894	226.56
266.126	245.56
266.358	241.56
266.591	212.56
266.823	223.56
267.055	237.56
267.287	234.56
267.52	235.56
267.752	239.56
267.984	232.56
268.216	236.56
268.448	222.56
268.681	235.56
268.913	248.56
269.145	244.56
269.377	285.56
269.609	276.56
269.841	265.56
270.073	270.56
270.306	291.56
270.538	299.56
270.77	299.56
271.002	297.56
271.234	291.56
271.466	312.56
271.698	298.56
271.93	299.56
272.162	305.56
272.394	310.56
272.626	282.56
272.858	272.56
273.09	272.56
273.322	274.56
273.553	272.56
273.785	280.56
274.017	262.56
274.249	277.56
274.481	254.56
274.713	251.56
274.945	254.56
275.176	263.56
275.408	279.56
275.64	251.56
275.872	259.56
276.104	271.56
276.335	283.56
276.567	281.56
276.799	280.56
277.031	295.56
277.262	297.56
277.494	311.56
277.726	288.56
277.957	297.56
278.189	292.56
278.421	283.56
278.652	284.56
278.884	261.56
279.115	254.56
279.347	294.56
279.579	276.56
279.81	277.56
280.042	255.56
280.273	280.56
280.505	279.56
280.736	276.56
280.968	282.56
281.199	281.56
281.431	276.56
281.662	272.56
281.894	284.56
282.125	295.56
282.356	301.56
282.588	309.56
282.819	314.56
283.051	284.56
283.282	297.56
283.513	280.56
283.745	279.56
283.976	296.56
284.207	286.56
284.439	280.56
284.67	287.56
284.901	287.56
285.132	314.56
285.364	294.56
285.595	311.56
285.826	318.56
286.057	295.56
286.288	301.56
286.52	299.56
286.751	298.56
286.982	305.56
287.213	296.56
287.444	319.56
287.675	301.56
287.906	307.56
288.138	305.56
288.369	327.56
288.6	321.56
288.831	313.56
289.062	306.56
289.293	310.56
289.524	314.56
289.755	309.56
289.986	311.56
290.217	305.56
290.448	320.56
290.679	312.56
290.91	309.56
291.141	296.56
291.371	328.56
291.602	331.56
291.833	315.56
292.064	329.56
292.295	314.56
292.526	301.56
292.757	315.56
292.987	308.56
293.218	325.56
293.449	307.56
293.68	313.56
293.91	322.56
294.141	306.56
294.372	333.56
294.603	320.56
294.833	309.56
295.064	317.56
295.295	308.56
295.525	326.56
295.756	312.56
295.987	317.56
296.217	331.56
296.448	344.56
296.679	321.56
296.909	327.56
297.14	322.56
297.37	313.56
297.601	332.56
297.831	319.56
298.062	331.56
298.292	324.56
298.523	336.56
298.753	332.56
298.984	332.56
299.214	318.56
299.445	340.56
299.675	348.56
299.905	346.56
300.136	321.56
300.366	334.56
300.597	333.56
300.827	322.56
301.057	329.56
301.288	351.56
301.518	361.56
301.748	339.56
301.979	340.56
302.209	355.56
302.439	375.56
302.669	353.56
302.9	355.56
303.13	331.56
303.36	342.56
303.59	375.56
303.82	340.56
304.051	356.56
304.281	345.56
304.511	347.56
304.741	354.56
304.971	352.56
305.201	345.56
305.431	347.56
305.661	361.56
305.891	340.56
306.121	356.56
306.352	369.56
306.582	354.56
306.812	356.56
307.042	344.56
307.272	342.56
307.502	362.56
307.731	347.56
307.961	346.56
308.191	356.56
308.421	360.56
308.651	359.56
308.881	356.56
309.111	367.56
309.341	363.56
309.571	378.56
309.8	340.56
310.03	362.56
310.26	391.56
310.49	369.56
310.72	352.56
310.949	380.56
311.179	373.56
311.409	337.56
311.639	377.56
311.868	367.56
312.098	389.56
312.328	391.56
312.557	389.56
312.787	397.56
313.017	394.56
313.246	415.56
313.476	403.56
313.706	380.56
313.935	396.56
314.165	383.56
314.394	406.56
314.624	389.56
314.853	377.56
315.083	378.56
315.312	370.56
315.542	377.56
315.771	366.56
316.001	363.56
316.23	376.56
316.46	374.56
316.689	376.56
316.919	406.56
317.148	384.56
317.377	403.56
317.607	393.56
317.836	385.56
318.065	359.56
318.295	394.56
318.524	399.56
318.753	385.56
318.983	399.56
319.212	390.56
319.441	378.56
319.67	383.56
319.9	383.56
320.129	383.56
320.358	395.56
320.587	400.56
320.816	391.56
321.046	390.56
321.275	412.56
321.504	401.56
321.733	407.56
321.962	415.56
322.191	409.56
322.42	417.56
322.649	409.56
322.878	418.56
323.108	419.56
323.337	445.56
323.566	443.56
323.795	471.56
324.024	486.56
324.253	549.56
324.482	714.56
324.71	1005.56
324.939	1418.56
325.168	1241.56
325.397	679.56
325.626	536.56
325.855	470.56
326.084	461.56
326.313	446.56
326.542	441.56
326.77	452.56
326.999	531.56
327.228	667.56
327.457	926.56
327.686	1085.56
327.914	783.56
328.143	574.56
328.372	503.56
328.6	517.56
328.829	506.56
329.058	488.56
329.287	483.56
329.515	477.56
329.744	461.56
329.972	474.56
330.201	471.56
330.43	517.56
330.658	526.56
330.887	513.56
331.115	525.56
331.344	476.56
331.572	476.56
331.801	490.56
332.03	467.56
332.258	452.56
332.486	461.56
332.715	466.56
332.943	470.56
333.172	476.56
333.4	497.56
333.629	489.56
333.857	486.56
334.085	503.56
334.314	510.56
334.542	545.56
334.771	549.56
334.999	491.56
335.227	531.56
335.455	502.56
335.684	468.56
335.912	470.56
336.14	455.56
336.369	453.56
336.597	467.56
336.825	467.56
337.053	477.56
337.281	461.56
337.51	462.56
337.738	489.56
337.966	436.56
338.194	451.56
338.422	467.56
338.65	471.56
338.878	447.56
339.106	449.56
339.334	453.56
339.562	455.56
339.79	426.56
340.018	430.56
340.246	429.56
340.474	442.56
340.702	460.56
340.93	430.56
341.158	435.56
341.386	430.56
341.614	442.56
341.842	411.56
342.07	423.56
342.298	438.56
342.526	435.56
342.754	410.56
342.981	429.56
343.209	439.56
343.437	455.56
343.665	463.56
343.893	458.56
344.12	484.56
344.348	471.56
344.576	465.56
344.804	455.56
345.031	444.56
345.259	462.56
345.487	439.56
345.714	445.56
345.942	414.56
346.17	434.56
346.397	412.56
346.625	415.56
346.853	391.56
347.08	421.56
347.308	430.56
347.535	413.56
347.763	400.56
347.99	440.56
348.218	435.56
348.445	424.56
348.673	423.56
348.9	421.56
349.128	410.56
349.355	414.56
349.583	407.56
349.81	399.56
350.037	411.56
350.265	395.56
350.492	421.56
350.72	421.56
350.947	388.56
351.174	417.56
351.402	422.56
351.629	414.56
351.856	398.56
352.083	406.56
352.311	425.56
352.538	418.56
352.765	419.56
352.992	412.56
353.22	416.56
353.447	409.56
353.674	405.56
353.901	404.56
354.128	395.56
354.355	387.56
354.583	392.56
354.81	399.56
355.037	391.56
355.264	409.56
355.491	389.56
355.718	398.56
355.945	415.56
356.172	409.56
356.399	393.56
356.626	402.56
356.853	385.56
357.08	384.56
357.307	379.56
357.534	402.56
357.761	400.56
357.988	407.56
358.215	405.56
358.441	389.56
358.668	389.56
358.895	398.56
359.122	421.56
359.349	398.56
359.576	412.56
359.802	420.56
360.029	423.56
360.256	418.56
360.483	414.56
360.709	425.56
360.936	428.56
361.163	419.56
361.39	406.56
361.616	411.56
361.843	403.56
362.07	417.56
362.296	423.56
362.523	399.56
362.749	418.56
362.976	402.56
363.203	423.56
363.429	392.56
363.656	401.56
363.882	394.56
364.109	416.56
364.335	409.56
364.562	385.56
364.788	410.56
365.015	391.56
365.241	405.56
365.468	417.56
365.694	406.56
365.92	417.56
366.147	408.56
366.373	389.56
366.599	390.56
366.826	411.56
367.052	403.56
367.278	406.56
367.505	392.56
367.731	390.56
367.957	391.56
368.184	420.56
368.41	417.56
368.636	401.56
368.862	423.56
369.089	433.56
369.315	402.56
369.541	410.56
369.767	403.56
369.993	400.56
370.219	398.56
370.445	413.56
370.672	408.56
370.898	409.56
371.124	412.56
371.35	421.56
371.576	417.56
371.802	415.56
372.028	403.56
372.254	414.56
372.48	429.56
372.706	429.56
372.932	421.56
373.158	427.56
373.384	412.56
373.61	418.56
373.835	420.56
374.061	393.56
374.287	437.56
374.513	425.56
374.739	425.56
374.965	409.56
375.191	429.56
375.416	467.56
375.642	405.56
375.868	418.56
376.094	411.56
376.319	420.56
376.545	411.56
376.771	411.56
376.997	421.56
377.222	419.56
377.448	398.56
377.674	386.56
377.899	397.56
378.125	417.56
378.35	419.56
378.576	391.56
378.802	394.56
379.027	412.56
379.253	417.56
379.478	395.56
379.704	423.56
379.929	405.56
380.155	420.56
380.38	390.56
380.606	420.56
380.831	412.56
381.057	431.56
381.282	414.56
381.507	425.56
381.733	426.56
381.958	402.56
382.184	405.56
382.409	412.56
382.634	436.56
382.86	437.56
383.085	430.56
383.31	441.56
383.535	428.56
383.761	441.56
383.986	431.56
384.211	456.56
384.436	435.56
384.662	465.56
384.887	449.56
385.112	444.56
385.337	475.56
385.562	445.56
385.787	458.56
386.013	454.56
386.238	470.56
386.463	469.56
386.688	460.56
386.913	446.56
387.138	447.56
387.363	467.56
387.588	449.56
387.813	445.56
388.038	459.56
388.263	458.56
388.488	456.56
388.713	429.56
388.938	458.56
389.163	474.56
389.387	483.56
389.612	465.56
389.837	462.56
390.062	459.56
390.287	458.56
390.512	457.56
390.736	470.56
390.961	444.56
391.186	462.56
391.411	490.56
391.636	474.56
391.86	497.56
392.085	500.56
392.31	473.56
392.534	507.56
392.759	493.56
392.984	468.56
393.208	476.56
393.433	492.56
393.658	489.56
393.882	467.56
394.107	451.56
394.331	462.56
394.556	478.56
394.78	492.56
395.005	478.56
395.229	475.56
395.454	493.56
395.678	495.56
395.903	510.56
396.127	510.56
396.352	525.56
396.576	497.56
396.801	477.56
397.025	476.56
397.249	515.56
397.474	489.56
397.698	505.56
397.922	524.56
398.147	502.56
398.371	509.56
398.595	522.56
398.82	546.56
399.044	547.56
399.268	583.56
399.492	631.56
399.717	678.56
399.941	716.56
400.165	715.56
400.389	686.56
400.613	618.56
400.837	592.56
401.062	570.56
401.286	549.56
401.51	565.56
401.734	533.56
401.958	527.56
402.182	550.56
402.406	574.56
402.63	577.56
402.854	563.56
403.078	548.56
403.302	578.56
403.526	570.56
403.75	579.56
403.974	580.56
404.198	589.56
404.422	588.56
404.645	558.56
404.869	586.56
405.093	612.56
405.317	634.56
405.541	659.56
405.765	635.56
405.988	596.56
406.212	590.56
406.436	622.56
406.66	598.56
406.883	629.56
407.107	651.56
407.331	668.56
407.555	734.56
407.778	727.56
408.002	669.56
408.226	633.56
408.449	619.56
408.673	615.56
408.896	635.56
409.12	649.56
409.344	614.56
409.567	599.56
409.791	572.56
410.014	581.56
410.238	559.56
410.461	567.56
410.685	568.56
410.908	577.56
411.132	572.56
411.355	610.56
411.578	602.56
411.802	567.56
412.025	560.56
412.249	558.56
412.472	586.56
412.695	632.56
412.919	613.56
413.142	574.56
413.365	551.56
413.589	573.56
413.812	539.56
414.035	548.56
414.258	556.56
414.482	549.56
414.705	553.56
414.928	537.56
415.151	540.56
415.374	539.56
415.597	531.56
415.821	534.56
416.044	534.56
416.267	515.56
416.49	527.56
416.713	515.56
416.936	510.56
417.159	515.56
417.382	536.56
417.605	543.56
417.828	535.56
418.051	557.56
418.274	571.56
418.497	537.56
418.72	534.56
418.943	540.56
419.166	563.56
419.389	591.56
419.611	603.56
419.834	567.56
420.057	574.56
420.28	548.56
420.503	558.56
420.726	551.56
420.948	571.56
421.171	599.56
421.394	617.56
421.617	553.56
421.839	548.56
422.062	547.56
422.285	538.56
422.507	610.56
422.73	663.56
422.953	631.56
423.175	581.56
423.398	579.56
423.621	567.56
423.843	606.56
424.066	587.56
424.288	578.56
424.511	598.56
424.733	628.56
424.956	697.56
425.178	684.56
425.401	669.56
425.623	676.56
425.846	597.56
426.068	576.56
426.291	590.56
426.513	565.56
426.735	581.56
426.958	593.56
427.18	657.56
427.402	771.56
427.625	852.56
427.847	715.56
428.069	623.56
428.292	557.56
428.514	542.56
428.736	533.56
428.958	530.56
429.181	521.56
429.403	513.56
429.625	505.56
429.847	566.56
430.069	614.56
430.292	582.56
430.514	530.56
430.736	504.56
430.958	518.56
431.18	502.56
431.402	497.56
431.624	491.56
431.846	481.56
432.068	492.56
432.29	513.56
432.512	500.56
432.734	517.56
432.956	519.56
433.178	506.56
433.4	518.56
433.622	511.56
433.844	514.56
434.066	497.56
434.287	511.56
434.509	498.56
434.731	522.56
434.953	531.56
435.175	545.56
435.397	558.56
435.618	588.56
435.84	598.56
436.062	659.56
436.284	753.56
436.505	621.56
436.727	584.56
436.949	527.56
437.17	527.56
437.392	501.56
437.614	510.56
437.835	536.56
438.057	620.56
438.278	711.56
438.5	684.56
438.721	773.56
438.943	753.56
439.165	605.56
439.386	564.56
439.608	537.56
439.829	534.56
440.05	564.56
440.272	600.56
440.493	571.56
440.715	531.56
440.936	533.56
441.158	515.56
441.379	539.56
441.6	541.56
441.822	575.56
442.043	620.56
442.264	679.56
442.486	691.56
442.707	611.56
442.928	583.56
443.149	589.56
443.371	601.56
443.592	621.56
443.813	706.56
444.034	764.56
444.255	678.56
444.476	588.56
444.698	582.56
444.919	609.56
445.14	702.56
445.361	646.56
445.582	594.56
445.803	630.56
446.024	691.56
446.245	709.56
446.466	649.56
446.687	579.56
446.908	542.56
447.129	532.56
447.35	510.56
447.571	499.56
447.792	494.56
448.013	509.56
448.234	511.56
448.455	551.56
448.675	639.56
448.896	745.56
449.117	650.56
449.338	604.56
449.559	697.56
449.779	780.56
450	625.56
450.221	520.56
450.442	503.56
450.662	493.56
450.883	493.56
451.104	495.56
451.324	486.56
451.545	471.56
451.766	465.56
451.986	459.56
452.207	475.56
452.428	458.56
452.648	453.56
452.869	444.56
453.089	483.56
453.31	473.56
453.53	462.56
453.751	483.56
453.971	461.56
454.192	463.56
454.412	467.56
454.633	457.56
454.853	438.56
455.073	474.56
455.294	471.56
455.514	535.56
455.734	521.56
455.955	458.56
456.175	447.56
456.395	440.56
456.616	430.56
456.836	426.56
457.056	434.56
457.276	423.56
457.497	441.56
457.717	441.56
457.937	467.56
458.157	446.56
458.377	465.56
458.598	460.56
458.818	493.56
459.038	536.56
459.258	588.56
459.478	525.56
459.698	514.56
459.918	484.56
460.138	534.56
460.358	527.56
460.578	537.56
460.798	538.56
461.018	529.56
461.238	531.56
461.458	543.56
461.678	543.56
461.898	543.56
462.118	528.56
462.338	556.56
462.558	586.56
462.777	569.56
462.997	596.56
463.217	612.56
463.437	630.56
463.657	609.56
463.876	588.56
464.096	567.56
464.316	589.56
464.536	584.56
464.755	570.56
464.975	583.56
465.195	591.56
465.414	584.56
465.634	541.56
465.854	515.56
466.073	512.56
466.293	501.56
466.512	509.56
466.732	475.56
466.951	476.56
467.171	465.56
467.391	471.56
467.61	479.56
467.829	484.56
468.049	460.56
468.268	493.56
468.488	470.56
468.707	466.56
468.927	452.56
469.146	464.56
469.365	474.56
469.585	470.56
469.804	475.56
470.023	486.56
470.243	507.56
470.462	500.56
470.681	505.56
470.901	501.56
471.12	487.56
471.339	481.56
471.558	489.56
471.777	468.56
471.997	464.56
472.216	511.56
472.435	488.56
472.654	489.56
472.873	461.56
473.092	481.56
473.311	472.56
473.53	467.56
473.749	472.56
473.968	510.56
474.187	578.56
474.406	607.56
474.625	515.56
474.844	503.56
475.063	483.56
475.282	491.56
475.501	490.56
475.72	503.56
475.939	494.56
476.158	514.56
476.377	489.56
476.596	486.56
476.814	495.56
477.033	518.56
477.252	519.56
477.471	496.56
477.69	514.56
477.908	539.56
478.127	519.56
478.346	540.56
478.564	548.56
478.783	530.56
479.002	570.56
479.22	555.56
479.439	564.56
479.658	567.56
479.876	587.56
480.095	580.56
480.313	632.56
480.532	599.56
480.751	615.56
480.969	602.56
481.188	620.56
481.406	635.56
481.624	574.56
481.843	567.56
482.061	556.56
482.28	561.56
482.498	557.56
482.717	568.56
482.935	575.56
483.153	541.56
483.372	522.56
483.59	549.56
483.808	565.56
484.027	571.56
484.245	551.56
484.463	572.56
484.681	575.56
484.9	549.56
485.118	550.56
485.336	572.56
485.554	565.56
485.772	577.56
485.99	567.56
486.209	559.56
486.427	585.56
486.645	587.56
486.863	583.56
487.081	596.56
487.299	570.56
487.517	570.56
487.735	586.56
487.953	575.56
488.171	583.56
488.389	598.56
488.607	598.56
488.825	596.56
489.043	588.56
489.261	601.56
489.479	591.56
489.696	601.56
489.914	601.56
490.132	606.56
490.35	618.56
490.568	648.56
490.786	636.56
491.003	629.56
491.221	640.56
491.439	657.56
491.657	661.56
491.874	653.56
492.092	661.56
492.31	670.56
492.527	663.56
492.745	674.56
492.963	675.56
493.18	662.56
493.398	678.56
493.615	659.56
493.833	694.56
494.05	670.56
494.268	663.56
494.485	709.56
494.703	678.56
494.92	693.56
495.138	705.56
495.355	689.56
495.573	679.56
495.79	684.56
496.008	658.56
496.225	662.56
496.442	690.56
496.66	691.56
496.877	704.56
497.094	686.56
497.312	718.56
497.529	716.56
497.746	749.56
497.963	756.56
498.181	768.56
498.398	817.56
498.615	806.56
498.832	858.56
499.049	868.56
499.267	878.56
499.484	957.56
499.701	985.56
499.918	1055.56
500.135	1120.56
500.352	1197.56
500.569	1207.56
500.786	1269.56
501.003	1223.56
501.22	1140.56
501.437	1096.56
501.654	1003.56
