Data from 1973.PennyLincolnUp.Lamp.En5.5.200Scan.071719.P1.Changed Mount._HRD10591_15-44-32-853.txt Node
Date: Thu Jul 18 15:44:32 EDT 2019
User: cochatt
Spectrometer: HR+D1059
Trigger mode: 1
Integration Time (sec): 1.000000E-1
Scans to average: 1
Electric dark correction enabled: true
Nonlinearity correction enabled: false
Boxcar width: 0
XAxis mode: Wavelengths
Number of Pixels in Spectrum: 2048
>>>>>Begin Spectral Data<<<<<
223.165	-10.94
223.4	-10.94
223.635	-10.94
223.869	-16.94
224.104	-22.94
224.338	-14.94
224.573	-13.94
224.808	-15.94
225.042	-3.94
225.277	-3.94
225.511	-8.94
225.746	9.06
225.98	14.06
226.215	14.06
226.449	8.06
226.683	16.06
226.918	24.06
227.152	27.06
227.387	43.06
227.621	30.06
227.856	50.06
228.09	47.06
228.324	52.06
228.559	52.06
228.793	60.06
229.027	84.06
229.262	95.06
229.496	110.06
229.73	119.06
229.964	146.06
230.199	121.06
230.433	117.06
230.667	110.06
230.901	122.06
231.136	104.06
231.37	110.06
231.604	118.06
231.838	122.06
232.072	118.06
232.306	106.06
232.541	118.06
232.775	112.06
233.009	118.06
233.243	119.06
233.477	118.06
233.711	110.06
233.945	108.06
234.179	128.06
234.413	126.06
234.647	119.06
234.881	114.06
235.115	111.06
235.349	128.06
235.583	124.06
235.817	113.06
236.051	126.06
236.285	128.06
236.519	120.06
236.753	118.06
236.987	144.06
237.221	157.06
237.455	204.06
237.689	173.06
237.922	147.06
238.156	122.06
238.39	136.06
238.624	125.06
238.858	120.06
239.091	114.06
239.325	124.06
239.559	120.06
239.793	121.06
240.027	145.06
240.26	146.06
240.494	154.06
240.728	156.06
240.961	143.06
241.195	154.06
241.429	141.06
241.662	145.06
241.896	129.06
242.13	141.06
242.363	138.06
242.597	142.06
242.83	164.06
243.064	141.06
243.298	145.06
243.531	136.06
243.765	134.06
243.998	147.06
244.232	151.06
244.465	153.06
244.699	140.06
244.932	152.06
245.166	153.06
245.399	161.06
245.633	149.06
245.866	150.06
246.099	145.06
246.333	162.06
246.566	161.06
246.8	158.06
247.033	165.06
247.266	150.06
247.5	158.06
247.733	160.06
247.966	193.06
248.2	177.06
248.433	171.06
248.666	170.06
248.899	180.06
249.133	198.06
249.366	211.06
249.599	184.06
249.832	193.06
250.066	158.06
250.299	183.06
250.532	185.06
250.765	209.06
250.998	218.06
251.231	217.06
251.465	195.06
251.698	183.06
251.931	191.06
252.164	187.06
252.397	197.06
252.63	192.06
252.863	202.06
253.096	205.06
253.329	237.06
253.562	227.06
253.795	208.06
254.028	220.06
254.261	214.06
254.494	215.06
254.727	253.06
254.96	258.06
255.193	251.06
255.426	237.06
255.659	224.06
255.892	230.06
256.124	231.06
256.357	244.06
256.59	216.06
256.823	206.06
257.056	214.06
257.289	200.06
257.521	210.06
257.754	226.06
257.987	213.06
258.22	200.06
258.452	207.06
258.685	212.06
258.918	208.06
259.151	209.06
259.383	221.06
259.616	223.06
259.849	224.06
260.081	241.06
260.314	245.06
260.547	247.06
260.779	247.06
261.012	256.06
261.244	227.06
261.477	227.06
261.71	237.06
261.942	226.06
262.175	252.06
262.407	237.06
262.64	226.06
262.872	225.06
263.105	221.06
263.337	192.06
263.57	209.06
263.802	194.06
264.035	216.06
264.267	237.06
264.499	226.06
264.732	209.06
264.964	225.06
265.197	222.06
265.429	221.06
265.661	215.06
265.894	222.06
266.126	233.06
266.358	215.06
266.591	223.06
266.823	228.06
267.055	248.06
267.287	227.06
267.52	229.06
267.752	245.06
267.984	232.06
268.216	243.06
268.448	246.06
268.681	246.06
268.913	239.06
269.145	267.06
269.377	274.06
269.609	272.06
269.841	266.06
270.073	280.06
270.306	287.06
270.538	303.06
270.77	311.06
271.002	296.06
271.234	288.06
271.466	296.06
271.698	284.06
271.93	313.06
272.162	309.06
272.394	314.06
272.626	286.06
272.858	268.06
273.09	271.06
273.322	286.06
273.553	282.06
273.785	285.06
274.017	270.06
274.249	281.06
274.481	301.06
274.713	280.06
274.945	290.06
275.176	266.06
275.408	280.06
275.64	270.06
275.872	269.06
276.104	278.06
276.335	268.06
276.567	265.06
276.799	312.06
277.031	321.06
277.262	308.06
277.494	334.06
277.726	290.06
277.957	297.06
278.189	296.06
278.421	277.06
278.652	282.06
278.884	285.06
279.115	289.06
279.347	266.06
279.579	284.06
279.81	284.06
280.042	278.06
280.273	282.06
280.505	284.06
280.736	280.06
280.968	296.06
281.199	301.06
281.431	280.06
281.662	314.06
281.894	298.06
282.125	281.06
282.356	304.06
282.588	324.06
282.819	324.06
283.051	314.06
283.282	291.06
283.513	297.06
283.745	305.06
283.976	292.06
284.207	279.06
284.439	300.06
284.67	293.06
284.901	309.06
285.132	306.06
285.364	304.06
285.595	310.06
285.826	306.06
286.057	313.06
286.288	318.06
286.52	300.06
286.751	310.06
286.982	308.06
287.213	303.06
287.444	312.06
287.675	318.06
287.906	322.06
288.138	335.06
288.369	317.06
288.6	312.06
288.831	313.06
289.062	324.06
289.293	327.06
289.524	315.06
289.755	324.06
289.986	310.06
290.217	320.06
290.448	318.06
290.679	315.06
290.91	302.06
291.141	314.06
291.371	327.06
291.602	317.06
291.833	317.06
292.064	303.06
292.295	328.06
292.526	289.06
292.757	305.06
292.987	315.06
293.218	318.06
293.449	313.06
293.68	319.06
293.91	321.06
294.141	327.06
294.372	304.06
294.603	316.06
294.833	333.06
295.064	310.06
295.295	329.06
295.525	324.06
295.756	339.06
295.987	321.06
296.217	346.06
296.448	335.06
296.679	327.06
296.909	316.06
297.14	329.06
297.37	338.06
297.601	356.06
297.831	322.06
298.062	324.06
298.292	325.06
298.523	328.06
298.753	334.06
298.984	332.06
299.214	346.06
299.445	317.06
299.675	365.06
299.905	356.06
300.136	349.06
300.366	323.06
300.597	349.06
300.827	346.06
301.057	366.06
301.288	352.06
301.518	348.06
301.748	344.06
301.979	350.06
302.209	338.06
302.439	361.06
302.669	357.06
302.9	364.06
303.13	354.06
303.36	362.06
303.59	354.06
303.82	362.06
304.051	364.06
304.281	353.06
304.511	345.06
304.741	379.06
304.971	354.06
305.201	349.06
305.431	381.06
305.661	365.06
305.891	363.06
306.121	367.06
306.352	358.06
306.582	330.06
306.812	336.06
307.042	350.06
307.272	355.06
307.502	350.06
307.731	344.06
307.961	363.06
308.191	356.06
308.421	357.06
308.651	348.06
308.881	386.06
309.111	352.06
309.341	379.06
309.571	375.06
309.8	392.06
310.03	374.06
310.26	383.06
310.49	369.06
310.72	394.06
310.949	397.06
311.179	408.06
311.409	396.06
311.639	374.06
311.868	382.06
312.098	389.06
312.328	406.06
312.557	401.06
312.787	403.06
313.017	402.06
313.246	389.06
313.476	396.06
313.706	387.06
313.935	402.06
314.165	396.06
314.394	407.06
314.624	425.06
314.853	405.06
315.083	392.06
315.312	402.06
315.542	418.06
315.771	398.06
316.001	374.06
316.23	386.06
316.46	399.06
316.689	406.06
316.919	390.06
317.148	385.06
317.377	399.06
317.607	375.06
317.836	381.06
318.065	369.06
318.295	388.06
318.524	396.06
318.753	383.06
318.983	383.06
319.212	375.06
319.441	402.06
319.67	402.06
319.9	411.06
320.129	401.06
320.358	398.06
320.587	396.06
320.816	394.06
321.046	415.06
321.275	410.06
321.504	402.06
321.733	399.06
321.962	409.06
322.191	407.06
322.42	423.06
322.649	424.06
322.878	405.06
323.108	424.06
323.337	456.06
323.566	467.06
323.795	481.06
324.024	511.06
324.253	561.06
324.482	746.06
324.71	986.06
324.939	1424.06
325.168	1258.06
325.397	711.06
325.626	520.06
325.855	488.06
326.084	456.06
326.313	474.06
326.542	463.06
326.77	500.06
326.999	541.06
327.228	686.06
327.457	952.06
327.686	1133.06
327.914	814.06
328.143	582.06
328.372	524.06
328.6	524.06
328.829	509.06
329.058	507.06
329.287	516.06
329.515	510.06
329.744	474.06
329.972	496.06
330.201	509.06
330.43	514.06
330.658	519.06
330.887	529.06
331.115	551.06
331.344	506.06
331.572	462.06
331.801	490.06
332.03	492.06
332.258	471.06
332.486	477.06
332.715	483.06
332.943	487.06
333.172	470.06
333.4	496.06
333.629	488.06
333.857	494.06
334.085	506.06
334.314	526.06
334.542	531.06
334.771	548.06
334.999	539.06
335.227	503.06
335.455	485.06
335.684	496.06
335.912	494.06
336.14	461.06
336.369	461.06
336.597	480.06
336.825	478.06
337.053	468.06
337.281	479.06
337.51	455.06
337.738	472.06
337.966	463.06
338.194	455.06
338.422	460.06
338.65	465.06
338.878	465.06
339.106	460.06
339.334	455.06
339.562	464.06
339.79	454.06
340.018	450.06
340.246	472.06
340.474	446.06
340.702	450.06
340.93	465.06
341.158	442.06
341.386	441.06
341.614	425.06
341.842	442.06
342.07	440.06
342.298	424.06
342.526	418.06
342.754	420.06
342.981	446.06
343.209	436.06
343.437	465.06
343.665	473.06
343.893	476.06
344.12	479.06
344.348	485.06
344.576	463.06
344.804	473.06
345.031	485.06
345.259	459.06
345.487	464.06
345.714	449.06
345.942	436.06
346.17	425.06
346.397	441.06
346.625	447.06
346.853	422.06
347.08	426.06
347.308	443.06
347.535	422.06
347.763	425.06
347.99	417.06
348.218	441.06
348.445	430.06
348.673	426.06
348.9	408.06
349.128	412.06
349.355	422.06
349.583	398.06
349.81	411.06
350.037	422.06
350.265	422.06
350.492	433.06
350.72	426.06
350.947	432.06
351.174	436.06
351.402	433.06
351.629	433.06
351.856	422.06
352.083	428.06
352.311	430.06
352.538	433.06
352.765	437.06
352.992	423.06
353.22	427.06
353.447	420.06
353.674	409.06
353.901	415.06
354.128	420.06
354.355	415.06
354.583	407.06
354.81	408.06
355.037	407.06
355.264	411.06
355.491	392.06
355.718	397.06
355.945	406.06
356.172	395.06
356.399	412.06
356.626	399.06
356.853	402.06
357.08	411.06
357.307	408.06
357.534	409.06
357.761	400.06
357.988	408.06
358.215	411.06
358.441	410.06
358.668	415.06
358.895	412.06
359.122	423.06
359.349	410.06
359.576	411.06
359.802	439.06
360.029	436.06
360.256	461.06
360.483	438.06
360.709	406.06
360.936	429.06
361.163	415.06
361.39	420.06
361.616	434.06
361.843	417.06
362.07	437.06
362.296	425.06
362.523	406.06
362.749	419.06
362.976	411.06
363.203	401.06
363.429	376.06
363.656	404.06
363.882	416.06
364.109	401.06
364.335	400.06
364.562	392.06
364.788	416.06
365.015	413.06
365.241	394.06
365.468	427.06
365.694	403.06
365.92	427.06
366.147	413.06
366.373	421.06
366.599	402.06
366.826	390.06
367.052	408.06
367.278	415.06
367.505	409.06
367.731	420.06
367.957	443.06
368.184	418.06
368.41	419.06
368.636	416.06
368.862	428.06
369.089	402.06
369.315	408.06
369.541	413.06
369.767	412.06
369.993	403.06
370.219	410.06
370.445	433.06
370.672	413.06
370.898	416.06
371.124	398.06
371.35	411.06
371.576	420.06
371.802	419.06
372.028	397.06
372.254	415.06
372.48	413.06
372.706	420.06
372.932	422.06
373.158	437.06
373.384	421.06
373.61	424.06
373.835	423.06
374.061	434.06
374.287	415.06
374.513	431.06
374.739	441.06
374.965	426.06
375.191	430.06
375.416	436.06
375.642	436.06
375.868	434.06
376.094	432.06
376.319	423.06
376.545	428.06
376.771	412.06
376.997	415.06
377.222	401.06
377.448	421.06
377.674	426.06
377.899	432.06
378.125	394.06
378.35	421.06
378.576	412.06
378.802	383.06
379.027	406.06
379.253	419.06
379.478	406.06
379.704	430.06
379.929	431.06
380.155	422.06
380.38	413.06
380.606	418.06
380.831	406.06
381.057	392.06
381.282	416.06
381.507	411.06
381.733	435.06
381.958	421.06
382.184	425.06
382.409	429.06
382.634	422.06
382.86	436.06
383.085	420.06
383.31	454.06
383.535	464.06
383.761	446.06
383.986	448.06
384.211	441.06
384.436	445.06
384.662	459.06
384.887	458.06
385.112	456.06
385.337	455.06
385.562	493.06
385.787	465.06
386.013	477.06
386.238	465.06
386.463	476.06
386.688	482.06
386.913	476.06
387.138	470.06
387.363	469.06
387.588	469.06
387.813	471.06
388.038	480.06
388.263	484.06
388.488	466.06
388.713	442.06
388.938	454.06
389.163	463.06
389.387	467.06
389.612	454.06
389.837	471.06
390.062	474.06
390.287	493.06
390.512	473.06
390.736	462.06
390.961	483.06
391.186	478.06
391.411	481.06
391.636	485.06
391.86	501.06
392.085	503.06
392.31	503.06
392.534	496.06
392.759	482.06
392.984	486.06
393.208	476.06
393.433	476.06
393.658	495.06
393.882	460.06
394.107	484.06
394.331	479.06
394.556	468.06
394.78	482.06
395.005	500.06
395.229	483.06
395.454	492.06
395.678	517.06
395.903	486.06
396.127	532.06
396.352	514.06
396.576	485.06
396.801	494.06
397.025	487.06
397.249	508.06
397.474	500.06
397.698	517.06
397.922	526.06
398.147	528.06
398.371	512.06
398.595	541.06
398.82	563.06
399.044	576.06
399.268	601.06
399.492	641.06
399.717	660.06
399.941	724.06
400.165	689.06
400.389	700.06
400.613	652.06
400.837	581.06
401.062	557.06
401.286	561.06
401.51	563.06
401.734	542.06
401.958	580.06
402.182	575.06
402.406	559.06
402.63	575.06
402.854	561.06
403.078	593.06
403.302	577.06
403.526	584.06
403.75	589.06
403.974	592.06
404.198	587.06
404.422	595.06
404.645	592.06
404.869	606.06
405.093	608.06
405.317	654.06
405.541	668.06
405.765	616.06
405.988	589.06
406.212	601.06
406.436	608.06
406.66	656.06
406.883	624.06
407.107	631.06
407.331	709.06
407.555	768.06
407.778	730.06
408.002	692.06
408.226	655.06
408.449	666.06
408.673	610.06
408.896	660.06
409.12	662.06
409.344	650.06
409.567	606.06
409.791	621.06
410.014	602.06
410.238	569.06
410.461	592.06
410.685	562.06
410.908	578.06
411.132	611.06
411.355	632.06
411.578	618.06
411.802	587.06
412.025	574.06
412.249	588.06
412.472	588.06
412.695	618.06
412.919	619.06
413.142	576.06
413.365	542.06
413.589	563.06
413.812	550.06
414.035	555.06
414.258	546.06
414.482	558.06
414.705	557.06
414.928	556.06
415.151	541.06
415.374	558.06
415.597	542.06
415.821	520.06
416.044	567.06
416.267	531.06
416.49	513.06
416.713	542.06
416.936	540.06
417.159	550.06
417.382	556.06
417.605	558.06
417.828	557.06
418.051	555.06
418.274	568.06
418.497	548.06
418.72	547.06
418.943	551.06
419.166	571.06
419.389	601.06
419.611	612.06
419.834	584.06
420.057	562.06
420.28	571.06
420.503	596.06
420.726	557.06
420.948	564.06
421.171	586.06
421.394	632.06
421.617	583.06
421.839	541.06
422.062	560.06
422.285	561.06
422.507	607.06
422.73	656.06
422.953	648.06
423.175	602.06
423.398	592.06
423.621	561.06
423.843	602.06
424.066	602.06
424.288	626.06
424.511	604.06
424.733	658.06
424.956	697.06
425.178	658.06
425.401	664.06
425.623	690.06
425.846	604.06
426.068	593.06
426.291	576.06
426.513	560.06
426.735	595.06
426.958	620.06
427.18	678.06
427.402	794.06
427.625	830.06
427.847	712.06
428.069	655.06
428.292	601.06
428.514	555.06
428.736	568.06
428.958	566.06
429.181	535.06
429.403	542.06
429.625	526.06
429.847	557.06
430.069	600.06
430.292	616.06
430.514	554.06
430.736	520.06
430.958	529.06
431.18	526.06
431.402	503.06
431.624	504.06
431.846	524.06
432.068	519.06
432.29	499.06
432.512	504.06
432.734	518.06
432.956	497.06
433.178	514.06
433.4	518.06
433.622	531.06
433.844	510.06
434.066	498.06
434.287	528.06
434.509	517.06
434.731	538.06
434.953	532.06
435.175	558.06
435.397	577.06
435.618	574.06
435.84	576.06
436.062	669.06
436.284	751.06
436.505	630.06
436.727	581.06
436.949	540.06
437.17	526.06
437.392	508.06
437.614	536.06
437.835	558.06
438.057	620.06
438.278	699.06
438.5	710.06
438.721	780.06
438.943	721.06
439.165	593.06
439.386	555.06
439.608	572.06
439.829	557.06
440.05	566.06
440.272	584.06
440.493	593.06
440.715	548.06
440.936	544.06
441.158	544.06
441.379	542.06
441.6	569.06
441.822	590.06
442.043	621.06
442.264	682.06
442.486	684.06
442.707	598.06
442.928	584.06
443.149	607.06
443.371	588.06
443.592	624.06
443.813	681.06
444.034	787.06
444.255	676.06
444.476	599.06
444.698	609.06
444.919	606.06
445.14	737.06
445.361	654.06
445.582	608.06
445.803	647.06
446.024	706.06
446.245	716.06
446.466	686.06
446.687	623.06
446.908	538.06
447.129	524.06
447.35	526.06
447.571	501.06
447.792	497.06
448.013	536.06
448.234	536.06
448.455	572.06
448.675	662.06
448.896	724.06
449.117	650.06
449.338	607.06
449.559	706.06
449.779	772.06
450	642.06
450.221	532.06
450.442	497.06
450.662	512.06
450.883	523.06
451.104	512.06
451.324	493.06
451.545	489.06
451.766	500.06
451.986	460.06
452.207	457.06
452.428	468.06
452.648	459.06
452.869	455.06
453.089	445.06
453.31	472.06
453.53	480.06
453.751	465.06
453.971	468.06
454.192	480.06
454.412	461.06
454.633	463.06
454.853	478.06
455.073	462.06
455.294	472.06
455.514	528.06
455.734	519.06
455.955	457.06
456.175	442.06
456.395	433.06
456.616	448.06
456.836	463.06
457.056	455.06
457.276	422.06
457.497	444.06
457.717	443.06
457.937	440.06
458.157	468.06
458.377	469.06
458.598	480.06
458.818	512.06
459.038	560.06
459.258	596.06
459.478	546.06
459.698	516.06
459.918	521.06
460.138	536.06
460.358	526.06
460.578	535.06
460.798	538.06
461.018	543.06
461.238	527.06
461.458	527.06
461.678	518.06
461.898	562.06
462.118	555.06
462.338	562.06
462.558	573.06
462.777	582.06
462.997	612.06
463.217	609.06
463.437	641.06
463.657	600.06
463.876	596.06
464.096	609.06
464.316	601.06
464.536	611.06
464.755	592.06
464.975	580.06
465.195	584.06
465.414	601.06
465.634	547.06
465.854	529.06
466.073	513.06
466.293	509.06
466.512	515.06
466.732	490.06
466.951	516.06
467.171	481.06
467.391	491.06
467.61	482.06
467.829	489.06
468.049	488.06
468.268	495.06
468.488	482.06
468.707	484.06
468.927	472.06
469.146	464.06
469.365	478.06
469.585	488.06
469.804	501.06
470.023	503.06
470.243	504.06
470.462	516.06
470.681	521.06
470.901	493.06
471.12	521.06
471.339	500.06
471.558	489.06
471.777	494.06
471.997	496.06
472.216	516.06
472.435	512.06
472.654	512.06
472.873	483.06
473.092	469.06
473.311	469.06
473.53	485.06
473.749	479.06
473.968	521.06
474.187	597.06
474.406	623.06
474.625	541.06
474.844	488.06
475.063	476.06
475.282	487.06
475.501	493.06
475.72	514.06
475.939	465.06
476.158	492.06
476.377	486.06
476.596	501.06
476.814	530.06
477.033	508.06
477.252	504.06
477.471	502.06
477.69	545.06
477.908	518.06
478.127	536.06
478.346	549.06
478.564	546.06
478.783	558.06
479.002	557.06
479.22	569.06
479.439	564.06
479.658	586.06
479.876	584.06
480.095	593.06
480.313	616.06
480.532	619.06
480.751	624.06
480.969	604.06
481.188	647.06
481.406	650.06
481.624	582.06
481.843	586.06
482.061	587.06
482.28	556.06
482.498	575.06
482.717	568.06
482.935	555.06
483.153	556.06
483.372	559.06
483.59	582.06
483.808	571.06
484.027	576.06
484.245	558.06
484.463	566.06
484.681	580.06
484.9	576.06
485.118	588.06
485.336	573.06
485.554	579.06
485.772	556.06
485.99	589.06
486.209	581.06
486.427	573.06
486.645	590.06
486.863	605.06
487.081	597.06
487.299	590.06
487.517	591.06
487.735	599.06
487.953	593.06
488.171	617.06
488.389	587.06
488.607	600.06
488.825	600.06
489.043	600.06
489.261	600.06
489.479	612.06
489.696	612.06
489.914	606.06
490.132	608.06
490.35	632.06
490.568	616.06
490.786	640.06
491.003	600.06
491.221	646.06
491.439	656.06
491.657	658.06
491.874	680.06
492.092	701.06
492.31	682.06
492.527	671.06
492.745	686.06
492.963	696.06
493.18	668.06
493.398	711.06
493.615	672.06
493.833	685.06
494.05	689.06
494.268	696.06
494.485	686.06
494.703	687.06
494.92	683.06
495.138	701.06
495.355	700.06
495.573	708.06
495.79	704.06
496.008	712.06
496.225	708.06
496.442	700.06
496.66	709.06
496.877	692.06
497.094	713.06
497.312	735.06
497.529	752.06
497.746	762.06
497.963	776.06
498.181	800.06
498.398	789.06
498.615	808.06
498.832	877.06
499.049	880.06
499.267	917.06
499.484	949.06
499.701	992.06
499.918	1075.06
500.135	1150.06
500.352	1208.06
500.569	1270.06
500.786	1280.06
501.003	1225.06
501.22	1121.06
501.437	1098.06
501.654	1016.06
