Data from 1973.PennyLincolnUp.Lamp.En5.5.200Scan.071719.P1._HRD10591_15-30-57-845.txt Node
Date: Thu Jul 18 15:30:57 EDT 2019
User: cochatt
Spectrometer: HR+D1059
Trigger mode: 1
Integration Time (sec): 1.000000E-1
Scans to average: 1
Electric dark correction enabled: true
Nonlinearity correction enabled: false
Boxcar width: 0
XAxis mode: Wavelengths
Number of Pixels in Spectrum: 2048
>>>>>Begin Spectral Data<<<<<
223.165	-4.19
223.4	-4.19
223.635	-4.19
223.869	-23.19
224.104	-18.19
224.338	-14.19
224.573	-15.19
224.808	-15.19
225.042	4.81
225.277	-17.19
225.511	-9.19
225.746	-4.19
225.98	7.81
226.215	21.81
226.449	16.81
226.683	25.81
226.918	22.81
227.152	20.81
227.387	26.81
227.621	41.81
227.856	51.81
228.09	43.81
228.324	44.81
228.559	60.81
228.793	61.81
229.027	72.81
229.262	50.81
229.496	58.81
229.73	61.81
229.964	70.81
230.199	67.81
230.433	73.81
230.667	79.81
230.901	82.81
231.136	71.81
231.37	72.81
231.604	85.81
231.838	72.81
232.072	63.81
232.306	75.81
232.541	79.81
232.775	70.81
233.009	90.81
233.243	77.81
233.477	85.81
233.711	87.81
233.945	79.81
234.179	70.81
234.413	67.81
234.647	87.81
234.881	69.81
235.115	63.81
235.349	63.81
235.583	84.81
235.817	88.81
236.051	88.81
236.285	85.81
236.519	73.81
236.753	74.81
236.987	90.81
237.221	83.81
237.455	85.81
237.689	65.81
237.922	71.81
238.156	77.81
238.39	65.81
238.624	72.81
238.858	65.81
239.091	83.81
239.325	72.81
239.559	76.81
239.793	69.81
240.027	75.81
240.26	75.81
240.494	76.81
240.728	73.81
240.961	60.81
241.195	69.81
241.429	67.81
241.662	74.81
241.896	80.81
242.13	83.81
242.363	73.81
242.597	63.81
242.83	72.81
243.064	76.81
243.298	84.81
243.531	78.81
243.765	74.81
243.998	79.81
244.232	63.81
244.465	67.81
244.699	93.81
244.932	87.81
245.166	80.81
245.399	66.81
245.633	59.81
245.866	65.81
246.099	85.81
246.333	69.81
246.566	64.81
246.8	72.81
247.033	70.81
247.266	86.81
247.5	74.81
247.733	56.81
247.966	79.81
248.2	64.81
248.433	71.81
248.666	77.81
248.899	69.81
249.133	80.81
249.366	94.81
249.599	81.81
249.832	73.81
250.066	83.81
250.299	69.81
250.532	75.81
250.765	81.81
250.998	68.81
251.231	69.81
251.465	71.81
251.698	83.81
251.931	68.81
252.164	62.81
252.397	78.81
252.63	68.81
252.863	69.81
253.096	78.81
253.329	82.81
253.562	69.81
253.795	83.81
254.028	88.81
254.261	96.81
254.494	74.81
254.727	76.81
254.96	76.81
255.193	79.81
255.426	77.81
255.659	79.81
255.892	73.81
256.124	72.81
256.357	82.81
256.59	73.81
256.823	79.81
257.056	76.81
257.289	85.81
257.521	58.81
257.754	83.81
257.987	67.81
258.22	83.81
258.452	70.81
258.685	91.81
258.918	76.81
259.151	77.81
259.383	78.81
259.616	67.81
259.849	74.81
260.081	77.81
260.314	80.81
260.547	75.81
260.779	83.81
261.012	68.81
261.244	73.81
261.477	73.81
261.71	81.81
261.942	69.81
262.175	84.81
262.407	84.81
262.64	84.81
262.872	72.81
263.105	80.81
263.337	87.81
263.57	66.81
263.802	73.81
264.035	85.81
264.267	68.81
264.499	67.81
264.732	82.81
264.964	91.81
265.197	77.81
265.429	78.81
265.661	81.81
265.894	76.81
266.126	70.81
266.358	61.81
266.591	78.81
266.823	68.81
267.055	64.81
267.287	71.81
267.52	58.81
267.752	84.81
267.984	77.81
268.216	77.81
268.448	66.81
268.681	81.81
268.913	92.81
269.145	88.81
269.377	84.81
269.609	69.81
269.841	73.81
270.073	76.81
270.306	64.81
270.538	72.81
270.77	79.81
271.002	77.81
271.234	88.81
271.466	86.81
271.698	68.81
271.93	81.81
272.162	81.81
272.394	77.81
272.626	73.81
272.858	81.81
273.09	89.81
273.322	80.81
273.553	79.81
273.785	90.81
274.017	83.81
274.249	79.81
274.481	87.81
274.713	89.81
274.945	72.81
275.176	98.81
275.408	67.81
275.64	76.81
275.872	83.81
276.104	73.81
276.335	63.81
276.567	58.81
276.799	76.81
277.031	82.81
277.262	78.81
277.494	76.81
277.726	70.81
277.957	69.81
278.189	76.81
278.421	76.81
278.652	68.81
278.884	87.81
279.115	83.81
279.347	89.81
279.579	79.81
279.81	89.81
280.042	78.81
280.273	71.81
280.505	79.81
280.736	68.81
280.968	80.81
281.199	80.81
281.431	86.81
281.662	78.81
281.894	83.81
282.125	79.81
282.356	78.81
282.588	80.81
282.819	68.81
283.051	81.81
283.282	84.81
283.513	88.81
283.745	80.81
283.976	71.81
284.207	72.81
284.439	82.81
284.67	75.81
284.901	83.81
285.132	78.81
285.364	81.81
285.595	76.81
285.826	85.81
286.057	80.81
286.288	83.81
286.52	80.81
286.751	93.81
286.982	83.81
287.213	68.81
287.444	71.81
287.675	73.81
287.906	81.81
288.138	81.81
288.369	80.81
288.6	88.81
288.831	84.81
289.062	83.81
289.293	82.81
289.524	72.81
289.755	93.81
289.986	75.81
290.217	83.81
290.448	78.81
290.679	91.81
290.91	81.81
291.141	75.81
291.371	80.81
291.602	81.81
291.833	75.81
292.064	71.81
292.295	70.81
292.526	75.81
292.757	70.81
292.987	91.81
293.218	61.81
293.449	69.81
293.68	82.81
293.91	80.81
294.141	80.81
294.372	84.81
294.603	81.81
294.833	82.81
295.064	97.81
295.295	80.81
295.525	71.81
295.756	96.81
295.987	91.81
296.217	79.81
296.448	79.81
296.679	64.81
296.909	72.81
297.14	88.81
297.37	87.81
297.601	80.81
297.831	78.81
298.062	78.81
298.292	91.81
298.523	73.81
298.753	88.81
298.984	79.81
299.214	77.81
299.445	86.81
299.675	91.81
299.905	85.81
300.136	91.81
300.366	86.81
300.597	75.81
300.827	85.81
301.057	84.81
301.288	74.81
301.518	80.81
301.748	81.81
301.979	89.81
302.209	85.81
302.439	80.81
302.669	72.81
302.9	78.81
303.13	75.81
303.36	88.81
303.59	101.81
303.82	88.81
304.051	84.81
304.281	80.81
304.511	79.81
304.741	87.81
304.971	96.81
305.201	97.81
305.431	81.81
305.661	93.81
305.891	74.81
306.121	72.81
306.352	80.81
306.582	78.81
306.812	77.81
307.042	93.81
307.272	71.81
307.502	71.81
307.731	86.81
307.961	80.81
308.191	88.81
308.421	92.81
308.651	86.81
308.881	103.81
309.111	78.81
309.341	91.81
309.571	75.81
309.8	101.81
310.03	86.81
310.26	85.81
310.49	84.81
310.72	95.81
310.949	88.81
311.179	85.81
311.409	87.81
311.639	86.81
311.868	98.81
312.098	68.81
312.328	87.81
312.557	84.81
312.787	97.81
313.017	87.81
313.246	84.81
313.476	72.81
313.706	88.81
313.935	72.81
314.165	87.81
314.394	96.81
314.624	80.81
314.853	85.81
315.083	79.81
315.312	93.81
315.542	90.81
315.771	82.81
316.001	96.81
316.23	100.81
316.46	85.81
316.689	84.81
316.919	83.81
317.148	81.81
317.377	76.81
317.607	79.81
317.836	83.81
318.065	79.81
318.295	92.81
318.524	84.81
318.753	74.81
318.983	84.81
319.212	88.81
319.441	89.81
319.67	81.81
319.9	92.81
320.129	98.81
320.358	94.81
320.587	98.81
320.816	89.81
321.046	94.81
321.275	93.81
321.504	90.81
321.733	77.81
321.962	82.81
322.191	98.81
322.42	97.81
322.649	91.81
322.878	83.81
323.108	92.81
323.337	94.81
323.566	81.81
323.795	83.81
324.024	90.81
324.253	99.81
324.482	95.81
324.71	94.81
324.939	76.81
325.168	79.81
325.397	81.81
325.626	98.81
325.855	87.81
326.084	92.81
326.313	95.81
326.542	84.81
326.77	83.81
326.999	75.81
327.228	90.81
327.457	96.81
327.686	81.81
327.914	72.81
328.143	85.81
328.372	87.81
328.6	89.81
328.829	89.81
329.058	93.81
329.287	82.81
329.515	96.81
329.744	80.81
329.972	89.81
330.201	80.81
330.43	78.81
330.658	83.81
330.887	97.81
331.115	90.81
331.344	83.81
331.572	97.81
331.801	98.81
332.03	93.81
332.258	82.81
332.486	84.81
332.715	93.81
332.943	98.81
333.172	80.81
333.4	91.81
333.629	95.81
333.857	84.81
334.085	111.81
334.314	83.81
334.542	96.81
334.771	87.81
334.999	83.81
335.227	99.81
335.455	84.81
335.684	110.81
335.912	100.81
336.14	96.81
336.369	100.81
336.597	95.81
336.825	90.81
337.053	91.81
337.281	82.81
337.51	80.81
337.738	82.81
337.966	86.81
338.194	94.81
338.422	90.81
338.65	80.81
338.878	78.81
339.106	95.81
339.334	94.81
339.562	93.81
339.79	86.81
340.018	101.81
340.246	96.81
340.474	97.81
340.702	96.81
340.93	76.81
341.158	98.81
341.386	79.81
341.614	82.81
341.842	99.81
342.07	89.81
342.298	92.81
342.526	93.81
342.754	83.81
342.981	86.81
343.209	83.81
343.437	99.81
343.665	88.81
343.893	98.81
344.12	90.81
344.348	93.81
344.576	91.81
344.804	76.81
345.031	86.81
345.259	87.81
345.487	98.81
345.714	91.81
345.942	91.81
346.17	80.81
346.397	88.81
346.625	78.81
346.853	88.81
347.08	91.81
347.308	95.81
347.535	85.81
347.763	104.81
347.99	89.81
348.218	85.81
348.445	81.81
348.673	77.81
348.9	94.81
349.128	102.81
349.355	105.81
349.583	86.81
349.81	91.81
350.037	92.81
350.265	86.81
350.492	82.81
350.72	79.81
350.947	93.81
351.174	87.81
351.402	84.81
351.629	99.81
351.856	91.81
352.083	81.81
352.311	92.81
352.538	87.81
352.765	83.81
352.992	82.81
353.22	91.81
353.447	91.81
353.674	81.81
353.901	69.81
354.128	78.81
354.355	94.81
354.583	82.81
354.81	84.81
355.037	92.81
355.264	97.81
355.491	79.81
355.718	89.81
355.945	79.81
356.172	75.81
356.399	76.81
356.626	75.81
356.853	79.81
357.08	93.81
357.307	94.81
357.534	85.81
357.761	101.81
357.988	73.81
358.215	81.81
358.441	78.81
358.668	86.81
358.895	89.81
359.122	85.81
359.349	81.81
359.576	86.81
359.802	98.81
360.029	95.81
360.256	72.81
360.483	88.81
360.709	76.81
360.936	92.81
361.163	82.81
361.39	83.81
361.616	87.81
361.843	84.81
362.07	95.81
362.296	96.81
362.523	88.81
362.749	81.81
362.976	73.81
363.203	95.81
363.429	76.81
363.656	88.81
363.882	78.81
364.109	77.81
364.335	83.81
364.562	87.81
364.788	81.81
365.015	90.81
365.241	83.81
365.468	89.81
365.694	89.81
365.92	82.81
366.147	98.81
366.373	88.81
366.599	81.81
366.826	65.81
367.052	84.81
367.278	77.81
367.505	89.81
367.731	80.81
367.957	88.81
368.184	84.81
368.41	86.81
368.636	93.81
368.862	79.81
369.089	86.81
369.315	88.81
369.541	82.81
369.767	91.81
369.993	74.81
370.219	97.81
370.445	84.81
370.672	81.81
370.898	84.81
371.124	80.81
371.35	86.81
371.576	84.81
371.802	86.81
372.028	80.81
372.254	90.81
372.48	75.81
372.706	94.81
372.932	83.81
373.158	89.81
373.384	76.81
373.61	93.81
373.835	90.81
374.061	73.81
374.287	94.81
374.513	76.81
374.739	93.81
374.965	85.81
375.191	83.81
375.416	87.81
375.642	83.81
375.868	82.81
376.094	90.81
376.319	85.81
376.545	91.81
376.771	82.81
376.997	87.81
377.222	84.81
377.448	91.81
377.674	83.81
377.899	71.81
378.125	77.81
378.35	89.81
378.576	86.81
378.802	85.81
379.027	85.81
379.253	95.81
379.478	85.81
379.704	80.81
379.929	96.81
380.155	92.81
380.38	81.81
380.606	78.81
380.831	84.81
381.057	86.81
381.282	88.81
381.507	103.81
381.733	104.81
381.958	91.81
382.184	90.81
382.409	94.81
382.634	88.81
382.86	93.81
383.085	87.81
383.31	99.81
383.535	86.81
383.761	85.81
383.986	86.81
384.211	83.81
384.436	98.81
384.662	82.81
384.887	91.81
385.112	75.81
385.337	92.81
385.562	89.81
385.787	95.81
386.013	113.81
386.238	81.81
386.463	85.81
386.688	95.81
386.913	83.81
387.138	77.81
387.363	100.81
387.588	93.81
387.813	89.81
388.038	100.81
388.263	96.81
388.488	75.81
388.713	92.81
388.938	89.81
389.163	72.81
389.387	94.81
389.612	89.81
389.837	78.81
390.062	98.81
390.287	95.81
390.512	89.81
390.736	90.81
390.961	78.81
391.186	84.81
391.411	79.81
391.636	84.81
391.86	95.81
392.085	88.81
392.31	93.81
392.534	104.81
392.759	99.81
392.984	89.81
393.208	79.81
393.433	86.81
393.658	101.81
393.882	85.81
394.107	93.81
394.331	92.81
394.556	97.81
394.78	85.81
395.005	94.81
395.229	80.81
395.454	92.81
395.678	91.81
395.903	82.81
396.127	84.81
396.352	96.81
396.576	78.81
396.801	89.81
397.025	78.81
397.249	101.81
397.474	93.81
397.698	91.81
397.922	91.81
398.147	88.81
398.371	90.81
398.595	92.81
398.82	82.81
399.044	85.81
399.268	80.81
399.492	101.81
399.717	83.81
399.941	88.81
400.165	80.81
400.389	80.81
400.613	91.81
400.837	89.81
401.062	97.81
401.286	81.81
401.51	101.81
401.734	99.81
401.958	102.81
402.182	89.81
402.406	99.81
402.63	83.81
402.854	91.81
403.078	86.81
403.302	83.81
403.526	89.81
403.75	83.81
403.974	92.81
404.198	94.81
404.422	88.81
404.645	104.81
404.869	98.81
405.093	95.81
405.317	92.81
405.541	93.81
405.765	99.81
405.988	91.81
406.212	87.81
406.436	101.81
406.66	89.81
406.883	86.81
407.107	101.81
407.331	91.81
407.555	90.81
407.778	75.81
408.002	86.81
408.226	93.81
408.449	101.81
408.673	94.81
408.896	90.81
409.12	82.81
409.344	98.81
409.567	119.81
409.791	109.81
410.014	92.81
410.238	100.81
410.461	111.81
410.685	99.81
410.908	104.81
411.132	92.81
411.355	104.81
411.578	107.81
411.802	107.81
412.025	98.81
412.249	95.81
412.472	96.81
412.695	91.81
412.919	98.81
413.142	107.81
413.365	81.81
413.589	108.81
413.812	85.81
414.035	114.81
414.258	102.81
414.482	100.81
414.705	99.81
414.928	111.81
415.151	98.81
415.374	108.81
415.597	99.81
415.821	87.81
416.044	97.81
416.267	107.81
416.49	94.81
416.713	95.81
416.936	91.81
417.159	93.81
417.382	99.81
417.605	93.81
417.828	103.81
418.051	86.81
418.274	94.81
418.497	93.81
418.72	103.81
418.943	85.81
419.166	98.81
419.389	97.81
419.611	92.81
419.834	80.81
420.057	97.81
420.28	90.81
420.503	106.81
420.726	98.81
420.948	87.81
421.171	88.81
421.394	100.81
421.617	103.81
421.839	109.81
422.062	104.81
422.285	97.81
422.507	103.81
422.73	104.81
422.953	94.81
423.175	99.81
423.398	89.81
423.621	92.81
423.843	101.81
424.066	84.81
424.288	111.81
424.511	111.81
424.733	110.81
424.956	100.81
425.178	104.81
425.401	92.81
425.623	104.81
425.846	97.81
426.068	100.81
426.291	112.81
426.513	99.81
426.735	100.81
426.958	103.81
427.18	95.81
427.402	100.81
427.625	99.81
427.847	100.81
428.069	98.81
428.292	118.81
428.514	113.81
428.736	88.81
428.958	99.81
429.181	107.81
429.403	101.81
429.625	98.81
429.847	98.81
430.069	111.81
430.292	97.81
430.514	88.81
430.736	109.81
430.958	109.81
431.18	117.81
431.402	93.81
431.624	98.81
431.846	114.81
432.068	110.81
432.29	113.81
432.512	108.81
432.734	97.81
432.956	111.81
433.178	96.81
433.4	103.81
433.622	104.81
433.844	115.81
434.066	123.81
434.287	110.81
434.509	95.81
434.731	102.81
434.953	96.81
435.175	81.81
435.397	109.81
435.618	96.81
435.84	97.81
436.062	100.81
436.284	100.81
436.505	109.81
436.727	98.81
436.949	94.81
437.17	104.81
437.392	106.81
437.614	98.81
437.835	88.81
438.057	95.81
438.278	109.81
438.5	110.81
438.721	102.81
438.943	100.81
439.165	96.81
439.386	101.81
439.608	107.81
439.829	99.81
440.05	102.81
440.272	103.81
440.493	109.81
440.715	73.81
440.936	111.81
441.158	100.81
441.379	99.81
441.6	91.81
441.822	103.81
442.043	101.81
442.264	104.81
442.486	96.81
442.707	97.81
442.928	97.81
443.149	107.81
443.371	96.81
443.592	98.81
443.813	104.81
444.034	87.81
444.255	96.81
444.476	112.81
444.698	91.81
444.919	100.81
445.14	222.81
445.361	160.81
445.582	111.81
445.803	100.81
446.024	89.81
446.245	116.81
446.466	97.81
446.687	105.81
446.908	101.81
447.129	99.81
447.35	95.81
447.571	103.81
447.792	98.81
448.013	109.81
448.234	98.81
448.455	89.81
448.675	97.81
448.896	99.81
449.117	91.81
449.338	110.81
449.559	114.81
449.779	93.81
450	102.81
450.221	90.81
450.442	92.81
450.662	92.81
450.883	100.81
451.104	88.81
451.324	87.81
451.545	100.81
451.766	92.81
451.986	105.81
452.207	105.81
452.428	100.81
452.648	87.81
452.869	91.81
453.089	95.81
453.31	96.81
453.53	101.81
453.751	93.81
453.971	95.81
454.192	83.81
454.412	86.81
454.633	92.81
454.853	87.81
455.073	96.81
455.294	80.81
455.514	107.81
455.734	100.81
455.955	108.81
456.175	115.81
456.395	81.81
456.616	93.81
456.836	115.81
457.056	98.81
457.276	108.81
457.497	104.81
457.717	98.81
457.937	93.81
458.157	84.81
458.377	91.81
458.598	99.81
458.818	94.81
459.038	94.81
459.258	99.81
459.478	86.81
459.698	83.81
459.918	92.81
460.138	105.81
460.358	99.81
460.578	86.81
460.798	100.81
461.018	96.81
461.238	83.81
461.458	99.81
461.678	74.81
461.898	95.81
462.118	98.81
462.338	113.81
462.558	107.81
462.777	91.81
462.997	85.81
463.217	93.81
463.437	103.81
463.657	104.81
463.876	102.81
464.096	90.81
464.316	100.81
464.536	94.81
464.755	89.81
464.975	105.81
465.195	104.81
465.414	93.81
465.634	99.81
465.854	100.81
466.073	107.81
466.293	110.81
466.512	107.81
466.732	105.81
466.951	105.81
467.171	104.81
467.391	88.81
467.61	91.81
467.829	112.81
468.049	104.81
468.268	111.81
468.488	109.81
468.707	92.81
468.927	88.81
469.146	86.81
469.365	116.81
469.585	111.81
469.804	116.81
470.023	92.81
470.243	101.81
470.462	88.81
470.681	101.81
470.901	107.81
471.12	119.81
471.339	113.81
471.558	110.81
471.777	96.81
471.997	96.81
472.216	94.81
472.435	107.81
472.654	91.81
472.873	88.81
473.092	102.81
473.311	111.81
473.53	108.81
473.749	109.81
473.968	98.81
474.187	107.81
474.406	95.81
474.625	102.81
474.844	97.81
475.063	95.81
475.282	90.81
475.501	93.81
475.72	108.81
475.939	108.81
476.158	109.81
476.377	107.81
476.596	97.81
476.814	93.81
477.033	101.81
477.252	84.81
477.471	108.81
477.69	100.81
477.908	114.81
478.127	108.81
478.346	107.81
478.564	104.81
478.783	98.81
479.002	93.81
479.22	104.81
479.439	113.81
479.658	86.81
479.876	97.81
480.095	88.81
480.313	97.81
480.532	112.81
480.751	109.81
480.969	99.81
481.188	101.81
481.406	88.81
481.624	80.81
481.843	112.81
482.061	100.81
482.28	119.81
482.498	111.81
482.717	92.81
482.935	103.81
483.153	101.81
483.372	103.81
483.59	112.81
483.808	118.81
484.027	117.81
484.245	111.81
484.463	115.81
484.681	107.81
484.9	104.81
485.118	109.81
485.336	100.81
485.554	102.81
485.772	107.81
485.99	100.81
486.209	92.81
486.427	80.81
486.645	105.81
486.863	102.81
487.081	115.81
487.299	98.81
487.517	96.81
487.735	111.81
487.953	107.81
488.171	111.81
488.389	109.81
488.607	107.81
488.825	96.81
489.043	115.81
489.261	104.81
489.479	113.81
489.696	99.81
489.914	104.81
490.132	112.81
490.35	127.81
490.568	118.81
490.786	122.81
491.003	120.81
491.221	114.81
491.439	120.81
491.657	119.81
491.874	101.81
492.092	134.81
492.31	119.81
492.527	126.81
492.745	128.81
492.963	111.81
493.18	123.81
493.398	119.81
493.615	115.81
493.833	114.81
494.05	100.81
494.268	119.81
494.485	119.81
494.703	114.81
494.92	114.81
495.138	116.81
495.355	103.81
495.573	104.81
495.79	117.81
496.008	104.81
496.225	121.81
496.442	122.81
496.66	112.81
496.877	113.81
497.094	103.81
497.312	99.81
497.529	120.81
497.746	112.81
497.963	105.81
498.181	95.81
498.398	102.81
498.615	120.81
498.832	114.81
499.049	90.81
499.267	91.81
499.484	102.81
499.701	107.81
499.918	115.81
500.135	110.81
500.352	99.81
500.569	102.81
500.786	94.81
501.003	120.81
501.22	101.81
501.437	98.81
501.654	100.81
501.871	104.81
502.088	105.81
502.305	102.81
502.522	107.81
502.739	100.81
502.956	119.81
503.172	104.81
503.389	102.81
503.606	102.81
503.823	98.81
504.04	107.81
504.256	111.81
504.473	112.81
504.69	105.81
504.907	101.81
505.123	96.81
505.34	91.81
505.557	119.81
505.773	114.81
505.99	94.81
506.207	97.81
506.423	113.81
506.64	114.81
506.856	100.81
507.073	115.81
507.289	101.81
507.506	108.81
507.722	107.81
507.939	104.81
508.155	97.81
508.372	104.81
508.588	105.81
508.805	106.81
509.021	99.81
509.238	99.81
509.454	92.81
509.67	96.81
509.887	104.81
510.103	102.81
510.319	98.81
510.536	100.81
510.752	107.81
510.968	101.81
511.184	102.81
511.401	99.81
511.617	110.81
511.833	109.81
512.049	93.81
512.265	100.81
512.481	117.81
512.698	103.81
512.914	91.81
513.13	99.81
513.346	98.81
513.562	113.81
513.778	97.81
513.994	95.81
514.21	108.81
514.426	97.81
514.642	107.81
514.858	97.81
515.074	102.81
