Data from 1973.PennyLincolnUp.Lamp.En5.5.200Scan.071719.P1.Changed Mount._HRD10591_15-44-54-852.txt Node
Date: Thu Jul 18 15:44:54 EDT 2019
User: cochatt
Spectrometer: HR+D1059
Trigger mode: 1
Integration Time (sec): 1.000000E-1
Scans to average: 1
Electric dark correction enabled: true
Nonlinearity correction enabled: false
Boxcar width: 0
XAxis mode: Wavelengths
Number of Pixels in Spectrum: 2048
>>>>>Begin Spectral Data<<<<<
223.165	-19.44
223.4	-19.44
223.635	-19.44
223.869	-7.44
224.104	-20.44
224.338	-2.44
224.573	-16.44
224.808	-14.44
225.042	-9.44
225.277	-10.44
225.511	-9.44
225.746	-0.44
225.98	15.56
226.215	23.56
226.449	15.56
226.683	13.56
226.918	17.56
227.152	24.56
227.387	42.56
227.621	29.56
227.856	58.56
228.09	35.56
228.324	48.56
228.559	47.56
228.793	64.56
229.027	92.56
229.262	120.56
229.496	127.56
229.73	134.56
229.964	145.56
230.199	131.56
230.433	115.56
230.667	120.56
230.901	109.56
231.136	107.56
231.37	117.56
231.604	112.56
231.838	115.56
232.072	129.56
232.306	119.56
232.541	107.56
232.775	124.56
233.009	118.56
233.243	127.56
233.477	120.56
233.711	137.56
233.945	130.56
234.179	117.56
234.413	121.56
234.647	135.56
234.881	130.56
235.115	120.56
235.349	123.56
235.583	122.56
235.817	114.56
236.051	136.56
236.285	132.56
236.519	133.56
236.753	136.56
236.987	133.56
237.221	173.56
237.455	227.56
237.689	184.56
237.922	156.56
238.156	131.56
238.39	135.56
238.624	126.56
238.858	143.56
239.091	140.56
239.325	131.56
239.559	129.56
239.793	132.56
240.027	131.56
240.26	143.56
240.494	158.56
240.728	155.56
240.961	152.56
241.195	139.56
241.429	145.56
241.662	137.56
241.896	134.56
242.13	134.56
242.363	145.56
242.597	142.56
242.83	137.56
243.064	135.56
243.298	145.56
243.531	155.56
243.765	141.56
243.998	142.56
244.232	140.56
244.465	157.56
244.699	135.56
244.932	149.56
245.166	149.56
245.399	155.56
245.633	148.56
245.866	153.56
246.099	171.56
246.333	176.56
246.566	144.56
246.8	150.56
247.033	161.56
247.266	161.56
247.5	182.56
247.733	175.56
247.966	181.56
248.2	185.56
248.433	190.56
248.666	187.56
248.899	188.56
249.133	192.56
249.366	207.56
249.599	205.56
249.832	190.56
250.066	191.56
250.299	195.56
250.532	177.56
250.765	210.56
250.998	209.56
251.231	228.56
251.465	222.56
251.698	222.56
251.931	211.56
252.164	222.56
252.397	230.56
252.63	218.56
252.863	207.56
253.096	208.56
253.329	238.56
253.562	230.56
253.795	215.56
254.028	227.56
254.261	226.56
254.494	228.56
254.727	248.56
254.96	279.56
255.193	277.56
255.426	261.56
255.659	238.56
255.892	228.56
256.124	227.56
256.357	255.56
256.59	231.56
256.823	234.56
257.056	216.56
257.289	220.56
257.521	215.56
257.754	232.56
257.987	223.56
258.22	224.56
258.452	206.56
258.685	206.56
258.918	220.56
259.151	224.56
259.383	220.56
259.616	232.56
259.849	223.56
260.081	231.56
260.314	247.56
260.547	268.56
260.779	251.56
261.012	247.56
261.244	247.56
261.477	252.56
261.71	237.56
261.942	231.56
262.175	228.56
262.407	247.56
262.64	235.56
262.872	215.56
263.105	244.56
263.337	243.56
263.57	237.56
263.802	213.56
264.035	238.56
264.267	231.56
264.499	254.56
264.732	219.56
264.964	244.56
265.197	221.56
265.429	238.56
265.661	225.56
265.894	230.56
266.126	240.56
266.358	236.56
266.591	236.56
266.823	251.56
267.055	253.56
267.287	244.56
267.52	233.56
267.752	243.56
267.984	239.56
268.216	226.56
268.448	250.56
268.681	272.56
268.913	267.56
269.145	270.56
269.377	308.56
269.609	309.56
269.841	295.56
270.073	275.56
270.306	302.56
270.538	337.56
270.77	350.56
271.002	316.56
271.234	299.56
271.466	349.56
271.698	311.56
271.93	317.56
272.162	335.56
272.394	329.56
272.626	341.56
272.858	299.56
273.09	296.56
273.322	299.56
273.553	293.56
273.785	271.56
274.017	273.56
274.249	295.56
274.481	277.56
274.713	284.56
274.945	305.56
275.176	295.56
275.408	296.56
275.64	284.56
275.872	287.56
276.104	294.56
276.335	303.56
276.567	294.56
276.799	304.56
277.031	326.56
277.262	335.56
277.494	325.56
277.726	324.56
277.957	303.56
278.189	306.56
278.421	293.56
278.652	292.56
278.884	300.56
279.115	302.56
279.347	317.56
279.579	309.56
279.81	291.56
280.042	291.56
280.273	308.56
280.505	295.56
280.736	292.56
280.968	305.56
281.199	295.56
281.431	318.56
281.662	317.56
281.894	305.56
282.125	335.56
282.356	315.56
282.588	334.56
282.819	331.56
283.051	315.56
283.282	287.56
283.513	313.56
283.745	297.56
283.976	312.56
284.207	293.56
284.439	319.56
284.67	324.56
284.901	309.56
285.132	336.56
285.364	307.56
285.595	328.56
285.826	319.56
286.057	315.56
286.288	299.56
286.52	309.56
286.751	318.56
286.982	335.56
287.213	324.56
287.444	332.56
287.675	331.56
287.906	330.56
288.138	333.56
288.369	344.56
288.6	346.56
288.831	348.56
289.062	328.56
289.293	317.56
289.524	328.56
289.755	323.56
289.986	324.56
290.217	331.56
290.448	327.56
290.679	338.56
290.91	336.56
291.141	317.56
291.371	337.56
291.602	333.56
291.833	317.56
292.064	342.56
292.295	333.56
292.526	329.56
292.757	325.56
292.987	341.56
293.218	315.56
293.449	332.56
293.68	323.56
293.91	329.56
294.141	336.56
294.372	333.56
294.603	324.56
294.833	334.56
295.064	313.56
295.295	325.56
295.525	346.56
295.756	338.56
295.987	334.56
296.217	371.56
296.448	358.56
296.679	354.56
296.909	350.56
297.14	328.56
297.37	346.56
297.601	341.56
297.831	347.56
298.062	368.56
298.292	341.56
298.523	334.56
298.753	354.56
298.984	347.56
299.214	363.56
299.445	340.56
299.675	329.56
299.905	358.56
300.136	346.56
300.366	337.56
300.597	340.56
300.827	363.56
301.057	352.56
301.288	391.56
301.518	339.56
301.748	366.56
301.979	364.56
302.209	381.56
302.439	364.56
302.669	378.56
302.9	366.56
303.13	375.56
303.36	386.56
303.59	368.56
303.82	364.56
304.051	369.56
304.281	378.56
304.511	362.56
304.741	359.56
304.971	353.56
305.201	349.56
305.431	349.56
305.661	375.56
305.891	358.56
306.121	362.56
306.352	380.56
306.582	389.56
306.812	377.56
307.042	368.56
307.272	348.56
307.502	364.56
307.731	371.56
307.961	361.56
308.191	373.56
308.421	361.56
308.651	381.56
308.881	357.56
309.111	372.56
309.341	377.56
309.571	383.56
309.8	397.56
310.03	420.56
310.26	402.56
310.49	395.56
310.72	415.56
310.949	419.56
311.179	407.56
311.409	408.56
311.639	397.56
311.868	399.56
312.098	424.56
312.328	423.56
312.557	428.56
312.787	424.56
313.017	414.56
313.246	392.56
313.476	406.56
313.706	422.56
313.935	414.56
314.165	413.56
314.394	439.56
314.624	417.56
314.853	421.56
315.083	426.56
315.312	396.56
315.542	400.56
315.771	421.56
316.001	382.56
316.23	401.56
316.46	408.56
316.689	408.56
316.919	388.56
317.148	422.56
317.377	415.56
317.607	420.56
317.836	432.56
318.065	405.56
318.295	431.56
318.524	420.56
318.753	407.56
318.983	412.56
319.212	403.56
319.441	411.56
319.67	439.56
319.9	400.56
320.129	404.56
320.358	409.56
320.587	425.56
320.816	428.56
321.046	418.56
321.275	423.56
321.504	447.56
321.733	405.56
321.962	428.56
322.191	409.56
322.42	451.56
322.649	437.56
322.878	474.56
323.108	460.56
323.337	484.56
323.566	476.56
323.795	512.56
324.024	555.56
324.253	625.56
324.482	833.56
324.71	1181.56
324.939	1686.56
325.168	1437.56
325.397	803.56
325.626	620.56
325.855	533.56
326.084	522.56
326.313	493.56
326.542	459.56
326.77	524.56
326.999	597.56
327.228	785.56
327.457	1085.56
327.686	1308.56
327.914	914.56
328.143	654.56
328.372	583.56
328.6	565.56
328.829	575.56
329.058	545.56
329.287	549.56
329.515	529.56
329.744	519.56
329.972	533.56
330.201	521.56
330.43	581.56
330.658	564.56
330.887	578.56
331.115	560.56
331.344	529.56
331.572	490.56
331.801	501.56
332.03	523.56
332.258	503.56
332.486	505.56
332.715	497.56
332.943	494.56
333.172	517.56
333.4	532.56
333.629	507.56
333.857	545.56
334.085	555.56
334.314	538.56
334.542	571.56
334.771	580.56
334.999	561.56
335.227	525.56
335.455	517.56
335.684	519.56
335.912	510.56
336.14	495.56
336.369	504.56
336.597	520.56
336.825	518.56
337.053	496.56
337.281	490.56
337.51	472.56
337.738	494.56
337.966	500.56
338.194	488.56
338.422	487.56
338.65	463.56
338.878	485.56
339.106	471.56
339.334	457.56
339.562	463.56
339.79	463.56
340.018	463.56
340.246	472.56
340.474	458.56
340.702	468.56
340.93	452.56
341.158	465.56
341.386	454.56
341.614	470.56
341.842	484.56
342.07	469.56
342.298	445.56
342.526	433.56
342.754	461.56
342.981	446.56
343.209	465.56
343.437	473.56
343.665	452.56
343.893	503.56
344.12	499.56
344.348	491.56
344.576	484.56
344.804	479.56
345.031	469.56
345.259	468.56
345.487	455.56
345.714	447.56
345.942	440.56
346.17	439.56
346.397	459.56
346.625	445.56
346.853	444.56
347.08	443.56
347.308	445.56
347.535	452.56
347.763	452.56
347.99	436.56
348.218	455.56
348.445	445.56
348.673	459.56
348.9	453.56
349.128	458.56
349.355	435.56
349.583	454.56
349.81	426.56
350.037	427.56
350.265	444.56
350.492	446.56
350.72	439.56
350.947	462.56
351.174	456.56
351.402	441.56
351.629	441.56
351.856	436.56
352.083	429.56
352.311	425.56
352.538	455.56
352.765	448.56
352.992	441.56
353.22	448.56
353.447	441.56
353.674	412.56
353.901	429.56
354.128	417.56
354.355	438.56
354.583	417.56
354.81	431.56
355.037	432.56
355.264	425.56
355.491	428.56
355.718	433.56
355.945	410.56
356.172	405.56
356.399	414.56
356.626	411.56
356.853	425.56
357.08	411.56
357.307	425.56
357.534	419.56
357.761	419.56
357.988	419.56
358.215	416.56
358.441	425.56
358.668	415.56
358.895	417.56
359.122	430.56
359.349	411.56
359.576	447.56
359.802	459.56
360.029	454.56
360.256	475.56
360.483	477.56
360.709	455.56
360.936	423.56
361.163	440.56
361.39	450.56
361.616	448.56
361.843	437.56
362.07	441.56
362.296	461.56
362.523	438.56
362.749	434.56
362.976	421.56
363.203	412.56
363.429	409.56
363.656	424.56
363.882	420.56
364.109	431.56
364.335	407.56
364.562	431.56
364.788	399.56
365.015	429.56
365.241	421.56
365.468	419.56
365.694	425.56
365.92	424.56
366.147	406.56
366.373	425.56
366.599	429.56
366.826	426.56
367.052	423.56
367.278	417.56
367.505	420.56
367.731	425.56
367.957	422.56
368.184	427.56
368.41	428.56
368.636	454.56
368.862	470.56
369.089	453.56
369.315	435.56
369.541	428.56
369.767	419.56
369.993	434.56
370.219	440.56
370.445	440.56
370.672	432.56
370.898	423.56
371.124	423.56
371.35	406.56
371.576	423.56
371.802	421.56
372.028	443.56
372.254	419.56
372.48	422.56
372.706	441.56
372.932	449.56
373.158	432.56
373.384	468.56
373.61	422.56
373.835	437.56
374.061	444.56
374.287	460.56
374.513	444.56
374.739	451.56
374.965	461.56
375.191	472.56
375.416	438.56
375.642	467.56
375.868	432.56
376.094	428.56
376.319	447.56
376.545	438.56
376.771	423.56
376.997	410.56
377.222	416.56
377.448	428.56
377.674	429.56
377.899	452.56
378.125	419.56
378.35	425.56
378.576	447.56
378.802	441.56
379.027	432.56
379.253	422.56
379.478	415.56
379.704	413.56
379.929	444.56
380.155	441.56
380.38	430.56
380.606	431.56
380.831	444.56
381.057	423.56
381.282	432.56
381.507	449.56
381.733	465.56
381.958	431.56
382.184	406.56
382.409	437.56
382.634	426.56
382.86	463.56
383.085	445.56
383.31	443.56
383.535	441.56
383.761	455.56
383.986	459.56
384.211	457.56
384.436	463.56
384.662	470.56
384.887	436.56
385.112	471.56
385.337	468.56
385.562	475.56
385.787	486.56
386.013	499.56
386.238	504.56
386.463	484.56
386.688	526.56
386.913	496.56
387.138	464.56
387.363	501.56
387.588	471.56
387.813	495.56
388.038	486.56
388.263	483.56
388.488	490.56
388.713	486.56
388.938	491.56
389.163	479.56
389.387	507.56
389.612	475.56
389.837	476.56
390.062	495.56
390.287	506.56
390.512	483.56
390.736	486.56
390.961	492.56
391.186	481.56
391.411	499.56
391.636	492.56
391.86	503.56
392.085	522.56
392.31	535.56
392.534	536.56
392.759	510.56
392.984	494.56
393.208	513.56
393.433	493.56
393.658	486.56
393.882	479.56
394.107	505.56
394.331	504.56
394.556	490.56
394.78	505.56
395.005	507.56
395.229	510.56
395.454	537.56
395.678	526.56
395.903	528.56
396.127	550.56
396.352	518.56
396.576	499.56
396.801	506.56
397.025	521.56
397.249	516.56
397.474	525.56
397.698	539.56
397.922	547.56
398.147	542.56
398.371	541.56
398.595	569.56
398.82	567.56
399.044	567.56
399.268	603.56
399.492	665.56
399.717	700.56
399.941	747.56
400.165	738.56
400.389	698.56
400.613	653.56
400.837	600.56
401.062	577.56
401.286	591.56
401.51	575.56
401.734	554.56
401.958	556.56
402.182	589.56
402.406	595.56
402.63	589.56
402.854	587.56
403.078	573.56
403.302	611.56
403.526	586.56
403.75	604.56
403.974	593.56
404.198	603.56
404.422	598.56
404.645	599.56
404.869	629.56
405.093	647.56
405.317	661.56
405.541	694.56
405.765	667.56
405.988	635.56
406.212	649.56
406.436	638.56
406.66	684.56
406.883	630.56
407.107	675.56
407.331	712.56
407.555	773.56
407.778	771.56
408.002	721.56
408.226	682.56
408.449	647.56
408.673	657.56
408.896	685.56
409.12	716.56
409.344	669.56
409.567	623.56
409.791	619.56
410.014	600.56
410.238	599.56
410.461	579.56
410.685	605.56
410.908	598.56
411.132	630.56
411.355	657.56
411.578	623.56
411.802	583.56
412.025	603.56
412.249	587.56
412.472	610.56
412.695	646.56
412.919	648.56
413.142	593.56
413.365	588.56
413.589	565.56
413.812	574.56
414.035	542.56
414.258	564.56
414.482	551.56
414.705	550.56
414.928	564.56
415.151	561.56
415.374	557.56
415.597	539.56
415.821	557.56
416.044	559.56
416.267	559.56
416.49	558.56
416.713	549.56
416.936	570.56
417.159	546.56
417.382	551.56
417.605	577.56
417.828	570.56
418.051	575.56
418.274	581.56
418.497	567.56
418.72	568.56
418.943	571.56
419.166	594.56
419.389	630.56
419.611	612.56
419.834	587.56
420.057	621.56
420.28	607.56
420.503	587.56
420.726	579.56
420.948	584.56
421.171	638.56
421.394	629.56
421.617	604.56
421.839	581.56
422.062	600.56
422.285	590.56
422.507	629.56
422.73	704.56
422.953	689.56
423.175	617.56
423.398	615.56
423.621	601.56
423.843	651.56
424.066	610.56
424.288	624.56
424.511	637.56
424.733	656.56
424.956	728.56
425.178	708.56
425.401	714.56
425.623	728.56
425.846	647.56
426.068	599.56
426.291	581.56
426.513	578.56
426.735	598.56
426.958	642.56
427.18	709.56
427.402	842.56
427.625	910.56
427.847	743.56
428.069	679.56
428.292	636.56
428.514	584.56
428.736	571.56
428.958	565.56
429.181	566.56
429.403	551.56
429.625	547.56
429.847	575.56
430.069	644.56
430.292	628.56
430.514	577.56
430.736	555.56
430.958	545.56
431.18	557.56
431.402	559.56
431.624	507.56
431.846	521.56
432.068	511.56
432.29	513.56
432.512	539.56
432.734	559.56
432.956	537.56
433.178	563.56
433.4	550.56
433.622	525.56
433.844	533.56
434.066	535.56
434.287	528.56
434.509	537.56
434.731	547.56
434.953	548.56
435.175	605.56
435.397	602.56
435.618	593.56
435.84	620.56
436.062	688.56
436.284	775.56
436.505	645.56
436.727	589.56
436.949	571.56
437.17	548.56
437.392	545.56
437.614	564.56
437.835	584.56
438.057	651.56
438.278	746.56
438.5	716.56
438.721	820.56
438.943	796.56
439.165	624.56
439.386	586.56
439.608	581.56
439.829	580.56
440.05	591.56
440.272	650.56
440.493	611.56
440.715	579.56
440.936	555.56
441.158	552.56
441.379	571.56
441.6	579.56
441.822	584.56
442.043	622.56
442.264	675.56
442.486	723.56
442.707	649.56
442.928	618.56
443.149	643.56
443.371	647.56
443.592	656.56
443.813	768.56
444.034	819.56
444.255	695.56
444.476	639.56
444.698	636.56
444.919	637.56
445.14	775.56
445.361	665.56
445.582	640.56
445.803	665.56
446.024	784.56
446.245	750.56
446.466	725.56
446.687	617.56
446.908	590.56
447.129	570.56
447.35	554.56
447.571	540.56
447.792	533.56
448.013	545.56
448.234	550.56
448.455	578.56
448.675	671.56
448.896	776.56
449.117	685.56
449.338	635.56
449.559	736.56
449.779	854.56
450	671.56
450.221	573.56
450.442	551.56
450.662	538.56
450.883	524.56
451.104	542.56
451.324	521.56
451.545	505.56
451.766	485.56
451.986	491.56
452.207	502.56
452.428	480.56
452.648	490.56
452.869	491.56
453.089	504.56
453.31	501.56
453.53	487.56
453.751	472.56
453.971	478.56
454.192	494.56
454.412	481.56
454.633	476.56
454.853	475.56
455.073	477.56
455.294	522.56
455.514	555.56
455.734	558.56
455.955	468.56
456.175	454.56
456.395	459.56
456.616	481.56
456.836	472.56
457.056	465.56
457.276	448.56
457.497	451.56
457.717	460.56
457.937	473.56
458.157	470.56
458.377	476.56
458.598	495.56
458.818	534.56
459.038	582.56
459.258	643.56
459.478	536.56
459.698	533.56
459.918	516.56
460.138	543.56
460.358	556.56
460.578	535.56
460.798	575.56
461.018	566.56
461.238	556.56
461.458	580.56
461.678	557.56
461.898	556.56
462.118	553.56
462.338	555.56
462.558	585.56
462.777	615.56
462.997	613.56
463.217	649.56
463.437	640.56
463.657	632.56
463.876	610.56
464.096	599.56
464.316	623.56
464.536	613.56
464.755	606.56
464.975	592.56
465.195	612.56
465.414	644.56
465.634	586.56
465.854	545.56
466.073	540.56
466.293	517.56
466.512	523.56
466.732	491.56
466.951	494.56
467.171	488.56
467.391	510.56
467.61	504.56
467.829	489.56
468.049	527.56
468.268	527.56
468.488	504.56
468.707	507.56
468.927	487.56
469.146	479.56
469.365	496.56
469.585	499.56
469.804	492.56
470.023	525.56
470.243	494.56
470.462	530.56
470.681	543.56
470.901	518.56
471.12	519.56
471.339	491.56
471.558	517.56
471.777	517.56
471.997	495.56
472.216	529.56
472.435	536.56
472.654	501.56
472.873	505.56
473.092	504.56
473.311	513.56
473.53	500.56
473.749	519.56
473.968	546.56
474.187	622.56
474.406	644.56
474.625	550.56
474.844	506.56
475.063	505.56
475.282	503.56
475.501	519.56
475.72	511.56
475.939	506.56
476.158	521.56
476.377	538.56
476.596	529.56
476.814	533.56
477.033	504.56
477.252	542.56
477.471	544.56
477.69	549.56
477.908	560.56
478.127	589.56
478.346	581.56
478.564	593.56
478.783	587.56
479.002	571.56
479.22	567.56
479.439	602.56
479.658	606.56
479.876	616.56
480.095	627.56
480.313	639.56
480.532	631.56
480.751	616.56
480.969	649.56
481.188	669.56
481.406	684.56
481.624	618.56
481.843	576.56
482.061	597.56
482.28	590.56
482.498	605.56
482.717	567.56
482.935	589.56
483.153	586.56
483.372	572.56
483.59	611.56
483.808	588.56
484.027	569.56
484.245	565.56
484.463	565.56
484.681	589.56
484.9	599.56
485.118	597.56
485.336	589.56
485.554	601.56
485.772	604.56
485.99	598.56
486.209	618.56
486.427	611.56
486.645	629.56
486.863	632.56
487.081	623.56
487.299	617.56
487.517	633.56
487.735	601.56
487.953	624.56
488.171	602.56
488.389	584.56
488.607	645.56
488.825	621.56
489.043	622.56
489.261	649.56
489.479	643.56
489.696	632.56
489.914	649.56
490.132	646.56
490.35	655.56
490.568	654.56
490.786	673.56
491.003	655.56
491.221	698.56
491.439	681.56
491.657	697.56
491.874	703.56
492.092	699.56
492.31	701.56
492.527	721.56
492.745	719.56
492.963	716.56
493.18	696.56
493.398	710.56
493.615	723.56
493.833	696.56
494.05	732.56
494.268	757.56
494.485	753.56
494.703	721.56
494.92	721.56
495.138	713.56
495.355	735.56
495.573	761.56
495.79	721.56
496.008	732.56
496.225	738.56
496.442	716.56
496.66	739.56
496.877	714.56
497.094	755.56
497.312	767.56
497.529	752.56
497.746	795.56
497.963	783.56
498.181	803.56
498.398	813.56
498.615	844.56
498.832	852.56
499.049	918.56
499.267	951.56
499.484	992.56
499.701	1054.56
499.918	1108.56
500.135	1174.56
500.352	1268.56
500.569	1272.56
500.786	1304.56
501.003	1260.56
501.22	1203.56
501.437	1135.56
501.654	1056.56
