Data from 1973.PennyLincolnUp.Lamp.En5.5.200Scan.071719.P1.Changed Mount._HRD10591_15-43-52-852.txt Node
Date: Thu Jul 18 15:43:52 EDT 2019
User: cochatt
Spectrometer: HR+D1059
Trigger mode: 1
Integration Time (sec): 1.000000E-1
Scans to average: 1
Electric dark correction enabled: true
Nonlinearity correction enabled: false
Boxcar width: 0
XAxis mode: Wavelengths
Number of Pixels in Spectrum: 2048
>>>>>Begin Spectral Data<<<<<
223.165	-6.56
223.4	-6.56
223.635	-6.56
223.869	-10.56
224.104	-4.56
224.338	-7.56
224.573	-11.56
224.808	-14.56
225.042	-18.56
225.277	-20.56
225.511	-7.56
225.746	6.44
225.98	12.44
226.215	2.44
226.449	-1.56
226.683	15.44
226.918	26.44
227.152	40.44
227.387	44.44
227.621	41.44
227.856	54.44
228.09	48.44
228.324	47.44
228.559	65.44
228.793	76.44
229.027	99.44
229.262	101.44
229.496	112.44
229.73	124.44
229.964	135.44
230.199	123.44
230.433	106.44
230.667	102.44
230.901	121.44
231.136	109.44
231.37	103.44
231.604	93.44
231.838	112.44
232.072	96.44
232.306	118.44
232.541	118.44
232.775	131.44
233.009	107.44
233.243	112.44
233.477	118.44
233.711	108.44
233.945	113.44
234.179	117.44
234.413	123.44
234.647	117.44
234.881	114.44
235.115	124.44
235.349	128.44
235.583	119.44
235.817	112.44
236.051	123.44
236.285	138.44
236.519	126.44
236.753	137.44
236.987	139.44
237.221	165.44
237.455	184.44
237.689	171.44
237.922	156.44
238.156	120.44
238.39	136.44
238.624	132.44
238.858	113.44
239.091	116.44
239.325	116.44
239.559	135.44
239.793	134.44
240.027	133.44
240.26	153.44
240.494	155.44
240.728	139.44
240.961	152.44
241.195	144.44
241.429	166.44
241.662	142.44
241.896	137.44
242.13	136.44
242.363	141.44
242.597	151.44
242.83	140.44
243.064	128.44
243.298	132.44
243.531	145.44
243.765	150.44
243.998	142.44
244.232	142.44
244.465	133.44
244.699	168.44
244.932	137.44
245.166	162.44
245.399	161.44
245.633	147.44
245.866	157.44
246.099	156.44
246.333	145.44
246.566	160.44
246.8	134.44
247.033	153.44
247.266	156.44
247.5	137.44
247.733	154.44
247.966	185.44
248.2	175.44
248.433	190.44
248.666	166.44
248.899	179.44
249.133	206.44
249.366	187.44
249.599	182.44
249.832	180.44
250.066	157.44
250.299	184.44
250.532	184.44
250.765	186.44
250.998	203.44
251.231	218.44
251.465	237.44
251.698	196.44
251.931	198.44
252.164	181.44
252.397	194.44
252.63	208.44
252.863	197.44
253.096	209.44
253.329	204.44
253.562	215.44
253.795	215.44
254.028	222.44
254.261	224.44
254.494	228.44
254.727	220.44
254.96	265.44
255.193	244.44
255.426	237.44
255.659	218.44
255.892	225.44
256.124	220.44
256.357	210.44
256.59	213.44
256.823	212.44
257.056	198.44
257.289	195.44
257.521	209.44
257.754	203.44
257.987	215.44
258.22	221.44
258.452	185.44
258.685	190.44
258.918	204.44
259.151	216.44
259.383	224.44
259.616	214.44
259.849	229.44
260.081	229.44
260.314	236.44
260.547	258.44
260.779	236.44
261.012	233.44
261.244	221.44
261.477	206.44
261.71	216.44
261.942	216.44
262.175	219.44
262.407	231.44
262.64	222.44
262.872	222.44
263.105	217.44
263.337	234.44
263.57	203.44
263.802	220.44
264.035	209.44
264.267	219.44
264.499	216.44
264.732	209.44
264.964	232.44
265.197	215.44
265.429	225.44
265.661	217.44
265.894	210.44
266.126	226.44
266.358	217.44
266.591	229.44
266.823	212.44
267.055	231.44
267.287	231.44
267.52	238.44
267.752	240.44
267.984	241.44
268.216	231.44
268.448	236.44
268.681	244.44
268.913	239.44
269.145	251.44
269.377	284.44
269.609	265.44
269.841	268.44
270.073	279.44
270.306	288.44
270.538	282.44
270.77	285.44
271.002	282.44
271.234	283.44
271.466	285.44
271.698	304.44
271.93	298.44
272.162	304.44
272.394	293.44
272.626	303.44
272.858	263.44
273.09	280.44
273.322	264.44
273.553	267.44
273.785	277.44
274.017	256.44
274.249	277.44
274.481	265.44
274.713	247.44
274.945	264.44
275.176	276.44
275.408	269.44
275.64	271.44
275.872	274.44
276.104	254.44
276.335	276.44
276.567	274.44
276.799	284.44
277.031	280.44
277.262	300.44
277.494	316.44
277.726	299.44
277.957	281.44
278.189	281.44
278.421	277.44
278.652	291.44
278.884	261.44
279.115	285.44
279.347	290.44
279.579	278.44
279.81	282.44
280.042	281.44
280.273	277.44
280.505	285.44
280.736	273.44
280.968	281.44
281.199	274.44
281.431	260.44
281.662	275.44
281.894	289.44
282.125	290.44
282.356	300.44
282.588	297.44
282.819	293.44
283.051	294.44
283.282	288.44
283.513	274.44
283.745	290.44
283.976	297.44
284.207	302.44
284.439	289.44
284.67	315.44
284.901	288.44
285.132	289.44
285.364	312.44
285.595	296.44
285.826	305.44
286.057	300.44
286.288	281.44
286.52	309.44
286.751	305.44
286.982	309.44
287.213	280.44
287.444	313.44
287.675	320.44
287.906	331.44
288.138	315.44
288.369	329.44
288.6	311.44
288.831	293.44
289.062	322.44
289.293	312.44
289.524	309.44
289.755	303.44
289.986	305.44
290.217	302.44
290.448	326.44
290.679	309.44
290.91	306.44
291.141	304.44
291.371	305.44
291.602	309.44
291.833	304.44
292.064	302.44
292.295	291.44
292.526	322.44
292.757	327.44
292.987	310.44
293.218	335.44
293.449	317.44
293.68	310.44
293.91	314.44
294.141	316.44
294.372	311.44
294.603	306.44
294.833	312.44
295.064	332.44
295.295	313.44
295.525	316.44
295.756	326.44
295.987	312.44
296.217	333.44
296.448	330.44
296.679	334.44
296.909	295.44
297.14	304.44
297.37	337.44
297.601	330.44
297.831	324.44
298.062	321.44
298.292	320.44
298.523	343.44
298.753	346.44
298.984	345.44
299.214	325.44
299.445	330.44
299.675	336.44
299.905	345.44
300.136	327.44
300.366	332.44
300.597	350.44
300.827	344.44
301.057	345.44
301.288	339.44
301.518	373.44
301.748	359.44
301.979	356.44
302.209	343.44
302.439	336.44
302.669	336.44
302.9	347.44
303.13	339.44
303.36	348.44
303.59	362.44
303.82	357.44
304.051	361.44
304.281	366.44
304.511	353.44
304.741	354.44
304.971	346.44
305.201	359.44
305.431	331.44
305.661	354.44
305.891	351.44
306.121	345.44
306.352	356.44
306.582	361.44
306.812	337.44
307.042	353.44
307.272	338.44
307.502	356.44
307.731	361.44
307.961	346.44
308.191	351.44
308.421	353.44
308.651	345.44
308.881	346.44
309.111	365.44
309.341	358.44
309.571	361.44
309.8	369.44
310.03	337.44
310.26	376.44
310.49	382.44
310.72	364.44
310.949	392.44
311.179	384.44
311.409	361.44
311.639	376.44
311.868	372.44
312.098	374.44
312.328	354.44
312.557	386.44
312.787	390.44
313.017	390.44
313.246	371.44
313.476	372.44
313.706	378.44
313.935	376.44
314.165	383.44
314.394	401.44
314.624	394.44
314.853	393.44
315.083	381.44
315.312	385.44
315.542	378.44
315.771	381.44
316.001	385.44
316.23	377.44
316.46	391.44
316.689	385.44
316.919	373.44
317.148	391.44
317.377	386.44
317.607	395.44
317.836	376.44
318.065	391.44
318.295	380.44
318.524	383.44
318.753	385.44
318.983	374.44
319.212	373.44
319.441	388.44
319.67	368.44
319.9	390.44
320.129	410.44
320.358	385.44
320.587	360.44
320.816	374.44
321.046	376.44
321.275	375.44
321.504	399.44
321.733	384.44
321.962	389.44
322.191	393.44
322.42	411.44
322.649	407.44
322.878	426.44
323.108	439.44
323.337	425.44
323.566	425.44
323.795	441.44
324.024	479.44
324.253	508.44
324.482	676.44
324.71	960.44
324.939	1361.44
325.168	1198.44
325.397	667.44
325.626	496.44
325.855	462.44
326.084	439.44
326.313	447.44
326.542	448.44
326.77	449.44
326.999	520.44
327.228	641.44
327.457	871.44
327.686	1044.44
327.914	745.44
328.143	542.44
328.372	487.44
328.6	494.44
328.829	480.44
329.058	476.44
329.287	483.44
329.515	479.44
329.744	439.44
329.972	474.44
330.201	474.44
330.43	483.44
330.658	509.44
330.887	484.44
331.115	494.44
331.344	476.44
331.572	465.44
331.801	467.44
332.03	465.44
332.258	489.44
332.486	474.44
332.715	463.44
332.943	480.44
333.172	469.44
333.4	513.44
333.629	520.44
333.857	512.44
334.085	505.44
334.314	517.44
334.542	513.44
334.771	525.44
334.999	489.44
335.227	488.44
335.455	487.44
335.684	464.44
335.912	477.44
336.14	465.44
336.369	454.44
336.597	467.44
336.825	436.44
337.053	455.44
337.281	450.44
337.51	454.44
337.738	473.44
337.966	436.44
338.194	436.44
338.422	436.44
338.65	436.44
338.878	445.44
339.106	453.44
339.334	451.44
339.562	441.44
339.79	436.44
340.018	445.44
340.246	421.44
340.474	440.44
340.702	440.44
340.93	436.44
341.158	435.44
341.386	428.44
341.614	420.44
341.842	446.44
342.07	424.44
342.298	426.44
342.526	434.44
342.754	422.44
342.981	440.44
343.209	410.44
343.437	441.44
343.665	455.44
343.893	457.44
344.12	458.44
344.348	478.44
344.576	466.44
344.804	442.44
345.031	443.44
345.259	441.44
345.487	437.44
345.714	439.44
345.942	430.44
346.17	410.44
346.397	405.44
346.625	419.44
346.853	429.44
347.08	399.44
347.308	388.44
347.535	417.44
347.763	426.44
347.99	395.44
348.218	431.44
348.445	416.44
348.673	397.44
348.9	399.44
349.128	412.44
349.355	397.44
349.583	396.44
349.81	405.44
350.037	396.44
350.265	388.44
350.492	400.44
350.72	409.44
350.947	392.44
351.174	416.44
351.402	412.44
351.629	404.44
351.856	420.44
352.083	423.44
352.311	422.44
352.538	418.44
352.765	412.44
352.992	407.44
353.22	412.44
353.447	405.44
353.674	396.44
353.901	392.44
354.128	391.44
354.355	397.44
354.583	401.44
354.81	381.44
355.037	400.44
355.264	394.44
355.491	413.44
355.718	396.44
355.945	385.44
356.172	382.44
356.399	387.44
356.626	409.44
356.853	390.44
357.08	363.44
357.307	415.44
357.534	417.44
357.761	405.44
357.988	391.44
358.215	408.44
358.441	403.44
358.668	406.44
358.895	378.44
359.122	386.44
359.349	412.44
359.576	422.44
359.802	412.44
360.029	425.44
360.256	440.44
360.483	426.44
360.709	401.44
360.936	402.44
361.163	398.44
361.39	410.44
361.616	396.44
361.843	410.44
362.07	406.44
362.296	410.44
362.523	425.44
362.749	400.44
362.976	401.44
363.203	408.44
363.429	397.44
363.656	410.44
363.882	390.44
364.109	414.44
364.335	374.44
364.562	390.44
364.788	412.44
365.015	402.44
365.241	390.44
365.468	379.44
365.694	406.44
365.92	410.44
366.147	377.44
366.373	381.44
366.599	405.44
366.826	386.44
367.052	394.44
367.278	394.44
367.505	399.44
367.731	420.44
367.957	396.44
368.184	413.44
368.41	399.44
368.636	398.44
368.862	413.44
369.089	401.44
369.315	419.44
369.541	397.44
369.767	414.44
369.993	393.44
370.219	416.44
370.445	417.44
370.672	413.44
370.898	386.44
371.124	421.44
371.35	396.44
371.576	417.44
371.802	418.44
372.028	413.44
372.254	422.44
372.48	404.44
372.706	410.44
372.932	402.44
373.158	406.44
373.384	400.44
373.61	420.44
373.835	420.44
374.061	410.44
374.287	406.44
374.513	420.44
374.739	437.44
374.965	443.44
375.191	455.44
375.416	442.44
375.642	422.44
375.868	414.44
376.094	403.44
376.319	415.44
376.545	422.44
376.771	419.44
376.997	416.44
377.222	382.44
377.448	401.44
377.674	400.44
377.899	398.44
378.125	398.44
378.35	421.44
378.576	413.44
378.802	404.44
379.027	419.44
379.253	397.44
379.478	382.44
379.704	406.44
379.929	420.44
380.155	391.44
380.38	386.44
380.606	422.44
380.831	406.44
381.057	416.44
381.282	398.44
381.507	407.44
381.733	422.44
381.958	415.44
382.184	422.44
382.409	424.44
382.634	405.44
382.86	438.44
383.085	423.44
383.31	431.44
383.535	440.44
383.761	431.44
383.986	430.44
384.211	454.44
384.436	433.44
384.662	445.44
384.887	443.44
385.112	462.44
385.337	472.44
385.562	470.44
385.787	467.44
386.013	475.44
386.238	455.44
386.463	463.44
386.688	454.44
386.913	467.44
387.138	479.44
387.363	473.44
387.588	433.44
387.813	469.44
388.038	453.44
388.263	463.44
388.488	469.44
388.713	464.44
388.938	456.44
389.163	476.44
389.387	460.44
389.612	442.44
389.837	439.44
390.062	469.44
390.287	446.44
390.512	457.44
390.736	449.44
390.961	451.44
391.186	456.44
391.411	459.44
391.636	478.44
391.86	475.44
392.085	494.44
392.31	500.44
392.534	494.44
392.759	480.44
392.984	489.44
393.208	465.44
393.433	471.44
393.658	439.44
393.882	473.44
394.107	454.44
394.331	473.44
394.556	474.44
394.78	483.44
395.005	491.44
395.229	485.44
395.454	477.44
395.678	472.44
395.903	505.44
396.127	499.44
396.352	514.44
396.576	481.44
396.801	486.44
397.025	463.44
397.249	489.44
397.474	473.44
397.698	488.44
397.922	501.44
398.147	516.44
398.371	526.44
398.595	536.44
398.82	533.44
399.044	552.44
399.268	592.44
399.492	620.44
399.717	686.44
399.941	709.44
400.165	687.44
400.389	673.44
400.613	608.44
400.837	580.44
401.062	561.44
401.286	546.44
401.51	539.44
401.734	554.44
401.958	552.44
402.182	557.44
402.406	559.44
402.63	532.44
402.854	557.44
403.078	566.44
403.302	553.44
403.526	566.44
403.75	591.44
403.974	571.44
404.198	568.44
404.422	582.44
404.645	573.44
404.869	595.44
405.093	607.44
405.317	624.44
405.541	673.44
405.765	617.44
405.988	603.44
406.212	576.44
406.436	590.44
406.66	610.44
406.883	597.44
407.107	614.44
407.331	669.44
407.555	735.44
407.778	720.44
408.002	667.44
408.226	624.44
408.449	623.44
408.673	618.44
408.896	620.44
409.12	669.44
409.344	620.44
409.567	586.44
409.791	582.44
410.014	570.44
410.238	567.44
410.461	570.44
410.685	558.44
410.908	574.44
411.132	609.44
411.355	642.44
411.578	604.44
411.802	570.44
412.025	570.44
412.249	577.44
412.472	575.44
412.695	608.44
412.919	605.44
413.142	560.44
413.365	567.44
413.589	570.44
413.812	549.44
414.035	526.44
414.258	534.44
414.482	547.44
414.705	558.44
414.928	550.44
415.151	529.44
415.374	549.44
415.597	512.44
415.821	540.44
416.044	512.44
416.267	555.44
416.49	545.44
416.713	520.44
416.936	518.44
417.159	531.44
417.382	538.44
417.605	517.44
417.828	519.44
418.051	537.44
418.274	539.44
418.497	531.44
418.72	562.44
418.943	540.44
419.166	557.44
419.389	595.44
419.611	588.44
419.834	574.44
420.057	543.44
420.28	559.44
420.503	538.44
420.726	542.44
420.948	539.44
421.171	590.44
421.394	609.44
421.617	537.44
421.839	560.44
422.062	534.44
422.285	543.44
422.507	594.44
422.73	663.44
422.953	640.44
423.175	592.44
423.398	576.44
423.621	584.44
423.843	598.44
424.066	593.44
424.288	569.44
424.511	603.44
424.733	610.44
424.956	678.44
425.178	662.44
425.401	666.44
425.623	655.44
425.846	606.44
426.068	553.44
426.291	545.44
426.513	548.44
426.735	558.44
426.958	578.44
427.18	644.44
427.402	738.44
427.625	824.44
427.847	686.44
428.069	622.44
428.292	564.44
428.514	532.44
428.736	522.44
428.958	509.44
429.181	527.44
429.403	537.44
429.625	506.44
429.847	534.44
430.069	614.44
430.292	604.44
430.514	512.44
430.736	524.44
430.958	510.44
431.18	489.44
431.402	493.44
431.624	504.44
431.846	498.44
432.068	501.44
432.29	520.44
432.512	502.44
432.734	499.44
432.956	502.44
433.178	489.44
433.4	518.44
433.622	478.44
433.844	493.44
434.066	507.44
434.287	487.44
434.509	502.44
434.731	540.44
434.953	548.44
435.175	546.44
435.397	560.44
435.618	579.44
435.84	606.44
436.062	644.44
436.284	703.44
436.505	588.44
436.727	573.44
436.949	540.44
437.17	530.44
437.392	497.44
437.614	487.44
437.835	520.44
438.057	591.44
438.278	676.44
438.5	658.44
438.721	778.44
438.943	745.44
439.165	584.44
439.386	535.44
439.608	513.44
439.829	547.44
440.05	562.44
440.272	582.44
440.493	556.44
440.715	555.44
440.936	517.44
441.158	522.44
441.379	513.44
441.6	553.44
441.822	536.44
442.043	602.44
442.264	658.44
442.486	666.44
442.707	594.44
442.928	564.44
443.149	574.44
443.371	589.44
443.592	614.44
443.813	705.44
444.034	761.44
444.255	622.44
444.476	596.44
444.698	586.44
444.919	598.44
445.14	671.44
445.361	624.44
445.582	587.44
445.803	646.44
446.024	681.44
446.245	718.44
446.466	653.44
446.687	583.44
446.908	534.44
447.129	533.44
447.35	496.44
447.571	507.44
447.792	504.44
448.013	503.44
448.234	513.44
448.455	554.44
448.675	655.44
448.896	731.44
449.117	639.44
449.338	606.44
449.559	661.44
449.779	754.44
450	632.44
450.221	528.44
450.442	503.44
450.662	501.44
450.883	491.44
451.104	494.44
451.324	483.44
451.545	472.44
451.766	462.44
451.986	455.44
452.207	465.44
452.428	436.44
452.648	438.44
452.869	462.44
453.089	469.44
453.31	468.44
453.53	453.44
453.751	450.44
453.971	460.44
454.192	462.44
454.412	448.44
454.633	459.44
454.853	454.44
455.073	438.44
455.294	450.44
455.514	503.44
455.734	497.44
455.955	477.44
456.175	453.44
456.395	428.44
456.616	426.44
456.836	425.44
457.056	425.44
457.276	424.44
457.497	450.44
457.717	430.44
457.937	432.44
458.157	444.44
458.377	451.44
458.598	480.44
458.818	490.44
459.038	535.44
459.258	570.44
459.478	516.44
459.698	502.44
459.918	505.44
460.138	495.44
460.358	499.44
460.578	536.44
460.798	522.44
461.018	543.44
461.238	538.44
461.458	526.44
461.678	505.44
461.898	529.44
462.118	545.44
462.338	545.44
462.558	539.44
462.777	578.44
462.997	572.44
463.217	639.44
463.437	615.44
463.657	583.44
463.876	593.44
464.096	608.44
464.316	580.44
464.536	580.44
464.755	593.44
464.975	560.44
465.195	561.44
465.414	606.44
465.634	547.44
465.854	500.44
466.073	516.44
466.293	487.44
466.512	489.44
466.732	478.44
466.951	477.44
467.171	459.44
467.391	476.44
467.61	479.44
467.829	476.44
468.049	491.44
468.268	469.44
468.488	480.44
468.707	470.44
468.927	471.44
469.146	461.44
469.365	469.44
469.585	472.44
469.804	477.44
470.023	477.44
470.243	465.44
470.462	482.44
470.681	494.44
470.901	510.44
471.12	482.44
471.339	478.44
471.558	481.44
471.777	476.44
471.997	469.44
472.216	471.44
472.435	489.44
472.654	486.44
472.873	459.44
473.092	456.44
473.311	452.44
473.53	471.44
473.749	475.44
473.968	495.44
474.187	592.44
474.406	614.44
474.625	515.44
474.844	490.44
475.063	474.44
475.282	480.44
475.501	464.44
475.72	471.44
475.939	484.44
476.158	466.44
476.377	490.44
476.596	475.44
476.814	521.44
477.033	500.44
477.252	487.44
477.471	532.44
477.69	527.44
477.908	537.44
478.127	531.44
478.346	542.44
478.564	549.44
478.783	540.44
479.002	552.44
479.22	557.44
479.439	563.44
479.658	566.44
479.876	586.44
480.095	577.44
480.313	612.44
480.532	596.44
480.751	601.44
480.969	584.44
481.188	633.44
481.406	616.44
481.624	588.44
481.843	543.44
482.061	579.44
482.28	558.44
482.498	545.44
482.717	530.44
482.935	552.44
483.153	532.44
483.372	546.44
483.59	562.44
483.808	560.44
484.027	539.44
484.245	553.44
484.463	555.44
484.681	547.44
484.9	534.44
485.118	560.44
485.336	555.44
485.554	569.44
485.772	573.44
485.99	568.44
486.209	573.44
486.427	563.44
486.645	579.44
486.863	578.44
487.081	570.44
487.299	587.44
487.517	575.44
487.735	589.44
487.953	601.44
488.171	581.44
488.389	589.44
488.607	585.44
488.825	594.44
489.043	550.44
489.261	550.44
489.479	586.44
489.696	608.44
489.914	607.44
490.132	604.44
490.35	606.44
490.568	597.44
490.786	613.44
491.003	624.44
491.221	639.44
491.439	629.44
491.657	622.44
491.874	657.44
492.092	671.44
492.31	675.44
492.527	672.44
492.745	678.44
492.963	647.44
493.18	661.44
493.398	666.44
493.615	650.44
493.833	662.44
494.05	646.44
494.268	689.44
494.485	662.44
494.703	681.44
494.92	694.44
495.138	689.44
495.355	663.44
495.573	666.44
495.79	680.44
496.008	666.44
496.225	663.44
496.442	682.44
496.66	701.44
496.877	670.44
497.094	714.44
497.312	712.44
497.529	696.44
497.746	712.44
497.963	721.44
498.181	748.44
498.398	797.44
498.615	792.44
498.832	849.44
499.049	850.44
499.267	876.44
499.484	946.44
499.701	1015.44
499.918	1036.44
500.135	1101.44
500.352	1196.44
500.569	1216.44
500.786	1215.44
501.003	1210.44
501.22	1106.44
501.437	1100.44
501.654	1034.44
