Data from 1973.PennyLincolnUp.Lamp.En5.5.200Scan.071719.P1.Changed Mount._HRD10591_15-44-21-851.txt Node
Date: Thu Jul 18 15:44:21 EDT 2019
User: cochatt
Spectrometer: HR+D1059
Trigger mode: 1
Integration Time (sec): 1.000000E-1
Scans to average: 1
Electric dark correction enabled: true
Nonlinearity correction enabled: false
Boxcar width: 0
XAxis mode: Wavelengths
Number of Pixels in Spectrum: 2048
>>>>>Begin Spectral Data<<<<<
223.165	-13.88
223.4	-13.88
223.635	-13.88
223.869	-17.88
224.104	-17.88
224.338	-14.88
224.573	-24.88
224.808	-22.88
225.042	-12.88
225.277	-7.88
225.511	-7.88
225.746	-2.88
225.98	3.12
226.215	17.12
226.449	26.12
226.683	18.12
226.918	32.12
227.152	47.12
227.387	40.12
227.621	29.12
227.856	33.12
228.09	58.12
228.324	55.12
228.559	66.12
228.793	84.12
229.027	99.12
229.262	102.12
229.496	105.12
229.73	123.12
229.964	142.12
230.199	125.12
230.433	106.12
230.667	100.12
230.901	106.12
231.136	104.12
231.37	108.12
231.604	109.12
231.838	108.12
232.072	117.12
232.306	115.12
232.541	114.12
232.775	118.12
233.009	129.12
233.243	117.12
233.477	106.12
233.711	129.12
233.945	122.12
234.179	117.12
234.413	114.12
234.647	121.12
234.881	135.12
235.115	147.12
235.349	118.12
235.583	135.12
235.817	112.12
236.051	133.12
236.285	114.12
236.519	131.12
236.753	111.12
236.987	139.12
237.221	169.12
237.455	211.12
237.689	181.12
237.922	135.12
238.156	114.12
238.39	145.12
238.624	133.12
238.858	122.12
239.091	120.12
239.325	128.12
239.559	128.12
239.793	119.12
240.027	125.12
240.26	143.12
240.494	140.12
240.728	137.12
240.961	141.12
241.195	160.12
241.429	147.12
241.662	119.12
241.896	128.12
242.13	132.12
242.363	143.12
242.597	140.12
242.83	148.12
243.064	145.12
243.298	143.12
243.531	146.12
243.765	140.12
243.998	148.12
244.232	131.12
244.465	137.12
244.699	147.12
244.932	146.12
245.166	145.12
245.399	159.12
245.633	151.12
245.866	154.12
246.099	157.12
246.333	143.12
246.566	159.12
246.8	161.12
247.033	145.12
247.266	169.12
247.5	153.12
247.733	162.12
247.966	159.12
248.2	181.12
248.433	167.12
248.666	171.12
248.899	175.12
249.133	177.12
249.366	201.12
249.599	191.12
249.832	181.12
250.066	170.12
250.299	187.12
250.532	197.12
250.765	202.12
250.998	197.12
251.231	218.12
251.465	216.12
251.698	197.12
251.931	208.12
252.164	187.12
252.397	199.12
252.63	185.12
252.863	207.12
253.096	212.12
253.329	217.12
253.562	230.12
253.795	201.12
254.028	201.12
254.261	209.12
254.494	212.12
254.727	229.12
254.96	241.12
255.193	251.12
255.426	245.12
255.659	233.12
255.892	238.12
256.124	207.12
256.357	224.12
256.59	222.12
256.823	201.12
257.056	211.12
257.289	209.12
257.521	206.12
257.754	215.12
257.987	201.12
258.22	207.12
258.452	199.12
258.685	205.12
258.918	197.12
259.151	203.12
259.383	222.12
259.616	223.12
259.849	211.12
260.081	210.12
260.314	227.12
260.547	252.12
260.779	252.12
261.012	237.12
261.244	210.12
261.477	207.12
261.71	227.12
261.942	226.12
262.175	229.12
262.407	221.12
262.64	206.12
262.872	220.12
263.105	219.12
263.337	208.12
263.57	210.12
263.802	203.12
264.035	214.12
264.267	226.12
264.499	215.12
264.732	200.12
264.964	215.12
265.197	214.12
265.429	222.12
265.661	236.12
265.894	207.12
266.126	219.12
266.358	225.12
266.591	234.12
266.823	237.12
267.055	246.12
267.287	226.12
267.52	230.12
267.752	240.12
267.984	229.12
268.216	235.12
268.448	231.12
268.681	238.12
268.913	231.12
269.145	262.12
269.377	269.12
269.609	275.12
269.841	263.12
270.073	264.12
270.306	307.12
270.538	302.12
270.77	283.12
271.002	295.12
271.234	301.12
271.466	288.12
271.698	300.12
271.93	310.12
272.162	307.12
272.394	314.12
272.626	275.12
272.858	263.12
273.09	283.12
273.322	292.12
273.553	263.12
273.785	288.12
274.017	261.12
274.249	279.12
274.481	270.12
274.713	272.12
274.945	274.12
275.176	274.12
275.408	269.12
275.64	263.12
275.872	265.12
276.104	274.12
276.335	268.12
276.567	283.12
276.799	300.12
277.031	304.12
277.262	327.12
277.494	310.12
277.726	310.12
277.957	310.12
278.189	296.12
278.421	291.12
278.652	267.12
278.884	297.12
279.115	278.12
279.347	282.12
279.579	272.12
279.81	283.12
280.042	287.12
280.273	297.12
280.505	262.12
280.736	271.12
280.968	285.12
281.199	299.12
281.431	281.12
281.662	293.12
281.894	286.12
282.125	291.12
282.356	296.12
282.588	310.12
282.819	306.12
283.051	311.12
283.282	283.12
283.513	293.12
283.745	296.12
283.976	286.12
284.207	300.12
284.439	310.12
284.67	273.12
284.901	289.12
285.132	294.12
285.364	297.12
285.595	297.12
285.826	314.12
286.057	285.12
286.288	301.12
286.52	286.12
286.751	289.12
286.982	301.12
287.213	299.12
287.444	305.12
287.675	315.12
287.906	287.12
288.138	303.12
288.369	328.12
288.6	323.12
288.831	320.12
289.062	298.12
289.293	301.12
289.524	309.12
289.755	320.12
289.986	307.12
290.217	308.12
290.448	294.12
290.679	319.12
290.91	320.12
291.141	308.12
291.371	317.12
291.602	311.12
291.833	306.12
292.064	291.12
292.295	315.12
292.526	312.12
292.757	310.12
292.987	312.12
293.218	313.12
293.449	317.12
293.68	327.12
293.91	314.12
294.141	319.12
294.372	298.12
294.603	296.12
294.833	316.12
295.064	315.12
295.295	319.12
295.525	301.12
295.756	319.12
295.987	315.12
296.217	338.12
296.448	336.12
296.679	331.12
296.909	319.12
297.14	326.12
297.37	323.12
297.601	309.12
297.831	351.12
298.062	319.12
298.292	313.12
298.523	319.12
298.753	321.12
298.984	330.12
299.214	325.12
299.445	334.12
299.675	331.12
299.905	343.12
300.136	347.12
300.366	350.12
300.597	335.12
300.827	334.12
301.057	344.12
301.288	360.12
301.518	336.12
301.748	333.12
301.979	359.12
302.209	343.12
302.439	345.12
302.669	343.12
302.9	346.12
303.13	345.12
303.36	332.12
303.59	337.12
303.82	354.12
304.051	343.12
304.281	350.12
304.511	346.12
304.741	341.12
304.971	356.12
305.201	349.12
305.431	341.12
305.661	339.12
305.891	330.12
306.121	338.12
306.352	353.12
306.582	366.12
306.812	354.12
307.042	355.12
307.272	348.12
307.502	355.12
307.731	338.12
307.961	354.12
308.191	347.12
308.421	373.12
308.651	348.12
308.881	346.12
309.111	357.12
309.341	351.12
309.571	370.12
309.8	354.12
310.03	364.12
310.26	360.12
310.49	364.12
310.72	383.12
310.949	386.12
311.179	391.12
311.409	377.12
311.639	369.12
311.868	380.12
312.098	379.12
312.328	386.12
312.557	393.12
312.787	381.12
313.017	397.12
313.246	384.12
313.476	380.12
313.706	375.12
313.935	389.12
314.165	404.12
314.394	391.12
314.624	395.12
314.853	385.12
315.083	396.12
315.312	383.12
315.542	392.12
315.771	400.12
316.001	370.12
316.23	372.12
316.46	373.12
316.689	390.12
316.919	369.12
317.148	388.12
317.377	377.12
317.607	397.12
317.836	373.12
318.065	390.12
318.295	379.12
318.524	382.12
318.753	373.12
318.983	365.12
319.212	378.12
319.441	391.12
319.67	405.12
319.9	370.12
320.129	391.12
320.358	393.12
320.587	385.12
320.816	385.12
321.046	386.12
321.275	386.12
321.504	391.12
321.733	399.12
321.962	391.12
322.191	400.12
322.42	428.12
322.649	418.12
322.878	424.12
323.108	434.12
323.337	444.12
323.566	447.12
323.795	466.12
324.024	474.12
324.253	541.12
324.482	721.12
324.71	1008.12
324.939	1457.12
325.168	1298.12
325.397	674.12
325.626	532.12
325.855	474.12
326.084	453.12
326.313	471.12
326.542	473.12
326.77	482.12
326.999	530.12
327.228	671.12
327.457	954.12
327.686	1133.12
327.914	795.12
328.143	576.12
328.372	527.12
328.6	521.12
328.829	496.12
329.058	498.12
329.287	511.12
329.515	511.12
329.744	474.12
329.972	463.12
330.201	494.12
330.43	523.12
330.658	519.12
330.887	532.12
331.115	513.12
331.344	463.12
331.572	450.12
331.801	454.12
332.03	465.12
332.258	445.12
332.486	439.12
332.715	456.12
332.943	475.12
333.172	471.12
333.4	486.12
333.629	470.12
333.857	505.12
334.085	535.12
334.314	517.12
334.542	529.12
334.771	526.12
334.999	517.12
335.227	495.12
335.455	498.12
335.684	495.12
335.912	463.12
336.14	452.12
336.369	485.12
336.597	444.12
336.825	461.12
337.053	458.12
337.281	466.12
337.51	464.12
337.738	430.12
337.966	455.12
338.194	461.12
338.422	454.12
338.65	447.12
338.878	442.12
339.106	459.12
339.334	425.12
339.562	443.12
339.79	454.12
340.018	458.12
340.246	445.12
340.474	451.12
340.702	443.12
340.93	425.12
341.158	439.12
341.386	437.12
341.614	444.12
341.842	432.12
342.07	431.12
342.298	425.12
342.526	430.12
342.754	426.12
342.981	425.12
343.209	428.12
343.437	427.12
343.665	455.12
343.893	476.12
344.12	469.12
344.348	467.12
344.576	450.12
344.804	459.12
345.031	458.12
345.259	447.12
345.487	455.12
345.714	440.12
345.942	412.12
346.17	420.12
346.397	425.12
346.625	404.12
346.853	415.12
347.08	412.12
347.308	407.12
347.535	407.12
347.763	402.12
347.99	402.12
348.218	416.12
348.445	427.12
348.673	410.12
348.9	405.12
349.128	402.12
349.355	413.12
349.583	397.12
349.81	387.12
350.037	424.12
350.265	415.12
350.492	381.12
350.72	389.12
350.947	421.12
351.174	414.12
351.402	416.12
351.629	409.12
351.856	403.12
352.083	403.12
352.311	422.12
352.538	415.12
352.765	419.12
352.992	426.12
353.22	419.12
353.447	413.12
353.674	411.12
353.901	411.12
354.128	393.12
354.355	379.12
354.583	393.12
354.81	379.12
355.037	394.12
355.264	407.12
355.491	414.12
355.718	389.12
355.945	394.12
356.172	401.12
356.399	396.12
356.626	401.12
356.853	385.12
357.08	393.12
357.307	390.12
357.534	385.12
357.761	393.12
357.988	401.12
358.215	409.12
358.441	388.12
358.668	426.12
358.895	395.12
359.122	384.12
359.349	395.12
359.576	416.12
359.802	430.12
360.029	446.12
360.256	441.12
360.483	441.12
360.709	412.12
360.936	437.12
361.163	399.12
361.39	391.12
361.616	404.12
361.843	443.12
362.07	395.12
362.296	417.12
362.523	384.12
362.749	412.12
362.976	415.12
363.203	420.12
363.429	413.12
363.656	408.12
363.882	410.12
364.109	401.12
364.335	401.12
364.562	400.12
364.788	385.12
365.015	406.12
365.241	393.12
365.468	407.12
365.694	395.12
365.92	387.12
366.147	402.12
366.373	395.12
366.599	402.12
366.826	398.12
367.052	394.12
367.278	423.12
367.505	399.12
367.731	400.12
367.957	392.12
368.184	387.12
368.41	402.12
368.636	416.12
368.862	415.12
369.089	394.12
369.315	401.12
369.541	381.12
369.767	384.12
369.993	415.12
370.219	391.12
370.445	415.12
370.672	397.12
370.898	388.12
371.124	380.12
371.35	402.12
371.576	400.12
371.802	417.12
372.028	423.12
372.254	398.12
372.48	399.12
372.706	422.12
372.932	403.12
373.158	404.12
373.384	429.12
373.61	431.12
373.835	402.12
374.061	416.12
374.287	428.12
374.513	405.12
374.739	421.12
374.965	433.12
375.191	437.12
375.416	428.12
375.642	415.12
375.868	420.12
376.094	411.12
376.319	416.12
376.545	405.12
376.771	415.12
376.997	424.12
377.222	407.12
377.448	416.12
377.674	410.12
377.899	424.12
378.125	409.12
378.35	383.12
378.576	405.12
378.802	395.12
379.027	414.12
379.253	397.12
379.478	382.12
379.704	413.12
379.929	387.12
380.155	395.12
380.38	401.12
380.606	405.12
380.831	405.12
381.057	417.12
381.282	398.12
381.507	399.12
381.733	409.12
381.958	403.12
382.184	407.12
382.409	419.12
382.634	427.12
382.86	425.12
383.085	432.12
383.31	434.12
383.535	429.12
383.761	418.12
383.986	446.12
384.211	444.12
384.436	446.12
384.662	432.12
384.887	449.12
385.112	451.12
385.337	442.12
385.562	438.12
385.787	459.12
386.013	483.12
386.238	440.12
386.463	449.12
386.688	462.12
386.913	437.12
387.138	471.12
387.363	449.12
387.588	472.12
387.813	457.12
388.038	442.12
388.263	452.12
388.488	441.12
388.713	457.12
388.938	457.12
389.163	454.12
389.387	479.12
389.612	447.12
389.837	466.12
390.062	458.12
390.287	459.12
390.512	452.12
390.736	456.12
390.961	477.12
391.186	463.12
391.411	477.12
391.636	476.12
391.86	493.12
392.085	480.12
392.31	494.12
392.534	477.12
392.759	490.12
392.984	474.12
393.208	454.12
393.433	478.12
393.658	483.12
393.882	485.12
394.107	468.12
394.331	475.12
394.556	466.12
394.78	460.12
395.005	483.12
395.229	457.12
395.454	487.12
395.678	483.12
395.903	498.12
396.127	511.12
396.352	526.12
396.576	487.12
396.801	471.12
397.025	466.12
397.249	452.12
397.474	513.12
397.698	488.12
397.922	492.12
398.147	502.12
398.371	522.12
398.595	527.12
398.82	518.12
399.044	563.12
399.268	603.12
399.492	630.12
399.717	677.12
399.941	695.12
400.165	697.12
400.389	705.12
400.613	605.12
400.837	591.12
401.062	560.12
401.286	555.12
401.51	530.12
401.734	544.12
401.958	554.12
402.182	568.12
402.406	539.12
402.63	529.12
402.854	553.12
403.078	587.12
403.302	584.12
403.526	572.12
403.75	557.12
403.974	549.12
404.198	594.12
404.422	583.12
404.645	587.12
404.869	587.12
405.093	605.12
405.317	636.12
405.541	657.12
405.765	610.12
405.988	570.12
406.212	591.12
406.436	594.12
406.66	643.12
406.883	608.12
407.107	642.12
407.331	677.12
407.555	712.12
407.778	736.12
408.002	671.12
408.226	642.12
408.449	623.12
408.673	599.12
408.896	616.12
409.12	662.12
409.344	645.12
409.567	573.12
409.791	591.12
410.014	563.12
410.238	560.12
410.461	549.12
410.685	561.12
410.908	571.12
411.132	591.12
411.355	641.12
411.578	609.12
411.802	570.12
412.025	565.12
412.249	554.12
412.472	551.12
412.695	612.12
412.919	573.12
413.142	561.12
413.365	542.12
413.589	539.12
413.812	521.12
414.035	549.12
414.258	541.12
414.482	556.12
414.705	533.12
414.928	533.12
415.151	543.12
415.374	544.12
415.597	513.12
415.821	509.12
416.044	534.12
416.267	525.12
416.49	509.12
416.713	526.12
416.936	535.12
417.159	518.12
417.382	524.12
417.605	521.12
417.828	544.12
418.051	539.12
418.274	542.12
418.497	520.12
418.72	546.12
418.943	529.12
419.166	572.12
419.389	567.12
419.611	559.12
419.834	589.12
420.057	551.12
420.28	559.12
420.503	543.12
420.726	567.12
420.948	562.12
421.171	606.12
421.394	600.12
421.617	561.12
421.839	539.12
422.062	531.12
422.285	552.12
422.507	609.12
422.73	679.12
422.953	644.12
423.175	574.12
423.398	589.12
423.621	598.12
423.843	583.12
424.066	582.12
424.288	590.12
424.511	602.12
424.733	625.12
424.956	658.12
425.178	646.12
425.401	642.12
425.623	690.12
425.846	587.12
426.068	557.12
426.291	555.12
426.513	557.12
426.735	565.12
426.958	585.12
427.18	640.12
427.402	755.12
427.625	843.12
427.847	698.12
428.069	624.12
428.292	564.12
428.514	522.12
428.736	552.12
428.958	518.12
429.181	511.12
429.403	503.12
429.625	530.12
429.847	535.12
430.069	591.12
430.292	587.12
430.514	551.12
430.736	531.12
430.958	504.12
431.18	497.12
431.402	480.12
431.624	515.12
431.846	507.12
432.068	511.12
432.29	520.12
432.512	514.12
432.734	501.12
432.956	512.12
433.178	523.12
433.4	529.12
433.622	498.12
433.844	494.12
434.066	512.12
434.287	517.12
434.509	525.12
434.731	525.12
434.953	523.12
435.175	542.12
435.397	573.12
435.618	557.12
435.84	598.12
436.062	664.12
436.284	716.12
436.505	596.12
436.727	545.12
436.949	525.12
437.17	534.12
437.392	518.12
437.614	534.12
437.835	552.12
438.057	606.12
438.278	685.12
438.5	673.12
438.721	755.12
438.943	718.12
439.165	579.12
439.386	542.12
439.608	573.12
439.829	551.12
440.05	568.12
440.272	613.12
440.493	581.12
440.715	544.12
440.936	537.12
441.158	528.12
441.379	538.12
441.6	566.12
441.822	567.12
442.043	604.12
442.264	640.12
442.486	696.12
442.707	593.12
442.928	586.12
443.149	569.12
443.371	570.12
443.592	622.12
443.813	701.12
444.034	752.12
444.255	649.12
444.476	585.12
444.698	606.12
444.919	606.12
445.14	689.12
445.361	671.12
445.582	622.12
445.803	626.12
446.024	732.12
446.245	727.12
446.466	679.12
446.687	598.12
446.908	543.12
447.129	531.12
447.35	534.12
447.571	536.12
447.792	510.12
448.013	506.12
448.234	530.12
448.455	538.12
448.675	651.12
448.896	723.12
449.117	631.12
449.338	615.12
449.559	691.12
449.779	803.12
450	645.12
450.221	541.12
450.442	505.12
450.662	487.12
450.883	481.12
451.104	505.12
451.324	510.12
451.545	487.12
451.766	478.12
451.986	457.12
452.207	449.12
452.428	450.12
452.648	443.12
452.869	450.12
453.089	478.12
453.31	483.12
453.53	458.12
453.751	454.12
453.971	458.12
454.192	447.12
454.412	419.12
454.633	450.12
454.853	441.12
455.073	455.12
455.294	487.12
455.514	530.12
455.734	517.12
455.955	449.12
456.175	439.12
456.395	430.12
456.616	434.12
456.836	452.12
457.056	442.12
457.276	432.12
457.497	429.12
457.717	452.12
457.937	450.12
458.157	464.12
458.377	423.12
458.598	457.12
458.818	490.12
459.038	540.12
459.258	591.12
459.478	534.12
459.698	519.12
459.918	495.12
460.138	503.12
460.358	505.12
460.578	536.12
460.798	531.12
461.018	523.12
461.238	507.12
461.458	504.12
461.678	530.12
461.898	556.12
462.118	535.12
462.338	537.12
462.558	555.12
462.777	565.12
462.997	586.12
463.217	630.12
463.437	653.12
463.657	586.12
463.876	595.12
464.096	579.12
464.316	576.12
464.536	596.12
464.755	567.12
464.975	562.12
465.195	577.12
465.414	603.12
465.634	589.12
465.854	502.12
466.073	519.12
466.293	485.12
466.512	473.12
466.732	469.12
466.951	470.12
467.171	462.12
467.391	487.12
467.61	485.12
467.829	485.12
468.049	479.12
468.268	489.12
468.488	471.12
468.707	473.12
468.927	471.12
469.146	472.12
469.365	473.12
469.585	461.12
469.804	462.12
470.023	494.12
470.243	470.12
470.462	495.12
470.681	501.12
470.901	486.12
471.12	482.12
471.339	475.12
471.558	479.12
471.777	466.12
471.997	477.12
472.216	489.12
472.435	498.12
472.654	479.12
472.873	478.12
473.092	486.12
473.311	498.12
473.53	475.12
473.749	481.12
473.968	516.12
474.187	593.12
474.406	601.12
474.625	523.12
474.844	482.12
475.063	493.12
475.282	459.12
475.501	493.12
475.72	487.12
475.939	495.12
476.158	471.12
476.377	483.12
476.596	501.12
476.814	484.12
477.033	504.12
477.252	511.12
477.471	509.12
477.69	489.12
477.908	539.12
478.127	524.12
478.346	541.12
478.564	551.12
478.783	537.12
479.002	559.12
479.22	558.12
479.439	575.12
479.658	587.12
479.876	578.12
480.095	603.12
480.313	599.12
480.532	603.12
480.751	596.12
480.969	608.12
481.188	610.12
481.406	638.12
481.624	601.12
481.843	565.12
482.061	589.12
482.28	553.12
482.498	539.12
482.717	542.12
482.935	559.12
483.153	539.12
483.372	565.12
483.59	543.12
483.808	539.12
484.027	534.12
484.245	538.12
484.463	560.12
484.681	574.12
484.9	542.12
485.118	561.12
485.336	567.12
485.554	545.12
485.772	567.12
485.99	579.12
486.209	557.12
486.427	567.12
486.645	596.12
486.863	567.12
487.081	598.12
487.299	566.12
487.517	581.12
487.735	583.12
487.953	593.12
488.171	592.12
488.389	602.12
488.607	581.12
488.825	592.12
489.043	602.12
489.261	597.12
489.479	586.12
489.696	590.12
489.914	593.12
490.132	617.12
490.35	614.12
490.568	602.12
490.786	615.12
491.003	620.12
491.221	629.12
491.439	640.12
491.657	645.12
491.874	645.12
492.092	647.12
492.31	654.12
492.527	684.12
492.745	673.12
492.963	658.12
493.18	656.12
493.398	683.12
493.615	709.12
493.833	667.12
494.05	698.12
494.268	677.12
494.485	695.12
494.703	681.12
494.92	671.12
495.138	697.12
495.355	678.12
495.573	710.12
495.79	677.12
496.008	699.12
496.225	666.12
496.442	693.12
496.66	696.12
496.877	686.12
497.094	686.12
497.312	713.12
497.529	733.12
497.746	720.12
497.963	741.12
498.181	758.12
498.398	781.12
498.615	800.12
498.832	839.12
499.049	837.12
499.267	898.12
499.484	919.12
499.701	977.12
499.918	1033.12
500.135	1112.12
500.352	1209.12
500.569	1206.12
500.786	1207.12
501.003	1207.12
501.22	1111.12
501.437	1044.12
501.654	1009.12
