Data from 1973.PennyLincolnUp.Lamp.En5.5.200Scan.071719.P1.Changed Mount._HRD10591_15-44-59-852.txt Node
Date: Thu Jul 18 15:44:59 EDT 2019
User: cochatt
Spectrometer: HR+D1059
Trigger mode: 1
Integration Time (sec): 1.000000E-1
Scans to average: 1
Electric dark correction enabled: true
Nonlinearity correction enabled: false
Boxcar width: 0
XAxis mode: Wavelengths
Number of Pixels in Spectrum: 2048
>>>>>Begin Spectral Data<<<<<
223.165	-23.69
223.4	-23.69
223.635	-23.69
223.869	-14.69
224.104	-16.69
224.338	-3.69
224.573	-3.69
224.808	-10.69
225.042	-10.69
225.277	-10.69
225.511	-16.69
225.746	-0.69
225.98	11.31
226.215	19.31
226.449	14.31
226.683	6.31
226.918	29.31
227.152	31.31
227.387	34.31
227.621	39.31
227.856	46.31
228.09	49.31
228.324	56.31
228.559	60.31
228.793	74.31
229.027	100.31
229.262	89.31
229.496	108.31
229.73	130.31
229.964	149.31
230.199	117.31
230.433	124.31
230.667	114.31
230.901	124.31
231.136	105.31
231.37	130.31
231.604	118.31
231.838	112.31
232.072	100.31
232.306	124.31
232.541	121.31
232.775	114.31
233.009	121.31
233.243	123.31
233.477	128.31
233.711	129.31
233.945	116.31
234.179	130.31
234.413	131.31
234.647	118.31
234.881	124.31
235.115	123.31
235.349	125.31
235.583	117.31
235.817	130.31
236.051	134.31
236.285	110.31
236.519	118.31
236.753	143.31
236.987	140.31
237.221	177.31
237.455	207.31
237.689	157.31
237.922	142.31
238.156	135.31
238.39	145.31
238.624	132.31
238.858	128.31
239.091	124.31
239.325	119.31
239.559	132.31
239.793	127.31
240.027	136.31
240.26	143.31
240.494	145.31
240.728	150.31
240.961	173.31
241.195	147.31
241.429	153.31
241.662	130.31
241.896	144.31
242.13	138.31
242.363	157.31
242.597	145.31
242.83	152.31
243.064	145.31
243.298	160.31
243.531	141.31
243.765	143.31
243.998	137.31
244.232	161.31
244.465	154.31
244.699	150.31
244.932	158.31
245.166	142.31
245.399	162.31
245.633	160.31
245.866	162.31
246.099	148.31
246.333	151.31
246.566	151.31
246.8	157.31
247.033	180.31
247.266	171.31
247.5	182.31
247.733	173.31
247.966	190.31
248.2	177.31
248.433	172.31
248.666	196.31
248.899	181.31
249.133	196.31
249.366	204.31
249.599	189.31
249.832	194.31
250.066	192.31
250.299	185.31
250.532	198.31
250.765	218.31
250.998	231.31
251.231	214.31
251.465	216.31
251.698	198.31
251.931	203.31
252.164	206.31
252.397	199.31
252.63	200.31
252.863	197.31
253.096	218.31
253.329	226.31
253.562	222.31
253.795	225.31
254.028	217.31
254.261	195.31
254.494	207.31
254.727	246.31
254.96	272.31
255.193	269.31
255.426	258.31
255.659	233.31
255.892	220.31
256.124	221.31
256.357	228.31
256.59	227.31
256.823	224.31
257.056	217.31
257.289	207.31
257.521	219.31
257.754	198.31
257.987	210.31
258.22	215.31
258.452	206.31
258.685	223.31
258.918	205.31
259.151	202.31
259.383	231.31
259.616	246.31
259.849	237.31
260.081	242.31
260.314	252.31
260.547	255.31
260.779	247.31
261.012	246.31
261.244	242.31
261.477	239.31
261.71	212.31
261.942	236.31
262.175	236.31
262.407	220.31
262.64	226.31
262.872	223.31
263.105	230.31
263.337	242.31
263.57	236.31
263.802	231.31
264.035	231.31
264.267	216.31
264.499	223.31
264.732	221.31
264.964	214.31
265.197	212.31
265.429	221.31
265.661	234.31
265.894	233.31
266.126	231.31
266.358	224.31
266.591	235.31
266.823	222.31
267.055	244.31
267.287	234.31
267.52	233.31
267.752	249.31
267.984	213.31
268.216	253.31
268.448	238.31
268.681	248.31
268.913	244.31
269.145	264.31
269.377	310.31
269.609	289.31
269.841	282.31
270.073	281.31
270.306	286.31
270.538	308.31
270.77	312.31
271.002	294.31
271.234	297.31
271.466	285.31
271.698	303.31
271.93	314.31
272.162	339.31
272.394	324.31
272.626	315.31
272.858	302.31
273.09	291.31
273.322	285.31
273.553	275.31
273.785	284.31
274.017	294.31
274.249	271.31
274.481	278.31
274.713	280.31
274.945	289.31
275.176	273.31
275.408	269.31
275.64	270.31
275.872	295.31
276.104	275.31
276.335	269.31
276.567	286.31
276.799	285.31
277.031	308.31
277.262	318.31
277.494	325.31
277.726	296.31
277.957	303.31
278.189	293.31
278.421	298.31
278.652	290.31
278.884	293.31
279.115	274.31
279.347	289.31
279.579	291.31
279.81	289.31
280.042	266.31
280.273	289.31
280.505	288.31
280.736	281.31
280.968	282.31
281.199	300.31
281.431	292.31
281.662	284.31
281.894	306.31
282.125	300.31
282.356	316.31
282.588	310.31
282.819	322.31
283.051	303.31
283.282	268.31
283.513	319.31
283.745	303.31
283.976	303.31
284.207	331.31
284.439	334.31
284.67	307.31
284.901	310.31
285.132	305.31
285.364	323.31
285.595	308.31
285.826	296.31
286.057	304.31
286.288	329.31
286.52	308.31
286.751	295.31
286.982	306.31
287.213	301.31
287.444	308.31
287.675	333.31
287.906	319.31
288.138	355.31
288.369	337.31
288.6	322.31
288.831	335.31
289.062	343.31
289.293	321.31
289.524	328.31
289.755	323.31
289.986	327.31
290.217	322.31
290.448	316.31
290.679	342.31
290.91	337.31
291.141	303.31
291.371	324.31
291.602	311.31
291.833	305.31
292.064	316.31
292.295	314.31
292.526	311.31
292.757	306.31
292.987	326.31
293.218	330.31
293.449	342.31
293.68	324.31
293.91	320.31
294.141	320.31
294.372	327.31
294.603	328.31
294.833	316.31
295.064	319.31
295.295	333.31
295.525	349.31
295.756	338.31
295.987	329.31
296.217	321.31
296.448	349.31
296.679	320.31
296.909	338.31
297.14	347.31
297.37	318.31
297.601	337.31
297.831	340.31
298.062	334.31
298.292	328.31
298.523	346.31
298.753	329.31
298.984	333.31
299.214	358.31
299.445	347.31
299.675	345.31
299.905	328.31
300.136	344.31
300.366	348.31
300.597	342.31
300.827	346.31
301.057	341.31
301.288	346.31
301.518	358.31
301.748	357.31
301.979	348.31
302.209	364.31
302.439	352.31
302.669	371.31
302.9	378.31
303.13	362.31
303.36	346.31
303.59	357.31
303.82	368.31
304.051	367.31
304.281	362.31
304.511	360.31
304.741	356.31
304.971	357.31
305.201	361.31
305.431	372.31
305.661	355.31
305.891	362.31
306.121	355.31
306.352	369.31
306.582	353.31
306.812	357.31
307.042	386.31
307.272	368.31
307.502	374.31
307.731	383.31
307.961	362.31
308.191	377.31
308.421	353.31
308.651	352.31
308.881	369.31
309.111	364.31
309.341	362.31
309.571	394.31
309.8	378.31
310.03	366.31
310.26	384.31
310.49	396.31
310.72	401.31
310.949	402.31
311.179	410.31
311.409	407.31
311.639	379.31
311.868	389.31
312.098	402.31
312.328	384.31
312.557	401.31
312.787	431.31
313.017	413.31
313.246	406.31
313.476	376.31
313.706	423.31
313.935	401.31
314.165	419.31
314.394	391.31
314.624	430.31
314.853	403.31
315.083	398.31
315.312	410.31
315.542	408.31
315.771	396.31
316.001	390.31
316.23	394.31
316.46	381.31
316.689	408.31
316.919	398.31
317.148	426.31
317.377	398.31
317.607	399.31
317.836	399.31
318.065	413.31
318.295	405.31
318.524	406.31
318.753	396.31
318.983	413.31
319.212	390.31
319.441	402.31
319.67	418.31
319.9	402.31
320.129	412.31
320.358	414.31
320.587	419.31
320.816	422.31
321.046	420.31
321.275	406.31
321.504	409.31
321.733	431.31
321.962	421.31
322.191	426.31
322.42	436.31
322.649	442.31
322.878	441.31
323.108	448.31
323.337	450.31
323.566	472.31
323.795	486.31
324.024	497.31
324.253	582.31
324.482	735.31
324.71	1057.31
324.939	1490.31
325.168	1323.31
325.397	736.31
325.626	566.31
325.855	503.31
326.084	471.31
326.313	462.31
326.542	472.31
326.77	518.31
326.999	564.31
327.228	696.31
327.457	973.31
327.686	1191.31
327.914	826.31
328.143	603.31
328.372	514.31
328.6	530.31
328.829	486.31
329.058	516.31
329.287	505.31
329.515	501.31
329.744	496.31
329.972	471.31
330.201	512.31
330.43	530.31
330.658	532.31
330.887	550.31
331.115	542.31
331.344	519.31
331.572	478.31
331.801	524.31
332.03	505.31
332.258	472.31
332.486	468.31
332.715	464.31
332.943	487.31
333.172	524.31
333.4	516.31
333.629	518.31
333.857	528.31
334.085	534.31
334.314	550.31
334.542	568.31
334.771	566.31
334.999	551.31
335.227	518.31
335.455	473.31
335.684	518.31
335.912	491.31
336.14	468.31
336.369	497.31
336.597	486.31
336.825	485.31
337.053	465.31
337.281	477.31
337.51	470.31
337.738	476.31
337.966	482.31
338.194	485.31
338.422	464.31
338.65	463.31
338.878	455.31
339.106	441.31
339.334	453.31
339.562	457.31
339.79	470.31
340.018	448.31
340.246	461.31
340.474	465.31
340.702	442.31
340.93	454.31
341.158	436.31
341.386	449.31
341.614	460.31
341.842	466.31
342.07	461.31
342.298	455.31
342.526	457.31
342.754	446.31
342.981	444.31
343.209	432.31
343.437	453.31
343.665	464.31
343.893	486.31
344.12	482.31
344.348	514.31
344.576	483.31
344.804	493.31
345.031	485.31
345.259	459.31
345.487	447.31
345.714	460.31
345.942	454.31
346.17	433.31
346.397	444.31
346.625	423.31
346.853	424.31
347.08	437.31
347.308	444.31
347.535	436.31
347.763	434.31
347.99	440.31
348.218	444.31
348.445	425.31
348.673	439.31
348.9	440.31
349.128	417.31
349.355	400.31
349.583	436.31
349.81	408.31
350.037	436.31
350.265	425.31
350.492	424.31
350.72	440.31
350.947	424.31
351.174	432.31
351.402	422.31
351.629	426.31
351.856	411.31
352.083	450.31
352.311	450.31
352.538	426.31
352.765	434.31
352.992	423.31
353.22	448.31
353.447	411.31
353.674	429.31
353.901	429.31
354.128	432.31
354.355	423.31
354.583	424.31
354.81	414.31
355.037	397.31
355.264	403.31
355.491	422.31
355.718	416.31
355.945	394.31
356.172	397.31
356.399	403.31
356.626	399.31
356.853	410.31
357.08	402.31
357.307	416.31
357.534	423.31
357.761	402.31
357.988	410.31
358.215	403.31
358.441	405.31
358.668	422.31
358.895	412.31
359.122	407.31
359.349	420.31
359.576	432.31
359.802	413.31
360.029	466.31
360.256	452.31
360.483	457.31
360.709	429.31
360.936	440.31
361.163	432.31
361.39	440.31
361.616	414.31
361.843	402.31
362.07	400.31
362.296	422.31
362.523	441.31
362.749	438.31
362.976	401.31
363.203	415.31
363.429	396.31
363.656	422.31
363.882	430.31
364.109	382.31
364.335	409.31
364.562	402.31
364.788	410.31
365.015	390.31
365.241	404.31
365.468	414.31
365.694	425.31
365.92	435.31
366.147	422.31
366.373	414.31
366.599	412.31
366.826	411.31
367.052	407.31
367.278	420.31
367.505	406.31
367.731	434.31
367.957	437.31
368.184	409.31
368.41	420.31
368.636	431.31
368.862	438.31
369.089	440.31
369.315	412.31
369.541	425.31
369.767	432.31
369.993	411.31
370.219	415.31
370.445	426.31
370.672	418.31
370.898	409.31
371.124	400.31
371.35	425.31
371.576	431.31
371.802	423.31
372.028	421.31
372.254	438.31
372.48	414.31
372.706	429.31
372.932	422.31
373.158	415.31
373.384	428.31
373.61	444.31
373.835	420.31
374.061	453.31
374.287	435.31
374.513	437.31
374.739	439.31
374.965	416.31
375.191	428.31
375.416	442.31
375.642	412.31
375.868	447.31
376.094	412.31
376.319	424.31
376.545	426.31
376.771	431.31
376.997	432.31
377.222	413.31
377.448	411.31
377.674	423.31
377.899	429.31
378.125	417.31
378.35	429.31
378.576	428.31
378.802	435.31
379.027	436.31
379.253	422.31
379.478	418.31
379.704	402.31
379.929	432.31
380.155	429.31
380.38	426.31
380.606	423.31
380.831	427.31
381.057	438.31
381.282	429.31
381.507	430.31
381.733	462.31
381.958	438.31
382.184	446.31
382.409	435.31
382.634	425.31
382.86	432.31
383.085	440.31
383.31	449.31
383.535	452.31
383.761	431.31
383.986	459.31
384.211	448.31
384.436	456.31
384.662	453.31
384.887	466.31
385.112	477.31
385.337	453.31
385.562	460.31
385.787	481.31
386.013	495.31
386.238	484.31
386.463	490.31
386.688	462.31
386.913	480.31
387.138	483.31
387.363	464.31
387.588	495.31
387.813	475.31
388.038	476.31
388.263	507.31
388.488	487.31
388.713	478.31
388.938	477.31
389.163	464.31
389.387	462.31
389.612	495.31
389.837	460.31
390.062	456.31
390.287	497.31
390.512	483.31
390.736	475.31
390.961	481.31
391.186	472.31
391.411	473.31
391.636	494.31
391.86	500.31
392.085	493.31
392.31	507.31
392.534	514.31
392.759	503.31
392.984	486.31
393.208	479.31
393.433	475.31
393.658	497.31
393.882	486.31
394.107	482.31
394.331	486.31
394.556	486.31
394.78	482.31
395.005	481.31
395.229	474.31
395.454	530.31
395.678	521.31
395.903	507.31
396.127	545.31
396.352	533.31
396.576	481.31
396.801	480.31
397.025	497.31
397.249	518.31
397.474	512.31
397.698	522.31
397.922	538.31
398.147	530.31
398.371	555.31
398.595	548.31
398.82	544.31
399.044	570.31
399.268	605.31
399.492	646.31
399.717	682.31
399.941	706.31
400.165	731.31
400.389	696.31
400.613	621.31
400.837	638.31
401.062	575.31
401.286	582.31
401.51	559.31
401.734	564.31
401.958	568.31
402.182	578.31
402.406	585.31
402.63	557.31
402.854	570.31
403.078	587.31
403.302	566.31
403.526	600.31
403.75	592.31
403.974	599.31
404.198	603.31
404.422	588.31
404.645	602.31
404.869	592.31
405.093	637.31
405.317	673.31
405.541	684.31
405.765	638.31
405.988	612.31
406.212	618.31
406.436	625.31
406.66	636.31
406.883	634.31
407.107	646.31
407.331	683.31
407.555	744.31
407.778	762.31
408.002	702.31
408.226	656.31
408.449	645.31
408.673	633.31
408.896	670.31
409.12	692.31
409.344	639.31
409.567	615.31
409.791	603.31
410.014	600.31
410.238	592.31
410.461	582.31
410.685	591.31
410.908	592.31
411.132	624.31
411.355	663.31
411.578	628.31
411.802	588.31
412.025	573.31
412.249	608.31
412.472	606.31
412.695	654.31
412.919	648.31
413.142	572.31
413.365	553.31
413.589	572.31
413.812	552.31
414.035	556.31
414.258	552.31
414.482	565.31
414.705	542.31
414.928	568.31
415.151	552.31
415.374	542.31
415.597	549.31
415.821	535.31
416.044	540.31
416.267	560.31
416.49	540.31
416.713	541.31
416.936	529.31
417.159	548.31
417.382	552.31
417.605	552.31
417.828	561.31
418.051	570.31
418.274	564.31
418.497	553.31
418.72	536.31
418.943	561.31
419.166	568.31
419.389	610.31
419.611	612.31
419.834	616.31
420.057	568.31
420.28	590.31
420.503	571.31
420.726	560.31
420.948	585.31
421.171	607.31
421.394	637.31
421.617	583.31
421.839	572.31
422.062	558.31
422.285	567.31
422.507	611.31
422.73	657.31
422.953	682.31
423.175	616.31
423.398	578.31
423.621	587.31
423.843	616.31
424.066	607.31
424.288	609.31
424.511	618.31
424.733	652.31
424.956	728.31
425.178	680.31
425.401	706.31
425.623	730.31
425.846	633.31
426.068	616.31
426.291	576.31
426.513	554.31
426.735	576.31
426.958	618.31
427.18	676.31
427.402	799.31
427.625	831.31
427.847	720.31
428.069	664.31
428.292	610.31
428.514	559.31
428.736	534.31
428.958	572.31
429.181	549.31
429.403	542.31
429.625	561.31
429.847	585.31
430.069	636.31
430.292	634.31
430.514	550.31
430.736	541.31
430.958	540.31
431.18	516.31
431.402	509.31
431.624	491.31
431.846	500.31
432.068	526.31
432.29	529.31
432.512	504.31
432.734	531.31
432.956	531.31
433.178	534.31
433.4	526.31
433.622	531.31
433.844	534.31
434.066	524.31
434.287	530.31
434.509	542.31
434.731	548.31
434.953	542.31
435.175	589.31
435.397	582.31
435.618	596.31
435.84	616.31
436.062	670.31
436.284	731.31
436.505	636.31
436.727	621.31
436.949	546.31
437.17	549.31
437.392	534.31
437.614	538.31
437.835	560.31
438.057	645.31
438.278	705.31
438.5	717.31
438.721	774.31
438.943	744.31
439.165	633.31
439.386	575.31
439.608	576.31
439.829	572.31
440.05	590.31
440.272	628.31
440.493	602.31
440.715	572.31
440.936	556.31
441.158	528.31
441.379	554.31
441.6	569.31
441.822	591.31
442.043	632.31
442.264	682.31
442.486	696.31
442.707	632.31
442.928	585.31
443.149	610.31
443.371	620.31
443.592	637.31
443.813	751.31
444.034	810.31
444.255	665.31
444.476	628.31
444.698	624.31
444.919	617.31
445.14	719.31
445.361	672.31
445.582	642.31
445.803	681.31
446.024	730.31
446.245	713.31
446.466	664.31
446.687	600.31
446.908	575.31
447.129	545.31
447.35	555.31
447.571	521.31
447.792	518.31
448.013	508.31
448.234	530.31
448.455	579.31
448.675	680.31
448.896	748.31
449.117	628.31
449.338	614.31
449.559	732.31
449.779	787.31
450	655.31
450.221	570.31
450.442	517.31
450.662	513.31
450.883	508.31
451.104	500.31
451.324	518.31
451.545	483.31
451.766	493.31
451.986	464.31
452.207	485.31
452.428	483.31
452.648	474.31
452.869	465.31
453.089	471.31
453.31	508.31
453.53	495.31
453.751	478.31
453.971	466.31
454.192	480.31
454.412	467.31
454.633	473.31
454.853	474.31
455.073	452.31
455.294	484.31
455.514	554.31
455.734	550.31
455.955	487.31
456.175	454.31
456.395	448.31
456.616	454.31
456.836	456.31
457.056	452.31
457.276	454.31
457.497	468.31
457.717	447.31
457.937	462.31
458.157	460.31
458.377	478.31
458.598	484.31
458.818	562.31
459.038	591.31
459.258	625.31
459.478	541.31
459.698	543.31
459.918	508.31
460.138	526.31
460.358	549.31
460.578	563.31
460.798	554.31
461.018	567.31
461.238	561.31
461.458	566.31
461.678	550.31
461.898	558.31
462.118	550.31
462.338	583.31
462.558	580.31
462.777	584.31
462.997	630.31
463.217	652.31
463.437	644.31
463.657	601.31
463.876	616.31
464.096	605.31
464.316	588.31
464.536	589.31
464.755	588.31
464.975	585.31
465.195	585.31
465.414	607.31
465.634	568.31
465.854	537.31
466.073	536.31
466.293	493.31
466.512	497.31
466.732	517.31
466.951	500.31
467.171	505.31
467.391	497.31
467.61	497.31
467.829	511.31
468.049	502.31
468.268	490.31
468.488	495.31
468.707	487.31
468.927	492.31
469.146	478.31
469.365	484.31
469.585	499.31
469.804	504.31
470.023	505.31
470.243	491.31
470.462	520.31
470.681	512.31
470.901	506.31
471.12	497.31
471.339	529.31
471.558	482.31
471.777	529.31
471.997	496.31
472.216	500.31
472.435	508.31
472.654	490.31
472.873	492.31
473.092	488.31
473.311	485.31
473.53	490.31
473.749	481.31
473.968	515.31
474.187	584.31
474.406	638.31
474.625	530.31
474.844	491.31
475.063	489.31
475.282	483.31
475.501	492.31
475.72	507.31
475.939	492.31
476.158	514.31
476.377	515.31
476.596	524.31
476.814	512.31
477.033	508.31
477.252	523.31
477.471	546.31
477.69	526.31
477.908	533.31
478.127	570.31
478.346	547.31
478.564	549.31
478.783	559.31
479.002	553.31
479.22	570.31
479.439	592.31
479.658	588.31
479.876	585.31
480.095	605.31
480.313	640.31
480.532	629.31
480.751	638.31
480.969	645.31
481.188	653.31
481.406	675.31
481.624	616.31
481.843	586.31
482.061	598.31
482.28	586.31
482.498	580.31
482.717	586.31
482.935	571.31
483.153	569.31
483.372	567.31
483.59	580.31
483.808	565.31
484.027	564.31
484.245	584.31
484.463	580.31
484.681	591.31
484.9	576.31
485.118	606.31
485.336	584.31
485.554	598.31
485.772	610.31
485.99	597.31
486.209	609.31
486.427	597.31
486.645	613.31
486.863	617.31
487.081	613.31
487.299	617.31
487.517	604.31
487.735	605.31
487.953	624.31
488.171	615.31
488.389	606.31
488.607	612.31
488.825	597.31
489.043	597.31
489.261	632.31
489.479	632.31
489.696	630.31
489.914	638.31
490.132	616.31
490.35	634.31
490.568	635.31
490.786	658.31
491.003	673.31
491.221	677.31
491.439	682.31
491.657	641.31
491.874	679.31
492.092	679.31
492.31	678.31
492.527	682.31
492.745	685.31
492.963	681.31
493.18	701.31
493.398	716.31
493.615	720.31
493.833	701.31
494.05	709.31
494.268	721.31
494.485	694.31
494.703	728.31
494.92	705.31
495.138	702.31
495.355	736.31
495.573	698.31
495.79	698.31
496.008	712.31
496.225	706.31
496.442	712.31
496.66	716.31
496.877	747.31
497.094	730.31
497.312	754.31
497.529	741.31
497.746	775.31
497.963	764.31
498.181	796.31
498.398	791.31
498.615	821.31
498.832	859.31
499.049	881.31
499.267	932.31
499.484	922.31
499.701	1061.31
499.918	1066.31
500.135	1156.31
500.352	1228.31
500.569	1249.31
500.786	1236.31
501.003	1207.31
501.22	1171.31
501.437	1104.31
501.654	1054.31
