Data from 1973.PennyLincolnUp.Lamp.En5.5.200Scan.071719.P1.Changed Mount._HRD10591_15-44-49-852.txt Node
Date: Thu Jul 18 15:44:49 EDT 2019
User: cochatt
Spectrometer: HR+D1059
Trigger mode: 1
Integration Time (sec): 1.000000E-1
Scans to average: 1
Electric dark correction enabled: true
Nonlinearity correction enabled: false
Boxcar width: 0
XAxis mode: Wavelengths
Number of Pixels in Spectrum: 2048
>>>>>Begin Spectral Data<<<<<
223.165	-28.88
223.4	-28.88
223.635	-28.88
223.869	-18.88
224.104	-12.88
224.338	-23.88
224.573	-8.88
224.808	-11.88
225.042	1.12
225.277	-8.88
225.511	-4.88
225.746	14.12
225.98	8.12
226.215	21.12
226.449	15.12
226.683	9.12
226.918	17.12
227.152	33.12
227.387	28.12
227.621	32.12
227.856	43.12
228.09	44.12
228.324	39.12
228.559	53.12
228.793	73.12
229.027	85.12
229.262	97.12
229.496	108.12
229.73	125.12
229.964	159.12
230.199	123.12
230.433	103.12
230.667	107.12
230.901	101.12
231.136	116.12
231.37	101.12
231.604	115.12
231.838	101.12
232.072	109.12
232.306	108.12
232.541	119.12
232.775	125.12
233.009	116.12
233.243	115.12
233.477	124.12
233.711	123.12
233.945	113.12
234.179	112.12
234.413	116.12
234.647	106.12
234.881	122.12
235.115	107.12
235.349	111.12
235.583	107.12
235.817	103.12
236.051	129.12
236.285	123.12
236.519	122.12
236.753	133.12
236.987	136.12
237.221	155.12
237.455	205.12
237.689	166.12
237.922	134.12
238.156	120.12
238.39	133.12
238.624	138.12
238.858	129.12
239.091	120.12
239.325	124.12
239.559	122.12
239.793	121.12
240.027	109.12
240.26	131.12
240.494	144.12
240.728	143.12
240.961	144.12
241.195	147.12
241.429	129.12
241.662	123.12
241.896	127.12
242.13	137.12
242.363	130.12
242.597	129.12
242.83	127.12
243.064	132.12
243.298	141.12
243.531	143.12
243.765	148.12
243.998	134.12
244.232	148.12
244.465	142.12
244.699	146.12
244.932	153.12
245.166	151.12
245.399	158.12
245.633	156.12
245.866	149.12
246.099	153.12
246.333	128.12
246.566	147.12
246.8	153.12
247.033	160.12
247.266	156.12
247.5	159.12
247.733	177.12
247.966	171.12
248.2	167.12
248.433	160.12
248.666	178.12
248.899	166.12
249.133	197.12
249.366	177.12
249.599	190.12
249.832	180.12
250.066	170.12
250.299	181.12
250.532	191.12
250.765	201.12
250.998	201.12
251.231	220.12
251.465	213.12
251.698	193.12
251.931	206.12
252.164	185.12
252.397	188.12
252.63	192.12
252.863	215.12
253.096	209.12
253.329	205.12
253.562	210.12
253.795	205.12
254.028	206.12
254.261	217.12
254.494	230.12
254.727	255.12
254.96	266.12
255.193	260.12
255.426	230.12
255.659	222.12
255.892	220.12
256.124	222.12
256.357	232.12
256.59	214.12
256.823	206.12
257.056	201.12
257.289	218.12
257.521	209.12
257.754	213.12
257.987	210.12
258.22	204.12
258.452	192.12
258.685	208.12
258.918	213.12
259.151	212.12
259.383	224.12
259.616	216.12
259.849	219.12
260.081	234.12
260.314	239.12
260.547	247.12
260.779	222.12
261.012	227.12
261.244	230.12
261.477	229.12
261.71	216.12
261.942	215.12
262.175	229.12
262.407	208.12
262.64	215.12
262.872	208.12
263.105	223.12
263.337	223.12
263.57	229.12
263.802	218.12
264.035	215.12
264.267	208.12
264.499	221.12
264.732	217.12
264.964	207.12
265.197	224.12
265.429	215.12
265.661	237.12
265.894	222.12
266.126	223.12
266.358	228.12
266.591	220.12
266.823	247.12
267.055	223.12
267.287	239.12
267.52	241.12
267.752	218.12
267.984	236.12
268.216	239.12
268.448	240.12
268.681	250.12
268.913	250.12
269.145	264.12
269.377	278.12
269.609	265.12
269.841	251.12
270.073	270.12
270.306	267.12
270.538	297.12
270.77	291.12
271.002	313.12
271.234	289.12
271.466	304.12
271.698	294.12
271.93	284.12
272.162	307.12
272.394	303.12
272.626	297.12
272.858	293.12
273.09	289.12
273.322	271.12
273.553	275.12
273.785	282.12
274.017	270.12
274.249	268.12
274.481	264.12
274.713	264.12
274.945	255.12
275.176	277.12
275.408	304.12
275.64	275.12
275.872	255.12
276.104	274.12
276.335	260.12
276.567	271.12
276.799	278.12
277.031	295.12
277.262	312.12
277.494	309.12
277.726	305.12
277.957	297.12
278.189	290.12
278.421	282.12
278.652	277.12
278.884	260.12
279.115	275.12
279.347	284.12
279.579	295.12
279.81	279.12
280.042	301.12
280.273	288.12
280.505	295.12
280.736	298.12
280.968	274.12
281.199	288.12
281.431	293.12
281.662	294.12
281.894	299.12
282.125	285.12
282.356	277.12
282.588	307.12
282.819	304.12
283.051	290.12
283.282	292.12
283.513	280.12
283.745	288.12
283.976	289.12
284.207	301.12
284.439	324.12
284.67	308.12
284.901	280.12
285.132	272.12
285.364	302.12
285.595	295.12
285.826	307.12
286.057	303.12
286.288	307.12
286.52	319.12
286.751	297.12
286.982	301.12
287.213	315.12
287.444	317.12
287.675	314.12
287.906	328.12
288.138	308.12
288.369	316.12
288.6	311.12
288.831	325.12
289.062	322.12
289.293	324.12
289.524	320.12
289.755	325.12
289.986	323.12
290.217	297.12
290.448	291.12
290.679	319.12
290.91	316.12
291.141	300.12
291.371	312.12
291.602	317.12
291.833	292.12
292.064	319.12
292.295	325.12
292.526	313.12
292.757	316.12
292.987	325.12
293.218	321.12
293.449	323.12
293.68	322.12
293.91	305.12
294.141	309.12
294.372	309.12
294.603	328.12
294.833	327.12
295.064	310.12
295.295	308.12
295.525	306.12
295.756	320.12
295.987	324.12
296.217	326.12
296.448	353.12
296.679	323.12
296.909	329.12
297.14	308.12
297.37	317.12
297.601	318.12
297.831	313.12
298.062	331.12
298.292	303.12
298.523	317.12
298.753	345.12
298.984	332.12
299.214	356.12
299.445	367.12
299.675	311.12
299.905	343.12
300.136	321.12
300.366	336.12
300.597	345.12
300.827	353.12
301.057	346.12
301.288	348.12
301.518	352.12
301.748	337.12
301.979	356.12
302.209	362.12
302.439	370.12
302.669	341.12
302.9	362.12
303.13	359.12
303.36	375.12
303.59	347.12
303.82	353.12
304.051	360.12
304.281	349.12
304.511	369.12
304.741	351.12
304.971	345.12
305.201	351.12
305.431	355.12
305.661	344.12
305.891	364.12
306.121	352.12
306.352	359.12
306.582	352.12
306.812	363.12
307.042	350.12
307.272	339.12
307.502	351.12
307.731	361.12
307.961	339.12
308.191	351.12
308.421	348.12
308.651	340.12
308.881	332.12
309.111	353.12
309.341	363.12
309.571	372.12
309.8	376.12
310.03	373.12
310.26	372.12
310.49	360.12
310.72	367.12
310.949	381.12
311.179	403.12
311.409	371.12
311.639	376.12
311.868	384.12
312.098	376.12
312.328	393.12
312.557	401.12
312.787	415.12
313.017	389.12
313.246	392.12
313.476	395.12
313.706	383.12
313.935	411.12
314.165	395.12
314.394	383.12
314.624	391.12
314.853	386.12
315.083	387.12
315.312	396.12
315.542	388.12
315.771	385.12
316.001	367.12
316.23	390.12
316.46	404.12
316.689	385.12
316.919	406.12
317.148	399.12
317.377	407.12
317.607	375.12
317.836	396.12
318.065	367.12
318.295	396.12
318.524	374.12
318.753	395.12
318.983	380.12
319.212	399.12
319.441	405.12
319.67	388.12
319.9	390.12
320.129	415.12
320.358	395.12
320.587	391.12
320.816	381.12
321.046	427.12
321.275	390.12
321.504	410.12
321.733	405.12
321.962	418.12
322.191	416.12
322.42	425.12
322.649	433.12
322.878	443.12
323.108	433.12
323.337	442.12
323.566	439.12
323.795	467.12
324.024	492.12
324.253	533.12
324.482	706.12
324.71	1015.12
324.939	1434.12
325.168	1271.12
325.397	689.12
325.626	538.12
325.855	471.12
326.084	482.12
326.313	471.12
326.542	481.12
326.77	488.12
326.999	539.12
327.228	687.12
327.457	924.12
327.686	1120.12
327.914	797.12
328.143	600.12
328.372	520.12
328.6	496.12
328.829	489.12
329.058	515.12
329.287	500.12
329.515	491.12
329.744	463.12
329.972	480.12
330.201	486.12
330.43	502.12
330.658	515.12
330.887	517.12
331.115	531.12
331.344	502.12
331.572	486.12
331.801	471.12
332.03	467.12
332.258	491.12
332.486	469.12
332.715	486.12
332.943	479.12
333.172	452.12
333.4	490.12
333.629	503.12
333.857	499.12
334.085	531.12
334.314	537.12
334.542	536.12
334.771	551.12
334.999	532.12
335.227	499.12
335.455	488.12
335.684	475.12
335.912	465.12
336.14	463.12
336.369	486.12
336.597	447.12
336.825	497.12
337.053	472.12
337.281	471.12
337.51	451.12
337.738	470.12
337.966	441.12
338.194	438.12
338.422	437.12
338.65	449.12
338.878	447.12
339.106	459.12
339.334	443.12
339.562	444.12
339.79	441.12
340.018	442.12
340.246	444.12
340.474	432.12
340.702	438.12
340.93	417.12
341.158	443.12
341.386	453.12
341.614	435.12
341.842	421.12
342.07	431.12
342.298	456.12
342.526	437.12
342.754	426.12
342.981	425.12
343.209	437.12
343.437	426.12
343.665	459.12
343.893	465.12
344.12	491.12
344.348	459.12
344.576	446.12
344.804	450.12
345.031	427.12
345.259	467.12
345.487	455.12
345.714	436.12
345.942	428.12
346.17	416.12
346.397	421.12
346.625	421.12
346.853	412.12
347.08	410.12
347.308	419.12
347.535	420.12
347.763	432.12
347.99	428.12
348.218	423.12
348.445	447.12
348.673	426.12
348.9	420.12
349.128	427.12
349.355	394.12
349.583	407.12
349.81	414.12
350.037	417.12
350.265	396.12
350.492	401.12
350.72	409.12
350.947	414.12
351.174	407.12
351.402	406.12
351.629	429.12
351.856	410.12
352.083	400.12
352.311	422.12
352.538	419.12
352.765	404.12
352.992	421.12
353.22	413.12
353.447	416.12
353.674	416.12
353.901	411.12
354.128	405.12
354.355	418.12
354.583	387.12
354.81	418.12
355.037	426.12
355.264	432.12
355.491	399.12
355.718	393.12
355.945	411.12
356.172	403.12
356.399	409.12
356.626	399.12
356.853	391.12
357.08	414.12
357.307	389.12
357.534	391.12
357.761	395.12
357.988	398.12
358.215	417.12
358.441	405.12
358.668	401.12
358.895	416.12
359.122	405.12
359.349	396.12
359.576	436.12
359.802	419.12
360.029	435.12
360.256	429.12
360.483	437.12
360.709	407.12
360.936	396.12
361.163	393.12
361.39	419.12
361.616	433.12
361.843	405.12
362.07	400.12
362.296	427.12
362.523	413.12
362.749	417.12
362.976	408.12
363.203	408.12
363.429	401.12
363.656	405.12
363.882	419.12
364.109	421.12
364.335	403.12
364.562	413.12
364.788	407.12
365.015	407.12
365.241	397.12
365.468	402.12
365.694	379.12
365.92	381.12
366.147	400.12
366.373	396.12
366.599	413.12
366.826	393.12
367.052	412.12
367.278	396.12
367.505	402.12
367.731	389.12
367.957	405.12
368.184	401.12
368.41	407.12
368.636	419.12
368.862	413.12
369.089	419.12
369.315	420.12
369.541	395.12
369.767	411.12
369.993	392.12
370.219	403.12
370.445	406.12
370.672	392.12
370.898	401.12
371.124	408.12
371.35	395.12
371.576	422.12
371.802	393.12
372.028	418.12
372.254	429.12
372.48	408.12
372.706	417.12
372.932	436.12
373.158	440.12
373.384	417.12
373.61	408.12
373.835	409.12
374.061	416.12
374.287	445.12
374.513	435.12
374.739	417.12
374.965	441.12
375.191	444.12
375.416	436.12
375.642	391.12
375.868	435.12
376.094	428.12
376.319	407.12
376.545	416.12
376.771	392.12
376.997	406.12
377.222	404.12
377.448	420.12
377.674	418.12
377.899	428.12
378.125	393.12
378.35	419.12
378.576	422.12
378.802	406.12
379.027	417.12
379.253	409.12
379.478	435.12
379.704	412.12
379.929	409.12
380.155	419.12
380.38	407.12
380.606	411.12
380.831	416.12
381.057	434.12
381.282	408.12
381.507	411.12
381.733	424.12
381.958	424.12
382.184	417.12
382.409	441.12
382.634	431.12
382.86	430.12
383.085	424.12
383.31	445.12
383.535	447.12
383.761	433.12
383.986	437.12
384.211	438.12
384.436	460.12
384.662	447.12
384.887	482.12
385.112	460.12
385.337	453.12
385.562	456.12
385.787	481.12
386.013	472.12
386.238	484.12
386.463	476.12
386.688	478.12
386.913	466.12
387.138	469.12
387.363	445.12
387.588	472.12
387.813	445.12
388.038	452.12
388.263	466.12
388.488	475.12
388.713	449.12
388.938	455.12
389.163	470.12
389.387	487.12
389.612	466.12
389.837	460.12
390.062	459.12
390.287	449.12
390.512	479.12
390.736	457.12
390.961	465.12
391.186	469.12
391.411	480.12
391.636	478.12
391.86	484.12
392.085	477.12
392.31	503.12
392.534	487.12
392.759	476.12
392.984	499.12
393.208	480.12
393.433	479.12
393.658	454.12
393.882	460.12
394.107	464.12
394.331	469.12
394.556	463.12
394.78	471.12
395.005	502.12
395.229	489.12
395.454	483.12
395.678	506.12
395.903	503.12
396.127	517.12
396.352	517.12
396.576	501.12
396.801	480.12
397.025	500.12
397.249	498.12
397.474	501.12
397.698	495.12
397.922	517.12
398.147	534.12
398.371	529.12
398.595	540.12
398.82	540.12
399.044	538.12
399.268	575.12
399.492	632.12
399.717	705.12
399.941	697.12
400.165	700.12
400.389	695.12
400.613	619.12
400.837	584.12
401.062	549.12
401.286	547.12
401.51	557.12
401.734	552.12
401.958	556.12
402.182	568.12
402.406	552.12
402.63	571.12
402.854	586.12
403.078	559.12
403.302	580.12
403.526	602.12
403.75	582.12
403.974	586.12
404.198	576.12
404.422	569.12
404.645	594.12
404.869	624.12
405.093	612.12
405.317	620.12
405.541	670.12
405.765	621.12
405.988	586.12
406.212	593.12
406.436	600.12
406.66	623.12
406.883	603.12
407.107	631.12
407.331	687.12
407.555	735.12
407.778	722.12
408.002	651.12
408.226	633.12
408.449	627.12
408.673	608.12
408.896	618.12
409.12	661.12
409.344	625.12
409.567	619.12
409.791	583.12
410.014	585.12
410.238	586.12
410.461	575.12
410.685	576.12
410.908	600.12
411.132	602.12
411.355	629.12
411.578	612.12
411.802	595.12
412.025	552.12
412.249	589.12
412.472	595.12
412.695	612.12
412.919	611.12
413.142	570.12
413.365	575.12
413.589	562.12
413.812	556.12
414.035	556.12
414.258	563.12
414.482	523.12
414.705	536.12
414.928	545.12
415.151	552.12
415.374	534.12
415.597	524.12
415.821	534.12
416.044	519.12
416.267	535.12
416.49	542.12
416.713	530.12
416.936	562.12
417.159	518.12
417.382	531.12
417.605	540.12
417.828	532.12
418.051	554.12
418.274	544.12
418.497	544.12
418.72	555.12
418.943	538.12
419.166	571.12
419.389	585.12
419.611	586.12
419.834	569.12
420.057	564.12
420.28	557.12
420.503	562.12
420.726	556.12
420.948	532.12
421.171	606.12
421.394	620.12
421.617	575.12
421.839	549.12
422.062	543.12
422.285	563.12
422.507	593.12
422.73	661.12
422.953	660.12
423.175	595.12
423.398	585.12
423.621	564.12
423.843	611.12
424.066	587.12
424.288	597.12
424.511	608.12
424.733	635.12
424.956	694.12
425.178	665.12
425.401	659.12
425.623	720.12
425.846	643.12
426.068	579.12
426.291	569.12
426.513	583.12
426.735	573.12
426.958	583.12
427.18	669.12
427.402	767.12
427.625	827.12
427.847	710.12
428.069	647.12
428.292	600.12
428.514	555.12
428.736	550.12
428.958	534.12
429.181	526.12
429.403	533.12
429.625	540.12
429.847	545.12
430.069	609.12
430.292	607.12
430.514	537.12
430.736	507.12
430.958	534.12
431.18	527.12
431.402	505.12
431.624	484.12
431.846	491.12
432.068	498.12
432.29	517.12
432.512	505.12
432.734	533.12
432.956	498.12
433.178	510.12
433.4	497.12
433.622	515.12
433.844	498.12
434.066	508.12
434.287	500.12
434.509	492.12
434.731	548.12
434.953	544.12
435.175	556.12
435.397	566.12
435.618	567.12
435.84	590.12
436.062	649.12
436.284	722.12
436.505	598.12
436.727	548.12
436.949	521.12
437.17	547.12
437.392	532.12
437.614	533.12
437.835	536.12
438.057	631.12
438.278	689.12
438.5	687.12
438.721	769.12
438.943	757.12
439.165	600.12
439.386	561.12
439.608	547.12
439.829	536.12
440.05	571.12
440.272	607.12
440.493	594.12
440.715	542.12
440.936	529.12
441.158	547.12
441.379	555.12
441.6	548.12
441.822	590.12
442.043	602.12
442.264	677.12
442.486	679.12
442.707	623.12
442.928	573.12
443.149	590.12
443.371	577.12
443.592	627.12
443.813	721.12
444.034	761.12
444.255	636.12
444.476	605.12
444.698	595.12
444.919	633.12
445.14	715.12
445.361	650.12
445.582	635.12
445.803	651.12
446.024	717.12
446.245	731.12
446.466	671.12
446.687	600.12
446.908	552.12
447.129	524.12
447.35	518.12
447.571	502.12
447.792	497.12
448.013	506.12
448.234	536.12
448.455	554.12
448.675	646.12
448.896	751.12
449.117	653.12
449.338	592.12
449.559	688.12
449.779	775.12
450	626.12
450.221	539.12
450.442	514.12
450.662	480.12
450.883	484.12
451.104	487.12
451.324	483.12
451.545	491.12
451.766	472.12
451.986	487.12
452.207	465.12
452.428	459.12
452.648	478.12
452.869	461.12
453.089	476.12
453.31	479.12
453.53	455.12
453.751	454.12
453.971	461.12
454.192	467.12
454.412	461.12
454.633	435.12
454.853	450.12
455.073	438.12
455.294	475.12
455.514	533.12
455.734	529.12
455.955	462.12
456.175	452.12
456.395	439.12
456.616	434.12
456.836	437.12
457.056	449.12
457.276	431.12
457.497	436.12
457.717	437.12
457.937	448.12
458.157	452.12
458.377	456.12
458.598	481.12
458.818	514.12
459.038	551.12
459.258	607.12
459.478	542.12
459.698	523.12
459.918	525.12
460.138	516.12
460.358	523.12
460.578	529.12
460.798	549.12
461.018	544.12
461.238	536.12
461.458	546.12
461.678	533.12
461.898	578.12
462.118	552.12
462.338	538.12
462.558	575.12
462.777	589.12
462.997	603.12
463.217	662.12
463.437	659.12
463.657	603.12
463.876	583.12
464.096	613.12
464.316	578.12
464.536	603.12
464.755	625.12
464.975	577.12
465.195	583.12
465.414	607.12
465.634	576.12
465.854	524.12
466.073	515.12
466.293	513.12
466.512	493.12
466.732	491.12
466.951	477.12
467.171	466.12
467.391	479.12
467.61	492.12
467.829	504.12
468.049	499.12
468.268	497.12
468.488	485.12
468.707	481.12
468.927	467.12
469.146	486.12
469.365	478.12
469.585	474.12
469.804	486.12
470.023	488.12
470.243	474.12
470.462	518.12
470.681	516.12
470.901	486.12
471.12	499.12
471.339	498.12
471.558	484.12
471.777	485.12
471.997	481.12
472.216	509.12
472.435	476.12
472.654	494.12
472.873	482.12
473.092	473.12
473.311	473.12
473.53	480.12
473.749	492.12
473.968	511.12
474.187	587.12
474.406	645.12
474.625	525.12
474.844	490.12
475.063	480.12
475.282	487.12
475.501	499.12
475.72	510.12
475.939	480.12
476.158	508.12
476.377	503.12
476.596	519.12
476.814	514.12
477.033	515.12
477.252	502.12
477.471	510.12
477.69	543.12
477.908	553.12
478.127	539.12
478.346	534.12
478.564	560.12
478.783	561.12
479.002	565.12
479.22	568.12
479.439	593.12
479.658	601.12
479.876	562.12
480.095	582.12
480.313	613.12
480.532	620.12
480.751	610.12
480.969	592.12
481.188	653.12
481.406	635.12
481.624	603.12
481.843	582.12
482.061	575.12
482.28	549.12
482.498	553.12
482.717	555.12
482.935	546.12
483.153	587.12
483.372	575.12
483.59	551.12
483.808	568.12
484.027	565.12
484.245	569.12
484.463	568.12
484.681	587.12
484.9	563.12
485.118	586.12
485.336	568.12
485.554	588.12
485.772	572.12
485.99	568.12
486.209	564.12
486.427	584.12
486.645	598.12
486.863	617.12
487.081	595.12
487.299	609.12
487.517	564.12
487.735	595.12
487.953	582.12
488.171	612.12
488.389	577.12
488.607	597.12
488.825	589.12
489.043	589.12
489.261	604.12
489.479	618.12
489.696	588.12
489.914	624.12
490.132	620.12
490.35	620.12
490.568	654.12
490.786	631.12
491.003	634.12
491.221	647.12
491.439	635.12
491.657	645.12
491.874	677.12
492.092	663.12
492.31	661.12
492.527	676.12
492.745	687.12
492.963	673.12
493.18	692.12
493.398	686.12
493.615	691.12
493.833	682.12
494.05	709.12
494.268	706.12
494.485	716.12
494.703	688.12
494.92	709.12
495.138	669.12
495.355	676.12
495.573	700.12
495.79	715.12
496.008	697.12
496.225	691.12
496.442	717.12
496.66	709.12
496.877	708.12
497.094	704.12
497.312	713.12
497.529	755.12
497.746	752.12
497.963	755.12
498.181	784.12
498.398	785.12
498.615	794.12
498.832	837.12
499.049	879.12
499.267	917.12
499.484	959.12
499.701	1009.12
499.918	1066.12
500.135	1134.12
500.352	1232.12
500.569	1296.12
500.786	1241.12
501.003	1241.12
501.22	1141.12
501.437	1091.12
501.654	1040.12
