Data from 1973.PennyLincolnUp.Lamp.En5.5.200Scan.071719.P1.Changed Mount._HRD10591_15-43-51-852.txt Node
Date: Thu Jul 18 15:43:51 EDT 2019
User: cochatt
Spectrometer: HR+D1059
Trigger mode: 1
Integration Time (sec): 1.000000E-1
Scans to average: 1
Electric dark correction enabled: true
Nonlinearity correction enabled: false
Boxcar width: 0
XAxis mode: Wavelengths
Number of Pixels in Spectrum: 2048
>>>>>Begin Spectral Data<<<<<
223.165	-5.69
223.4	-5.69
223.635	-5.69
223.869	-8.69
224.104	-19.69
224.338	-13.69
224.573	-16.69
224.808	-13.69
225.042	-19.69
225.277	-6.69
225.511	1.31
225.746	3.31
225.98	3.31
226.215	12.31
226.449	1.31
226.683	22.31
226.918	23.31
227.152	37.31
227.387	35.31
227.621	26.31
227.856	36.31
228.09	42.31
228.324	45.31
228.559	51.31
228.793	72.31
229.027	89.31
229.262	95.31
229.496	96.31
229.73	107.31
229.964	137.31
230.199	113.31
230.433	99.31
230.667	100.31
230.901	93.31
231.136	105.31
231.37	103.31
231.604	106.31
231.838	106.31
232.072	105.31
232.306	107.31
232.541	112.31
232.775	104.31
233.009	119.31
233.243	98.31
233.477	103.31
233.711	103.31
233.945	109.31
234.179	118.31
234.413	106.31
234.647	120.31
234.881	114.31
235.115	117.31
235.349	102.31
235.583	125.31
235.817	109.31
236.051	109.31
236.285	119.31
236.519	110.31
236.753	112.31
236.987	123.31
237.221	160.31
237.455	197.31
237.689	158.31
237.922	131.31
238.156	131.31
238.39	113.31
238.624	125.31
238.858	118.31
239.091	122.31
239.325	118.31
239.559	116.31
239.793	126.31
240.027	131.31
240.26	128.31
240.494	145.31
240.728	143.31
240.961	139.31
241.195	139.31
241.429	130.31
241.662	125.31
241.896	142.31
242.13	132.31
242.363	150.31
242.597	113.31
242.83	143.31
243.064	143.31
243.298	135.31
243.531	138.31
243.765	139.31
243.998	134.31
244.232	133.31
244.465	143.31
244.699	145.31
244.932	139.31
245.166	129.31
245.399	153.31
245.633	137.31
245.866	139.31
246.099	122.31
246.333	131.31
246.566	152.31
246.8	152.31
247.033	158.31
247.266	149.31
247.5	173.31
247.733	160.31
247.966	167.31
248.2	160.31
248.433	159.31
248.666	165.31
248.899	174.31
249.133	183.31
249.366	186.31
249.599	200.31
249.832	178.31
250.066	180.31
250.299	170.31
250.532	193.31
250.765	186.31
250.998	196.31
251.231	201.31
251.465	194.31
251.698	177.31
251.931	194.31
252.164	176.31
252.397	181.31
252.63	190.31
252.863	183.31
253.096	204.31
253.329	217.31
253.562	196.31
253.795	204.31
254.028	174.31
254.261	197.31
254.494	209.31
254.727	206.31
254.96	255.31
255.193	237.31
255.426	216.31
255.659	212.31
255.892	240.31
256.124	204.31
256.357	225.31
256.59	216.31
256.823	202.31
257.056	194.31
257.289	183.31
257.521	186.31
257.754	216.31
257.987	201.31
258.22	206.31
258.452	225.31
258.685	221.31
258.918	194.31
259.151	201.31
259.383	211.31
259.616	205.31
259.849	208.31
260.081	233.31
260.314	239.31
260.547	230.31
260.779	211.31
261.012	213.31
261.244	214.31
261.477	218.31
261.71	200.31
261.942	208.31
262.175	224.31
262.407	205.31
262.64	224.31
262.872	210.31
263.105	196.31
263.337	200.31
263.57	207.31
263.802	207.31
264.035	230.31
264.267	217.31
264.499	217.31
264.732	216.31
264.964	221.31
265.197	206.31
265.429	224.31
265.661	212.31
265.894	232.31
266.126	221.31
266.358	221.31
266.591	214.31
266.823	236.31
267.055	226.31
267.287	238.31
267.52	202.31
267.752	218.31
267.984	213.31
268.216	233.31
268.448	249.31
268.681	231.31
268.913	229.31
269.145	251.31
269.377	265.31
269.609	265.31
269.841	244.31
270.073	259.31
270.306	275.31
270.538	283.31
270.77	297.31
271.002	282.31
271.234	275.31
271.466	311.31
271.698	291.31
271.93	282.31
272.162	288.31
272.394	272.31
272.626	291.31
272.858	271.31
273.09	262.31
273.322	249.31
273.553	269.31
273.785	273.31
274.017	273.31
274.249	260.31
274.481	258.31
274.713	271.31
274.945	268.31
275.176	249.31
275.408	269.31
275.64	241.31
275.872	277.31
276.104	257.31
276.335	257.31
276.567	266.31
276.799	271.31
277.031	306.31
277.262	301.31
277.494	310.31
277.726	305.31
277.957	287.31
278.189	286.31
278.421	260.31
278.652	262.31
278.884	257.31
279.115	280.31
279.347	273.31
279.579	272.31
279.81	273.31
280.042	250.31
280.273	272.31
280.505	274.31
280.736	264.31
280.968	251.31
281.199	281.31
281.431	262.31
281.662	284.31
281.894	289.31
282.125	283.31
282.356	285.31
282.588	302.31
282.819	291.31
283.051	289.31
283.282	289.31
283.513	289.31
283.745	270.31
283.976	291.31
284.207	305.31
284.439	283.31
284.67	281.31
284.901	297.31
285.132	288.31
285.364	278.31
285.595	303.31
285.826	273.31
286.057	302.31
286.288	287.31
286.52	287.31
286.751	299.31
286.982	280.31
287.213	294.31
287.444	278.31
287.675	296.31
287.906	306.31
288.138	301.31
288.369	319.31
288.6	302.31
288.831	319.31
289.062	308.31
289.293	298.31
289.524	291.31
289.755	309.31
289.986	311.31
290.217	319.31
290.448	300.31
290.679	304.31
290.91	296.31
291.141	297.31
291.371	302.31
291.602	301.31
291.833	297.31
292.064	309.31
292.295	302.31
292.526	307.31
292.757	289.31
292.987	294.31
293.218	285.31
293.449	322.31
293.68	303.31
293.91	301.31
294.141	294.31
294.372	305.31
294.603	305.31
294.833	304.31
295.064	328.31
295.295	307.31
295.525	312.31
295.756	326.31
295.987	300.31
296.217	318.31
296.448	326.31
296.679	313.31
296.909	321.31
297.14	302.31
297.37	320.31
297.601	324.31
297.831	329.31
298.062	309.31
298.292	331.31
298.523	322.31
298.753	318.31
298.984	336.31
299.214	327.31
299.445	328.31
299.675	343.31
299.905	326.31
300.136	320.31
300.366	333.31
300.597	331.31
300.827	338.31
301.057	332.31
301.288	342.31
301.518	333.31
301.748	327.31
301.979	352.31
302.209	341.31
302.439	351.31
302.669	347.31
302.9	354.31
303.13	332.31
303.36	343.31
303.59	335.31
303.82	336.31
304.051	356.31
304.281	352.31
304.511	347.31
304.741	352.31
304.971	342.31
305.201	337.31
305.431	338.31
305.661	325.31
305.891	340.31
306.121	346.31
306.352	354.31
306.582	346.31
306.812	338.31
307.042	346.31
307.272	343.31
307.502	332.31
307.731	321.31
307.961	339.31
308.191	352.31
308.421	337.31
308.651	333.31
308.881	342.31
309.111	341.31
309.341	360.31
309.571	355.31
309.8	341.31
310.03	355.31
310.26	365.31
310.49	347.31
310.72	373.31
310.949	369.31
311.179	371.31
311.409	362.31
311.639	370.31
311.868	369.31
312.098	372.31
312.328	369.31
312.557	385.31
312.787	365.31
313.017	380.31
313.246	379.31
313.476	371.31
313.706	348.31
313.935	373.31
314.165	391.31
314.394	384.31
314.624	381.31
314.853	378.31
315.083	370.31
315.312	391.31
315.542	383.31
315.771	391.31
316.001	376.31
316.23	375.31
316.46	375.31
316.689	370.31
316.919	378.31
317.148	370.31
317.377	383.31
317.607	387.31
317.836	359.31
318.065	381.31
318.295	383.31
318.524	388.31
318.753	377.31
318.983	366.31
319.212	368.31
319.441	378.31
319.67	371.31
319.9	349.31
320.129	371.31
320.358	375.31
320.587	372.31
320.816	373.31
321.046	387.31
321.275	381.31
321.504	360.31
321.733	372.31
321.962	388.31
322.191	399.31
322.42	404.31
322.649	413.31
322.878	415.31
323.108	414.31
323.337	398.31
323.566	436.31
323.795	429.31
324.024	465.31
324.253	513.31
324.482	646.31
324.71	927.31
324.939	1333.31
325.168	1157.31
325.397	631.31
325.626	490.31
325.855	442.31
326.084	449.31
326.313	449.31
326.542	418.31
326.77	456.31
326.999	511.31
327.228	629.31
327.457	870.31
327.686	1029.31
327.914	724.31
328.143	537.31
328.372	474.31
328.6	488.31
328.829	445.31
329.058	462.31
329.287	477.31
329.515	485.31
329.744	446.31
329.972	455.31
330.201	450.31
330.43	471.31
330.658	489.31
330.887	490.31
331.115	507.31
331.344	450.31
331.572	425.31
331.801	455.31
332.03	461.31
332.258	443.31
332.486	447.31
332.715	464.31
332.943	471.31
333.172	454.31
333.4	465.31
333.629	495.31
333.857	498.31
334.085	511.31
334.314	515.31
334.542	529.31
334.771	513.31
334.999	489.31
335.227	463.31
335.455	477.31
335.684	450.31
335.912	458.31
336.14	447.31
336.369	449.31
336.597	464.31
336.825	478.31
337.053	452.31
337.281	438.31
337.51	445.31
337.738	441.31
337.966	435.31
338.194	445.31
338.422	437.31
338.65	443.31
338.878	442.31
339.106	433.31
339.334	407.31
339.562	423.31
339.79	412.31
340.018	448.31
340.246	431.31
340.474	434.31
340.702	431.31
340.93	447.31
341.158	417.31
341.386	423.31
341.614	431.31
341.842	412.31
342.07	423.31
342.298	422.31
342.526	421.31
342.754	415.31
342.981	413.31
343.209	407.31
343.437	428.31
343.665	426.31
343.893	433.31
344.12	472.31
344.348	450.31
344.576	433.31
344.804	453.31
345.031	450.31
345.259	415.31
345.487	392.31
345.714	423.31
345.942	407.31
346.17	400.31
346.397	410.31
346.625	429.31
346.853	407.31
347.08	414.31
347.308	405.31
347.535	412.31
347.763	412.31
347.99	386.31
348.218	410.31
348.445	415.31
348.673	431.31
348.9	387.31
349.128	407.31
349.355	397.31
349.583	386.31
349.81	399.31
350.037	405.31
350.265	421.31
350.492	393.31
350.72	385.31
350.947	389.31
351.174	394.31
351.402	421.31
351.629	410.31
351.856	391.31
352.083	405.31
352.311	409.31
352.538	400.31
352.765	400.31
352.992	398.31
353.22	401.31
353.447	383.31
353.674	383.31
353.901	381.31
354.128	400.31
354.355	393.31
354.583	383.31
354.81	388.31
355.037	387.31
355.264	394.31
355.491	385.31
355.718	389.31
355.945	379.31
356.172	384.31
356.399	397.31
356.626	383.31
356.853	377.31
357.08	389.31
357.307	395.31
357.534	395.31
357.761	392.31
357.988	387.31
358.215	383.31
358.441	390.31
358.668	392.31
358.895	386.31
359.122	387.31
359.349	410.31
359.576	378.31
359.802	401.31
360.029	412.31
360.256	422.31
360.483	421.31
360.709	412.31
360.936	422.31
361.163	401.31
361.39	395.31
361.616	390.31
361.843	412.31
362.07	419.31
362.296	403.31
362.523	376.31
362.749	398.31
362.976	404.31
363.203	394.31
363.429	403.31
363.656	387.31
363.882	390.31
364.109	386.31
364.335	403.31
364.562	399.31
364.788	404.31
365.015	375.31
365.241	399.31
365.468	389.31
365.694	392.31
365.92	379.31
366.147	383.31
366.373	375.31
366.599	396.31
366.826	383.31
367.052	407.31
367.278	393.31
367.505	392.31
367.731	382.31
367.957	402.31
368.184	378.31
368.41	391.31
368.636	385.31
368.862	391.31
369.089	385.31
369.315	387.31
369.541	375.31
369.767	405.31
369.993	392.31
370.219	389.31
370.445	386.31
370.672	393.31
370.898	381.31
371.124	378.31
371.35	384.31
371.576	387.31
371.802	401.31
372.028	378.31
372.254	390.31
372.48	395.31
372.706	398.31
372.932	421.31
373.158	423.31
373.384	409.31
373.61	421.31
373.835	427.31
374.061	403.31
374.287	426.31
374.513	425.31
374.739	395.31
374.965	417.31
375.191	443.31
375.416	429.31
375.642	411.31
375.868	403.31
376.094	405.31
376.319	385.31
376.545	404.31
376.771	391.31
376.997	416.31
377.222	413.31
377.448	390.31
377.674	403.31
377.899	399.31
378.125	393.31
378.35	377.31
378.576	402.31
378.802	402.31
379.027	396.31
379.253	401.31
379.478	381.31
379.704	402.31
379.929	409.31
380.155	386.31
380.38	413.31
380.606	405.31
380.831	411.31
381.057	394.31
381.282	393.31
381.507	419.31
381.733	402.31
381.958	425.31
382.184	414.31
382.409	402.31
382.634	419.31
382.86	398.31
383.085	413.31
383.31	421.31
383.535	403.31
383.761	415.31
383.986	426.31
384.211	429.31
384.436	417.31
384.662	419.31
384.887	445.31
385.112	466.31
385.337	461.31
385.562	455.31
385.787	459.31
386.013	462.31
386.238	466.31
386.463	462.31
386.688	489.31
386.913	444.31
387.138	472.31
387.363	450.31
387.588	435.31
387.813	441.31
388.038	429.31
388.263	457.31
388.488	431.31
388.713	454.31
388.938	469.31
389.163	455.31
389.387	469.31
389.612	451.31
389.837	439.31
390.062	437.31
390.287	453.31
390.512	454.31
390.736	451.31
390.961	471.31
391.186	459.31
391.411	471.31
391.636	480.31
391.86	485.31
392.085	482.31
392.31	469.31
392.534	479.31
392.759	470.31
392.984	466.31
393.208	447.31
393.433	456.31
393.658	463.31
393.882	463.31
394.107	461.31
394.331	491.31
394.556	463.31
394.78	450.31
395.005	454.31
395.229	472.31
395.454	494.31
395.678	495.31
395.903	474.31
396.127	511.31
396.352	501.31
396.576	468.31
396.801	482.31
397.025	463.31
397.249	462.31
397.474	484.31
397.698	477.31
397.922	502.31
398.147	521.31
398.371	513.31
398.595	494.31
398.82	510.31
399.044	558.31
399.268	589.31
399.492	614.31
399.717	665.31
399.941	666.31
400.165	696.31
400.389	659.31
400.613	601.31
400.837	560.31
401.062	535.31
401.286	534.31
401.51	533.31
401.734	546.31
401.958	541.31
402.182	539.31
402.406	552.31
402.63	539.31
402.854	557.31
403.078	556.31
403.302	557.31
403.526	561.31
403.75	541.31
403.974	570.31
404.198	558.31
404.422	578.31
404.645	564.31
404.869	581.31
405.093	570.31
405.317	628.31
405.541	651.31
405.765	584.31
405.988	571.31
406.212	586.31
406.436	612.31
406.66	604.31
406.883	583.31
407.107	621.31
407.331	638.31
407.555	697.31
407.778	721.31
408.002	645.31
408.226	627.31
408.449	614.31
408.673	584.31
408.896	591.31
409.12	649.31
409.344	617.31
409.567	578.31
409.791	582.31
410.014	562.31
410.238	538.31
410.461	528.31
410.685	562.31
410.908	569.31
411.132	584.31
411.355	610.31
411.578	588.31
411.802	555.31
412.025	547.31
412.249	553.31
412.472	580.31
412.695	623.31
412.919	597.31
413.142	549.31
413.365	545.31
413.589	530.31
413.812	530.31
414.035	532.31
414.258	507.31
414.482	529.31
414.705	517.31
414.928	523.31
415.151	532.31
415.374	536.31
415.597	506.31
415.821	485.31
416.044	517.31
416.267	532.31
416.49	511.31
416.713	506.31
416.936	503.31
417.159	518.31
417.382	513.31
417.605	535.31
417.828	533.31
418.051	518.31
418.274	536.31
418.497	523.31
418.72	517.31
418.943	512.31
419.166	534.31
419.389	582.31
419.611	562.31
419.834	553.31
420.057	537.31
420.28	538.31
420.503	544.31
420.726	548.31
420.948	531.31
421.171	577.31
421.394	619.31
421.617	539.31
421.839	534.31
422.062	540.31
422.285	545.31
422.507	586.31
422.73	645.31
422.953	626.31
423.175	555.31
423.398	563.31
423.621	559.31
423.843	554.31
424.066	565.31
424.288	558.31
424.511	582.31
424.733	617.31
424.956	683.31
425.178	646.31
425.401	651.31
425.623	663.31
425.846	587.31
426.068	530.31
426.291	546.31
426.513	544.31
426.735	558.31
426.958	567.31
427.18	640.31
427.402	751.31
427.625	807.31
427.847	679.31
428.069	599.31
428.292	561.31
428.514	535.31
428.736	524.31
428.958	494.31
429.181	500.31
429.403	500.31
429.625	527.31
429.847	545.31
430.069	598.31
430.292	591.31
430.514	520.31
430.736	514.31
430.958	501.31
431.18	509.31
431.402	489.31
431.624	475.31
431.846	491.31
432.068	503.31
432.29	481.31
432.512	486.31
432.734	510.31
432.956	504.31
433.178	488.31
433.4	517.31
433.622	485.31
433.844	497.31
434.066	509.31
434.287	509.31
434.509	497.31
434.731	525.31
434.953	527.31
435.175	524.31
435.397	537.31
435.618	547.31
435.84	559.31
436.062	647.31
436.284	698.31
436.505	579.31
436.727	516.31
436.949	497.31
437.17	501.31
437.392	494.31
437.614	479.31
437.835	534.31
438.057	579.31
438.278	685.31
438.5	680.31
438.721	731.31
438.943	710.31
439.165	595.31
439.386	554.31
439.608	528.31
439.829	518.31
440.05	563.31
440.272	571.31
440.493	562.31
440.715	517.31
440.936	519.31
441.158	527.31
441.379	526.31
441.6	531.31
441.822	540.31
442.043	549.31
442.264	634.31
442.486	672.31
442.707	593.31
442.928	561.31
443.149	565.31
443.371	563.31
443.592	615.31
443.813	696.31
444.034	729.31
444.255	649.31
444.476	587.31
444.698	576.31
444.919	591.31
445.14	671.31
445.361	618.31
445.582	579.31
445.803	631.31
446.024	675.31
446.245	687.31
446.466	628.31
446.687	564.31
446.908	544.31
447.129	521.31
447.35	484.31
447.571	508.31
447.792	478.31
448.013	503.31
448.234	501.31
448.455	531.31
448.675	634.31
448.896	756.31
449.117	632.31
449.338	581.31
449.559	656.31
449.779	775.31
450	603.31
450.221	511.31
450.442	490.31
450.662	475.31
450.883	454.31
451.104	458.31
451.324	470.31
451.545	474.31
451.766	443.31
451.986	448.31
452.207	440.31
452.428	437.31
452.648	432.31
452.869	458.31
453.089	455.31
453.31	463.31
453.53	453.31
453.751	444.31
453.971	457.31
454.192	443.31
454.412	449.31
454.633	437.31
454.853	434.31
455.073	435.31
455.294	449.31
455.514	505.31
455.734	505.31
455.955	444.31
456.175	421.31
456.395	425.31
456.616	410.31
456.836	422.31
457.056	427.31
457.276	414.31
457.497	417.31
457.717	444.31
457.937	453.31
458.157	440.31
458.377	436.31
458.598	455.31
458.818	487.31
459.038	524.31
459.258	541.31
459.478	519.31
459.698	476.31
459.918	491.31
460.138	491.31
460.358	507.31
460.578	519.31
460.798	534.31
461.018	534.31
461.238	523.31
461.458	507.31
461.678	506.31
461.898	525.31
462.118	537.31
462.338	550.31
462.558	547.31
462.777	554.31
462.997	595.31
463.217	632.31
463.437	629.31
463.657	609.31
463.876	571.31
464.096	575.31
464.316	575.31
464.536	583.31
464.755	573.31
464.975	563.31
465.195	561.31
465.414	559.31
465.634	514.31
465.854	524.31
466.073	494.31
466.293	452.31
466.512	462.31
466.732	457.31
466.951	469.31
467.171	476.31
467.391	484.31
467.61	484.31
467.829	462.31
468.049	461.31
468.268	475.31
468.488	471.31
468.707	451.31
468.927	467.31
469.146	438.31
469.365	465.31
469.585	475.31
469.804	459.31
470.023	465.31
470.243	478.31
470.462	481.31
470.681	482.31
470.901	488.31
471.12	497.31
471.339	478.31
471.558	486.31
471.777	495.31
471.997	477.31
472.216	477.31
472.435	466.31
472.654	477.31
472.873	450.31
473.092	470.31
473.311	446.31
473.53	459.31
473.749	473.31
473.968	489.31
474.187	569.31
474.406	563.31
474.625	509.31
474.844	456.31
475.063	471.31
475.282	477.31
475.501	474.31
475.72	486.31
475.939	475.31
476.158	479.31
476.377	472.31
476.596	489.31
476.814	480.31
477.033	482.31
477.252	477.31
477.471	487.31
477.69	485.31
477.908	504.31
478.127	548.31
478.346	528.31
478.564	552.31
478.783	542.31
479.002	546.31
479.22	549.31
479.439	531.31
479.658	570.31
479.876	579.31
480.095	582.31
480.313	599.31
480.532	601.31
480.751	593.31
480.969	590.31
481.188	596.31
481.406	629.31
481.624	550.31
481.843	548.31
482.061	576.31
482.28	549.31
482.498	545.31
482.717	533.31
482.935	526.31
483.153	541.31
483.372	543.31
483.59	522.31
483.808	542.31
484.027	555.31
484.245	539.31
484.463	558.31
484.681	556.31
484.9	534.31
485.118	552.31
485.336	553.31
485.554	558.31
485.772	578.31
485.99	558.31
486.209	570.31
486.427	562.31
486.645	575.31
486.863	582.31
487.081	562.31
487.299	568.31
487.517	582.31
487.735	550.31
487.953	579.31
488.171	583.31
488.389	565.31
488.607	574.31
488.825	572.31
489.043	572.31
489.261	593.31
489.479	557.31
489.696	592.31
489.914	583.31
490.132	583.31
490.35	608.31
490.568	589.31
490.786	602.31
491.003	607.31
491.221	639.31
491.439	630.31
491.657	611.31
491.874	645.31
492.092	633.31
492.31	650.31
492.527	667.31
492.745	647.31
492.963	654.31
493.18	658.31
493.398	680.31
493.615	639.31
493.833	661.31
494.05	665.31
494.268	658.31
494.485	672.31
494.703	657.31
494.92	666.31
495.138	649.31
495.355	674.31
495.573	674.31
495.79	670.31
496.008	652.31
496.225	663.31
496.442	657.31
496.66	674.31
496.877	669.31
497.094	670.31
497.312	700.31
497.529	712.31
497.746	722.31
497.963	725.31
498.181	750.31
498.398	761.31
498.615	805.31
498.832	805.31
499.049	841.31
499.267	899.31
499.484	912.31
499.701	974.31
499.918	1022.31
500.135	1113.31
500.352	1176.31
500.569	1191.31
500.786	1235.31
501.003	1201.31
501.22	1118.31
501.437	1073.31
501.654	1006.31
501.871	971.31
