Data from 1973.PennyLincolnUp.Lamp.En5.5.200Scan.071719.P1.Changed Mount._HRD10591_15-44-12-852.txt Node
Date: Thu Jul 18 15:44:12 EDT 2019
User: cochatt
Spectrometer: HR+D1059
Trigger mode: 1
Integration Time (sec): 1.000000E-1
Scans to average: 1
Electric dark correction enabled: true
Nonlinearity correction enabled: false
Boxcar width: 0
XAxis mode: Wavelengths
Number of Pixels in Spectrum: 2048
>>>>>Begin Spectral Data<<<<<
223.165	2.31
223.4	2.31
223.635	2.31
223.869	-19.69
224.104	-20.69
224.338	-8.69
224.573	-19.69
224.808	-18.69
225.042	-34.69
225.277	-12.69
225.511	-3.69
225.746	8.31
225.98	7.31
226.215	19.31
226.449	24.31
226.683	32.31
226.918	31.31
227.152	13.31
227.387	24.31
227.621	37.31
227.856	51.31
228.09	42.31
228.324	54.31
228.559	51.31
228.793	55.31
229.027	109.31
229.262	100.31
229.496	94.31
229.73	115.31
229.964	132.31
230.199	124.31
230.433	114.31
230.667	108.31
230.901	97.31
231.136	106.31
231.37	113.31
231.604	120.31
231.838	120.31
232.072	118.31
232.306	123.31
232.541	118.31
232.775	92.31
233.009	107.31
233.243	118.31
233.477	122.31
233.711	118.31
233.945	125.31
234.179	121.31
234.413	115.31
234.647	124.31
234.881	103.31
235.115	109.31
235.349	112.31
235.583	124.31
235.817	118.31
236.051	126.31
236.285	134.31
236.519	121.31
236.753	122.31
236.987	131.31
237.221	173.31
237.455	211.31
237.689	173.31
237.922	139.31
238.156	128.31
238.39	131.31
238.624	149.31
238.858	109.31
239.091	130.31
239.325	125.31
239.559	128.31
239.793	138.31
240.027	119.31
240.26	150.31
240.494	131.31
240.728	148.31
240.961	161.31
241.195	130.31
241.429	138.31
241.662	146.31
241.896	124.31
242.13	140.31
242.363	140.31
242.597	139.31
242.83	135.31
243.064	138.31
243.298	136.31
243.531	155.31
243.765	146.31
243.998	149.31
244.232	152.31
244.465	154.31
244.699	142.31
244.932	145.31
245.166	164.31
245.399	166.31
245.633	130.31
245.866	140.31
246.099	142.31
246.333	155.31
246.566	148.31
246.8	154.31
247.033	167.31
247.266	156.31
247.5	171.31
247.733	168.31
247.966	167.31
248.2	174.31
248.433	166.31
248.666	158.31
248.899	190.31
249.133	183.31
249.366	212.31
249.599	198.31
249.832	180.31
250.066	182.31
250.299	183.31
250.532	184.31
250.765	207.31
250.998	214.31
251.231	235.31
251.465	206.31
251.698	196.31
251.931	187.31
252.164	186.31
252.397	193.31
252.63	196.31
252.863	185.31
253.096	206.31
253.329	212.31
253.562	221.31
253.795	204.31
254.028	209.31
254.261	203.31
254.494	234.31
254.727	230.31
254.96	255.31
255.193	227.31
255.426	226.31
255.659	226.31
255.892	233.31
256.124	228.31
256.357	230.31
256.59	223.31
256.823	215.31
257.056	201.31
257.289	218.31
257.521	212.31
257.754	206.31
257.987	200.31
258.22	212.31
258.452	200.31
258.685	196.31
258.918	205.31
259.151	207.31
259.383	223.31
259.616	226.31
259.849	232.31
260.081	239.31
260.314	258.31
260.547	256.31
260.779	250.31
261.012	235.31
261.244	230.31
261.477	231.31
261.71	228.31
261.942	222.31
262.175	242.31
262.407	207.31
262.64	219.31
262.872	216.31
263.105	232.31
263.337	216.31
263.57	217.31
263.802	230.31
264.035	218.31
264.267	205.31
264.499	210.31
264.732	202.31
264.964	224.31
265.197	213.31
265.429	230.31
265.661	220.31
265.894	204.31
266.126	235.31
266.358	233.31
266.591	222.31
266.823	247.31
267.055	246.31
267.287	239.31
267.52	230.31
267.752	224.31
267.984	227.31
268.216	232.31
268.448	236.31
268.681	265.31
268.913	264.31
269.145	270.31
269.377	280.31
269.609	263.31
269.841	262.31
270.073	274.31
270.306	279.31
270.538	330.31
270.77	328.31
271.002	296.31
271.234	280.31
271.466	287.31
271.698	289.31
271.93	310.31
272.162	322.31
272.394	332.31
272.626	297.31
272.858	288.31
273.09	276.31
273.322	279.31
273.553	283.31
273.785	262.31
274.017	265.31
274.249	266.31
274.481	271.31
274.713	275.31
274.945	288.31
275.176	285.31
275.408	267.31
275.64	266.31
275.872	288.31
276.104	277.31
276.335	290.31
276.567	296.31
276.799	312.31
277.031	311.31
277.262	314.31
277.494	326.31
277.726	282.31
277.957	294.31
278.189	293.31
278.421	275.31
278.652	300.31
278.884	286.31
279.115	275.31
279.347	278.31
279.579	276.31
279.81	277.31
280.042	278.31
280.273	291.31
280.505	284.31
280.736	286.31
280.968	273.31
281.199	292.31
281.431	300.31
281.662	301.31
281.894	311.31
282.125	291.31
282.356	295.31
282.588	311.31
282.819	299.31
283.051	300.31
283.282	290.31
283.513	294.31
283.745	284.31
283.976	304.31
284.207	304.31
284.439	310.31
284.67	296.31
284.901	310.31
285.132	310.31
285.364	299.31
285.595	303.31
285.826	282.31
286.057	301.31
286.288	286.31
286.52	310.31
286.751	302.31
286.982	318.31
287.213	298.31
287.444	307.31
287.675	319.31
287.906	311.31
288.138	328.31
288.369	320.31
288.6	323.31
288.831	322.31
289.062	318.31
289.293	305.31
289.524	319.31
289.755	302.31
289.986	316.31
290.217	314.31
290.448	313.31
290.679	302.31
290.91	303.31
291.141	306.31
291.371	324.31
291.602	313.31
291.833	306.31
292.064	325.31
292.295	328.31
292.526	307.31
292.757	312.31
292.987	298.31
293.218	314.31
293.449	333.31
293.68	315.31
293.91	307.31
294.141	304.31
294.372	323.31
294.603	332.31
294.833	318.31
295.064	328.31
295.295	316.31
295.525	323.31
295.756	335.31
295.987	332.31
296.217	333.31
296.448	348.31
296.679	320.31
296.909	326.31
297.14	319.31
297.37	332.31
297.601	318.31
297.831	319.31
298.062	335.31
298.292	339.31
298.523	328.31
298.753	347.31
298.984	327.31
299.214	332.31
299.445	318.31
299.675	342.31
299.905	347.31
300.136	343.31
300.366	327.31
300.597	342.31
300.827	342.31
301.057	348.31
301.288	362.31
301.518	337.31
301.748	336.31
301.979	351.31
302.209	341.31
302.439	354.31
302.669	362.31
302.9	345.31
303.13	351.31
303.36	343.31
303.59	352.31
303.82	366.31
304.051	359.31
304.281	325.31
304.511	325.31
304.741	357.31
304.971	344.31
305.201	368.31
305.431	336.31
305.661	374.31
305.891	355.31
306.121	352.31
306.352	364.31
306.582	361.31
306.812	348.31
307.042	359.31
307.272	369.31
307.502	351.31
307.731	365.31
307.961	345.31
308.191	359.31
308.421	364.31
308.651	376.31
308.881	354.31
309.111	363.31
309.341	348.31
309.571	359.31
309.8	359.31
310.03	359.31
310.26	386.31
310.49	382.31
310.72	410.31
310.949	398.31
311.179	383.31
311.409	387.31
311.639	390.31
311.868	399.31
312.098	395.31
312.328	398.31
312.557	405.31
312.787	406.31
313.017	412.31
313.246	408.31
313.476	394.31
313.706	392.31
313.935	390.31
314.165	415.31
314.394	398.31
314.624	399.31
314.853	394.31
315.083	407.31
315.312	400.31
315.542	396.31
315.771	396.31
316.001	404.31
316.23	378.31
316.46	400.31
316.689	374.31
316.919	386.31
317.148	405.31
317.377	396.31
317.607	402.31
317.836	381.31
318.065	390.31
318.295	383.31
318.524	396.31
318.753	398.31
318.983	383.31
319.212	375.31
319.441	388.31
319.67	380.31
319.9	387.31
320.129	412.31
320.358	408.31
320.587	405.31
320.816	414.31
321.046	402.31
321.275	397.31
321.504	410.31
321.733	393.31
321.962	382.31
322.191	423.31
322.42	411.31
322.649	435.31
322.878	449.31
323.108	436.31
323.337	446.31
323.566	453.31
323.795	468.31
324.024	505.31
324.253	582.31
324.482	737.31
324.71	1061.31
324.939	1455.31
325.168	1302.31
325.397	702.31
325.626	509.31
325.855	463.31
326.084	444.31
326.313	462.31
326.542	465.31
326.77	494.31
326.999	553.31
327.228	683.31
327.457	943.31
327.686	1129.31
327.914	803.31
328.143	591.31
328.372	537.31
328.6	521.31
328.829	494.31
329.058	512.31
329.287	520.31
329.515	506.31
329.744	474.31
329.972	471.31
330.201	455.31
330.43	523.31
330.658	518.31
330.887	525.31
331.115	525.31
331.344	498.31
331.572	486.31
331.801	480.31
332.03	493.31
332.258	460.31
332.486	453.31
332.715	483.31
332.943	503.31
333.172	492.31
333.4	501.31
333.629	514.31
333.857	499.31
334.085	509.31
334.314	510.31
334.542	546.31
334.771	536.31
334.999	517.31
335.227	503.31
335.455	482.31
335.684	479.31
335.912	466.31
336.14	467.31
336.369	480.31
336.597	472.31
336.825	481.31
337.053	474.31
337.281	464.31
337.51	457.31
337.738	461.31
337.966	465.31
338.194	465.31
338.422	470.31
338.65	478.31
338.878	442.31
339.106	435.31
339.334	457.31
339.562	440.31
339.79	434.31
340.018	435.31
340.246	426.31
340.474	439.31
340.702	436.31
340.93	424.31
341.158	458.31
341.386	452.31
341.614	452.31
341.842	446.31
342.07	420.31
342.298	443.31
342.526	432.31
342.754	420.31
342.981	428.31
343.209	432.31
343.437	430.31
343.665	450.31
343.893	470.31
344.12	493.31
344.348	473.31
344.576	457.31
344.804	461.31
345.031	458.31
345.259	454.31
345.487	452.31
345.714	444.31
345.942	434.31
346.17	413.31
346.397	446.31
346.625	419.31
346.853	414.31
347.08	415.31
347.308	436.31
347.535	411.31
347.763	426.31
347.99	436.31
348.218	426.31
348.445	459.31
348.673	430.31
348.9	406.31
349.128	440.31
349.355	429.31
349.583	414.31
349.81	418.31
350.037	397.31
350.265	423.31
350.492	425.31
350.72	411.31
350.947	411.31
351.174	415.31
351.402	446.31
351.629	422.31
351.856	426.31
352.083	435.31
352.311	431.31
352.538	416.31
352.765	415.31
352.992	427.31
353.22	414.31
353.447	409.31
353.674	399.31
353.901	394.31
354.128	388.31
354.355	408.31
354.583	404.31
354.81	404.31
355.037	440.31
355.264	423.31
355.491	392.31
355.718	404.31
355.945	417.31
356.172	410.31
356.399	407.31
356.626	400.31
356.853	410.31
357.08	415.31
357.307	412.31
357.534	395.31
357.761	416.31
357.988	399.31
358.215	418.31
358.441	422.31
358.668	396.31
358.895	402.31
359.122	422.31
359.349	409.31
359.576	427.31
359.802	443.31
360.029	418.31
360.256	451.31
360.483	432.31
360.709	450.31
360.936	434.31
361.163	424.31
361.39	433.31
361.616	404.31
361.843	432.31
362.07	421.31
362.296	426.31
362.523	422.31
362.749	426.31
362.976	401.31
363.203	409.31
363.429	391.31
363.656	418.31
363.882	406.31
364.109	419.31
364.335	416.31
364.562	396.31
364.788	422.31
365.015	399.31
365.241	418.31
365.468	410.31
365.694	409.31
365.92	414.31
366.147	409.31
366.373	400.31
366.599	410.31
366.826	395.31
367.052	396.31
367.278	399.31
367.505	411.31
367.731	397.31
367.957	411.31
368.184	420.31
368.41	401.31
368.636	427.31
368.862	414.31
369.089	421.31
369.315	430.31
369.541	423.31
369.767	408.31
369.993	393.31
370.219	411.31
370.445	412.31
370.672	399.31
370.898	402.31
371.124	413.31
371.35	410.31
371.576	395.31
371.802	415.31
372.028	416.31
372.254	428.31
372.48	425.31
372.706	417.31
372.932	430.31
373.158	415.31
373.384	425.31
373.61	443.31
373.835	416.31
374.061	428.31
374.287	422.31
374.513	427.31
374.739	435.31
374.965	442.31
375.191	408.31
375.416	434.31
375.642	428.31
375.868	441.31
376.094	418.31
376.319	429.31
376.545	420.31
376.771	415.31
376.997	399.31
377.222	428.31
377.448	411.31
377.674	415.31
377.899	407.31
378.125	425.31
378.35	398.31
378.576	413.31
378.802	416.31
379.027	407.31
379.253	419.31
379.478	413.31
379.704	398.31
379.929	413.31
380.155	424.31
380.38	414.31
380.606	409.31
380.831	404.31
381.057	427.31
381.282	388.31
381.507	401.31
381.733	425.31
381.958	410.31
382.184	416.31
382.409	439.31
382.634	433.31
382.86	431.31
383.085	427.31
383.31	419.31
383.535	440.31
383.761	447.31
383.986	443.31
384.211	451.31
384.436	464.31
384.662	457.31
384.887	481.31
385.112	472.31
385.337	484.31
385.562	492.31
385.787	478.31
386.013	476.31
386.238	465.31
386.463	486.31
386.688	480.31
386.913	476.31
387.138	468.31
387.363	453.31
387.588	472.31
387.813	475.31
388.038	472.31
388.263	462.31
388.488	474.31
388.713	476.31
388.938	456.31
389.163	457.31
389.387	480.31
389.612	463.31
389.837	473.31
390.062	453.31
390.287	455.31
390.512	453.31
390.736	465.31
390.961	458.31
391.186	473.31
391.411	465.31
391.636	483.31
391.86	523.31
392.085	508.31
392.31	487.31
392.534	491.31
392.759	471.31
392.984	484.31
393.208	491.31
393.433	474.31
393.658	478.31
393.882	470.31
394.107	464.31
394.331	489.31
394.556	501.31
394.78	472.31
395.005	488.31
395.229	505.31
395.454	509.31
395.678	497.31
395.903	512.31
396.127	510.31
396.352	514.31
396.576	482.31
396.801	482.31
397.025	484.31
397.249	503.31
397.474	504.31
397.698	490.31
397.922	524.31
398.147	530.31
398.371	556.31
398.595	524.31
398.82	538.31
399.044	565.31
399.268	587.31
399.492	626.31
399.717	677.31
399.941	706.31
400.165	698.31
400.389	681.31
400.613	628.31
400.837	588.31
401.062	575.31
401.286	553.31
401.51	558.31
401.734	548.31
401.958	564.31
402.182	554.31
402.406	571.31
402.63	572.31
402.854	584.31
403.078	572.31
403.302	564.31
403.526	615.31
403.75	580.31
403.974	592.31
404.198	571.31
404.422	585.31
404.645	593.31
404.869	618.31
405.093	612.31
405.317	644.31
405.541	662.31
405.765	623.31
405.988	590.31
406.212	580.31
406.436	624.31
406.66	612.31
406.883	646.31
407.107	662.31
407.331	667.31
407.555	747.31
407.778	731.31
408.002	690.31
408.226	655.31
408.449	624.31
408.673	623.31
408.896	650.31
409.12	663.31
409.344	652.31
409.567	593.31
409.791	580.31
410.014	568.31
410.238	561.31
410.461	554.31
410.685	612.31
410.908	594.31
411.132	616.31
411.355	617.31
411.578	599.31
411.802	584.31
412.025	547.31
412.249	569.31
412.472	583.31
412.695	598.31
412.919	628.31
413.142	570.31
413.365	563.31
413.589	581.31
413.812	528.31
414.035	532.31
414.258	528.31
414.482	542.31
414.705	520.31
414.928	538.31
415.151	533.31
415.374	547.31
415.597	535.31
415.821	525.31
416.044	546.31
416.267	526.31
416.49	549.31
416.713	542.31
416.936	521.31
417.159	536.31
417.382	536.31
417.605	541.31
417.828	536.31
418.051	562.31
418.274	544.31
418.497	548.31
418.72	526.31
418.943	542.31
419.166	560.31
419.389	611.31
419.611	603.31
419.834	609.31
420.057	575.31
420.28	549.31
420.503	547.31
420.726	563.31
420.948	558.31
421.171	591.31
421.394	620.31
421.617	574.31
421.839	543.31
422.062	557.31
422.285	582.31
422.507	622.31
422.73	661.31
422.953	666.31
423.175	594.31
423.398	575.31
423.621	604.31
423.843	570.31
424.066	620.31
424.288	591.31
424.511	619.31
424.733	622.31
424.956	694.31
425.178	693.31
425.401	688.31
425.623	708.31
425.846	609.31
426.068	582.31
426.291	562.31
426.513	551.31
426.735	559.31
426.958	620.31
427.18	683.31
427.402	818.31
427.625	854.31
427.847	714.31
428.069	654.31
428.292	578.31
428.514	557.31
428.736	532.31
428.958	538.31
429.181	513.31
429.403	514.31
429.625	529.31
429.847	556.31
430.069	595.31
430.292	607.31
430.514	555.31
430.736	531.31
430.958	519.31
431.18	498.31
431.402	495.31
431.624	500.31
431.846	496.31
432.068	495.31
432.29	500.31
432.512	512.31
432.734	516.31
432.956	484.31
433.178	513.31
433.4	526.31
433.622	502.31
433.844	503.31
434.066	509.31
434.287	533.31
434.509	526.31
434.731	527.31
434.953	548.31
435.175	542.31
435.397	570.31
435.618	556.31
435.84	576.31
436.062	670.31
436.284	708.31
436.505	606.31
436.727	566.31
436.949	520.31
437.17	518.31
437.392	504.31
437.614	517.31
437.835	551.31
438.057	642.31
438.278	666.31
438.5	718.31
438.721	772.31
438.943	757.31
439.165	620.31
439.386	564.31
439.608	568.31
439.829	564.31
440.05	585.31
440.272	603.31
440.493	578.31
440.715	581.31
440.936	544.31
441.158	537.31
441.379	534.31
441.6	550.31
441.822	552.31
442.043	603.31
442.264	670.31
442.486	706.31
442.707	618.31
442.928	583.31
443.149	592.31
443.371	616.31
443.592	659.31
443.813	718.31
444.034	770.31
444.255	648.31
444.476	606.31
444.698	612.31
444.919	629.31
445.14	678.31
445.361	646.31
445.582	626.31
445.803	638.31
446.024	724.31
446.245	720.31
446.466	694.31
446.687	623.31
446.908	570.31
447.129	552.31
447.35	526.31
447.571	499.31
447.792	513.31
448.013	519.31
448.234	523.31
448.455	576.31
448.675	666.31
448.896	774.31
449.117	659.31
449.338	614.31
449.559	711.31
449.779	823.31
450	652.31
450.221	536.31
450.442	546.31
450.662	504.31
450.883	487.31
451.104	507.31
451.324	487.31
451.545	479.31
451.766	467.31
451.986	480.31
452.207	487.31
452.428	470.31
452.648	458.31
452.869	455.31
453.089	467.31
453.31	481.31
453.53	477.31
453.751	479.31
453.971	458.31
454.192	454.31
454.412	460.31
454.633	461.31
454.853	468.31
455.073	442.31
455.294	474.31
455.514	510.31
455.734	528.31
455.955	472.31
456.175	458.31
456.395	462.31
456.616	455.31
456.836	432.31
457.056	434.31
457.276	455.31
457.497	424.31
457.717	448.31
457.937	463.31
458.157	467.31
458.377	461.31
458.598	465.31
458.818	505.31
459.038	572.31
459.258	596.31
459.478	523.31
459.698	500.31
459.918	518.31
460.138	501.31
460.358	557.31
460.578	540.31
460.798	530.31
461.018	557.31
461.238	527.31
461.458	533.31
461.678	532.31
461.898	535.31
462.118	546.31
462.338	572.31
462.558	550.31
462.777	588.31
462.997	625.31
463.217	633.31
463.437	622.31
463.657	602.31
463.876	588.31
464.096	601.31
464.316	599.31
464.536	581.31
464.755	598.31
464.975	580.31
465.195	589.31
465.414	627.31
465.634	564.31
465.854	536.31
466.073	526.31
466.293	494.31
466.512	486.31
466.732	498.31
466.951	485.31
467.171	471.31
467.391	469.31
467.61	480.31
467.829	503.31
468.049	494.31
468.268	486.31
468.488	483.31
468.707	475.31
468.927	472.31
469.146	473.31
469.365	486.31
469.585	474.31
469.804	479.31
470.023	468.31
470.243	485.31
470.462	502.31
470.681	527.31
470.901	491.31
471.12	492.31
471.339	495.31
471.558	490.31
471.777	495.31
471.997	484.31
472.216	477.31
472.435	510.31
472.654	479.31
472.873	474.31
473.092	477.31
473.311	461.31
473.53	463.31
473.749	450.31
473.968	524.31
474.187	578.31
474.406	627.31
474.625	524.31
474.844	488.31
475.063	476.31
475.282	475.31
475.501	483.31
475.72	504.31
475.939	488.31
476.158	483.31
476.377	492.31
476.596	486.31
476.814	499.31
477.033	508.31
477.252	508.31
477.471	535.31
477.69	519.31
477.908	544.31
478.127	551.31
478.346	563.31
478.564	566.31
478.783	528.31
479.002	564.31
479.22	568.31
479.439	585.31
479.658	580.31
479.876	567.31
480.095	588.31
480.313	612.31
480.532	616.31
480.751	602.31
480.969	601.31
481.188	644.31
481.406	638.31
481.624	610.31
481.843	579.31
482.061	562.31
482.28	586.31
482.498	565.31
482.717	538.31
482.935	552.31
483.153	559.31
483.372	536.31
483.59	560.31
483.808	572.31
484.027	552.31
484.245	566.31
484.463	570.31
484.681	570.31
484.9	571.31
485.118	559.31
485.336	573.31
485.554	569.31
485.772	596.31
485.99	558.31
486.209	577.31
486.427	580.31
486.645	578.31
486.863	604.31
487.081	622.31
487.299	606.31
487.517	590.31
487.735	592.31
487.953	596.31
488.171	602.31
488.389	595.31
488.607	569.31
488.825	610.31
489.043	602.31
489.261	600.31
489.479	582.31
489.696	623.31
489.914	626.31
490.132	606.31
490.35	610.31
490.568	615.31
490.786	625.31
491.003	620.31
491.221	662.31
491.439	660.31
491.657	663.31
491.874	643.31
492.092	685.31
492.31	688.31
492.527	670.31
492.745	682.31
492.963	692.31
493.18	698.31
493.398	700.31
493.615	696.31
493.833	718.31
494.05	694.31
494.268	730.31
494.485	697.31
494.703	688.31
494.92	704.31
495.138	663.31
495.355	714.31
495.573	725.31
495.79	690.31
496.008	717.31
496.225	684.31
496.442	703.31
496.66	719.31
496.877	714.31
497.094	713.31
497.312	717.31
497.529	736.31
497.746	742.31
497.963	739.31
498.181	771.31
498.398	774.31
498.615	798.31
498.832	850.31
499.049	857.31
499.267	899.31
499.484	948.31
499.701	991.31
499.918	1075.31
500.135	1135.31
500.352	1183.31
500.569	1217.31
500.786	1232.31
501.003	1224.31
501.22	1155.31
501.437	1123.31
501.654	1006.31
