Data from 1973.PennyLincolnUp.Lamp.En5.5.200Scan.071719.P1.Changed Mount._HRD10591_15-45-32-852.txt Node
Date: Thu Jul 18 15:45:32 EDT 2019
User: cochatt
Spectrometer: HR+D1059
Trigger mode: 1
Integration Time (sec): 1.000000E-1
Scans to average: 1
Electric dark correction enabled: true
Nonlinearity correction enabled: false
Boxcar width: 0
XAxis mode: Wavelengths
Number of Pixels in Spectrum: 2048
>>>>>Begin Spectral Data<<<<<
223.165	-7.88
223.4	-7.88
223.635	-7.88
223.869	-32.88
224.104	-10.88
224.338	-21.88
224.573	-10.88
224.808	-4.88
225.042	12.12
225.277	0.12
225.511	-15.88
225.746	4.12
225.98	7.12
226.215	-1.88
226.449	7.12
226.683	22.12
226.918	23.12
227.152	31.12
227.387	27.12
227.621	29.12
227.856	45.12
228.09	40.12
228.324	31.12
228.559	64.12
228.793	64.12
229.027	101.12
229.262	104.12
229.496	117.12
229.73	126.12
229.964	143.12
230.199	114.12
230.433	103.12
230.667	120.12
230.901	120.12
231.136	128.12
231.37	118.12
231.604	110.12
231.838	103.12
232.072	131.12
232.306	119.12
232.541	124.12
232.775	129.12
233.009	108.12
233.243	124.12
233.477	129.12
233.711	139.12
233.945	122.12
234.179	123.12
234.413	119.12
234.647	123.12
234.881	145.12
235.115	139.12
235.349	123.12
235.583	123.12
235.817	123.12
236.051	121.12
236.285	129.12
236.519	141.12
236.753	124.12
236.987	122.12
237.221	176.12
237.455	215.12
237.689	176.12
237.922	150.12
238.156	115.12
238.39	133.12
238.624	136.12
238.858	122.12
239.091	115.12
239.325	125.12
239.559	137.12
239.793	121.12
240.027	150.12
240.26	142.12
240.494	137.12
240.728	159.12
240.961	140.12
241.195	134.12
241.429	141.12
241.662	152.12
241.896	135.12
242.13	135.12
242.363	136.12
242.597	135.12
242.83	157.12
243.064	141.12
243.298	159.12
243.531	152.12
243.765	150.12
243.998	155.12
244.232	155.12
244.465	148.12
244.699	164.12
244.932	151.12
245.166	157.12
245.399	142.12
245.633	159.12
245.866	168.12
246.099	139.12
246.333	138.12
246.566	173.12
246.8	167.12
247.033	153.12
247.266	155.12
247.5	188.12
247.733	167.12
247.966	183.12
248.2	183.12
248.433	168.12
248.666	176.12
248.899	168.12
249.133	190.12
249.366	204.12
249.599	203.12
249.832	197.12
250.066	188.12
250.299	173.12
250.532	165.12
250.765	195.12
250.998	216.12
251.231	219.12
251.465	221.12
251.698	207.12
251.931	208.12
252.164	203.12
252.397	201.12
252.63	211.12
252.863	219.12
253.096	224.12
253.329	228.12
253.562	225.12
253.795	213.12
254.028	220.12
254.261	224.12
254.494	209.12
254.727	241.12
254.96	285.12
255.193	265.12
255.426	242.12
255.659	230.12
255.892	237.12
256.124	233.12
256.357	246.12
256.59	240.12
256.823	217.12
257.056	213.12
257.289	215.12
257.521	200.12
257.754	231.12
257.987	212.12
258.22	213.12
258.452	218.12
258.685	227.12
258.918	221.12
259.151	216.12
259.383	234.12
259.616	232.12
259.849	224.12
260.081	235.12
260.314	256.12
260.547	282.12
260.779	271.12
261.012	229.12
261.244	235.12
261.477	227.12
261.71	225.12
261.942	228.12
262.175	235.12
262.407	232.12
262.64	214.12
262.872	213.12
263.105	213.12
263.337	219.12
263.57	231.12
263.802	240.12
264.035	238.12
264.267	230.12
264.499	224.12
264.732	220.12
264.964	219.12
265.197	231.12
265.429	219.12
265.661	228.12
265.894	233.12
266.126	220.12
266.358	229.12
266.591	233.12
266.823	244.12
267.055	255.12
267.287	241.12
267.52	256.12
267.752	240.12
267.984	249.12
268.216	230.12
268.448	250.12
268.681	233.12
268.913	259.12
269.145	265.12
269.377	294.12
269.609	293.12
269.841	285.12
270.073	298.12
270.306	293.12
270.538	288.12
270.77	330.12
271.002	309.12
271.234	297.12
271.466	287.12
271.698	313.12
271.93	331.12
272.162	310.12
272.394	319.12
272.626	332.12
272.858	317.12
273.09	295.12
273.322	282.12
273.553	304.12
273.785	290.12
274.017	273.12
274.249	297.12
274.481	296.12
274.713	300.12
274.945	308.12
275.176	280.12
275.408	281.12
275.64	279.12
275.872	273.12
276.104	288.12
276.335	288.12
276.567	282.12
276.799	303.12
277.031	309.12
277.262	336.12
277.494	344.12
277.726	316.12
277.957	304.12
278.189	302.12
278.421	297.12
278.652	294.12
278.884	295.12
279.115	275.12
279.347	300.12
279.579	300.12
279.81	263.12
280.042	285.12
280.273	300.12
280.505	287.12
280.736	301.12
280.968	301.12
281.199	276.12
281.431	284.12
281.662	297.12
281.894	318.12
282.125	303.12
282.356	319.12
282.588	321.12
282.819	313.12
283.051	308.12
283.282	307.12
283.513	305.12
283.745	313.12
283.976	316.12
284.207	313.12
284.439	312.12
284.67	304.12
284.901	304.12
285.132	309.12
285.364	316.12
285.595	307.12
285.826	320.12
286.057	313.12
286.288	309.12
286.52	326.12
286.751	325.12
286.982	313.12
287.213	305.12
287.444	325.12
287.675	309.12
287.906	339.12
288.138	325.12
288.369	339.12
288.6	344.12
288.831	318.12
289.062	318.12
289.293	341.12
289.524	312.12
289.755	326.12
289.986	344.12
290.217	329.12
290.448	318.12
290.679	339.12
290.91	324.12
291.141	315.12
291.371	322.12
291.602	335.12
291.833	317.12
292.064	336.12
292.295	319.12
292.526	325.12
292.757	320.12
292.987	328.12
293.218	319.12
293.449	352.12
293.68	321.12
293.91	318.12
294.141	299.12
294.372	325.12
294.603	324.12
294.833	324.12
295.064	308.12
295.295	329.12
295.525	335.12
295.756	337.12
295.987	329.12
296.217	337.12
296.448	375.12
296.679	364.12
296.909	339.12
297.14	338.12
297.37	355.12
297.601	332.12
297.831	330.12
298.062	332.12
298.292	338.12
298.523	353.12
298.753	341.12
298.984	337.12
299.214	348.12
299.445	343.12
299.675	346.12
299.905	343.12
300.136	353.12
300.366	354.12
300.597	359.12
300.827	347.12
301.057	352.12
301.288	354.12
301.518	378.12
301.748	361.12
301.979	350.12
302.209	390.12
302.439	375.12
302.669	363.12
302.9	362.12
303.13	365.12
303.36	359.12
303.59	356.12
303.82	372.12
304.051	369.12
304.281	366.12
304.511	367.12
304.741	349.12
304.971	365.12
305.201	347.12
305.431	356.12
305.661	371.12
305.891	350.12
306.121	372.12
306.352	370.12
306.582	352.12
306.812	366.12
307.042	360.12
307.272	356.12
307.502	362.12
307.731	370.12
307.961	383.12
308.191	376.12
308.421	389.12
308.651	347.12
308.881	357.12
309.111	373.12
309.341	377.12
309.571	377.12
309.8	389.12
310.03	394.12
310.26	385.12
310.49	365.12
310.72	411.12
310.949	387.12
311.179	380.12
311.409	385.12
311.639	382.12
311.868	401.12
312.098	400.12
312.328	403.12
312.557	421.12
312.787	414.12
313.017	425.12
313.246	407.12
313.476	384.12
313.706	396.12
313.935	398.12
314.165	419.12
314.394	421.12
314.624	425.12
314.853	411.12
315.083	393.12
315.312	411.12
315.542	415.12
315.771	418.12
316.001	414.12
316.23	412.12
316.46	407.12
316.689	383.12
316.919	411.12
317.148	428.12
317.377	407.12
317.607	431.12
317.836	407.12
318.065	398.12
318.295	391.12
318.524	390.12
318.753	377.12
318.983	420.12
319.212	389.12
319.441	412.12
319.67	407.12
319.9	414.12
320.129	409.12
320.358	415.12
320.587	416.12
320.816	400.12
321.046	413.12
321.275	413.12
321.504	398.12
321.733	408.12
321.962	430.12
322.191	433.12
322.42	430.12
322.649	456.12
322.878	447.12
323.108	439.12
323.337	451.12
323.566	480.12
323.795	505.12
324.024	513.12
324.253	583.12
324.482	761.12
324.71	1105.12
324.939	1580.12
325.168	1369.12
325.397	773.12
325.626	596.12
325.855	514.12
326.084	508.12
326.313	483.12
326.542	496.12
326.77	512.12
326.999	559.12
327.228	714.12
327.457	1003.12
327.686	1240.12
327.914	876.12
328.143	627.12
328.372	550.12
328.6	544.12
328.829	529.12
329.058	543.12
329.287	538.12
329.515	499.12
329.744	503.12
329.972	527.12
330.201	529.12
330.43	544.12
330.658	542.12
330.887	566.12
331.115	541.12
331.344	505.12
331.572	502.12
331.801	492.12
332.03	505.12
332.258	517.12
332.486	494.12
332.715	493.12
332.943	475.12
333.172	536.12
333.4	501.12
333.629	527.12
333.857	515.12
334.085	523.12
334.314	556.12
334.542	538.12
334.771	560.12
334.999	519.12
335.227	524.12
335.455	508.12
335.684	487.12
335.912	510.12
336.14	497.12
336.369	484.12
336.597	484.12
336.825	499.12
337.053	477.12
337.281	486.12
337.51	484.12
337.738	485.12
337.966	470.12
338.194	469.12
338.422	459.12
338.65	483.12
338.878	472.12
339.106	466.12
339.334	467.12
339.562	459.12
339.79	469.12
340.018	469.12
340.246	463.12
340.474	481.12
340.702	464.12
340.93	454.12
341.158	442.12
341.386	450.12
341.614	447.12
341.842	455.12
342.07	463.12
342.298	456.12
342.526	446.12
342.754	448.12
342.981	437.12
343.209	445.12
343.437	452.12
343.665	479.12
343.893	491.12
344.12	507.12
344.348	499.12
344.576	494.12
344.804	470.12
345.031	461.12
345.259	457.12
345.487	479.12
345.714	453.12
345.942	444.12
346.17	433.12
346.397	455.12
346.625	442.12
346.853	444.12
347.08	423.12
347.308	428.12
347.535	440.12
347.763	441.12
347.99	460.12
348.218	449.12
348.445	439.12
348.673	435.12
348.9	436.12
349.128	421.12
349.355	421.12
349.583	437.12
349.81	425.12
350.037	421.12
350.265	446.12
350.492	419.12
350.72	437.12
350.947	431.12
351.174	436.12
351.402	421.12
351.629	431.12
351.856	437.12
352.083	428.12
352.311	422.12
352.538	426.12
352.765	425.12
352.992	441.12
353.22	443.12
353.447	431.12
353.674	429.12
353.901	415.12
354.128	411.12
354.355	402.12
354.583	415.12
354.81	434.12
355.037	424.12
355.264	444.12
355.491	420.12
355.718	438.12
355.945	401.12
356.172	419.12
356.399	421.12
356.626	422.12
356.853	432.12
357.08	410.12
357.307	398.12
357.534	420.12
357.761	423.12
357.988	436.12
358.215	435.12
358.441	412.12
358.668	419.12
358.895	421.12
359.122	412.12
359.349	423.12
359.576	439.12
359.802	441.12
360.029	469.12
360.256	455.12
360.483	452.12
360.709	439.12
360.936	441.12
361.163	429.12
361.39	421.12
361.616	416.12
361.843	436.12
362.07	438.12
362.296	446.12
362.523	423.12
362.749	431.12
362.976	430.12
363.203	418.12
363.429	421.12
363.656	400.12
363.882	412.12
364.109	423.12
364.335	421.12
364.562	426.12
364.788	427.12
365.015	423.12
365.241	414.12
365.468	415.12
365.694	417.12
365.92	411.12
366.147	421.12
366.373	416.12
366.599	421.12
366.826	412.12
367.052	418.12
367.278	427.12
367.505	422.12
367.731	431.12
367.957	428.12
368.184	431.12
368.41	411.12
368.636	400.12
368.862	457.12
369.089	423.12
369.315	399.12
369.541	426.12
369.767	423.12
369.993	426.12
370.219	397.12
370.445	420.12
370.672	422.12
370.898	423.12
371.124	429.12
371.35	422.12
371.576	432.12
371.802	422.12
372.028	450.12
372.254	431.12
372.48	440.12
372.706	437.12
372.932	444.12
373.158	445.12
373.384	427.12
373.61	440.12
373.835	435.12
374.061	445.12
374.287	411.12
374.513	444.12
374.739	441.12
374.965	435.12
375.191	441.12
375.416	466.12
375.642	441.12
375.868	445.12
376.094	455.12
376.319	429.12
376.545	457.12
376.771	413.12
376.997	441.12
377.222	419.12
377.448	426.12
377.674	427.12
377.899	409.12
378.125	427.12
378.35	437.12
378.576	440.12
378.802	415.12
379.027	421.12
379.253	451.12
379.478	422.12
379.704	417.12
379.929	422.12
380.155	416.12
380.38	437.12
380.606	422.12
380.831	441.12
381.057	426.12
381.282	413.12
381.507	434.12
381.733	447.12
381.958	429.12
382.184	452.12
382.409	438.12
382.634	458.12
382.86	445.12
383.085	449.12
383.31	460.12
383.535	483.12
383.761	463.12
383.986	448.12
384.211	462.12
384.436	470.12
384.662	487.12
384.887	481.12
385.112	473.12
385.337	453.12
385.562	482.12
385.787	470.12
386.013	500.12
386.238	504.12
386.463	503.12
386.688	492.12
386.913	476.12
387.138	482.12
387.363	481.12
387.588	476.12
387.813	474.12
388.038	487.12
388.263	502.12
388.488	498.12
388.713	489.12
388.938	493.12
389.163	503.12
389.387	487.12
389.612	461.12
389.837	473.12
390.062	473.12
390.287	476.12
390.512	503.12
390.736	506.12
390.961	474.12
391.186	478.12
391.411	501.12
391.636	503.12
391.86	512.12
392.085	506.12
392.31	508.12
392.534	542.12
392.759	493.12
392.984	488.12
393.208	523.12
393.433	480.12
393.658	486.12
393.882	498.12
394.107	507.12
394.331	493.12
394.556	501.12
394.78	487.12
395.005	489.12
395.229	518.12
395.454	511.12
395.678	539.12
395.903	539.12
396.127	547.12
396.352	545.12
396.576	524.12
396.801	499.12
397.025	515.12
397.249	507.12
397.474	524.12
397.698	541.12
397.922	553.12
398.147	553.12
398.371	550.12
398.595	540.12
398.82	567.12
399.044	573.12
399.268	629.12
399.492	692.12
399.717	734.12
399.941	710.12
400.165	736.12
400.389	711.12
400.613	669.12
400.837	601.12
401.062	584.12
401.286	584.12
401.51	574.12
401.734	567.12
401.958	585.12
402.182	566.12
402.406	591.12
402.63	597.12
402.854	581.12
403.078	611.12
403.302	619.12
403.526	625.12
403.75	616.12
403.974	631.12
404.198	585.12
404.422	599.12
404.645	613.12
404.869	601.12
405.093	624.12
405.317	669.12
405.541	676.12
405.765	633.12
405.988	632.12
406.212	645.12
406.436	650.12
406.66	653.12
406.883	622.12
407.107	640.12
407.331	696.12
407.555	759.12
407.778	773.12
408.002	713.12
408.226	677.12
408.449	667.12
408.673	641.12
408.896	662.12
409.12	680.12
409.344	655.12
409.567	605.12
409.791	601.12
410.014	589.12
410.238	593.12
410.461	580.12
410.685	581.12
410.908	589.12
411.132	622.12
411.355	661.12
411.578	636.12
411.802	594.12
412.025	605.12
412.249	591.12
412.472	615.12
412.695	652.12
412.919	638.12
413.142	565.12
413.365	565.12
413.589	570.12
413.812	573.12
414.035	558.12
414.258	567.12
414.482	556.12
414.705	561.12
414.928	571.12
415.151	563.12
415.374	558.12
415.597	582.12
415.821	553.12
416.044	558.12
416.267	566.12
416.49	567.12
416.713	567.12
416.936	553.12
417.159	544.12
417.382	566.12
417.605	560.12
417.828	572.12
418.051	596.12
418.274	569.12
418.497	568.12
418.72	545.12
418.943	557.12
419.166	599.12
419.389	623.12
419.611	614.12
419.834	604.12
420.057	617.12
420.28	588.12
420.503	606.12
420.726	568.12
420.948	589.12
421.171	617.12
421.394	611.12
421.617	581.12
421.839	553.12
422.062	567.12
422.285	589.12
422.507	630.12
422.73	696.12
422.953	698.12
423.175	616.12
423.398	605.12
423.621	588.12
423.843	631.12
424.066	597.12
424.288	598.12
424.511	612.12
424.733	680.12
424.956	736.12
425.178	694.12
425.401	701.12
425.623	699.12
425.846	647.12
426.068	597.12
426.291	594.12
426.513	612.12
426.735	617.12
426.958	648.12
427.18	687.12
427.402	785.12
427.625	869.12
427.847	737.12
428.069	651.12
428.292	615.12
428.514	576.12
428.736	558.12
428.958	536.12
429.181	553.12
429.403	533.12
429.625	547.12
429.847	554.12
430.069	611.12
430.292	618.12
430.514	585.12
430.736	548.12
430.958	544.12
431.18	531.12
431.402	528.12
431.624	519.12
431.846	522.12
432.068	539.12
432.29	532.12
432.512	557.12
432.734	542.12
432.956	526.12
433.178	536.12
433.4	519.12
433.622	536.12
433.844	529.12
434.066	527.12
434.287	525.12
434.509	552.12
434.731	552.12
434.953	544.12
435.175	577.12
435.397	596.12
435.618	581.12
435.84	621.12
436.062	682.12
436.284	745.12
436.505	636.12
436.727	591.12
436.949	565.12
437.17	547.12
437.392	543.12
437.614	545.12
437.835	579.12
438.057	624.12
438.278	729.12
438.5	725.12
438.721	817.12
438.943	787.12
439.165	645.12
439.386	601.12
439.608	571.12
439.829	588.12
440.05	592.12
440.272	620.12
440.493	604.12
440.715	560.12
440.936	577.12
441.158	541.12
441.379	563.12
441.6	591.12
441.822	596.12
442.043	637.12
442.264	702.12
442.486	732.12
442.707	651.12
442.928	598.12
443.149	606.12
443.371	604.12
443.592	643.12
443.813	750.12
444.034	809.12
444.255	709.12
444.476	635.12
444.698	641.12
444.919	643.12
445.14	739.12
445.361	670.12
445.582	647.12
445.803	665.12
446.024	741.12
446.245	765.12
446.466	711.12
446.687	624.12
446.908	597.12
447.129	566.12
447.35	535.12
447.571	544.12
447.792	515.12
448.013	549.12
448.234	568.12
448.455	600.12
448.675	651.12
448.896	792.12
449.117	639.12
449.338	633.12
449.559	726.12
449.779	816.12
450	671.12
450.221	561.12
450.442	556.12
450.662	513.12
450.883	511.12
451.104	508.12
451.324	506.12
451.545	501.12
451.766	502.12
451.986	500.12
452.207	477.12
452.428	461.12
452.648	504.12
452.869	465.12
453.089	507.12
453.31	477.12
453.53	472.12
453.751	472.12
453.971	467.12
454.192	474.12
454.412	485.12
454.633	488.12
454.853	486.12
455.073	471.12
455.294	484.12
455.514	543.12
455.734	524.12
455.955	489.12
456.175	469.12
456.395	451.12
456.616	462.12
456.836	466.12
457.056	452.12
457.276	447.12
457.497	467.12
457.717	457.12
457.937	473.12
458.157	476.12
458.377	466.12
458.598	483.12
458.818	543.12
459.038	576.12
459.258	614.12
459.478	573.12
459.698	540.12
459.918	528.12
460.138	541.12
460.358	558.12
460.578	549.12
460.798	567.12
461.018	567.12
461.238	544.12
461.458	575.12
461.678	557.12
461.898	575.12
462.118	571.12
462.338	586.12
462.558	589.12
462.777	601.12
462.997	621.12
463.217	681.12
463.437	673.12
463.657	621.12
463.876	627.12
464.096	629.12
464.316	639.12
464.536	615.12
464.755	620.12
464.975	591.12
465.195	601.12
465.414	622.12
465.634	555.12
465.854	547.12
466.073	550.12
466.293	518.12
466.512	512.12
466.732	522.12
466.951	507.12
467.171	519.12
467.391	530.12
467.61	517.12
467.829	501.12
468.049	529.12
468.268	521.12
468.488	493.12
468.707	508.12
468.927	497.12
469.146	496.12
469.365	483.12
469.585	477.12
469.804	488.12
470.023	511.12
470.243	533.12
470.462	519.12
470.681	527.12
470.901	522.12
471.12	494.12
471.339	510.12
471.558	504.12
471.777	488.12
471.997	505.12
472.216	494.12
472.435	491.12
472.654	523.12
472.873	497.12
473.092	509.12
473.311	489.12
473.53	490.12
473.749	509.12
473.968	543.12
474.187	615.12
474.406	644.12
474.625	565.12
474.844	528.12
475.063	505.12
475.282	504.12
475.501	516.12
475.72	513.12
475.939	508.12
476.158	510.12
476.377	502.12
476.596	519.12
476.814	525.12
477.033	532.12
477.252	563.12
477.471	547.12
477.69	564.12
477.908	564.12
478.127	547.12
478.346	561.12
478.564	565.12
478.783	579.12
479.002	613.12
479.22	611.12
479.439	584.12
479.658	599.12
479.876	614.12
480.095	624.12
480.313	638.12
480.532	659.12
480.751	615.12
480.969	625.12
481.188	640.12
481.406	646.12
481.624	635.12
481.843	601.12
482.061	566.12
482.28	576.12
482.498	575.12
482.717	581.12
482.935	549.12
483.153	588.12
483.372	596.12
483.59	598.12
483.808	583.12
484.027	589.12
484.245	575.12
484.463	639.12
484.681	596.12
484.9	569.12
485.118	603.12
485.336	601.12
485.554	578.12
485.772	622.12
485.99	619.12
486.209	619.12
486.427	615.12
486.645	601.12
486.863	629.12
487.081	605.12
487.299	615.12
487.517	598.12
487.735	617.12
487.953	610.12
488.171	633.12
488.389	623.12
488.607	636.12
488.825	620.12
489.043	612.12
489.261	626.12
489.479	651.12
489.696	641.12
489.914	661.12
490.132	643.12
490.35	649.12
490.568	669.12
490.786	641.12
491.003	675.12
491.221	694.12
491.439	677.12
491.657	693.12
491.874	689.12
492.092	740.12
492.31	699.12
492.527	726.12
492.745	696.12
492.963	718.12
493.18	712.12
493.398	699.12
493.615	734.12
493.833	719.12
494.05	726.12
494.268	710.12
494.485	740.12
494.703	721.12
494.92	721.12
495.138	733.12
495.355	726.12
495.573	732.12
495.79	709.12
496.008	720.12
496.225	718.12
496.442	732.12
496.66	724.12
496.877	736.12
497.094	744.12
497.312	737.12
497.529	744.12
497.746	786.12
497.963	794.12
498.181	824.12
498.398	840.12
498.615	875.12
498.832	868.12
499.049	894.12
499.267	949.12
499.484	995.12
499.701	1064.12
499.918	1105.12
500.135	1168.12
500.352	1257.12
500.569	1303.12
500.786	1326.12
501.003	1236.12
501.22	1201.12
501.437	1134.12
501.654	1067.12
