Data from 1973.PennyLincolnUp.Lamp.En5.5.200Scan.071719.P1.Changed Mount._HRD10591_15-44-31-852.txt Node
Date: Thu Jul 18 15:44:31 EDT 2019
User: cochatt
Spectrometer: HR+D1059
Trigger mode: 1
Integration Time (sec): 1.000000E-1
Scans to average: 1
Electric dark correction enabled: true
Nonlinearity correction enabled: false
Boxcar width: 0
XAxis mode: Wavelengths
Number of Pixels in Spectrum: 2048
>>>>>Begin Spectral Data<<<<<
223.165	-20.38
223.4	-20.38
223.635	-20.38
223.869	-14.38
224.104	-15.38
224.338	-11.38
224.573	-8.38
224.808	-18.38
225.042	-22.38
225.277	-0.38
225.511	9.62
225.746	9.62
225.98	15.62
226.215	6.62
226.449	11.62
226.683	9.62
226.918	24.62
227.152	23.62
227.387	18.62
227.621	38.62
227.856	44.62
228.09	34.62
228.324	43.62
228.559	61.62
228.793	72.62
229.027	96.62
229.262	107.62
229.496	109.62
229.73	119.62
229.964	138.62
230.199	146.62
230.433	124.62
230.667	111.62
230.901	112.62
231.136	109.62
231.37	129.62
231.604	113.62
231.838	103.62
232.072	109.62
232.306	108.62
232.541	110.62
232.775	112.62
233.009	116.62
233.243	103.62
233.477	109.62
233.711	121.62
233.945	100.62
234.179	112.62
234.413	123.62
234.647	109.62
234.881	122.62
235.115	108.62
235.349	149.62
235.583	120.62
235.817	119.62
236.051	122.62
236.285	139.62
236.519	125.62
236.753	129.62
236.987	145.62
237.221	156.62
237.455	214.62
237.689	177.62
237.922	135.62
238.156	135.62
238.39	131.62
238.624	114.62
238.858	120.62
239.091	119.62
239.325	139.62
239.559	128.62
239.793	133.62
240.027	128.62
240.26	130.62
240.494	135.62
240.728	151.62
240.961	166.62
241.195	122.62
241.429	147.62
241.662	145.62
241.896	132.62
242.13	151.62
242.363	141.62
242.597	126.62
242.83	149.62
243.064	138.62
243.298	138.62
243.531	138.62
243.765	150.62
243.998	132.62
244.232	156.62
244.465	152.62
244.699	142.62
244.932	131.62
245.166	142.62
245.399	150.62
245.633	151.62
245.866	152.62
246.099	151.62
246.333	155.62
246.566	149.62
246.8	123.62
247.033	147.62
247.266	170.62
247.5	159.62
247.733	153.62
247.966	175.62
248.2	170.62
248.433	191.62
248.666	164.62
248.899	187.62
249.133	200.62
249.366	205.62
249.599	189.62
249.832	198.62
250.066	185.62
250.299	161.62
250.532	187.62
250.765	223.62
250.998	200.62
251.231	220.62
251.465	209.62
251.698	204.62
251.931	200.62
252.164	209.62
252.397	182.62
252.63	208.62
252.863	200.62
253.096	209.62
253.329	228.62
253.562	227.62
253.795	230.62
254.028	218.62
254.261	209.62
254.494	217.62
254.727	233.62
254.96	252.62
255.193	246.62
255.426	241.62
255.659	230.62
255.892	231.62
256.124	227.62
256.357	225.62
256.59	208.62
256.823	216.62
257.056	215.62
257.289	188.62
257.521	203.62
257.754	219.62
257.987	213.62
258.22	215.62
258.452	197.62
258.685	213.62
258.918	208.62
259.151	217.62
259.383	222.62
259.616	234.62
259.849	240.62
260.081	233.62
260.314	255.62
260.547	245.62
260.779	229.62
261.012	225.62
261.244	217.62
261.477	227.62
261.71	216.62
261.942	222.62
262.175	234.62
262.407	220.62
262.64	224.62
262.872	222.62
263.105	219.62
263.337	238.62
263.57	217.62
263.802	222.62
264.035	240.62
264.267	234.62
264.499	221.62
264.732	224.62
264.964	233.62
265.197	218.62
265.429	213.62
265.661	205.62
265.894	223.62
266.126	239.62
266.358	234.62
266.591	226.62
266.823	234.62
267.055	225.62
267.287	243.62
267.52	239.62
267.752	227.62
267.984	231.62
268.216	217.62
268.448	235.62
268.681	259.62
268.913	264.62
269.145	287.62
269.377	283.62
269.609	276.62
269.841	271.62
270.073	292.62
270.306	292.62
270.538	307.62
270.77	307.62
271.002	279.62
271.234	298.62
271.466	326.62
271.698	317.62
271.93	305.62
272.162	322.62
272.394	304.62
272.626	309.62
272.858	273.62
273.09	290.62
273.322	273.62
273.553	279.62
273.785	273.62
274.017	274.62
274.249	279.62
274.481	270.62
274.713	271.62
274.945	262.62
275.176	281.62
275.408	264.62
275.64	247.62
275.872	267.62
276.104	264.62
276.335	281.62
276.567	265.62
276.799	295.62
277.031	299.62
277.262	328.62
277.494	322.62
277.726	321.62
277.957	286.62
278.189	298.62
278.421	276.62
278.652	281.62
278.884	280.62
279.115	274.62
279.347	291.62
279.579	292.62
279.81	284.62
280.042	285.62
280.273	275.62
280.505	277.62
280.736	277.62
280.968	291.62
281.199	275.62
281.431	267.62
281.662	285.62
281.894	277.62
282.125	309.62
282.356	292.62
282.588	288.62
282.819	304.62
283.051	304.62
283.282	295.62
283.513	303.62
283.745	292.62
283.976	295.62
284.207	307.62
284.439	300.62
284.67	299.62
284.901	308.62
285.132	289.62
285.364	283.62
285.595	298.62
285.826	292.62
286.057	307.62
286.288	289.62
286.52	289.62
286.751	294.62
286.982	300.62
287.213	315.62
287.444	303.62
287.675	306.62
287.906	332.62
288.138	319.62
288.369	304.62
288.6	315.62
288.831	331.62
289.062	322.62
289.293	335.62
289.524	326.62
289.755	342.62
289.986	310.62
290.217	328.62
290.448	309.62
290.679	326.62
290.91	317.62
291.141	308.62
291.371	301.62
291.602	332.62
291.833	315.62
292.064	331.62
292.295	314.62
292.526	333.62
292.757	319.62
292.987	319.62
293.218	299.62
293.449	315.62
293.68	323.62
293.91	319.62
294.141	330.62
294.372	312.62
294.603	316.62
294.833	320.62
295.064	311.62
295.295	321.62
295.525	325.62
295.756	331.62
295.987	334.62
296.217	356.62
296.448	345.62
296.679	328.62
296.909	318.62
297.14	320.62
297.37	324.62
297.601	324.62
297.831	321.62
298.062	316.62
298.292	327.62
298.523	337.62
298.753	329.62
298.984	329.62
299.214	341.62
299.445	343.62
299.675	328.62
299.905	341.62
300.136	356.62
300.366	326.62
300.597	338.62
300.827	349.62
301.057	362.62
301.288	344.62
301.518	365.62
301.748	351.62
301.979	335.62
302.209	356.62
302.439	355.62
302.669	350.62
302.9	354.62
303.13	357.62
303.36	353.62
303.59	346.62
303.82	344.62
304.051	368.62
304.281	342.62
304.511	348.62
304.741	346.62
304.971	339.62
305.201	378.62
305.431	363.62
305.661	354.62
305.891	348.62
306.121	356.62
306.352	382.62
306.582	363.62
306.812	357.62
307.042	353.62
307.272	370.62
307.502	345.62
307.731	351.62
307.961	349.62
308.191	334.62
308.421	373.62
308.651	352.62
308.881	333.62
309.111	355.62
309.341	364.62
309.571	375.62
309.8	385.62
310.03	375.62
310.26	377.62
310.49	393.62
310.72	384.62
310.949	383.62
311.179	397.62
311.409	373.62
311.639	386.62
311.868	368.62
312.098	383.62
312.328	391.62
312.557	388.62
312.787	409.62
313.017	399.62
313.246	401.62
313.476	405.62
313.706	407.62
313.935	387.62
314.165	396.62
314.394	387.62
314.624	387.62
314.853	386.62
315.083	393.62
315.312	376.62
315.542	382.62
315.771	401.62
316.001	366.62
316.23	401.62
316.46	381.62
316.689	385.62
316.919	392.62
317.148	416.62
317.377	379.62
317.607	394.62
317.836	379.62
318.065	394.62
318.295	375.62
318.524	391.62
318.753	386.62
318.983	383.62
319.212	379.62
319.441	391.62
319.67	387.62
319.9	382.62
320.129	387.62
320.358	389.62
320.587	391.62
320.816	410.62
321.046	375.62
321.275	415.62
321.504	408.62
321.733	407.62
321.962	385.62
322.191	399.62
322.42	427.62
322.649	430.62
322.878	445.62
323.108	411.62
323.337	436.62
323.566	457.62
323.795	454.62
324.024	484.62
324.253	580.62
324.482	731.62
324.71	1003.62
324.939	1449.62
325.168	1263.62
325.397	712.62
325.626	523.62
325.855	491.62
326.084	445.62
326.313	467.62
326.542	456.62
326.77	495.62
326.999	557.62
327.228	676.62
327.457	949.62
327.686	1127.62
327.914	804.62
328.143	580.62
328.372	514.62
328.6	529.62
328.829	480.62
329.058	509.62
329.287	503.62
329.515	500.62
329.744	462.62
329.972	477.62
330.201	499.62
330.43	522.62
330.658	519.62
330.887	549.62
331.115	526.62
331.344	486.62
331.572	488.62
331.801	468.62
332.03	476.62
332.258	476.62
332.486	447.62
332.715	471.62
332.943	482.62
333.172	483.62
333.4	483.62
333.629	508.62
333.857	520.62
334.085	527.62
334.314	537.62
334.542	549.62
334.771	557.62
334.999	518.62
335.227	499.62
335.455	500.62
335.684	481.62
335.912	471.62
336.14	468.62
336.369	469.62
336.597	478.62
336.825	491.62
337.053	458.62
337.281	469.62
337.51	443.62
337.738	453.62
337.966	455.62
338.194	470.62
338.422	455.62
338.65	432.62
338.878	441.62
339.106	462.62
339.334	453.62
339.562	437.62
339.79	445.62
340.018	432.62
340.246	453.62
340.474	463.62
340.702	437.62
340.93	449.62
341.158	440.62
341.386	449.62
341.614	449.62
341.842	436.62
342.07	441.62
342.298	450.62
342.526	421.62
342.754	430.62
342.981	444.62
343.209	427.62
343.437	468.62
343.665	456.62
343.893	474.62
344.12	468.62
344.348	468.62
344.576	474.62
344.804	450.62
345.031	456.62
345.259	468.62
345.487	439.62
345.714	441.62
345.942	414.62
346.17	433.62
346.397	446.62
346.625	424.62
346.853	422.62
347.08	409.62
347.308	404.62
347.535	417.62
347.763	420.62
347.99	428.62
348.218	429.62
348.445	429.62
348.673	439.62
348.9	415.62
349.128	421.62
349.355	421.62
349.583	409.62
349.81	399.62
350.037	401.62
350.265	403.62
350.492	423.62
350.72	406.62
350.947	404.62
351.174	396.62
351.402	436.62
351.629	420.62
351.856	436.62
352.083	456.62
352.311	424.62
352.538	418.62
352.765	410.62
352.992	422.62
353.22	416.62
353.447	405.62
353.674	412.62
353.901	404.62
354.128	389.62
354.355	403.62
354.583	399.62
354.81	408.62
355.037	407.62
355.264	408.62
355.491	403.62
355.718	389.62
355.945	405.62
356.172	413.62
356.399	378.62
356.626	387.62
356.853	418.62
357.08	378.62
357.307	399.62
357.534	392.62
357.761	398.62
357.988	405.62
358.215	425.62
358.441	401.62
358.668	389.62
358.895	407.62
359.122	393.62
359.349	415.62
359.576	397.62
359.802	426.62
360.029	441.62
360.256	445.62
360.483	424.62
360.709	406.62
360.936	416.62
361.163	430.62
361.39	407.62
361.616	388.62
361.843	416.62
362.07	419.62
362.296	416.62
362.523	399.62
362.749	389.62
362.976	399.62
363.203	396.62
363.429	412.62
363.656	415.62
363.882	394.62
364.109	403.62
364.335	400.62
364.562	405.62
364.788	390.62
365.015	413.62
365.241	407.62
365.468	413.62
365.694	391.62
365.92	388.62
366.147	395.62
366.373	421.62
366.599	390.62
366.826	424.62
367.052	397.62
367.278	382.62
367.505	420.62
367.731	399.62
367.957	390.62
368.184	416.62
368.41	414.62
368.636	423.62
368.862	419.62
369.089	420.62
369.315	410.62
369.541	414.62
369.767	404.62
369.993	404.62
370.219	404.62
370.445	393.62
370.672	414.62
370.898	414.62
371.124	398.62
371.35	432.62
371.576	422.62
371.802	403.62
372.028	399.62
372.254	417.62
372.48	400.62
372.706	414.62
372.932	411.62
373.158	402.62
373.384	417.62
373.61	440.62
373.835	419.62
374.061	425.62
374.287	409.62
374.513	387.62
374.739	436.62
374.965	444.62
375.191	454.62
375.416	444.62
375.642	431.62
375.868	437.62
376.094	415.62
376.319	433.62
376.545	401.62
376.771	417.62
376.997	409.62
377.222	411.62
377.448	413.62
377.674	401.62
377.899	414.62
378.125	405.62
378.35	401.62
378.576	411.62
378.802	413.62
379.027	407.62
379.253	403.62
379.478	418.62
379.704	408.62
379.929	414.62
380.155	431.62
380.38	418.62
380.606	410.62
380.831	413.62
381.057	428.62
381.282	386.62
381.507	413.62
381.733	419.62
381.958	425.62
382.184	406.62
382.409	420.62
382.634	434.62
382.86	422.62
383.085	435.62
383.31	416.62
383.535	420.62
383.761	432.62
383.986	443.62
384.211	449.62
384.436	448.62
384.662	449.62
384.887	463.62
385.112	443.62
385.337	459.62
385.562	462.62
385.787	472.62
386.013	475.62
386.238	457.62
386.463	467.62
386.688	475.62
386.913	462.62
387.138	484.62
387.363	455.62
387.588	471.62
387.813	460.62
388.038	477.62
388.263	471.62
388.488	460.62
388.713	477.62
388.938	481.62
389.163	464.62
389.387	483.62
389.612	448.62
389.837	475.62
390.062	455.62
390.287	458.62
390.512	472.62
390.736	470.62
390.961	464.62
391.186	472.62
391.411	503.62
391.636	492.62
391.86	491.62
392.085	492.62
392.31	501.62
392.534	487.62
392.759	492.62
392.984	468.62
393.208	467.62
393.433	474.62
393.658	440.62
393.882	480.62
394.107	479.62
394.331	471.62
394.556	475.62
394.78	480.62
395.005	467.62
395.229	473.62
395.454	495.62
395.678	504.62
395.903	490.62
396.127	501.62
396.352	523.62
396.576	473.62
396.801	493.62
397.025	473.62
397.249	489.62
397.474	498.62
397.698	529.62
397.922	511.62
398.147	523.62
398.371	523.62
398.595	551.62
398.82	525.62
399.044	533.62
399.268	560.62
399.492	658.62
399.717	684.62
399.941	701.62
400.165	676.62
400.389	677.62
400.613	614.62
400.837	583.62
401.062	561.62
401.286	571.62
401.51	552.62
401.734	566.62
401.958	579.62
402.182	557.62
402.406	585.62
402.63	576.62
402.854	559.62
403.078	558.62
403.302	566.62
403.526	583.62
403.75	589.62
403.974	577.62
404.198	561.62
404.422	571.62
404.645	583.62
404.869	599.62
405.093	613.62
405.317	650.62
405.541	663.62
405.765	633.62
405.988	601.62
406.212	603.62
406.436	617.62
406.66	628.62
406.883	627.62
407.107	651.62
407.331	696.62
407.555	731.62
407.778	717.62
408.002	686.62
408.226	611.62
408.449	629.62
408.673	618.62
408.896	622.62
409.12	667.62
409.344	653.62
409.567	617.62
409.791	583.62
410.014	579.62
410.238	575.62
410.461	582.62
410.685	565.62
410.908	591.62
411.132	630.62
411.355	651.62
411.578	615.62
411.802	564.62
412.025	561.62
412.249	557.62
412.472	594.62
412.695	635.62
412.919	592.62
413.142	578.62
413.365	547.62
413.589	557.62
413.812	545.62
414.035	545.62
414.258	533.62
414.482	502.62
414.705	541.62
414.928	550.62
415.151	529.62
415.374	545.62
415.597	547.62
415.821	514.62
416.044	525.62
416.267	554.62
416.49	527.62
416.713	531.62
416.936	526.62
417.159	527.62
417.382	541.62
417.605	548.62
417.828	565.62
418.051	559.62
418.274	556.62
418.497	541.62
418.72	541.62
418.943	535.62
419.166	567.62
419.389	571.62
419.611	582.62
419.834	589.62
420.057	572.62
420.28	581.62
420.503	556.62
420.726	561.62
420.948	588.62
421.171	593.62
421.394	640.62
421.617	568.62
421.839	565.62
422.062	563.62
422.285	581.62
422.507	603.62
422.73	652.62
422.953	665.62
423.175	569.62
423.398	585.62
423.621	598.62
423.843	600.62
424.066	604.62
424.288	603.62
424.511	612.62
424.733	653.62
424.956	692.62
425.178	665.62
425.401	669.62
425.623	685.62
425.846	620.62
426.068	579.62
426.291	546.62
426.513	553.62
426.735	582.62
426.958	611.62
427.18	652.62
427.402	753.62
427.625	842.62
427.847	721.62
428.069	644.62
428.292	583.62
428.514	553.62
428.736	545.62
428.958	538.62
429.181	492.62
429.403	533.62
429.625	517.62
429.847	557.62
430.069	616.62
430.292	607.62
430.514	556.62
430.736	525.62
430.958	520.62
431.18	508.62
431.402	523.62
431.624	503.62
431.846	513.62
432.068	520.62
432.29	506.62
432.512	500.62
432.734	522.62
432.956	504.62
433.178	508.62
433.4	515.62
433.622	489.62
433.844	508.62
434.066	504.62
434.287	503.62
434.509	514.62
434.731	530.62
434.953	531.62
435.175	577.62
435.397	587.62
435.618	581.62
435.84	569.62
436.062	663.62
436.284	716.62
436.505	603.62
436.727	560.62
436.949	545.62
437.17	529.62
437.392	521.62
437.614	504.62
437.835	549.62
438.057	604.62
438.278	716.62
438.5	707.62
438.721	752.62
438.943	737.62
439.165	607.62
439.386	556.62
439.608	558.62
439.829	563.62
440.05	551.62
440.272	591.62
440.493	575.62
440.715	556.62
440.936	531.62
441.158	539.62
441.379	535.62
441.6	561.62
441.822	563.62
442.043	607.62
442.264	665.62
442.486	701.62
442.707	624.62
442.928	575.62
443.149	611.62
443.371	609.62
443.592	653.62
443.813	711.62
444.034	758.62
444.255	668.62
444.476	637.62
444.698	620.62
444.919	603.62
445.14	733.62
445.361	683.62
445.582	617.62
445.803	643.62
446.024	729.62
446.245	742.62
446.466	649.62
446.687	603.62
446.908	559.62
447.129	521.62
447.35	519.62
447.571	535.62
447.792	508.62
448.013	519.62
448.234	526.62
448.455	565.62
448.675	663.62
448.896	737.62
449.117	643.62
449.338	615.62
449.559	680.62
449.779	766.62
450	648.62
450.221	547.62
450.442	504.62
450.662	490.62
450.883	483.62
451.104	505.62
451.324	490.62
451.545	487.62
451.766	474.62
451.986	445.62
452.207	456.62
452.428	462.62
452.648	476.62
452.869	450.62
453.089	473.62
453.31	455.62
453.53	454.62
453.751	469.62
453.971	466.62
454.192	456.62
454.412	448.62
454.633	450.62
454.853	461.62
455.073	442.62
455.294	477.62
455.514	521.62
455.734	521.62
455.955	451.62
456.175	437.62
456.395	431.62
456.616	412.62
456.836	438.62
457.056	443.62
457.276	425.62
457.497	432.62
457.717	438.62
457.937	443.62
458.157	455.62
458.377	463.62
458.598	463.62
458.818	503.62
459.038	562.62
459.258	587.62
459.478	519.62
459.698	490.62
459.918	490.62
460.138	528.62
460.358	537.62
460.578	555.62
460.798	539.62
461.018	535.62
461.238	548.62
461.458	533.62
461.678	540.62
461.898	520.62
462.118	532.62
462.338	551.62
462.558	529.62
462.777	589.62
462.997	631.62
463.217	649.62
463.437	615.62
463.657	599.62
463.876	597.62
464.096	606.62
464.316	591.62
464.536	586.62
464.755	574.62
464.975	561.62
465.195	571.62
465.414	628.62
465.634	543.62
465.854	533.62
466.073	522.62
466.293	492.62
466.512	483.62
466.732	506.62
466.951	479.62
467.171	481.62
467.391	479.62
467.61	487.62
467.829	503.62
468.049	475.62
468.268	461.62
468.488	478.62
468.707	473.62
468.927	457.62
469.146	456.62
469.365	474.62
469.585	483.62
469.804	496.62
470.023	467.62
470.243	490.62
470.462	512.62
470.681	505.62
470.901	489.62
471.12	499.62
471.339	493.62
471.558	497.62
471.777	499.62
471.997	488.62
472.216	489.62
472.435	512.62
472.654	480.62
472.873	477.62
473.092	485.62
473.311	471.62
473.53	463.62
473.749	488.62
473.968	503.62
474.187	582.62
474.406	609.62
474.625	517.62
474.844	507.62
475.063	485.62
475.282	483.62
475.501	463.62
475.72	501.62
475.939	513.62
476.158	472.62
476.377	496.62
476.596	494.62
476.814	519.62
477.033	510.62
477.252	516.62
477.471	505.62
477.69	531.62
477.908	531.62
478.127	550.62
478.346	533.62
478.564	553.62
478.783	565.62
479.002	571.62
479.22	558.62
479.439	556.62
479.658	547.62
479.876	569.62
480.095	600.62
480.313	632.62
480.532	614.62
480.751	604.62
480.969	635.62
481.188	635.62
481.406	620.62
481.624	585.62
481.843	579.62
482.061	550.62
482.28	542.62
482.498	560.62
482.717	544.62
482.935	549.62
483.153	565.62
483.372	545.62
483.59	563.62
483.808	565.62
484.027	549.62
484.245	573.62
484.463	557.62
484.681	582.62
484.9	561.62
485.118	578.62
485.336	568.62
485.554	551.62
485.772	597.62
485.99	580.62
486.209	578.62
486.427	575.62
486.645	608.62
486.863	617.62
487.081	587.62
487.299	596.62
487.517	579.62
487.735	582.62
487.953	579.62
488.171	598.62
488.389	597.62
488.607	577.62
488.825	587.62
489.043	589.62
489.261	594.62
489.479	603.62
489.696	587.62
489.914	614.62
490.132	631.62
490.35	601.62
490.568	631.62
490.786	622.62
491.003	639.62
491.221	658.62
491.439	651.62
491.657	638.62
491.874	652.62
492.092	667.62
492.31	688.62
492.527	664.62
492.745	670.62
492.963	649.62
493.18	685.62
493.398	666.62
493.615	679.62
493.833	699.62
494.05	703.62
494.268	705.62
494.485	693.62
494.703	691.62
494.92	715.62
495.138	674.62
495.355	695.62
495.573	705.62
495.79	668.62
496.008	685.62
496.225	708.62
496.442	701.62
496.66	708.62
496.877	697.62
497.094	695.62
497.312	726.62
497.529	731.62
497.746	724.62
497.963	756.62
498.181	788.62
498.398	807.62
498.615	831.62
498.832	856.62
499.049	865.62
499.267	911.62
499.484	947.62
499.701	1014.62
499.918	1062.62
500.135	1114.62
500.352	1235.62
500.569	1250.62
500.786	1262.62
501.003	1200.62
501.22	1124.62
501.437	1084.62
501.654	1038.62
