Data from 1973.PennyLincolnUp.Lamp.En5.5.200Scan.071719.P1.Changed Mount._HRD10591_15-44-18-852.txt Node
Date: Thu Jul 18 15:44:18 EDT 2019
User: cochatt
Spectrometer: HR+D1059
Trigger mode: 1
Integration Time (sec): 1.000000E-1
Scans to average: 1
Electric dark correction enabled: true
Nonlinearity correction enabled: false
Boxcar width: 0
XAxis mode: Wavelengths
Number of Pixels in Spectrum: 2048
>>>>>Begin Spectral Data<<<<<
223.165	-3.69
223.4	-3.69
223.635	-3.69
223.869	-10.69
224.104	-7.69
224.338	-23.69
224.573	-16.69
224.808	-8.69
225.042	-18.69
225.277	-12.69
225.511	-17.69
225.746	6.31
225.98	18.31
226.215	5.31
226.449	15.31
226.683	31.31
226.918	21.31
227.152	22.31
227.387	24.31
227.621	30.31
227.856	41.31
228.09	34.31
228.324	48.31
228.559	64.31
228.793	69.31
229.027	86.31
229.262	89.31
229.496	92.31
229.73	109.31
229.964	143.31
230.199	103.31
230.433	123.31
230.667	112.31
230.901	106.31
231.136	97.31
231.37	100.31
231.604	112.31
231.838	118.31
232.072	98.31
232.306	97.31
232.541	120.31
232.775	103.31
233.009	112.31
233.243	107.31
233.477	118.31
233.711	129.31
233.945	109.31
234.179	110.31
234.413	98.31
234.647	116.31
234.881	107.31
235.115	111.31
235.349	116.31
235.583	111.31
235.817	98.31
236.051	132.31
236.285	117.31
236.519	113.31
236.753	120.31
236.987	145.31
237.221	146.31
237.455	208.31
237.689	166.31
237.922	150.31
238.156	125.31
238.39	121.31
238.624	112.31
238.858	129.31
239.091	127.31
239.325	123.31
239.559	119.31
239.793	125.31
240.027	118.31
240.26	128.31
240.494	139.31
240.728	148.31
240.961	153.31
241.195	153.31
241.429	126.31
241.662	125.31
241.896	125.31
242.13	122.31
242.363	127.31
242.597	131.31
242.83	141.31
243.064	133.31
243.298	129.31
243.531	136.31
243.765	136.31
243.998	135.31
244.232	149.31
244.465	149.31
244.699	149.31
244.932	134.31
245.166	138.31
245.399	139.31
245.633	146.31
245.866	145.31
246.099	136.31
246.333	129.31
246.566	137.31
246.8	144.31
247.033	137.31
247.266	149.31
247.5	161.31
247.733	148.31
247.966	171.31
248.2	161.31
248.433	157.31
248.666	167.31
248.899	167.31
249.133	188.31
249.366	195.31
249.599	201.31
249.832	156.31
250.066	156.31
250.299	158.31
250.532	186.31
250.765	182.31
250.998	201.31
251.231	228.31
251.465	203.31
251.698	197.31
251.931	184.31
252.164	178.31
252.397	189.31
252.63	202.31
252.863	186.31
253.096	204.31
253.329	206.31
253.562	211.31
253.795	200.31
254.028	190.31
254.261	215.31
254.494	232.31
254.727	227.31
254.96	249.31
255.193	257.31
255.426	221.31
255.659	232.31
255.892	213.31
256.124	218.31
256.357	223.31
256.59	210.31
256.823	204.31
257.056	222.31
257.289	192.31
257.521	209.31
257.754	216.31
257.987	201.31
258.22	202.31
258.452	201.31
258.685	210.31
258.918	195.31
259.151	199.31
259.383	222.31
259.616	203.31
259.849	218.31
260.081	221.31
260.314	222.31
260.547	252.31
260.779	230.31
261.012	233.31
261.244	238.31
261.477	217.31
261.71	230.31
261.942	214.31
262.175	217.31
262.407	210.31
262.64	221.31
262.872	207.31
263.105	216.31
263.337	214.31
263.57	209.31
263.802	210.31
264.035	208.31
264.267	211.31
264.499	214.31
264.732	217.31
264.964	217.31
265.197	209.31
265.429	217.31
265.661	227.31
265.894	211.31
266.126	215.31
266.358	207.31
266.591	215.31
266.823	206.31
267.055	235.31
267.287	250.31
267.52	228.31
267.752	223.31
267.984	214.31
268.216	237.31
268.448	217.31
268.681	237.31
268.913	231.31
269.145	256.31
269.377	246.31
269.609	247.31
269.841	257.31
270.073	274.31
270.306	273.31
270.538	315.31
270.77	302.31
271.002	294.31
271.234	281.31
271.466	294.31
271.698	281.31
271.93	295.31
272.162	287.31
272.394	292.31
272.626	303.31
272.858	302.31
273.09	266.31
273.322	276.31
273.553	265.31
273.785	278.31
274.017	250.31
274.249	268.31
274.481	267.31
274.713	250.31
274.945	273.31
275.176	268.31
275.408	275.31
275.64	283.31
275.872	255.31
276.104	275.31
276.335	275.31
276.567	271.31
276.799	282.31
277.031	294.31
277.262	307.31
277.494	302.31
277.726	316.31
277.957	294.31
278.189	275.31
278.421	275.31
278.652	257.31
278.884	245.31
279.115	244.31
279.347	285.31
279.579	275.31
279.81	282.31
280.042	277.31
280.273	286.31
280.505	278.31
280.736	268.31
280.968	267.31
281.199	277.31
281.431	273.31
281.662	274.31
281.894	258.31
282.125	276.31
282.356	289.31
282.588	311.31
282.819	295.31
283.051	301.31
283.282	267.31
283.513	285.31
283.745	296.31
283.976	272.31
284.207	287.31
284.439	298.31
284.67	296.31
284.901	296.31
285.132	302.31
285.364	286.31
285.595	303.31
285.826	297.31
286.057	290.31
286.288	305.31
286.52	310.31
286.751	315.31
286.982	296.31
287.213	271.31
287.444	279.31
287.675	285.31
287.906	302.31
288.138	307.31
288.369	295.31
288.6	326.31
288.831	314.31
289.062	312.31
289.293	321.31
289.524	308.31
289.755	315.31
289.986	314.31
290.217	320.31
290.448	307.31
290.679	309.31
290.91	317.31
291.141	297.31
291.371	303.31
291.602	319.31
291.833	304.31
292.064	293.31
292.295	305.31
292.526	298.31
292.757	300.31
292.987	313.31
293.218	300.31
293.449	306.31
293.68	291.31
293.91	317.31
294.141	301.31
294.372	306.31
294.603	311.31
294.833	321.31
295.064	311.31
295.295	326.31
295.525	292.31
295.756	318.31
295.987	310.31
296.217	326.31
296.448	340.31
296.679	335.31
296.909	317.31
297.14	343.31
297.37	327.31
297.601	320.31
297.831	327.31
298.062	328.31
298.292	321.31
298.523	338.31
298.753	327.31
298.984	324.31
299.214	323.31
299.445	321.31
299.675	336.31
299.905	312.31
300.136	324.31
300.366	331.31
300.597	322.31
300.827	345.31
301.057	343.31
301.288	358.31
301.518	345.31
301.748	349.31
301.979	345.31
302.209	330.31
302.439	327.31
302.669	368.31
302.9	344.31
303.13	321.31
303.36	331.31
303.59	349.31
303.82	353.31
304.051	384.31
304.281	347.31
304.511	335.31
304.741	358.31
304.971	341.31
305.201	336.31
305.431	352.31
305.661	355.31
305.891	339.31
306.121	370.31
306.352	369.31
306.582	339.31
306.812	349.31
307.042	345.31
307.272	349.31
307.502	348.31
307.731	347.31
307.961	349.31
308.191	338.31
308.421	335.31
308.651	340.31
308.881	352.31
309.111	371.31
309.341	359.31
309.571	367.31
309.8	360.31
310.03	359.31
310.26	359.31
310.49	366.31
310.72	383.31
310.949	387.31
311.179	387.31
311.409	396.31
311.639	373.31
311.868	368.31
312.098	359.31
312.328	393.31
312.557	380.31
312.787	392.31
313.017	386.31
313.246	394.31
313.476	363.31
313.706	384.31
313.935	377.31
314.165	367.31
314.394	388.31
314.624	399.31
314.853	395.31
315.083	395.31
315.312	391.31
315.542	381.31
315.771	379.31
316.001	377.31
316.23	366.31
316.46	377.31
316.689	385.31
316.919	384.31
317.148	399.31
317.377	390.31
317.607	379.31
317.836	395.31
318.065	394.31
318.295	385.31
318.524	369.31
318.753	390.31
318.983	383.31
319.212	379.31
319.441	392.31
319.67	393.31
319.9	371.31
320.129	379.31
320.358	381.31
320.587	386.31
320.816	361.31
321.046	395.31
321.275	388.31
321.504	398.31
321.733	377.31
321.962	406.31
322.191	389.31
322.42	409.31
322.649	404.31
322.878	437.31
323.108	444.31
323.337	431.31
323.566	436.31
323.795	485.31
324.024	497.31
324.253	569.31
324.482	738.31
324.71	1020.31
324.939	1441.31
325.168	1282.31
325.397	727.31
325.626	545.31
325.855	460.31
326.084	471.31
326.313	455.31
326.542	449.31
326.77	469.31
326.999	529.31
327.228	651.31
327.457	911.31
327.686	1146.31
327.914	815.31
328.143	579.31
328.372	530.31
328.6	504.31
328.829	478.31
329.058	503.31
329.287	511.31
329.515	481.31
329.744	463.31
329.972	481.31
330.201	481.31
330.43	495.31
330.658	529.31
330.887	505.31
331.115	545.31
331.344	493.31
331.572	453.31
331.801	453.31
332.03	479.31
332.258	451.31
332.486	458.31
332.715	474.31
332.943	477.31
333.172	488.31
333.4	480.31
333.629	495.31
333.857	499.31
334.085	505.31
334.314	508.31
334.542	517.31
334.771	552.31
334.999	507.31
335.227	510.31
335.455	478.31
335.684	471.31
335.912	464.31
336.14	461.31
336.369	459.31
336.597	464.31
336.825	445.31
337.053	451.31
337.281	453.31
337.51	450.31
337.738	452.31
337.966	421.31
338.194	457.31
338.422	438.31
338.65	453.31
338.878	432.31
339.106	444.31
339.334	441.31
339.562	442.31
339.79	433.31
340.018	438.31
340.246	437.31
340.474	444.31
340.702	433.31
340.93	427.31
341.158	419.31
341.386	442.31
341.614	434.31
341.842	423.31
342.07	431.31
342.298	440.31
342.526	438.31
342.754	424.31
342.981	418.31
343.209	432.31
343.437	441.31
343.665	434.31
343.893	448.31
344.12	457.31
344.348	472.31
344.576	431.31
344.804	452.31
345.031	415.31
345.259	463.31
345.487	465.31
345.714	431.31
345.942	429.31
346.17	424.31
346.397	420.31
346.625	406.31
346.853	432.31
347.08	390.31
347.308	393.31
347.535	431.31
347.763	431.31
347.99	445.31
348.218	413.31
348.445	406.31
348.673	425.31
348.9	407.31
349.128	416.31
349.355	409.31
349.583	405.31
349.81	412.31
350.037	426.31
350.265	417.31
350.492	417.31
350.72	410.31
350.947	400.31
351.174	393.31
351.402	403.31
351.629	407.31
351.856	407.31
352.083	425.31
352.311	410.31
352.538	422.31
352.765	431.31
352.992	413.31
353.22	399.31
353.447	383.31
353.674	387.31
353.901	399.31
354.128	387.31
354.355	390.31
354.583	395.31
354.81	380.31
355.037	416.31
355.264	411.31
355.491	399.31
355.718	400.31
355.945	405.31
356.172	374.31
356.399	400.31
356.626	375.31
356.853	378.31
357.08	384.31
357.307	414.31
357.534	381.31
357.761	384.31
357.988	391.31
358.215	385.31
358.441	405.31
358.668	403.31
358.895	402.31
359.122	409.31
359.349	409.31
359.576	422.31
359.802	413.31
360.029	430.31
360.256	436.31
360.483	436.31
360.709	414.31
360.936	401.31
361.163	406.31
361.39	426.31
361.616	395.31
361.843	405.31
362.07	428.31
362.296	385.31
362.523	381.31
362.749	393.31
362.976	411.31
363.203	387.31
363.429	378.31
363.656	397.31
363.882	381.31
364.109	385.31
364.335	381.31
364.562	393.31
364.788	404.31
365.015	422.31
365.241	386.31
365.468	410.31
365.694	390.31
365.92	404.31
366.147	381.31
366.373	408.31
366.599	381.31
366.826	391.31
367.052	400.31
367.278	415.31
367.505	384.31
367.731	411.31
367.957	392.31
368.184	383.31
368.41	387.31
368.636	408.31
368.862	418.31
369.089	401.31
369.315	401.31
369.541	399.31
369.767	412.31
369.993	398.31
370.219	407.31
370.445	374.31
370.672	398.31
370.898	408.31
371.124	410.31
371.35	397.31
371.576	400.31
371.802	400.31
372.028	403.31
372.254	400.31
372.48	417.31
372.706	413.31
372.932	388.31
373.158	443.31
373.384	415.31
373.61	389.31
373.835	405.31
374.061	389.31
374.287	401.31
374.513	401.31
374.739	425.31
374.965	410.31
375.191	416.31
375.416	439.31
375.642	410.31
375.868	423.31
376.094	417.31
376.319	408.31
376.545	412.31
376.771	408.31
376.997	406.31
377.222	401.31
377.448	403.31
377.674	402.31
377.899	401.31
378.125	409.31
378.35	384.31
378.576	395.31
378.802	394.31
379.027	412.31
379.253	399.31
379.478	400.31
379.704	385.31
379.929	396.31
380.155	400.31
380.38	392.31
380.606	404.31
380.831	409.31
381.057	417.31
381.282	405.31
381.507	394.31
381.733	414.31
381.958	425.31
382.184	403.31
382.409	411.31
382.634	417.31
382.86	423.31
383.085	446.31
383.31	425.31
383.535	422.31
383.761	427.31
383.986	454.31
384.211	447.31
384.436	430.31
384.662	450.31
384.887	458.31
385.112	461.31
385.337	456.31
385.562	479.31
385.787	459.31
386.013	478.31
386.238	450.31
386.463	459.31
386.688	460.31
386.913	459.31
387.138	433.31
387.363	443.31
387.588	452.31
387.813	463.31
388.038	446.31
388.263	466.31
388.488	459.31
388.713	453.31
388.938	459.31
389.163	457.31
389.387	467.31
389.612	445.31
389.837	434.31
390.062	451.31
390.287	470.31
390.512	449.31
390.736	447.31
390.961	456.31
391.186	434.31
391.411	460.31
391.636	466.31
391.86	468.31
392.085	482.31
392.31	473.31
392.534	481.31
392.759	467.31
392.984	463.31
393.208	445.31
393.433	461.31
393.658	459.31
393.882	453.31
394.107	459.31
394.331	450.31
394.556	474.31
394.78	477.31
395.005	457.31
395.229	466.31
395.454	515.31
395.678	477.31
395.903	482.31
396.127	505.31
396.352	502.31
396.576	466.31
396.801	462.31
397.025	470.31
397.249	489.31
397.474	509.31
397.698	500.31
397.922	511.31
398.147	522.31
398.371	531.31
398.595	523.31
398.82	522.31
399.044	551.31
399.268	579.31
399.492	633.31
399.717	647.31
399.941	688.31
400.165	683.31
400.389	663.31
400.613	602.31
400.837	579.31
401.062	578.31
401.286	539.31
401.51	551.31
401.734	536.31
401.958	539.31
402.182	538.31
402.406	540.31
402.63	539.31
402.854	555.31
403.078	579.31
403.302	576.31
403.526	583.31
403.75	567.31
403.974	566.31
404.198	563.31
404.422	567.31
404.645	584.31
404.869	582.31
405.093	615.31
405.317	656.31
405.541	649.31
405.765	613.31
405.988	598.31
406.212	602.31
406.436	597.31
406.66	619.31
406.883	594.31
407.107	621.31
407.331	675.31
407.555	703.31
407.778	718.31
408.002	665.31
408.226	629.31
408.449	629.31
408.673	634.31
408.896	639.31
409.12	681.31
409.344	622.31
409.567	595.31
409.791	601.31
410.014	561.31
410.238	545.31
410.461	570.31
410.685	554.31
410.908	566.31
411.132	585.31
411.355	615.31
411.578	589.31
411.802	547.31
412.025	557.31
412.249	567.31
412.472	582.31
412.695	615.31
412.919	585.31
413.142	550.31
413.365	550.31
413.589	541.31
413.812	523.31
414.035	527.31
414.258	509.31
414.482	531.31
414.705	543.31
414.928	534.31
415.151	522.31
415.374	517.31
415.597	537.31
415.821	506.31
416.044	542.31
416.267	538.31
416.49	532.31
416.713	533.31
416.936	532.31
417.159	520.31
417.382	516.31
417.605	553.31
417.828	533.31
418.051	541.31
418.274	539.31
418.497	529.31
418.72	545.31
418.943	535.31
419.166	559.31
419.389	580.31
419.611	558.31
419.834	565.31
420.057	536.31
420.28	571.31
420.503	562.31
420.726	533.31
420.948	529.31
421.171	572.31
421.394	618.31
421.617	565.31
421.839	519.31
422.062	550.31
422.285	552.31
422.507	614.31
422.73	669.31
422.953	636.31
423.175	588.31
423.398	543.31
423.621	570.31
423.843	588.31
424.066	597.31
424.288	581.31
424.511	578.31
424.733	640.31
424.956	667.31
425.178	651.31
425.401	661.31
425.623	703.31
425.846	615.31
426.068	582.31
426.291	563.31
426.513	574.31
426.735	564.31
426.958	594.31
427.18	636.31
427.402	785.31
427.625	809.31
427.847	694.31
428.069	621.31
428.292	590.31
428.514	573.31
428.736	523.31
428.958	511.31
429.181	536.31
429.403	509.31
429.625	499.31
429.847	539.31
430.069	598.31
430.292	592.31
430.514	536.31
430.736	496.31
430.958	512.31
431.18	488.31
431.402	495.31
431.624	485.31
431.846	484.31
432.068	502.31
432.29	485.31
432.512	509.31
432.734	516.31
432.956	516.31
433.178	491.31
433.4	499.31
433.622	487.31
433.844	500.31
434.066	486.31
434.287	505.31
434.509	525.31
434.731	529.31
434.953	536.31
435.175	531.31
435.397	557.31
435.618	559.31
435.84	567.31
436.062	633.31
436.284	697.31
436.505	609.31
436.727	567.31
436.949	508.31
437.17	515.31
437.392	486.31
437.614	519.31
437.835	534.31
438.057	614.31
438.278	687.31
438.5	663.31
438.721	751.31
438.943	761.31
439.165	619.31
439.386	569.31
439.608	558.31
439.829	528.31
440.05	575.31
440.272	588.31
440.493	551.31
440.715	518.31
440.936	513.31
441.158	529.31
441.379	511.31
441.6	538.31
441.822	564.31
442.043	559.31
442.264	661.31
442.486	685.31
442.707	607.31
442.928	583.31
443.149	563.31
443.371	587.31
443.592	622.31
443.813	695.31
444.034	764.31
444.255	641.31
444.476	623.31
444.698	625.31
444.919	603.31
445.14	701.31
445.361	639.31
445.582	577.31
445.803	633.31
446.024	685.31
446.245	703.31
446.466	658.31
446.687	583.31
446.908	530.31
447.129	510.31
447.35	522.31
447.571	501.31
447.792	501.31
448.013	512.31
448.234	512.31
448.455	549.31
448.675	651.31
448.896	731.31
449.117	645.31
449.338	566.31
449.559	669.31
449.779	761.31
450	630.31
450.221	534.31
450.442	495.31
450.662	494.31
450.883	497.31
451.104	506.31
451.324	463.31
451.545	484.31
451.766	493.31
451.986	438.31
452.207	442.31
452.428	420.31
452.648	469.31
452.869	479.31
453.089	466.31
453.31	463.31
453.53	468.31
453.751	444.31
453.971	442.31
454.192	441.31
454.412	451.31
454.633	438.31
454.853	440.31
455.073	435.31
455.294	445.31
455.514	524.31
455.734	488.31
455.955	448.31
456.175	418.31
456.395	427.31
456.616	429.31
456.836	427.31
457.056	446.31
457.276	421.31
457.497	419.31
457.717	450.31
457.937	451.31
458.157	431.31
458.377	459.31
458.598	462.31
458.818	509.31
459.038	557.31
459.258	600.31
459.478	522.31
459.698	514.31
459.918	503.31
460.138	503.31
460.358	521.31
460.578	525.31
460.798	537.31
461.018	518.31
461.238	535.31
461.458	522.31
461.678	505.31
461.898	514.31
462.118	533.31
462.338	549.31
462.558	585.31
462.777	565.31
462.997	596.31
463.217	602.31
463.437	610.31
463.657	607.31
463.876	582.31
464.096	581.31
464.316	564.31
464.536	589.31
464.755	587.31
464.975	562.31
465.195	563.31
465.414	597.31
465.634	544.31
465.854	517.31
466.073	509.31
466.293	485.31
466.512	477.31
466.732	485.31
466.951	458.31
467.171	479.31
467.391	461.31
467.61	486.31
467.829	485.31
468.049	475.31
468.268	475.31
468.488	471.31
468.707	472.31
468.927	458.31
469.146	442.31
469.365	486.31
469.585	482.31
469.804	456.31
470.023	494.31
470.243	473.31
470.462	472.31
470.681	494.31
470.901	489.31
471.12	485.31
471.339	491.31
471.558	479.31
471.777	490.31
471.997	479.31
472.216	501.31
472.435	499.31
472.654	478.31
472.873	451.31
473.092	459.31
473.311	467.31
473.53	478.31
473.749	471.31
473.968	505.31
474.187	573.31
474.406	597.31
474.625	520.31
474.844	491.31
475.063	477.31
475.282	467.31
475.501	466.31
475.72	469.31
475.939	487.31
476.158	498.31
476.377	487.31
476.596	481.31
476.814	513.31
477.033	484.31
477.252	475.31
477.471	503.31
477.69	523.31
477.908	506.31
478.127	524.31
478.346	546.31
478.564	537.31
478.783	541.31
479.002	559.31
479.22	584.31
479.439	569.31
479.658	575.31
479.876	577.31
480.095	601.31
480.313	614.31
480.532	601.31
480.751	597.31
480.969	591.31
481.188	639.31
481.406	639.31
481.624	557.31
481.843	568.31
482.061	571.31
482.28	542.31
482.498	534.31
482.717	539.31
482.935	547.31
483.153	538.31
483.372	547.31
483.59	560.31
483.808	522.31
484.027	542.31
484.245	561.31
484.463	527.31
484.681	555.31
484.9	559.31
485.118	549.31
485.336	545.31
485.554	550.31
485.772	542.31
485.99	580.31
486.209	583.31
486.427	553.31
486.645	564.31
486.863	582.31
487.081	578.31
487.299	575.31
487.517	581.31
487.735	590.31
487.953	574.31
488.171	576.31
488.389	557.31
488.607	610.31
488.825	572.31
489.043	584.31
489.261	579.31
489.479	582.31
489.696	622.31
489.914	593.31
490.132	593.31
490.35	597.31
490.568	610.31
490.786	606.31
491.003	636.31
491.221	645.31
491.439	639.31
491.657	651.31
491.874	659.31
492.092	678.31
492.31	662.31
492.527	649.31
492.745	657.31
492.963	647.31
493.18	686.31
493.398	687.31
493.615	665.31
493.833	645.31
494.05	689.31
494.268	667.31
494.485	641.31
494.703	645.31
494.92	675.31
495.138	695.31
495.355	710.31
495.573	689.31
495.79	676.31
496.008	671.31
496.225	685.31
496.442	719.31
496.66	689.31
496.877	702.31
497.094	700.31
497.312	695.31
497.529	721.31
497.746	737.31
497.963	751.31
498.181	758.31
498.398	794.31
498.615	795.31
498.832	835.31
499.049	831.31
499.267	893.31
499.484	950.31
499.701	984.31
499.918	1053.31
500.135	1097.31
500.352	1200.31
500.569	1210.31
500.786	1241.31
501.003	1222.31
501.22	1144.31
501.437	1077.31
501.654	1028.31
