Data from 1973.PennyLincolnUp.Lamp.En5.5.200Scan.071719.P1.Changed Mount._HRD10591_15-43-30-851.txt Node
Date: Thu Jul 18 15:43:30 EDT 2019
User: cochatt
Spectrometer: HR+D1059
Trigger mode: 1
Integration Time (sec): 1.000000E-1
Scans to average: 1
Electric dark correction enabled: true
Nonlinearity correction enabled: false
Boxcar width: 0
XAxis mode: Wavelengths
Number of Pixels in Spectrum: 2048
>>>>>Begin Spectral Data<<<<<
223.165	-26.19
223.4	-26.19
223.635	-26.19
223.869	-15.19
224.104	-12.19
224.338	-12.19
224.573	2.81
224.808	-7.19
225.042	-18.19
225.277	-5.19
225.511	3.81
225.746	4.81
225.98	-1.19
226.215	9.81
226.449	6.81
226.683	21.81
226.918	20.81
227.152	26.81
227.387	44.81
227.621	27.81
227.856	35.81
228.09	51.81
228.324	46.81
228.559	49.81
228.793	66.81
229.027	103.81
229.262	96.81
229.496	123.81
229.73	117.81
229.964	144.81
230.199	116.81
230.433	99.81
230.667	110.81
230.901	116.81
231.136	112.81
231.37	120.81
231.604	117.81
231.838	99.81
232.072	107.81
232.306	117.81
232.541	128.81
232.775	119.81
233.009	119.81
233.243	116.81
233.477	117.81
233.711	122.81
233.945	119.81
234.179	127.81
234.413	117.81
234.647	123.81
234.881	111.81
235.115	113.81
235.349	141.81
235.583	131.81
235.817	127.81
236.051	122.81
236.285	127.81
236.519	108.81
236.753	126.81
236.987	124.81
237.221	172.81
237.455	186.81
237.689	171.81
237.922	158.81
238.156	137.81
238.39	131.81
238.624	124.81
238.858	129.81
239.091	142.81
239.325	129.81
239.559	136.81
239.793	135.81
240.027	145.81
240.26	137.81
240.494	158.81
240.728	155.81
240.961	156.81
241.195	152.81
241.429	131.81
241.662	149.81
241.896	147.81
242.13	155.81
242.363	152.81
242.597	142.81
242.83	140.81
243.064	155.81
243.298	148.81
243.531	138.81
243.765	147.81
243.998	138.81
244.232	142.81
244.465	135.81
244.699	163.81
244.932	150.81
245.166	150.81
245.399	154.81
245.633	163.81
245.866	160.81
246.099	169.81
246.333	159.81
246.566	155.81
246.8	155.81
247.033	168.81
247.266	167.81
247.5	168.81
247.733	176.81
247.966	175.81
248.2	182.81
248.433	180.81
248.666	184.81
248.899	189.81
249.133	181.81
249.366	193.81
249.599	193.81
249.832	174.81
250.066	199.81
250.299	200.81
250.532	191.81
250.765	197.81
250.998	211.81
251.231	222.81
251.465	212.81
251.698	215.81
251.931	212.81
252.164	193.81
252.397	200.81
252.63	207.81
252.863	214.81
253.096	204.81
253.329	209.81
253.562	208.81
253.795	197.81
254.028	203.81
254.261	219.81
254.494	227.81
254.727	238.81
254.96	254.81
255.193	247.81
255.426	256.81
255.659	234.81
255.892	225.81
256.124	213.81
256.357	216.81
256.59	220.81
256.823	215.81
257.056	210.81
257.289	219.81
257.521	225.81
257.754	219.81
257.987	220.81
258.22	219.81
258.452	213.81
258.685	220.81
258.918	214.81
259.151	211.81
259.383	213.81
259.616	225.81
259.849	227.81
260.081	240.81
260.314	239.81
260.547	243.81
260.779	251.81
261.012	221.81
261.244	218.81
261.477	217.81
261.71	223.81
261.942	227.81
262.175	223.81
262.407	236.81
262.64	217.81
262.872	222.81
263.105	220.81
263.337	232.81
263.57	227.81
263.802	232.81
264.035	211.81
264.267	213.81
264.499	245.81
264.732	233.81
264.964	246.81
265.197	236.81
265.429	237.81
265.661	231.81
265.894	233.81
266.126	246.81
266.358	227.81
266.591	253.81
266.823	235.81
267.055	237.81
267.287	244.81
267.52	230.81
267.752	238.81
267.984	236.81
268.216	245.81
268.448	250.81
268.681	250.81
268.913	249.81
269.145	275.81
269.377	258.81
269.609	259.81
269.841	265.81
270.073	279.81
270.306	279.81
270.538	316.81
270.77	299.81
271.002	298.81
271.234	279.81
271.466	300.81
271.698	300.81
271.93	307.81
272.162	309.81
272.394	300.81
272.626	307.81
272.858	295.81
273.09	277.81
273.322	266.81
273.553	273.81
273.785	273.81
274.017	271.81
274.249	299.81
274.481	303.81
274.713	280.81
274.945	263.81
275.176	283.81
275.408	291.81
275.64	276.81
275.872	274.81
276.104	274.81
276.335	294.81
276.567	282.81
276.799	300.81
277.031	297.81
277.262	303.81
277.494	318.81
277.726	296.81
277.957	291.81
278.189	276.81
278.421	290.81
278.652	291.81
278.884	299.81
279.115	269.81
279.347	287.81
279.579	285.81
279.81	283.81
280.042	271.81
280.273	287.81
280.505	290.81
280.736	288.81
280.968	285.81
281.199	287.81
281.431	302.81
281.662	302.81
281.894	285.81
282.125	293.81
282.356	308.81
282.588	307.81
282.819	330.81
283.051	301.81
283.282	317.81
283.513	317.81
283.745	302.81
283.976	316.81
284.207	311.81
284.439	323.81
284.67	309.81
284.901	308.81
285.132	292.81
285.364	292.81
285.595	308.81
285.826	295.81
286.057	296.81
286.288	321.81
286.52	308.81
286.751	292.81
286.982	316.81
287.213	318.81
287.444	311.81
287.675	319.81
287.906	321.81
288.138	335.81
288.369	316.81
288.6	311.81
288.831	331.81
289.062	343.81
289.293	312.81
289.524	317.81
289.755	304.81
289.986	325.81
290.217	321.81
290.448	305.81
290.679	336.81
290.91	315.81
291.141	345.81
291.371	329.81
291.602	327.81
291.833	312.81
292.064	320.81
292.295	325.81
292.526	325.81
292.757	346.81
292.987	322.81
293.218	324.81
293.449	339.81
293.68	340.81
293.91	322.81
294.141	338.81
294.372	325.81
294.603	331.81
294.833	326.81
295.064	326.81
295.295	338.81
295.525	336.81
295.756	342.81
295.987	352.81
296.217	346.81
296.448	350.81
296.679	354.81
296.909	335.81
297.14	348.81
297.37	342.81
297.601	344.81
297.831	350.81
298.062	337.81
298.292	357.81
298.523	351.81
298.753	355.81
298.984	352.81
299.214	334.81
299.445	348.81
299.675	349.81
299.905	337.81
300.136	353.81
300.366	349.81
300.597	360.81
300.827	336.81
301.057	366.81
301.288	349.81
301.518	358.81
301.748	374.81
301.979	368.81
302.209	371.81
302.439	361.81
302.669	378.81
302.9	387.81
303.13	356.81
303.36	381.81
303.59	383.81
303.82	369.81
304.051	393.81
304.281	383.81
304.511	365.81
304.741	387.81
304.971	366.81
305.201	367.81
305.431	353.81
305.661	365.81
305.891	371.81
306.121	383.81
306.352	380.81
306.582	367.81
306.812	374.81
307.042	355.81
307.272	366.81
307.502	356.81
307.731	354.81
307.961	366.81
308.191	379.81
308.421	379.81
308.651	372.81
308.881	387.81
309.111	371.81
309.341	372.81
309.571	386.81
309.8	391.81
310.03	381.81
310.26	393.81
310.49	380.81
310.72	404.81
310.949	402.81
311.179	381.81
311.409	392.81
311.639	417.81
311.868	397.81
312.098	378.81
312.328	406.81
312.557	397.81
312.787	410.81
313.017	407.81
313.246	405.81
313.476	414.81
313.706	415.81
313.935	407.81
314.165	408.81
314.394	407.81
314.624	396.81
314.853	405.81
315.083	399.81
315.312	407.81
315.542	403.81
315.771	394.81
316.001	392.81
316.23	406.81
316.46	384.81
316.689	400.81
316.919	402.81
317.148	397.81
317.377	431.81
317.607	405.81
317.836	411.81
318.065	408.81
318.295	417.81
318.524	407.81
318.753	414.81
318.983	398.81
319.212	404.81
319.441	405.81
319.67	397.81
319.9	401.81
320.129	416.81
320.358	423.81
320.587	429.81
320.816	405.81
321.046	425.81
321.275	409.81
321.504	423.81
321.733	422.81
321.962	437.81
322.191	441.81
322.42	428.81
322.649	428.81
322.878	442.81
323.108	453.81
323.337	445.81
323.566	468.81
323.795	465.81
324.024	489.81
324.253	544.81
324.482	665.81
324.71	950.81
324.939	1292.81
325.168	1168.81
325.397	652.81
325.626	522.81
325.855	465.81
326.084	463.81
326.313	472.81
326.542	469.81
326.77	502.81
326.999	527.81
327.228	628.81
327.457	877.81
327.686	1040.81
327.914	755.81
328.143	570.81
328.372	528.81
328.6	507.81
328.829	491.81
329.058	495.81
329.287	505.81
329.515	507.81
329.744	486.81
329.972	476.81
330.201	503.81
330.43	498.81
330.658	510.81
330.887	537.81
331.115	527.81
331.344	507.81
331.572	489.81
331.801	497.81
332.03	494.81
332.258	507.81
332.486	483.81
332.715	485.81
332.943	494.81
333.172	513.81
333.4	523.81
333.629	520.81
333.857	544.81
334.085	520.81
334.314	543.81
334.542	535.81
334.771	553.81
334.999	512.81
335.227	541.81
335.455	533.81
335.684	516.81
335.912	511.81
336.14	521.81
336.369	509.81
336.597	513.81
336.825	489.81
337.053	513.81
337.281	498.81
337.51	485.81
337.738	480.81
337.966	453.81
338.194	498.81
338.422	495.81
338.65	487.81
338.878	484.81
339.106	503.81
339.334	492.81
339.562	480.81
339.79	483.81
340.018	445.81
340.246	461.81
340.474	473.81
340.702	469.81
340.93	507.81
341.158	475.81
341.386	467.81
341.614	454.81
341.842	479.81
342.07	464.81
342.298	459.81
342.526	445.81
342.754	444.81
342.981	468.81
343.209	479.81
343.437	481.81
343.665	512.81
343.893	488.81
344.12	524.81
344.348	492.81
344.576	485.81
344.804	510.81
345.031	496.81
345.259	492.81
345.487	503.81
345.714	467.81
345.942	462.81
346.17	455.81
346.397	471.81
346.625	449.81
346.853	466.81
347.08	449.81
347.308	439.81
347.535	448.81
347.763	455.81
347.99	465.81
348.218	472.81
348.445	453.81
348.673	458.81
348.9	452.81
349.128	443.81
349.355	426.81
349.583	451.81
349.81	466.81
350.037	449.81
350.265	450.81
350.492	455.81
350.72	454.81
350.947	442.81
351.174	465.81
351.402	461.81
351.629	469.81
351.856	460.81
352.083	459.81
352.311	442.81
352.538	442.81
352.765	470.81
352.992	465.81
353.22	439.81
353.447	439.81
353.674	454.81
353.901	447.81
354.128	458.81
354.355	456.81
354.583	459.81
354.81	445.81
355.037	439.81
355.264	415.81
355.491	437.81
355.718	424.81
355.945	445.81
356.172	434.81
356.399	444.81
356.626	446.81
356.853	465.81
357.08	468.81
357.307	455.81
357.534	433.81
357.761	451.81
357.988	453.81
358.215	431.81
358.441	444.81
358.668	455.81
358.895	453.81
359.122	474.81
359.349	451.81
359.576	463.81
359.802	471.81
360.029	481.81
360.256	479.81
360.483	493.81
360.709	465.81
360.936	454.81
361.163	472.81
361.39	447.81
361.616	466.81
361.843	448.81
362.07	456.81
362.296	441.81
362.523	461.81
362.749	456.81
362.976	441.81
363.203	446.81
363.429	448.81
363.656	457.81
363.882	420.81
364.109	447.81
364.335	453.81
364.562	467.81
364.788	451.81
365.015	459.81
365.241	445.81
365.468	466.81
365.694	467.81
365.92	462.81
366.147	469.81
366.373	466.81
366.599	453.81
366.826	456.81
367.052	454.81
367.278	449.81
367.505	454.81
367.731	456.81
367.957	454.81
368.184	468.81
368.41	472.81
368.636	465.81
368.862	474.81
369.089	469.81
369.315	467.81
369.541	441.81
369.767	457.81
369.993	457.81
370.219	477.81
370.445	483.81
370.672	482.81
370.898	467.81
371.124	459.81
371.35	461.81
371.576	485.81
371.802	482.81
372.028	485.81
372.254	479.81
372.48	473.81
372.706	493.81
372.932	454.81
373.158	472.81
373.384	477.81
373.61	485.81
373.835	474.81
374.061	490.81
374.287	475.81
374.513	469.81
374.739	506.81
374.965	477.81
375.191	493.81
375.416	490.81
375.642	486.81
375.868	500.81
376.094	488.81
376.319	471.81
376.545	473.81
376.771	478.81
376.997	476.81
377.222	471.81
377.448	457.81
377.674	496.81
377.899	488.81
378.125	456.81
378.35	476.81
378.576	462.81
378.802	447.81
379.027	481.81
379.253	490.81
379.478	488.81
379.704	472.81
379.929	462.81
380.155	462.81
380.38	510.81
380.606	491.81
380.831	487.81
381.057	501.81
381.282	483.81
381.507	507.81
381.733	482.81
381.958	478.81
382.184	499.81
382.409	487.81
382.634	501.81
382.86	494.81
383.085	494.81
383.31	524.81
383.535	488.81
383.761	502.81
383.986	522.81
384.211	531.81
384.436	517.81
384.662	505.81
384.887	553.81
385.112	543.81
385.337	563.81
385.562	551.81
385.787	552.81
386.013	566.81
386.238	565.81
386.463	549.81
386.688	564.81
386.913	547.81
387.138	540.81
387.363	566.81
387.588	514.81
387.813	545.81
388.038	546.81
388.263	565.81
388.488	565.81
388.713	566.81
388.938	527.81
389.163	532.81
389.387	537.81
389.612	541.81
389.837	539.81
390.062	531.81
390.287	513.81
390.512	558.81
390.736	563.81
390.961	540.81
391.186	555.81
391.411	574.81
391.636	571.81
391.86	558.81
392.085	600.81
392.31	583.81
392.534	584.81
392.759	561.81
392.984	581.81
393.208	565.81
393.433	579.81
393.658	581.81
393.882	551.81
394.107	569.81
394.331	568.81
394.556	548.81
394.78	571.81
395.005	569.81
395.229	543.81
395.454	588.81
395.678	590.81
395.903	601.81
396.127	577.81
396.352	589.81
396.576	600.81
396.801	587.81
397.025	596.81
397.249	603.81
397.474	624.81
397.698	596.81
397.922	634.81
398.147	622.81
398.371	616.81
398.595	613.81
398.82	621.81
399.044	646.81
399.268	680.81
399.492	732.81
399.717	821.81
399.941	836.81
400.165	822.81
400.389	798.81
400.613	713.81
400.837	703.81
401.062	684.81
401.286	652.81
401.51	647.81
401.734	647.81
401.958	639.81
402.182	654.81
402.406	650.81
402.63	653.81
402.854	651.81
403.078	656.81
403.302	666.81
403.526	663.81
403.75	695.81
403.974	704.81
404.198	667.81
404.422	696.81
404.645	712.81
404.869	678.81
405.093	687.81
405.317	736.81
405.541	752.81
405.765	704.81
405.988	693.81
406.212	685.81
406.436	686.81
406.66	700.81
406.883	706.81
407.107	781.81
407.331	791.81
407.555	878.81
407.778	885.81
408.002	817.81
408.226	769.81
408.449	765.81
408.673	727.81
408.896	736.81
409.12	764.81
409.344	759.81
409.567	675.81
409.791	671.81
410.014	684.81
410.238	654.81
410.461	673.81
410.685	677.81
410.908	671.81
411.132	696.81
411.355	733.81
411.578	697.81
411.802	653.81
412.025	665.81
412.249	655.81
412.472	683.81
412.695	719.81
412.919	695.81
413.142	667.81
413.365	651.81
413.589	659.81
413.812	652.81
414.035	660.81
414.258	656.81
414.482	651.81
414.705	643.81
414.928	641.81
415.151	647.81
415.374	640.81
415.597	642.81
415.821	629.81
416.044	628.81
416.267	619.81
416.49	625.81
416.713	629.81
416.936	663.81
417.159	622.81
417.382	637.81
417.605	653.81
417.828	666.81
418.051	630.81
418.274	621.81
418.497	635.81
418.72	624.81
418.943	647.81
419.166	673.81
419.389	697.81
419.611	695.81
419.834	692.81
420.057	663.81
420.28	653.81
420.503	651.81
420.726	635.81
420.948	620.81
421.171	662.81
421.394	693.81
421.617	661.81
421.839	641.81
422.062	645.81
422.285	668.81
422.507	699.81
422.73	798.81
422.953	773.81
423.175	681.81
423.398	677.81
423.621	686.81
423.843	709.81
424.066	706.81
424.288	705.81
424.511	685.81
424.733	735.81
424.956	784.81
425.178	762.81
425.401	748.81
425.623	786.81
425.846	676.81
426.068	674.81
426.291	662.81
426.513	643.81
426.735	668.81
426.958	665.81
427.18	735.81
427.402	886.81
427.625	941.81
427.847	809.81
428.069	694.81
428.292	669.81
428.514	650.81
428.736	633.81
428.958	601.81
429.181	611.81
429.403	603.81
429.625	620.81
429.847	649.81
430.069	709.81
430.292	701.81
430.514	630.81
430.736	589.81
430.958	601.81
431.18	606.81
431.402	620.81
431.624	603.81
431.846	597.81
432.068	597.81
432.29	590.81
432.512	624.81
432.734	615.81
432.956	590.81
433.178	610.81
433.4	613.81
433.622	594.81
433.844	597.81
434.066	593.81
434.287	609.81
434.509	593.81
434.731	619.81
434.953	635.81
435.175	645.81
435.397	664.81
435.618	661.81
435.84	689.81
436.062	739.81
436.284	831.81
436.505	713.81
436.727	670.81
436.949	629.81
437.17	587.81
437.392	593.81
437.614	600.81
437.835	623.81
438.057	690.81
438.278	791.81
438.5	762.81
438.721	849.81
438.943	807.81
439.165	685.81
439.386	654.81
439.608	630.81
439.829	659.81
440.05	645.81
440.272	677.81
440.493	648.81
440.715	630.81
440.936	609.81
441.158	631.81
441.379	611.81
441.6	661.81
441.822	672.81
442.043	677.81
442.264	720.81
442.486	808.81
442.707	683.81
442.928	664.81
443.149	679.81
443.371	681.81
443.592	731.81
443.813	789.81
444.034	847.81
444.255	751.81
444.476	721.81
444.698	703.81
444.919	707.81
445.14	788.81
445.361	736.81
445.582	711.81
445.803	744.81
446.024	783.81
446.245	827.81
446.466	774.81
446.687	661.81
446.908	647.81
447.129	619.81
447.35	591.81
447.571	607.81
447.792	605.81
448.013	605.81
448.234	630.81
448.455	631.81
448.675	719.81
448.896	814.81
449.117	723.81
449.338	675.81
449.559	783.81
449.779	874.81
450	701.81
450.221	612.81
450.442	581.81
450.662	564.81
450.883	580.81
451.104	573.81
451.324	545.81
451.545	555.81
451.766	549.81
451.986	525.81
452.207	540.81
452.428	550.81
452.648	545.81
452.869	531.81
453.089	525.81
453.31	547.81
453.53	552.81
453.751	554.81
453.971	549.81
454.192	554.81
454.412	538.81
454.633	532.81
454.853	521.81
455.073	525.81
455.294	543.81
455.514	577.81
455.734	603.81
455.955	552.81
456.175	521.81
456.395	524.81
456.616	526.81
456.836	534.81
457.056	514.81
457.276	521.81
457.497	527.81
457.717	511.81
457.937	522.81
458.157	525.81
458.377	546.81
458.598	556.81
458.818	593.81
459.038	638.81
459.258	655.81
459.478	623.81
459.698	610.81
459.918	581.81
460.138	612.81
460.358	640.81
460.578	655.81
460.798	647.81
461.018	646.81
461.238	644.81
461.458	641.81
461.678	657.81
461.898	660.81
462.118	663.81
462.338	664.81
462.558	673.81
462.777	708.81
462.997	750.81
463.217	772.81
463.437	783.81
463.657	741.81
463.876	714.81
464.096	710.81
464.316	701.81
464.536	705.81
464.755	721.81
464.975	676.81
465.195	704.81
465.414	669.81
465.634	656.81
465.854	631.81
466.073	619.81
466.293	588.81
466.512	569.81
466.732	589.81
466.951	589.81
467.171	607.81
467.391	579.81
467.61	580.81
467.829	580.81
468.049	574.81
468.268	568.81
468.488	567.81
468.707	539.81
468.927	571.81
469.146	581.81
469.365	561.81
469.585	555.81
469.804	583.81
470.023	601.81
470.243	584.81
470.462	593.81
470.681	594.81
470.901	608.81
471.12	607.81
471.339	599.81
471.558	614.81
471.777	589.81
471.997	585.81
472.216	571.81
472.435	571.81
472.654	579.81
472.873	570.81
473.092	564.81
473.311	584.81
473.53	573.81
473.749	557.81
473.968	587.81
474.187	688.81
474.406	695.81
474.625	606.81
474.844	589.81
475.063	606.81
475.282	565.81
475.501	566.81
475.72	575.81
475.939	584.81
476.158	572.81
476.377	583.81
476.596	606.81
476.814	623.81
477.033	614.81
477.252	614.81
477.471	624.81
477.69	618.81
477.908	651.81
478.127	657.81
478.346	670.81
478.564	653.81
478.783	661.81
479.002	681.81
479.22	684.81
479.439	664.81
479.658	705.81
479.876	685.81
480.095	706.81
480.313	713.81
480.532	744.81
480.751	753.81
480.969	734.81
481.188	724.81
481.406	744.81
481.624	694.81
481.843	657.81
482.061	669.81
482.28	676.81
482.498	661.81
482.717	666.81
482.935	671.81
483.153	681.81
483.372	681.81
483.59	696.81
483.808	669.81
484.027	663.81
484.245	666.81
484.463	677.81
484.681	698.81
484.9	691.81
485.118	678.81
485.336	692.81
485.554	693.81
485.772	692.81
485.99	681.81
486.209	685.81
486.427	716.81
486.645	677.81
486.863	729.81
487.081	723.81
487.299	698.81
487.517	717.81
487.735	708.81
487.953	721.81
488.171	715.81
488.389	725.81
488.607	720.81
488.825	731.81
489.043	728.81
489.261	715.81
489.479	755.81
489.696	735.81
489.914	727.81
490.132	728.81
490.35	751.81
490.568	755.81
490.786	798.81
491.003	749.81
491.221	768.81
491.439	761.81
491.657	791.81
491.874	815.81
492.092	783.81
492.31	813.81
492.527	797.81
492.745	796.81
492.963	807.81
493.18	812.81
493.398	837.81
493.615	827.81
493.833	826.81
494.05	804.81
494.268	837.81
494.485	822.81
494.703	811.81
494.92	823.81
495.138	835.81
495.355	842.81
495.573	840.81
495.79	850.81
496.008	853.81
496.225	845.81
496.442	826.81
496.66	844.81
496.877	851.81
497.094	855.81
497.312	903.81
497.529	864.81
497.746	894.81
497.963	911.81
498.181	952.81
498.398	971.81
498.615	979.81
498.832	1002.81
499.049	1084.81
499.267	1125.81
499.484	1194.81
499.701	1231.81
499.918	1331.81
500.135	1449.81
500.352	1511.81
500.569	1525.81
500.786	1563.81
501.003	1541.81
501.22	1411.81
501.437	1333.81
501.654	1263.81
