Data from 1973.PennyLincolnUp.Lamp.En5.5.200Scan.071719.P1.Changed Mount._HRD10591_15-44-41-852.txt Node
Date: Thu Jul 18 15:44:41 EDT 2019
User: cochatt
Spectrometer: HR+D1059
Trigger mode: 1
Integration Time (sec): 1.000000E-1
Scans to average: 1
Electric dark correction enabled: true
Nonlinearity correction enabled: false
Boxcar width: 0
XAxis mode: Wavelengths
Number of Pixels in Spectrum: 2048
>>>>>Begin Spectral Data<<<<<
223.165	-17.19
223.4	-17.19
223.635	-17.19
223.869	-13.19
224.104	-25.19
224.338	-16.19
224.573	-14.19
224.808	-10.19
225.042	-12.19
225.277	2.81
225.511	11.81
225.746	1.81
225.98	7.81
226.215	2.81
226.449	12.81
226.683	32.81
226.918	8.81
227.152	26.81
227.387	36.81
227.621	42.81
227.856	25.81
228.09	49.81
228.324	58.81
228.559	49.81
228.793	68.81
229.027	97.81
229.262	90.81
229.496	100.81
229.73	113.81
229.964	135.81
230.199	129.81
230.433	111.81
230.667	117.81
230.901	123.81
231.136	106.81
231.37	118.81
231.604	111.81
231.838	101.81
232.072	105.81
232.306	105.81
232.541	122.81
232.775	117.81
233.009	119.81
233.243	104.81
233.477	113.81
233.711	122.81
233.945	114.81
234.179	116.81
234.413	107.81
234.647	108.81
234.881	108.81
235.115	104.81
235.349	122.81
235.583	135.81
235.817	125.81
236.051	129.81
236.285	129.81
236.519	135.81
236.753	122.81
236.987	153.81
237.221	165.81
237.455	212.81
237.689	169.81
237.922	135.81
238.156	131.81
238.39	123.81
238.624	135.81
238.858	122.81
239.091	120.81
239.325	118.81
239.559	136.81
239.793	132.81
240.027	132.81
240.26	136.81
240.494	152.81
240.728	150.81
240.961	141.81
241.195	145.81
241.429	142.81
241.662	136.81
241.896	142.81
242.13	121.81
242.363	134.81
242.597	137.81
242.83	140.81
243.064	142.81
243.298	143.81
243.531	152.81
243.765	148.81
243.998	141.81
244.232	133.81
244.465	140.81
244.699	151.81
244.932	157.81
245.166	152.81
245.399	145.81
245.633	149.81
245.866	153.81
246.099	161.81
246.333	151.81
246.566	138.81
246.8	155.81
247.033	161.81
247.266	159.81
247.5	153.81
247.733	157.81
247.966	167.81
248.2	147.81
248.433	186.81
248.666	170.81
248.899	184.81
249.133	179.81
249.366	194.81
249.599	189.81
249.832	172.81
250.066	189.81
250.299	189.81
250.532	173.81
250.765	188.81
250.998	224.81
251.231	228.81
251.465	210.81
251.698	205.81
251.931	208.81
252.164	213.81
252.397	191.81
252.63	191.81
252.863	198.81
253.096	201.81
253.329	227.81
253.562	218.81
253.795	218.81
254.028	216.81
254.261	207.81
254.494	219.81
254.727	258.81
254.96	267.81
255.193	258.81
255.426	228.81
255.659	217.81
255.892	225.81
256.124	232.81
256.357	239.81
256.59	217.81
256.823	217.81
257.056	206.81
257.289	204.81
257.521	213.81
257.754	218.81
257.987	192.81
258.22	213.81
258.452	223.81
258.685	216.81
258.918	223.81
259.151	218.81
259.383	217.81
259.616	209.81
259.849	235.81
260.081	240.81
260.314	252.81
260.547	247.81
260.779	226.81
261.012	234.81
261.244	240.81
261.477	231.81
261.71	231.81
261.942	220.81
262.175	236.81
262.407	236.81
262.64	216.81
262.872	229.81
263.105	220.81
263.337	227.81
263.57	221.81
263.802	206.81
264.035	211.81
264.267	205.81
264.499	215.81
264.732	209.81
264.964	217.81
265.197	223.81
265.429	231.81
265.661	218.81
265.894	227.81
266.126	239.81
266.358	222.81
266.591	219.81
266.823	224.81
267.055	231.81
267.287	244.81
267.52	235.81
267.752	243.81
267.984	253.81
268.216	260.81
268.448	256.81
268.681	239.81
268.913	259.81
269.145	268.81
269.377	281.81
269.609	291.81
269.841	276.81
270.073	274.81
270.306	281.81
270.538	317.81
270.77	307.81
271.002	307.81
271.234	282.81
271.466	285.81
271.698	299.81
271.93	306.81
272.162	328.81
272.394	327.81
272.626	314.81
272.858	286.81
273.09	293.81
273.322	281.81
273.553	275.81
273.785	287.81
274.017	278.81
274.249	277.81
274.481	281.81
274.713	272.81
274.945	275.81
275.176	269.81
275.408	269.81
275.64	275.81
275.872	280.81
276.104	276.81
276.335	283.81
276.567	281.81
276.799	304.81
277.031	320.81
277.262	322.81
277.494	303.81
277.726	314.81
277.957	283.81
278.189	270.81
278.421	268.81
278.652	287.81
278.884	277.81
279.115	281.81
279.347	285.81
279.579	286.81
279.81	298.81
280.042	304.81
280.273	285.81
280.505	278.81
280.736	281.81
280.968	280.81
281.199	278.81
281.431	285.81
281.662	299.81
281.894	293.81
282.125	287.81
282.356	297.81
282.588	304.81
282.819	318.81
283.051	296.81
283.282	285.81
283.513	288.81
283.745	296.81
283.976	293.81
284.207	305.81
284.439	289.81
284.67	293.81
284.901	299.81
285.132	298.81
285.364	294.81
285.595	300.81
285.826	299.81
286.057	307.81
286.288	322.81
286.52	323.81
286.751	293.81
286.982	300.81
287.213	289.81
287.444	314.81
287.675	311.81
287.906	317.81
288.138	334.81
288.369	335.81
288.6	341.81
288.831	326.81
289.062	317.81
289.293	309.81
289.524	297.81
289.755	313.81
289.986	310.81
290.217	318.81
290.448	311.81
290.679	301.81
290.91	325.81
291.141	315.81
291.371	311.81
291.602	300.81
291.833	323.81
292.064	314.81
292.295	326.81
292.526	299.81
292.757	329.81
292.987	313.81
293.218	321.81
293.449	316.81
293.68	313.81
293.91	307.81
294.141	324.81
294.372	331.81
294.603	310.81
294.833	311.81
295.064	316.81
295.295	326.81
295.525	330.81
295.756	334.81
295.987	323.81
296.217	339.81
296.448	344.81
296.679	330.81
296.909	312.81
297.14	313.81
297.37	337.81
297.601	345.81
297.831	332.81
298.062	343.81
298.292	345.81
298.523	345.81
298.753	348.81
298.984	332.81
299.214	349.81
299.445	329.81
299.675	323.81
299.905	364.81
300.136	340.81
300.366	346.81
300.597	349.81
300.827	346.81
301.057	348.81
301.288	352.81
301.518	351.81
301.748	353.81
301.979	371.81
302.209	342.81
302.439	360.81
302.669	348.81
302.9	351.81
303.13	360.81
303.36	360.81
303.59	355.81
303.82	359.81
304.051	372.81
304.281	359.81
304.511	381.81
304.741	381.81
304.971	359.81
305.201	358.81
305.431	361.81
305.661	349.81
305.891	342.81
306.121	354.81
306.352	353.81
306.582	353.81
306.812	377.81
307.042	352.81
307.272	362.81
307.502	348.81
307.731	376.81
307.961	358.81
308.191	355.81
308.421	376.81
308.651	373.81
308.881	363.81
309.111	371.81
309.341	370.81
309.571	395.81
309.8	373.81
310.03	384.81
310.26	393.81
310.49	405.81
310.72	398.81
310.949	401.81
311.179	408.81
311.409	379.81
311.639	387.81
311.868	381.81
312.098	388.81
312.328	396.81
312.557	404.81
312.787	406.81
313.017	402.81
313.246	389.81
313.476	389.81
313.706	395.81
313.935	412.81
314.165	401.81
314.394	405.81
314.624	403.81
314.853	397.81
315.083	439.81
315.312	401.81
315.542	399.81
315.771	398.81
316.001	396.81
316.23	379.81
316.46	388.81
316.689	377.81
316.919	406.81
317.148	400.81
317.377	395.81
317.607	408.81
317.836	401.81
318.065	394.81
318.295	403.81
318.524	393.81
318.753	382.81
318.983	377.81
319.212	396.81
319.441	388.81
319.67	435.81
319.9	399.81
320.129	389.81
320.358	398.81
320.587	410.81
320.816	424.81
321.046	396.81
321.275	398.81
321.504	394.81
321.733	424.81
321.962	403.81
322.191	396.81
322.42	404.81
322.649	433.81
322.878	453.81
323.108	438.81
323.337	466.81
323.566	489.81
323.795	472.81
324.024	486.81
324.253	565.81
324.482	730.81
324.71	1066.81
324.939	1517.81
325.168	1332.81
325.397	751.81
325.626	535.81
325.855	485.81
326.084	490.81
326.313	431.81
326.542	476.81
326.77	506.81
326.999	567.81
327.228	701.81
327.457	979.81
327.686	1159.81
327.914	831.81
328.143	600.81
328.372	545.81
328.6	537.81
328.829	531.81
329.058	534.81
329.287	530.81
329.515	502.81
329.744	480.81
329.972	489.81
330.201	501.81
330.43	531.81
330.658	533.81
330.887	532.81
331.115	545.81
331.344	502.81
331.572	500.81
331.801	493.81
332.03	489.81
332.258	499.81
332.486	491.81
332.715	467.81
332.943	503.81
333.172	510.81
333.4	517.81
333.629	533.81
333.857	540.81
334.085	535.81
334.314	540.81
334.542	555.81
334.771	546.81
334.999	529.81
335.227	498.81
335.455	511.81
335.684	496.81
335.912	477.81
336.14	475.81
336.369	464.81
336.597	496.81
336.825	490.81
337.053	481.81
337.281	453.81
337.51	479.81
337.738	475.81
337.966	467.81
338.194	465.81
338.422	479.81
338.65	449.81
338.878	458.81
339.106	451.81
339.334	455.81
339.562	455.81
339.79	467.81
340.018	456.81
340.246	445.81
340.474	461.81
340.702	470.81
340.93	456.81
341.158	441.81
341.386	459.81
341.614	432.81
341.842	433.81
342.07	454.81
342.298	441.81
342.526	444.81
342.754	419.81
342.981	444.81
343.209	433.81
343.437	452.81
343.665	467.81
343.893	468.81
344.12	488.81
344.348	495.81
344.576	483.81
344.804	451.81
345.031	443.81
345.259	458.81
345.487	461.81
345.714	450.81
345.942	440.81
346.17	422.81
346.397	424.81
346.625	433.81
346.853	424.81
347.08	445.81
347.308	424.81
347.535	417.81
347.763	440.81
347.99	449.81
348.218	437.81
348.445	434.81
348.673	437.81
348.9	427.81
349.128	424.81
349.355	416.81
349.583	412.81
349.81	417.81
350.037	423.81
350.265	406.81
350.492	433.81
350.72	408.81
350.947	412.81
351.174	423.81
351.402	420.81
351.629	411.81
351.856	416.81
352.083	422.81
352.311	426.81
352.538	428.81
352.765	419.81
352.992	438.81
353.22	425.81
353.447	419.81
353.674	404.81
353.901	401.81
354.128	403.81
354.355	413.81
354.583	423.81
354.81	399.81
355.037	397.81
355.264	412.81
355.491	395.81
355.718	401.81
355.945	396.81
356.172	421.81
356.399	415.81
356.626	404.81
356.853	405.81
357.08	434.81
357.307	418.81
357.534	399.81
357.761	414.81
357.988	422.81
358.215	409.81
358.441	411.81
358.668	415.81
358.895	398.81
359.122	418.81
359.349	431.81
359.576	433.81
359.802	441.81
360.029	440.81
360.256	449.81
360.483	445.81
360.709	417.81
360.936	414.81
361.163	435.81
361.39	423.81
361.616	423.81
361.843	420.81
362.07	393.81
362.296	421.81
362.523	421.81
362.749	416.81
362.976	422.81
363.203	424.81
363.429	420.81
363.656	417.81
363.882	416.81
364.109	423.81
364.335	424.81
364.562	407.81
364.788	398.81
365.015	410.81
365.241	408.81
365.468	409.81
365.694	426.81
365.92	435.81
366.147	412.81
366.373	423.81
366.599	409.81
366.826	409.81
367.052	410.81
367.278	385.81
367.505	398.81
367.731	403.81
367.957	421.81
368.184	408.81
368.41	397.81
368.636	429.81
368.862	432.81
369.089	435.81
369.315	424.81
369.541	417.81
369.767	435.81
369.993	409.81
370.219	410.81
370.445	394.81
370.672	425.81
370.898	434.81
371.124	401.81
371.35	418.81
371.576	413.81
371.802	421.81
372.028	409.81
372.254	424.81
372.48	432.81
372.706	449.81
372.932	435.81
373.158	418.81
373.384	435.81
373.61	427.81
373.835	428.81
374.061	444.81
374.287	432.81
374.513	420.81
374.739	424.81
374.965	450.81
375.191	451.81
375.416	426.81
375.642	429.81
375.868	424.81
376.094	421.81
376.319	441.81
376.545	429.81
376.771	441.81
376.997	433.81
377.222	431.81
377.448	404.81
377.674	393.81
377.899	422.81
378.125	383.81
378.35	421.81
378.576	428.81
378.802	421.81
379.027	417.81
379.253	440.81
379.478	415.81
379.704	423.81
379.929	400.81
380.155	424.81
380.38	429.81
380.606	427.81
380.831	421.81
381.057	424.81
381.282	426.81
381.507	427.81
381.733	423.81
381.958	423.81
382.184	423.81
382.409	452.81
382.634	441.81
382.86	431.81
383.085	445.81
383.31	438.81
383.535	438.81
383.761	448.81
383.986	440.81
384.211	444.81
384.436	461.81
384.662	459.81
384.887	458.81
385.112	461.81
385.337	459.81
385.562	480.81
385.787	455.81
386.013	496.81
386.238	487.81
386.463	485.81
386.688	490.81
386.913	469.81
387.138	479.81
387.363	491.81
387.588	467.81
387.813	480.81
388.038	447.81
388.263	491.81
388.488	467.81
388.713	475.81
388.938	473.81
389.163	502.81
389.387	486.81
389.612	458.81
389.837	496.81
390.062	467.81
390.287	465.81
390.512	462.81
390.736	467.81
390.961	490.81
391.186	478.81
391.411	501.81
391.636	469.81
391.86	496.81
392.085	476.81
392.31	501.81
392.534	507.81
392.759	512.81
392.984	499.81
393.208	474.81
393.433	489.81
393.658	481.81
393.882	474.81
394.107	474.81
394.331	489.81
394.556	492.81
394.78	489.81
395.005	490.81
395.229	484.81
395.454	480.81
395.678	509.81
395.903	511.81
396.127	541.81
396.352	545.81
396.576	482.81
396.801	497.81
397.025	501.81
397.249	481.81
397.474	518.81
397.698	531.81
397.922	546.81
398.147	511.81
398.371	542.81
398.595	534.81
398.82	541.81
399.044	563.81
399.268	607.81
399.492	647.81
399.717	678.81
399.941	699.81
400.165	721.81
400.389	720.81
400.613	639.81
400.837	597.81
401.062	572.81
401.286	560.81
401.51	541.81
401.734	565.81
401.958	553.81
402.182	545.81
402.406	560.81
402.63	603.81
402.854	602.81
403.078	576.81
403.302	576.81
403.526	583.81
403.75	596.81
403.974	572.81
404.198	583.81
404.422	587.81
404.645	620.81
404.869	602.81
405.093	626.81
405.317	636.81
405.541	677.81
405.765	643.81
405.988	616.81
406.212	620.81
406.436	592.81
406.66	641.81
406.883	660.81
407.107	666.81
407.331	679.81
407.555	744.81
407.778	745.81
408.002	692.81
408.226	651.81
408.449	650.81
408.673	627.81
408.896	637.81
409.12	679.81
409.344	640.81
409.567	606.81
409.791	596.81
410.014	586.81
410.238	586.81
410.461	569.81
410.685	586.81
410.908	580.81
411.132	627.81
411.355	645.81
411.578	617.81
411.802	583.81
412.025	564.81
412.249	587.81
412.472	591.81
412.695	653.81
412.919	620.81
413.142	559.81
413.365	575.81
413.589	583.81
413.812	552.81
414.035	545.81
414.258	526.81
414.482	546.81
414.705	554.81
414.928	546.81
415.151	552.81
415.374	562.81
415.597	572.81
415.821	540.81
416.044	537.81
416.267	555.81
416.49	553.81
416.713	539.81
416.936	564.81
417.159	547.81
417.382	560.81
417.605	540.81
417.828	547.81
418.051	544.81
418.274	582.81
418.497	565.81
418.72	578.81
418.943	566.81
419.166	582.81
419.389	604.81
419.611	587.81
419.834	567.81
420.057	588.81
420.28	563.81
420.503	554.81
420.726	560.81
420.948	587.81
421.171	651.81
421.394	634.81
421.617	583.81
421.839	561.81
422.062	575.81
422.285	581.81
422.507	628.81
422.73	698.81
422.953	663.81
423.175	602.81
423.398	572.81
423.621	589.81
423.843	615.81
424.066	613.81
424.288	589.81
424.511	610.81
424.733	663.81
424.956	715.81
425.178	676.81
425.401	715.81
425.623	701.81
425.846	626.81
426.068	575.81
426.291	585.81
426.513	572.81
426.735	584.81
426.958	595.81
427.18	681.81
427.402	789.81
427.625	850.81
427.847	727.81
428.069	649.81
428.292	626.81
428.514	574.81
428.736	545.81
428.958	549.81
429.181	529.81
429.403	539.81
429.625	538.81
429.847	564.81
430.069	609.81
430.292	599.81
430.514	546.81
430.736	523.81
430.958	523.81
431.18	512.81
431.402	495.81
431.624	511.81
431.846	544.81
432.068	517.81
432.29	537.81
432.512	513.81
432.734	547.81
432.956	514.81
433.178	514.81
433.4	539.81
433.622	519.81
433.844	495.81
434.066	534.81
434.287	531.81
434.509	570.81
434.731	563.81
434.953	549.81
435.175	573.81
435.397	587.81
435.618	597.81
435.84	612.81
436.062	687.81
436.284	754.81
436.505	645.81
436.727	561.81
436.949	544.81
437.17	519.81
437.392	534.81
437.614	545.81
437.835	567.81
438.057	623.81
438.278	710.81
438.5	736.81
438.721	794.81
438.943	770.81
439.165	626.81
439.386	573.81
439.608	582.81
439.829	570.81
440.05	597.81
440.272	604.81
440.493	591.81
440.715	567.81
440.936	554.81
441.158	525.81
441.379	567.81
441.6	579.81
441.822	587.81
442.043	636.81
442.264	670.81
442.486	709.81
442.707	618.81
442.928	601.81
443.149	607.81
443.371	636.81
443.592	657.81
443.813	721.81
444.034	794.81
444.255	660.81
444.476	618.81
444.698	621.81
444.919	625.81
445.14	739.81
445.361	672.81
445.582	631.81
445.803	651.81
446.024	722.81
446.245	725.81
446.466	659.81
446.687	587.81
446.908	552.81
447.129	552.81
447.35	540.81
447.571	526.81
447.792	515.81
448.013	530.81
448.234	543.81
448.455	565.81
448.675	673.81
448.896	754.81
449.117	647.81
449.338	631.81
449.559	713.81
449.779	789.81
450	654.81
450.221	528.81
450.442	529.81
450.662	508.81
450.883	501.81
451.104	523.81
451.324	508.81
451.545	482.81
451.766	483.81
451.986	475.81
452.207	487.81
452.428	479.81
452.648	469.81
452.869	472.81
453.089	466.81
453.31	502.81
453.53	483.81
453.751	487.81
453.971	483.81
454.192	490.81
454.412	459.81
454.633	479.81
454.853	457.81
455.073	473.81
455.294	471.81
455.514	539.81
455.734	534.81
455.955	469.81
456.175	455.81
456.395	426.81
456.616	433.81
456.836	443.81
457.056	434.81
457.276	437.81
457.497	455.81
457.717	444.81
457.937	471.81
458.157	453.81
458.377	471.81
458.598	499.81
458.818	530.81
459.038	575.81
459.258	607.81
459.478	570.81
459.698	520.81
459.918	517.81
460.138	524.81
460.358	544.81
460.578	536.81
460.798	537.81
461.018	527.81
461.238	584.81
461.458	557.81
461.678	531.81
461.898	567.81
462.118	555.81
462.338	557.81
462.558	570.81
462.777	599.81
462.997	616.81
463.217	626.81
463.437	647.81
463.657	602.81
463.876	607.81
464.096	600.81
464.316	587.81
464.536	621.81
464.755	592.81
464.975	588.81
465.195	600.81
465.414	612.81
465.634	570.81
465.854	546.81
466.073	516.81
466.293	502.81
466.512	507.81
466.732	476.81
466.951	487.81
467.171	486.81
467.391	482.81
467.61	506.81
467.829	493.81
468.049	513.81
468.268	495.81
468.488	486.81
468.707	490.81
468.927	478.81
469.146	473.81
469.365	503.81
469.585	471.81
469.804	491.81
470.023	500.81
470.243	517.81
470.462	520.81
470.681	513.81
470.901	525.81
471.12	503.81
471.339	492.81
471.558	484.81
471.777	492.81
471.997	476.81
472.216	467.81
472.435	530.81
472.654	501.81
472.873	485.81
473.092	483.81
473.311	452.81
473.53	492.81
473.749	521.81
473.968	545.81
474.187	594.81
474.406	619.81
474.625	537.81
474.844	488.81
475.063	492.81
475.282	497.81
475.501	492.81
475.72	523.81
475.939	529.81
476.158	505.81
476.377	507.81
476.596	502.81
476.814	518.81
477.033	516.81
477.252	520.81
477.471	530.81
477.69	537.81
477.908	532.81
478.127	565.81
478.346	548.81
478.564	570.81
478.783	537.81
479.002	583.81
479.22	561.81
479.439	595.81
479.658	573.81
479.876	588.81
480.095	592.81
480.313	623.81
480.532	633.81
480.751	625.81
480.969	612.81
481.188	636.81
481.406	647.81
481.624	605.81
481.843	565.81
482.061	592.81
482.28	579.81
482.498	526.81
482.717	545.81
482.935	546.81
483.153	545.81
483.372	550.81
483.59	569.81
483.808	573.81
484.027	544.81
484.245	575.81
484.463	595.81
484.681	589.81
484.9	576.81
485.118	587.81
485.336	589.81
485.554	581.81
485.772	588.81
485.99	586.81
486.209	615.81
486.427	608.81
486.645	604.81
486.863	617.81
487.081	599.81
487.299	615.81
487.517	598.81
487.735	589.81
487.953	607.81
488.171	625.81
488.389	612.81
488.607	602.81
488.825	621.81
489.043	617.81
489.261	612.81
489.479	611.81
489.696	628.81
489.914	612.81
490.132	653.81
490.35	623.81
490.568	618.81
490.786	659.81
491.003	661.81
491.221	661.81
491.439	690.81
491.657	649.81
491.874	667.81
492.092	671.81
492.31	699.81
492.527	699.81
492.745	703.81
492.963	706.81
493.18	690.81
493.398	699.81
493.615	707.81
493.833	725.81
494.05	699.81
494.268	693.81
494.485	698.81
494.703	707.81
494.92	715.81
495.138	662.81
495.355	708.81
495.573	712.81
495.79	752.81
496.008	706.81
496.225	717.81
496.442	721.81
496.66	751.81
496.877	717.81
497.094	716.81
497.312	758.81
497.529	746.81
497.746	762.81
497.963	766.81
498.181	775.81
498.398	830.81
498.615	834.81
498.832	872.81
499.049	898.81
499.267	917.81
499.484	983.81
499.701	1021.81
499.918	1109.81
500.135	1155.81
500.352	1217.81
500.569	1276.81
500.786	1305.81
501.003	1219.81
501.22	1172.81
501.437	1100.81
501.654	1043.81
