Data from 1973.PennyLincolnUp.Lamp.En5.5.200Scan.071719.P1.Changed Mount._HRD10591_15-43-33-852.txt Node
Date: Thu Jul 18 15:43:33 EDT 2019
User: cochatt
Spectrometer: HR+D1059
Trigger mode: 1
Integration Time (sec): 1.000000E-1
Scans to average: 1
Electric dark correction enabled: true
Nonlinearity correction enabled: false
Boxcar width: 0
XAxis mode: Wavelengths
Number of Pixels in Spectrum: 2048
>>>>>Begin Spectral Data<<<<<
223.165	-13.06
223.4	-13.06
223.635	-13.06
223.869	-20.06
224.104	-11.06
224.338	-10.06
224.573	-17.06
224.808	-6.06
225.042	-22.06
225.277	-10.06
225.511	3.94
225.746	10.94
225.98	-4.06
226.215	9.94
226.449	8.94
226.683	11.94
226.918	31.94
227.152	35.94
227.387	29.94
227.621	44.94
227.856	44.94
228.09	52.94
228.324	44.94
228.559	54.94
228.793	60.94
229.027	92.94
229.262	85.94
229.496	97.94
229.73	110.94
229.964	123.94
230.199	123.94
230.433	113.94
230.667	95.94
230.901	109.94
231.136	102.94
231.37	104.94
231.604	114.94
231.838	112.94
232.072	116.94
232.306	97.94
232.541	105.94
232.775	114.94
233.009	107.94
233.243	116.94
233.477	116.94
233.711	117.94
233.945	119.94
234.179	118.94
234.413	113.94
234.647	102.94
234.881	114.94
235.115	103.94
235.349	121.94
235.583	106.94
235.817	101.94
236.051	122.94
236.285	117.94
236.519	105.94
236.753	130.94
236.987	125.94
237.221	137.94
237.455	182.94
237.689	140.94
237.922	128.94
238.156	116.94
238.39	116.94
238.624	119.94
238.858	113.94
239.091	122.94
239.325	116.94
239.559	119.94
239.793	130.94
240.027	128.94
240.26	116.94
240.494	140.94
240.728	136.94
240.961	138.94
241.195	132.94
241.429	124.94
241.662	132.94
241.896	123.94
242.13	126.94
242.363	114.94
242.597	122.94
242.83	114.94
243.064	125.94
243.298	126.94
243.531	124.94
243.765	129.94
243.998	129.94
244.232	127.94
244.465	129.94
244.699	143.94
244.932	148.94
245.166	147.94
245.399	134.94
245.633	125.94
245.866	150.94
246.099	140.94
246.333	149.94
246.566	151.94
246.8	147.94
247.033	141.94
247.266	143.94
247.5	150.94
247.733	164.94
247.966	155.94
248.2	149.94
248.433	149.94
248.666	170.94
248.899	160.94
249.133	156.94
249.366	184.94
249.599	180.94
249.832	163.94
250.066	176.94
250.299	173.94
250.532	172.94
250.765	187.94
250.998	208.94
251.231	209.94
251.465	193.94
251.698	176.94
251.931	193.94
252.164	181.94
252.397	184.94
252.63	204.94
252.863	190.94
253.096	185.94
253.329	188.94
253.562	184.94
253.795	203.94
254.028	193.94
254.261	183.94
254.494	195.94
254.727	211.94
254.96	236.94
255.193	223.94
255.426	221.94
255.659	201.94
255.892	195.94
256.124	184.94
256.357	206.94
256.59	200.94
256.823	209.94
257.056	199.94
257.289	188.94
257.521	200.94
257.754	187.94
257.987	193.94
258.22	201.94
258.452	198.94
258.685	182.94
258.918	188.94
259.151	212.94
259.383	199.94
259.616	188.94
259.849	202.94
260.081	213.94
260.314	234.94
260.547	220.94
260.779	212.94
261.012	205.94
261.244	203.94
261.477	212.94
261.71	196.94
261.942	208.94
262.175	206.94
262.407	211.94
262.64	216.94
262.872	208.94
263.105	196.94
263.337	206.94
263.57	192.94
263.802	196.94
264.035	212.94
264.267	212.94
264.499	208.94
264.732	217.94
264.964	209.94
265.197	206.94
265.429	198.94
265.661	216.94
265.894	193.94
266.126	223.94
266.358	224.94
266.591	226.94
266.823	213.94
267.055	220.94
267.287	242.94
267.52	215.94
267.752	203.94
267.984	220.94
268.216	224.94
268.448	216.94
268.681	234.94
268.913	229.94
269.145	252.94
269.377	245.94
269.609	233.94
269.841	245.94
270.073	256.94
270.306	256.94
270.538	265.94
270.77	289.94
271.002	288.94
271.234	270.94
271.466	262.94
271.698	264.94
271.93	299.94
272.162	285.94
272.394	276.94
272.626	270.94
272.858	256.94
273.09	244.94
273.322	246.94
273.553	252.94
273.785	259.94
274.017	259.94
274.249	243.94
274.481	245.94
274.713	244.94
274.945	256.94
275.176	238.94
275.408	253.94
275.64	269.94
275.872	251.94
276.104	257.94
276.335	260.94
276.567	264.94
276.799	272.94
277.031	265.94
277.262	284.94
277.494	304.94
277.726	278.94
277.957	278.94
278.189	274.94
278.421	261.94
278.652	245.94
278.884	263.94
279.115	272.94
279.347	257.94
279.579	244.94
279.81	260.94
280.042	260.94
280.273	260.94
280.505	264.94
280.736	241.94
280.968	271.94
281.199	278.94
281.431	263.94
281.662	269.94
281.894	265.94
282.125	279.94
282.356	274.94
282.588	294.94
282.819	293.94
283.051	269.94
283.282	272.94
283.513	270.94
283.745	270.94
283.976	281.94
284.207	288.94
284.439	276.94
284.67	288.94
284.901	268.94
285.132	306.94
285.364	285.94
285.595	290.94
285.826	271.94
286.057	282.94
286.288	288.94
286.52	286.94
286.751	288.94
286.982	308.94
287.213	297.94
287.444	280.94
287.675	299.94
287.906	271.94
288.138	289.94
288.369	303.94
288.6	276.94
288.831	284.94
289.062	298.94
289.293	297.94
289.524	302.94
289.755	286.94
289.986	285.94
290.217	292.94
290.448	298.94
290.679	309.94
290.91	293.94
291.141	292.94
291.371	296.94
291.602	306.94
291.833	277.94
292.064	294.94
292.295	289.94
292.526	312.94
292.757	288.94
292.987	299.94
293.218	288.94
293.449	292.94
293.68	284.94
293.91	280.94
294.141	296.94
294.372	308.94
294.603	289.94
294.833	286.94
295.064	307.94
295.295	283.94
295.525	304.94
295.756	300.94
295.987	315.94
296.217	312.94
296.448	306.94
296.679	290.94
296.909	292.94
297.14	305.94
297.37	309.94
297.601	308.94
297.831	303.94
298.062	313.94
298.292	310.94
298.523	325.94
298.753	332.94
298.984	291.94
299.214	316.94
299.445	318.94
299.675	320.94
299.905	323.94
300.136	316.94
300.366	311.94
300.597	316.94
300.827	314.94
301.057	314.94
301.288	316.94
301.518	327.94
301.748	339.94
301.979	334.94
302.209	324.94
302.439	323.94
302.669	328.94
302.9	330.94
303.13	333.94
303.36	321.94
303.59	326.94
303.82	330.94
304.051	331.94
304.281	332.94
304.511	347.94
304.741	327.94
304.971	334.94
305.201	352.94
305.431	326.94
305.661	352.94
305.891	318.94
306.121	322.94
306.352	329.94
306.582	332.94
306.812	314.94
307.042	334.94
307.272	316.94
307.502	317.94
307.731	320.94
307.961	328.94
308.191	340.94
308.421	341.94
308.651	307.94
308.881	329.94
309.111	334.94
309.341	337.94
309.571	342.94
309.8	339.94
310.03	330.94
310.26	355.94
310.49	355.94
310.72	360.94
310.949	376.94
311.179	365.94
311.409	354.94
311.639	357.94
311.868	356.94
312.098	349.94
312.328	350.94
312.557	347.94
312.787	355.94
313.017	363.94
313.246	381.94
313.476	352.94
313.706	372.94
313.935	350.94
314.165	374.94
314.394	341.94
314.624	371.94
314.853	348.94
315.083	368.94
315.312	375.94
315.542	350.94
315.771	353.94
316.001	372.94
316.23	358.94
316.46	357.94
316.689	359.94
316.919	362.94
317.148	370.94
317.377	354.94
317.607	362.94
317.836	364.94
318.065	354.94
318.295	353.94
318.524	362.94
318.753	355.94
318.983	360.94
319.212	340.94
319.441	355.94
319.67	352.94
319.9	387.94
320.129	372.94
320.358	369.94
320.587	349.94
320.816	362.94
321.046	362.94
321.275	370.94
321.504	373.94
321.733	387.94
321.962	372.94
322.191	354.94
322.42	390.94
322.649	381.94
322.878	406.94
323.108	384.94
323.337	393.94
323.566	409.94
323.795	430.94
324.024	402.94
324.253	488.94
324.482	601.94
324.71	832.94
324.939	1145.94
325.168	1015.94
325.397	571.94
325.626	451.94
325.855	388.94
326.084	406.94
326.313	412.94
326.542	413.94
326.77	422.94
326.999	456.94
327.228	585.94
327.457	776.94
327.686	918.94
327.914	651.94
328.143	477.94
328.372	457.94
328.6	452.94
328.829	446.94
329.058	438.94
329.287	434.94
329.515	428.94
329.744	418.94
329.972	415.94
330.201	415.94
330.43	425.94
330.658	458.94
330.887	454.94
331.115	476.94
331.344	441.94
331.572	426.94
331.801	443.94
332.03	436.94
332.258	445.94
332.486	451.94
332.715	452.94
332.943	437.94
333.172	461.94
333.4	439.94
333.629	456.94
333.857	461.94
334.085	478.94
334.314	474.94
334.542	457.94
334.771	473.94
334.999	454.94
335.227	453.94
335.455	462.94
335.684	450.94
335.912	438.94
336.14	434.94
336.369	439.94
336.597	426.94
336.825	429.94
337.053	434.94
337.281	426.94
337.51	438.94
337.738	436.94
337.966	417.94
338.194	422.94
338.422	415.94
338.65	427.94
338.878	421.94
339.106	403.94
339.334	401.94
339.562	409.94
339.79	403.94
340.018	420.94
340.246	402.94
340.474	408.94
340.702	419.94
340.93	398.94
341.158	412.94
341.386	415.94
341.614	400.94
341.842	393.94
342.07	411.94
342.298	411.94
342.526	393.94
342.754	413.94
342.981	428.94
343.209	427.94
343.437	404.94
343.665	418.94
343.893	436.94
344.12	440.94
344.348	444.94
344.576	428.94
344.804	396.94
345.031	426.94
345.259	424.94
345.487	413.94
345.714	404.94
345.942	408.94
346.17	384.94
346.397	408.94
346.625	394.94
346.853	399.94
347.08	384.94
347.308	379.94
347.535	385.94
347.763	399.94
347.99	405.94
348.218	399.94
348.445	394.94
348.673	399.94
348.9	392.94
349.128	398.94
349.355	377.94
349.583	387.94
349.81	383.94
350.037	404.94
350.265	388.94
350.492	376.94
350.72	375.94
350.947	387.94
351.174	382.94
351.402	409.94
351.629	385.94
351.856	378.94
352.083	390.94
352.311	378.94
352.538	378.94
352.765	404.94
352.992	392.94
353.22	396.94
353.447	380.94
353.674	386.94
353.901	380.94
354.128	373.94
354.355	377.94
354.583	381.94
354.81	371.94
355.037	364.94
355.264	356.94
355.491	376.94
355.718	380.94
355.945	391.94
356.172	377.94
356.399	386.94
356.626	370.94
356.853	371.94
357.08	387.94
357.307	361.94
357.534	370.94
357.761	364.94
357.988	382.94
358.215	378.94
358.441	370.94
358.668	394.94
358.895	391.94
359.122	392.94
359.349	381.94
359.576	390.94
359.802	373.94
360.029	391.94
360.256	382.94
360.483	384.94
360.709	382.94
360.936	374.94
361.163	375.94
361.39	373.94
361.616	386.94
361.843	380.94
362.07	370.94
362.296	384.94
362.523	383.94
362.749	382.94
362.976	375.94
363.203	380.94
363.429	372.94
363.656	369.94
363.882	365.94
364.109	378.94
364.335	376.94
364.562	375.94
364.788	386.94
365.015	378.94
365.241	370.94
365.468	358.94
365.694	369.94
365.92	378.94
366.147	379.94
366.373	366.94
366.599	384.94
366.826	372.94
367.052	370.94
367.278	374.94
367.505	360.94
367.731	375.94
367.957	372.94
368.184	386.94
368.41	379.94
368.636	368.94
368.862	379.94
369.089	389.94
369.315	391.94
369.541	386.94
369.767	373.94
369.993	368.94
370.219	377.94
370.445	378.94
370.672	382.94
370.898	382.94
371.124	374.94
371.35	388.94
371.576	388.94
371.802	399.94
372.028	370.94
372.254	399.94
372.48	406.94
372.706	393.94
372.932	393.94
373.158	405.94
373.384	418.94
373.61	393.94
373.835	368.94
374.061	386.94
374.287	394.94
374.513	397.94
374.739	421.94
374.965	398.94
375.191	396.94
375.416	420.94
375.642	379.94
375.868	388.94
376.094	396.94
376.319	376.94
376.545	383.94
376.771	388.94
376.997	386.94
377.222	381.94
377.448	394.94
377.674	391.94
377.899	377.94
378.125	377.94
378.35	397.94
378.576	412.94
378.802	393.94
379.027	389.94
379.253	385.94
379.478	383.94
379.704	388.94
379.929	373.94
380.155	408.94
380.38	393.94
380.606	399.94
380.831	387.94
381.057	392.94
381.282	394.94
381.507	406.94
381.733	405.94
381.958	399.94
382.184	418.94
382.409	400.94
382.634	420.94
382.86	377.94
383.085	430.94
383.31	410.94
383.535	418.94
383.761	428.94
383.986	408.94
384.211	404.94
384.436	420.94
384.662	421.94
384.887	441.94
385.112	453.94
385.337	428.94
385.562	448.94
385.787	416.94
386.013	447.94
386.238	467.94
386.463	442.94
386.688	452.94
386.913	440.94
387.138	472.94
387.363	462.94
387.588	449.94
387.813	438.94
388.038	428.94
388.263	436.94
388.488	477.94
388.713	448.94
388.938	450.94
389.163	457.94
389.387	449.94
389.612	421.94
389.837	416.94
390.062	437.94
390.287	440.94
390.512	440.94
390.736	439.94
390.961	434.94
391.186	462.94
391.411	459.94
391.636	457.94
391.86	463.94
392.085	459.94
392.31	486.94
392.534	480.94
392.759	450.94
392.984	457.94
393.208	461.94
393.433	453.94
393.658	436.94
393.882	457.94
394.107	450.94
394.331	445.94
394.556	451.94
394.78	448.94
395.005	492.94
395.229	455.94
395.454	467.94
395.678	476.94
395.903	455.94
396.127	497.94
396.352	473.94
396.576	460.94
396.801	461.94
397.025	450.94
397.249	459.94
397.474	474.94
397.698	475.94
397.922	497.94
398.147	509.94
398.371	501.94
398.595	487.94
398.82	497.94
399.044	538.94
399.268	574.94
399.492	609.94
399.717	662.94
399.941	660.94
400.165	651.94
400.389	666.94
400.613	568.94
400.837	553.94
401.062	550.94
401.286	526.94
401.51	525.94
401.734	514.94
401.958	496.94
402.182	522.94
402.406	517.94
402.63	532.94
402.854	525.94
403.078	554.94
403.302	545.94
403.526	564.94
403.75	545.94
403.974	563.94
404.198	566.94
404.422	552.94
404.645	532.94
404.869	564.94
405.093	566.94
405.317	588.94
405.541	612.94
405.765	578.94
405.988	553.94
406.212	585.94
406.436	585.94
406.66	570.94
406.883	576.94
407.107	591.94
407.331	644.94
407.555	675.94
407.778	684.94
408.002	630.94
408.226	608.94
408.449	596.94
408.673	565.94
408.896	593.94
409.12	633.94
409.344	618.94
409.567	540.94
409.791	526.94
410.014	525.94
410.238	538.94
410.461	548.94
410.685	547.94
410.908	567.94
411.132	580.94
411.355	586.94
411.578	565.94
411.802	541.94
412.025	537.94
412.249	532.94
412.472	566.94
412.695	565.94
412.919	552.94
413.142	516.94
413.365	516.94
413.589	500.94
413.812	526.94
414.035	502.94
414.258	518.94
414.482	477.94
414.705	510.94
414.928	521.94
415.151	519.94
415.374	541.94
415.597	530.94
415.821	503.94
416.044	490.94
416.267	514.94
416.49	490.94
416.713	508.94
416.936	507.94
417.159	503.94
417.382	500.94
417.605	517.94
417.828	522.94
418.051	537.94
418.274	522.94
418.497	497.94
418.72	500.94
418.943	506.94
419.166	531.94
419.389	576.94
419.611	567.94
419.834	517.94
420.057	541.94
420.28	533.94
420.503	508.94
420.726	516.94
420.948	542.94
421.171	535.94
421.394	585.94
421.617	551.94
421.839	525.94
422.062	526.94
422.285	531.94
422.507	554.94
422.73	635.94
422.953	597.94
423.175	550.94
423.398	551.94
423.621	544.94
423.843	535.94
424.066	568.94
424.288	546.94
424.511	560.94
424.733	590.94
424.956	658.94
425.178	636.94
425.401	634.94
425.623	658.94
425.846	557.94
426.068	532.94
426.291	519.94
426.513	516.94
426.735	545.94
426.958	562.94
427.18	602.94
427.402	692.94
427.625	773.94
427.847	678.94
428.069	581.94
428.292	522.94
428.514	491.94
428.736	491.94
428.958	511.94
429.181	488.94
429.403	488.94
429.625	472.94
429.847	510.94
430.069	560.94
430.292	583.94
430.514	508.94
430.736	504.94
430.958	475.94
431.18	466.94
431.402	479.94
431.624	475.94
431.846	472.94
432.068	464.94
432.29	474.94
432.512	481.94
432.734	498.94
432.956	462.94
433.178	484.94
433.4	496.94
433.622	468.94
433.844	482.94
434.066	479.94
434.287	505.94
434.509	499.94
434.731	496.94
434.953	501.94
435.175	511.94
435.397	545.94
435.618	520.94
435.84	533.94
436.062	618.94
436.284	665.94
436.505	541.94
436.727	521.94
436.949	524.94
437.17	508.94
437.392	491.94
437.614	482.94
437.835	503.94
438.057	554.94
438.278	635.94
438.5	637.94
438.721	693.94
438.943	678.94
439.165	545.94
439.386	524.94
439.608	522.94
439.829	525.94
440.05	519.94
440.272	556.94
440.493	515.94
440.715	498.94
440.936	498.94
441.158	515.94
441.379	504.94
441.6	508.94
441.822	556.94
442.043	571.94
442.264	602.94
442.486	644.94
442.707	582.94
442.928	527.94
443.149	532.94
443.371	562.94
443.592	576.94
443.813	650.94
444.034	720.94
444.255	615.94
444.476	582.94
444.698	575.94
444.919	580.94
445.14	647.94
445.361	611.94
445.582	560.94
445.803	592.94
446.024	669.94
446.245	633.94
446.466	609.94
446.687	533.94
446.908	542.94
447.129	491.94
447.35	470.94
447.571	471.94
447.792	468.94
448.013	465.94
448.234	502.94
448.455	516.94
448.675	594.94
448.896	702.94
449.117	574.94
449.338	549.94
449.559	630.94
449.779	718.94
450	579.94
450.221	489.94
450.442	476.94
450.662	460.94
450.883	444.94
451.104	459.94
451.324	459.94
451.545	463.94
451.766	464.94
451.986	454.94
452.207	423.94
452.428	454.94
452.648	442.94
452.869	418.94
453.089	427.94
453.31	444.94
453.53	419.94
453.751	440.94
453.971	425.94
454.192	428.94
454.412	426.94
454.633	428.94
454.853	422.94
455.073	419.94
455.294	444.94
455.514	478.94
455.734	474.94
455.955	424.94
456.175	412.94
456.395	408.94
456.616	404.94
456.836	409.94
457.056	390.94
457.276	400.94
457.497	410.94
457.717	424.94
457.937	413.94
458.157	419.94
458.377	401.94
458.598	434.94
458.818	454.94
459.038	510.94
459.258	537.94
459.478	498.94
459.698	501.94
459.918	459.94
460.138	468.94
460.358	498.94
460.578	510.94
460.798	516.94
461.018	528.94
461.238	515.94
461.458	519.94
461.678	512.94
461.898	539.94
462.118	521.94
462.338	531.94
462.558	541.94
462.777	557.94
462.997	586.94
463.217	597.94
463.437	614.94
463.657	571.94
463.876	555.94
464.096	567.94
464.316	566.94
464.536	559.94
464.755	552.94
464.975	538.94
465.195	558.94
465.414	564.94
465.634	506.94
465.854	493.94
466.073	479.94
466.293	487.94
466.512	469.94
466.732	447.94
466.951	461.94
467.171	468.94
467.391	481.94
467.61	468.94
467.829	469.94
468.049	471.94
468.268	456.94
468.488	441.94
468.707	427.94
468.927	439.94
469.146	451.94
469.365	448.94
469.585	464.94
469.804	459.94
470.023	452.94
470.243	477.94
470.462	484.94
470.681	468.94
470.901	481.94
471.12	475.94
471.339	477.94
471.558	461.94
471.777	451.94
471.997	461.94
472.216	449.94
472.435	444.94
472.654	459.94
472.873	459.94
473.092	453.94
473.311	451.94
473.53	453.94
473.749	456.94
473.968	476.94
474.187	527.94
474.406	573.94
474.625	494.94
474.844	462.94
475.063	450.94
475.282	434.94
475.501	462.94
475.72	477.94
475.939	465.94
476.158	451.94
476.377	461.94
476.596	474.94
476.814	448.94
477.033	470.94
477.252	504.94
477.471	485.94
477.69	487.94
477.908	508.94
478.127	524.94
478.346	526.94
478.564	515.94
478.783	538.94
479.002	548.94
479.22	548.94
479.439	553.94
479.658	550.94
479.876	514.94
480.095	568.94
480.313	580.94
480.532	585.94
480.751	574.94
480.969	566.94
481.188	561.94
481.406	571.94
481.624	546.94
481.843	563.94
482.061	549.94
482.28	529.94
482.498	517.94
482.717	507.94
482.935	535.94
483.153	526.94
483.372	514.94
483.59	524.94
483.808	538.94
484.027	516.94
484.245	546.94
484.463	517.94
484.681	523.94
484.9	542.94
485.118	542.94
485.336	533.94
485.554	543.94
485.772	566.94
485.99	564.94
486.209	546.94
486.427	551.94
486.645	560.94
486.863	572.94
487.081	563.94
487.299	566.94
487.517	564.94
487.735	542.94
487.953	561.94
488.171	573.94
488.389	561.94
488.607	551.94
488.825	560.94
489.043	580.94
489.261	581.94
489.479	574.94
489.696	594.94
489.914	579.94
490.132	581.94
490.35	593.94
490.568	598.94
490.786	591.94
491.003	602.94
491.221	601.94
491.439	598.94
491.657	634.94
491.874	603.94
492.092	624.94
492.31	629.94
492.527	639.94
492.745	631.94
492.963	646.94
493.18	656.94
493.398	648.94
493.615	651.94
493.833	644.94
494.05	648.94
494.268	647.94
494.485	637.94
494.703	614.94
494.92	658.94
495.138	638.94
495.355	658.94
495.573	663.94
495.79	660.94
496.008	652.94
496.225	655.94
496.442	654.94
496.66	658.94
496.877	668.94
497.094	673.94
497.312	684.94
497.529	693.94
497.746	706.94
497.963	725.94
498.181	709.94
498.398	763.94
498.615	759.94
498.832	782.94
499.049	828.94
499.267	862.94
499.484	907.94
499.701	952.94
499.918	1014.94
500.135	1089.94
500.352	1172.94
500.569	1180.94
500.786	1196.94
501.003	1196.94
501.22	1118.94
501.437	1026.94
501.654	973.94
