Data from 1973.PennyLincolnUp.Lamp.En5.5.200Scan.071719.P1.Changed Mount._HRD10591_15-45-55-853.txt Node
Date: Thu Jul 18 15:45:55 EDT 2019
User: cochatt
Spectrometer: HR+D1059
Trigger mode: 1
Integration Time (sec): 1.000000E-1
Scans to average: 1
Electric dark correction enabled: true
Nonlinearity correction enabled: false
Boxcar width: 0
XAxis mode: Wavelengths
Number of Pixels in Spectrum: 2048
>>>>>Begin Spectral Data<<<<<
223.165	-10.81
223.4	-10.81
223.635	-10.81
223.869	-14.81
224.104	-19.81
224.338	-7.81
224.573	-9.81
224.808	-11.81
225.042	-11.81
225.277	-23.81
225.511	-6.81
225.746	17.19
225.98	21.19
226.215	13.19
226.449	0.19
226.683	15.19
226.918	26.19
227.152	24.19
227.387	30.19
227.621	34.19
227.856	43.19
228.09	51.19
228.324	50.19
228.559	40.19
228.793	68.19
229.027	93.19
229.262	105.19
229.496	107.19
229.73	108.19
229.964	135.19
230.199	122.19
230.433	113.19
230.667	113.19
230.901	107.19
231.136	103.19
231.37	101.19
231.604	118.19
231.838	105.19
232.072	110.19
232.306	105.19
232.541	124.19
232.775	122.19
233.009	118.19
233.243	108.19
233.477	109.19
233.711	121.19
233.945	122.19
234.179	110.19
234.413	116.19
234.647	117.19
234.881	116.19
235.115	114.19
235.349	127.19
235.583	126.19
235.817	112.19
236.051	133.19
236.285	133.19
236.519	132.19
236.753	137.19
236.987	148.19
237.221	148.19
237.455	194.19
237.689	162.19
237.922	136.19
238.156	142.19
238.39	127.19
238.624	130.19
238.858	140.19
239.091	128.19
239.325	127.19
239.559	131.19
239.793	130.19
240.027	131.19
240.26	141.19
240.494	140.19
240.728	153.19
240.961	156.19
241.195	148.19
241.429	159.19
241.662	152.19
241.896	144.19
242.13	148.19
242.363	148.19
242.597	129.19
242.83	144.19
243.064	160.19
243.298	138.19
243.531	149.19
243.765	146.19
243.998	143.19
244.232	144.19
244.465	146.19
244.699	146.19
244.932	165.19
245.166	145.19
245.399	150.19
245.633	151.19
245.866	139.19
246.099	152.19
246.333	154.19
246.566	154.19
246.8	142.19
247.033	164.19
247.266	169.19
247.5	164.19
247.733	156.19
247.966	197.19
248.2	164.19
248.433	174.19
248.666	162.19
248.899	187.19
249.133	184.19
249.366	216.19
249.599	210.19
249.832	183.19
250.066	174.19
250.299	190.19
250.532	187.19
250.765	196.19
250.998	228.19
251.231	215.19
251.465	218.19
251.698	194.19
251.931	204.19
252.164	194.19
252.397	183.19
252.63	201.19
252.863	197.19
253.096	204.19
253.329	218.19
253.562	239.19
253.795	210.19
254.028	211.19
254.261	218.19
254.494	228.19
254.727	255.19
254.96	266.19
255.193	267.19
255.426	254.19
255.659	229.19
255.892	236.19
256.124	221.19
256.357	240.19
256.59	217.19
256.823	217.19
257.056	201.19
257.289	237.19
257.521	211.19
257.754	216.19
257.987	215.19
258.22	218.19
258.452	201.19
258.685	202.19
258.918	224.19
259.151	226.19
259.383	233.19
259.616	214.19
259.849	229.19
260.081	257.19
260.314	254.19
260.547	245.19
260.779	252.19
261.012	245.19
261.244	232.19
261.477	232.19
261.71	230.19
261.942	251.19
262.175	257.19
262.407	232.19
262.64	233.19
262.872	230.19
263.105	242.19
263.337	218.19
263.57	221.19
263.802	215.19
264.035	221.19
264.267	203.19
264.499	241.19
264.732	250.19
264.964	216.19
265.197	219.19
265.429	216.19
265.661	225.19
265.894	231.19
266.126	229.19
266.358	240.19
266.591	231.19
266.823	262.19
267.055	242.19
267.287	245.19
267.52	232.19
267.752	214.19
267.984	226.19
268.216	253.19
268.448	241.19
268.681	250.19
268.913	260.19
269.145	262.19
269.377	305.19
269.609	311.19
269.841	279.19
270.073	288.19
270.306	292.19
270.538	308.19
270.77	326.19
271.002	284.19
271.234	289.19
271.466	296.19
271.698	330.19
271.93	322.19
272.162	311.19
272.394	315.19
272.626	294.19
272.858	312.19
273.09	291.19
273.322	284.19
273.553	287.19
273.785	284.19
274.017	288.19
274.249	271.19
274.481	273.19
274.713	282.19
274.945	293.19
275.176	264.19
275.408	267.19
275.64	271.19
275.872	286.19
276.104	275.19
276.335	287.19
276.567	314.19
276.799	306.19
277.031	312.19
277.262	320.19
277.494	340.19
277.726	313.19
277.957	320.19
278.189	302.19
278.421	301.19
278.652	300.19
278.884	293.19
279.115	290.19
279.347	293.19
279.579	299.19
279.81	290.19
280.042	283.19
280.273	283.19
280.505	285.19
280.736	299.19
280.968	302.19
281.199	292.19
281.431	310.19
281.662	305.19
281.894	294.19
282.125	306.19
282.356	325.19
282.588	297.19
282.819	309.19
283.051	294.19
283.282	302.19
283.513	300.19
283.745	303.19
283.976	310.19
284.207	306.19
284.439	305.19
284.67	321.19
284.901	331.19
285.132	319.19
285.364	287.19
285.595	313.19
285.826	310.19
286.057	324.19
286.288	303.19
286.52	315.19
286.751	328.19
286.982	314.19
287.213	312.19
287.444	315.19
287.675	326.19
287.906	308.19
288.138	332.19
288.369	327.19
288.6	345.19
288.831	340.19
289.062	330.19
289.293	339.19
289.524	330.19
289.755	322.19
289.986	324.19
290.217	329.19
290.448	321.19
290.679	320.19
290.91	344.19
291.141	344.19
291.371	338.19
291.602	307.19
291.833	328.19
292.064	351.19
292.295	324.19
292.526	323.19
292.757	330.19
292.987	308.19
293.218	314.19
293.449	334.19
293.68	340.19
293.91	324.19
294.141	328.19
294.372	331.19
294.603	322.19
294.833	334.19
295.064	336.19
295.295	336.19
295.525	336.19
295.756	321.19
295.987	324.19
296.217	347.19
296.448	350.19
296.679	342.19
296.909	326.19
297.14	323.19
297.37	333.19
297.601	339.19
297.831	316.19
298.062	331.19
298.292	338.19
298.523	329.19
298.753	342.19
298.984	346.19
299.214	354.19
299.445	373.19
299.675	338.19
299.905	362.19
300.136	359.19
300.366	351.19
300.597	373.19
300.827	354.19
301.057	350.19
301.288	358.19
301.518	362.19
301.748	370.19
301.979	370.19
302.209	365.19
302.439	351.19
302.669	365.19
302.9	364.19
303.13	368.19
303.36	362.19
303.59	351.19
303.82	370.19
304.051	378.19
304.281	365.19
304.511	359.19
304.741	357.19
304.971	372.19
305.201	357.19
305.431	362.19
305.661	368.19
305.891	373.19
306.121	339.19
306.352	347.19
306.582	377.19
306.812	370.19
307.042	373.19
307.272	365.19
307.502	371.19
307.731	357.19
307.961	395.19
308.191	384.19
308.421	368.19
308.651	385.19
308.881	372.19
309.111	378.19
309.341	377.19
309.571	370.19
309.8	390.19
310.03	390.19
310.26	383.19
310.49	398.19
310.72	398.19
310.949	395.19
311.179	413.19
311.409	386.19
311.639	384.19
311.868	402.19
312.098	402.19
312.328	413.19
312.557	414.19
312.787	390.19
313.017	421.19
313.246	418.19
313.476	388.19
313.706	406.19
313.935	397.19
314.165	419.19
314.394	419.19
314.624	396.19
314.853	421.19
315.083	430.19
315.312	402.19
315.542	403.19
315.771	422.19
316.001	410.19
316.23	429.19
316.46	406.19
316.689	412.19
316.919	395.19
317.148	402.19
317.377	417.19
317.607	404.19
317.836	408.19
318.065	395.19
318.295	421.19
318.524	406.19
318.753	422.19
318.983	396.19
319.212	392.19
319.441	430.19
319.67	417.19
319.9	428.19
320.129	408.19
320.358	396.19
320.587	420.19
320.816	390.19
321.046	441.19
321.275	416.19
321.504	429.19
321.733	416.19
321.962	426.19
322.191	434.19
322.42	444.19
322.649	426.19
322.878	454.19
323.108	459.19
323.337	459.19
323.566	478.19
323.795	492.19
324.024	535.19
324.253	577.19
324.482	772.19
324.71	1128.19
324.939	1575.19
325.168	1417.19
325.397	773.19
325.626	581.19
325.855	519.19
326.084	486.19
326.313	489.19
326.542	505.19
326.77	533.19
326.999	578.19
327.228	726.19
327.457	1003.19
327.686	1192.19
327.914	892.19
328.143	627.19
328.372	568.19
328.6	534.19
328.829	535.19
329.058	550.19
329.287	541.19
329.515	523.19
329.744	500.19
329.972	498.19
330.201	537.19
330.43	549.19
330.658	547.19
330.887	591.19
331.115	563.19
331.344	542.19
331.572	529.19
331.801	517.19
332.03	520.19
332.258	490.19
332.486	496.19
332.715	497.19
332.943	497.19
333.172	518.19
333.4	530.19
333.629	537.19
333.857	546.19
334.085	533.19
334.314	547.19
334.542	574.19
334.771	564.19
334.999	532.19
335.227	513.19
335.455	512.19
335.684	501.19
335.912	488.19
336.14	475.19
336.369	475.19
336.597	485.19
336.825	500.19
337.053	499.19
337.281	491.19
337.51	482.19
337.738	484.19
337.966	477.19
338.194	494.19
338.422	473.19
338.65	451.19
338.878	484.19
339.106	480.19
339.334	466.19
339.562	481.19
339.79	460.19
340.018	457.19
340.246	480.19
340.474	472.19
340.702	472.19
340.93	471.19
341.158	443.19
341.386	457.19
341.614	460.19
341.842	459.19
342.07	444.19
342.298	443.19
342.526	446.19
342.754	449.19
342.981	435.19
343.209	439.19
343.437	477.19
343.665	467.19
343.893	471.19
344.12	501.19
344.348	522.19
344.576	478.19
344.804	474.19
345.031	471.19
345.259	450.19
345.487	461.19
345.714	433.19
345.942	442.19
346.17	449.19
346.397	444.19
346.625	462.19
346.853	438.19
347.08	434.19
347.308	466.19
347.535	435.19
347.763	464.19
347.99	445.19
348.218	441.19
348.445	444.19
348.673	455.19
348.9	446.19
349.128	420.19
349.355	438.19
349.583	445.19
349.81	419.19
350.037	422.19
350.265	414.19
350.492	452.19
350.72	432.19
350.947	413.19
351.174	454.19
351.402	445.19
351.629	450.19
351.856	443.19
352.083	457.19
352.311	451.19
352.538	427.19
352.765	444.19
352.992	432.19
353.22	429.19
353.447	421.19
353.674	419.19
353.901	417.19
354.128	434.19
354.355	428.19
354.583	418.19
354.81	423.19
355.037	416.19
355.264	420.19
355.491	408.19
355.718	411.19
355.945	421.19
356.172	414.19
356.399	427.19
356.626	420.19
356.853	425.19
357.08	427.19
357.307	414.19
357.534	412.19
357.761	425.19
357.988	421.19
358.215	429.19
358.441	426.19
358.668	408.19
358.895	413.19
359.122	428.19
359.349	439.19
359.576	425.19
359.802	443.19
360.029	459.19
360.256	466.19
360.483	455.19
360.709	453.19
360.936	460.19
361.163	432.19
361.39	417.19
361.616	438.19
361.843	419.19
362.07	414.19
362.296	434.19
362.523	445.19
362.749	448.19
362.976	421.19
363.203	426.19
363.429	412.19
363.656	422.19
363.882	424.19
364.109	408.19
364.335	434.19
364.562	404.19
364.788	406.19
365.015	427.19
365.241	420.19
365.468	425.19
365.694	420.19
365.92	398.19
366.147	419.19
366.373	409.19
366.599	432.19
366.826	422.19
367.052	425.19
367.278	418.19
367.505	436.19
367.731	420.19
367.957	402.19
368.184	426.19
368.41	424.19
368.636	424.19
368.862	440.19
369.089	419.19
369.315	413.19
369.541	435.19
369.767	429.19
369.993	427.19
370.219	421.19
370.445	418.19
370.672	421.19
370.898	423.19
371.124	421.19
371.35	433.19
371.576	420.19
371.802	442.19
372.028	436.19
372.254	439.19
372.48	416.19
372.706	437.19
372.932	436.19
373.158	459.19
373.384	431.19
373.61	447.19
373.835	440.19
374.061	447.19
374.287	428.19
374.513	428.19
374.739	441.19
374.965	458.19
375.191	451.19
375.416	460.19
375.642	441.19
375.868	456.19
376.094	454.19
376.319	422.19
376.545	430.19
376.771	441.19
376.997	424.19
377.222	422.19
377.448	426.19
377.674	412.19
377.899	412.19
378.125	412.19
378.35	433.19
378.576	427.19
378.802	425.19
379.027	438.19
379.253	429.19
379.478	412.19
379.704	435.19
379.929	435.19
380.155	420.19
380.38	437.19
380.606	418.19
380.831	429.19
381.057	437.19
381.282	440.19
381.507	420.19
381.733	439.19
381.958	451.19
382.184	447.19
382.409	435.19
382.634	446.19
382.86	448.19
383.085	422.19
383.31	457.19
383.535	458.19
383.761	451.19
383.986	448.19
384.211	456.19
384.436	463.19
384.662	495.19
384.887	478.19
385.112	465.19
385.337	482.19
385.562	498.19
385.787	483.19
386.013	477.19
386.238	510.19
386.463	474.19
386.688	488.19
386.913	486.19
387.138	480.19
387.363	493.19
387.588	460.19
387.813	496.19
388.038	478.19
388.263	473.19
388.488	480.19
388.713	494.19
388.938	483.19
389.163	491.19
389.387	492.19
389.612	461.19
389.837	467.19
390.062	473.19
390.287	506.19
390.512	481.19
390.736	483.19
390.961	507.19
391.186	490.19
391.411	487.19
391.636	527.19
391.86	521.19
392.085	493.19
392.31	504.19
392.534	534.19
392.759	516.19
392.984	517.19
393.208	506.19
393.433	502.19
393.658	487.19
393.882	497.19
394.107	492.19
394.331	500.19
394.556	508.19
394.78	487.19
395.005	501.19
395.229	504.19
395.454	526.19
395.678	520.19
395.903	510.19
396.127	536.19
396.352	532.19
396.576	523.19
396.801	508.19
397.025	514.19
397.249	530.19
397.474	541.19
397.698	512.19
397.922	551.19
398.147	553.19
398.371	560.19
398.595	560.19
398.82	555.19
399.044	588.19
399.268	641.19
399.492	680.19
399.717	729.19
399.941	748.19
400.165	742.19
400.389	710.19
400.613	679.19
400.837	610.19
401.062	584.19
401.286	588.19
401.51	595.19
401.734	562.19
401.958	565.19
402.182	578.19
402.406	596.19
402.63	571.19
402.854	589.19
403.078	618.19
403.302	599.19
403.526	614.19
403.75	605.19
403.974	610.19
404.198	622.19
404.422	621.19
404.645	621.19
404.869	602.19
405.093	650.19
405.317	675.19
405.541	712.19
405.765	636.19
405.988	648.19
406.212	644.19
406.436	634.19
406.66	653.19
406.883	642.19
407.107	695.19
407.331	707.19
407.555	754.19
407.778	745.19
408.002	728.19
408.226	702.19
408.449	689.19
408.673	647.19
408.896	673.19
409.12	711.19
409.344	669.19
409.567	621.19
409.791	597.19
410.014	619.19
410.238	605.19
410.461	578.19
410.685	588.19
410.908	628.19
411.132	637.19
411.355	673.19
411.578	645.19
411.802	601.19
412.025	615.19
412.249	620.19
412.472	621.19
412.695	648.19
412.919	624.19
413.142	598.19
413.365	591.19
413.589	596.19
413.812	564.19
414.035	586.19
414.258	572.19
414.482	533.19
414.705	567.19
414.928	558.19
415.151	565.19
415.374	548.19
415.597	548.19
415.821	546.19
416.044	565.19
416.267	551.19
416.49	558.19
416.713	551.19
416.936	573.19
417.159	561.19
417.382	588.19
417.605	588.19
417.828	557.19
418.051	570.19
418.274	598.19
418.497	584.19
418.72	568.19
418.943	574.19
419.166	600.19
419.389	617.19
419.611	626.19
419.834	589.19
420.057	578.19
420.28	597.19
420.503	577.19
420.726	578.19
420.948	595.19
421.171	628.19
421.394	649.19
421.617	566.19
421.839	571.19
422.062	590.19
422.285	595.19
422.507	660.19
422.73	694.19
422.953	662.19
423.175	609.19
423.398	588.19
423.621	606.19
423.843	619.19
424.066	655.19
424.288	588.19
424.511	636.19
424.733	653.19
424.956	751.19
425.178	694.19
425.401	703.19
425.623	713.19
425.846	620.19
426.068	603.19
426.291	604.19
426.513	597.19
426.735	615.19
426.958	617.19
427.18	714.19
427.402	806.19
427.625	850.19
427.847	752.19
428.069	664.19
428.292	603.19
428.514	592.19
428.736	569.19
428.958	584.19
429.181	556.19
429.403	546.19
429.625	561.19
429.847	616.19
430.069	634.19
430.292	634.19
430.514	558.19
430.736	552.19
430.958	549.19
431.18	518.19
431.402	516.19
431.624	505.19
431.846	523.19
432.068	523.19
432.29	550.19
432.512	539.19
432.734	574.19
432.956	548.19
433.178	559.19
433.4	563.19
433.622	539.19
433.844	544.19
434.066	525.19
434.287	543.19
434.509	525.19
434.731	551.19
434.953	564.19
435.175	581.19
435.397	598.19
435.618	590.19
435.84	635.19
436.062	713.19
436.284	748.19
436.505	636.19
436.727	587.19
436.949	580.19
437.17	569.19
437.392	560.19
437.614	556.19
437.835	588.19
438.057	677.19
438.278	735.19
438.5	692.19
438.721	781.19
438.943	806.19
439.165	640.19
439.386	598.19
439.608	590.19
439.829	586.19
440.05	592.19
440.272	629.19
440.493	605.19
440.715	594.19
440.936	551.19
441.158	548.19
441.379	560.19
441.6	579.19
441.822	577.19
442.043	634.19
442.264	696.19
442.486	730.19
442.707	653.19
442.928	628.19
443.149	593.19
443.371	617.19
443.592	670.19
443.813	730.19
444.034	826.19
444.255	689.19
444.476	629.19
444.698	643.19
444.919	634.19
445.14	730.19
445.361	690.19
445.582	656.19
445.803	676.19
446.024	762.19
446.245	761.19
446.466	695.19
446.687	638.19
446.908	573.19
447.129	568.19
447.35	527.19
447.571	538.19
447.792	539.19
448.013	539.19
448.234	564.19
448.455	576.19
448.675	657.19
448.896	770.19
449.117	698.19
449.338	641.19
449.559	738.19
449.779	826.19
450	630.19
450.221	579.19
450.442	556.19
450.662	504.19
450.883	517.19
451.104	552.19
451.324	508.19
451.545	506.19
451.766	516.19
451.986	502.19
452.207	476.19
452.428	481.19
452.648	476.19
452.869	477.19
453.089	452.19
453.31	496.19
453.53	487.19
453.751	477.19
453.971	493.19
454.192	497.19
454.412	488.19
454.633	462.19
454.853	495.19
455.073	497.19
455.294	502.19
455.514	549.19
455.734	542.19
455.955	490.19
456.175	449.19
456.395	454.19
456.616	467.19
456.836	449.19
457.056	464.19
457.276	469.19
457.497	460.19
457.717	462.19
457.937	469.19
458.157	482.19
458.377	472.19
458.598	478.19
458.818	527.19
459.038	570.19
459.258	632.19
459.478	569.19
459.698	554.19
459.918	527.19
460.138	513.19
460.358	548.19
460.578	566.19
460.798	557.19
461.018	562.19
461.238	566.19
461.458	547.19
461.678	542.19
461.898	574.19
462.118	559.19
462.338	594.19
462.558	606.19
462.777	601.19
462.997	621.19
463.217	659.19
463.437	664.19
463.657	639.19
463.876	613.19
464.096	618.19
464.316	589.19
464.536	608.19
464.755	622.19
464.975	618.19
465.195	612.19
465.414	620.19
465.634	590.19
465.854	547.19
466.073	538.19
466.293	528.19
466.512	526.19
466.732	514.19
466.951	511.19
467.171	525.19
467.391	499.19
467.61	488.19
467.829	516.19
468.049	509.19
468.268	510.19
468.488	496.19
468.707	516.19
468.927	490.19
469.146	484.19
469.365	495.19
469.585	515.19
469.804	525.19
470.023	505.19
470.243	500.19
470.462	523.19
470.681	539.19
470.901	537.19
471.12	525.19
471.339	494.19
471.558	512.19
471.777	501.19
471.997	489.19
472.216	503.19
472.435	512.19
472.654	516.19
472.873	514.19
473.092	495.19
473.311	500.19
473.53	497.19
473.749	512.19
473.968	546.19
474.187	619.19
474.406	638.19
474.625	551.19
474.844	494.19
475.063	506.19
475.282	528.19
475.501	498.19
475.72	530.19
475.939	508.19
476.158	519.19
476.377	517.19
476.596	506.19
476.814	532.19
477.033	538.19
477.252	536.19
477.471	527.19
477.69	560.19
477.908	554.19
478.127	578.19
478.346	564.19
478.564	570.19
478.783	581.19
479.002	583.19
479.22	579.19
479.439	605.19
479.658	638.19
479.876	616.19
480.095	620.19
480.313	644.19
480.532	642.19
480.751	644.19
480.969	650.19
481.188	657.19
481.406	664.19
481.624	643.19
481.843	621.19
482.061	598.19
482.28	617.19
482.498	572.19
482.717	594.19
482.935	608.19
483.153	590.19
483.372	578.19
483.59	603.19
483.808	578.19
484.027	567.19
484.245	601.19
484.463	596.19
484.681	608.19
484.9	605.19
485.118	602.19
485.336	597.19
485.554	616.19
485.772	626.19
485.99	595.19
486.209	591.19
486.427	607.19
486.645	629.19
486.863	612.19
487.081	636.19
487.299	647.19
487.517	627.19
487.735	633.19
487.953	629.19
488.171	627.19
488.389	617.19
488.607	620.19
488.825	619.19
489.043	625.19
489.261	614.19
489.479	598.19
489.696	643.19
489.914	632.19
490.132	639.19
490.35	648.19
490.568	644.19
490.786	638.19
491.003	669.19
491.221	703.19
491.439	683.19
491.657	697.19
491.874	714.19
492.092	728.19
492.31	722.19
492.527	736.19
492.745	723.19
492.963	717.19
493.18	744.19
493.398	738.19
493.615	732.19
493.833	740.19
494.05	742.19
494.268	747.19
494.485	750.19
494.703	734.19
494.92	731.19
495.138	712.19
495.355	726.19
495.573	758.19
495.79	746.19
496.008	768.19
496.225	722.19
496.442	745.19
496.66	747.19
496.877	730.19
497.094	748.19
497.312	732.19
497.529	746.19
497.746	757.19
497.963	799.19
498.181	826.19
498.398	826.19
498.615	860.19
498.832	877.19
499.049	917.19
499.267	954.19
499.484	1021.19
499.701	1065.19
499.918	1079.19
500.135	1215.19
500.352	1311.19
500.569	1291.19
500.786	1312.19
501.003	1262.19
501.22	1178.19
501.437	1126.19
501.654	1083.19
