Data from 1973.PennyLincolnUp.Lamp.En5.5.200Scan.071719.P1.Changed Mount._HRD10591_15-44-30-853.txt Node
Date: Thu Jul 18 15:44:30 EDT 2019
User: cochatt
Spectrometer: HR+D1059
Trigger mode: 1
Integration Time (sec): 1.000000E-1
Scans to average: 1
Electric dark correction enabled: true
Nonlinearity correction enabled: false
Boxcar width: 0
XAxis mode: Wavelengths
Number of Pixels in Spectrum: 2048
>>>>>Begin Spectral Data<<<<<
223.165	-3.62
223.4	-3.62
223.635	-3.62
223.869	-21.62
224.104	-8.62
224.338	5.38
224.573	-17.62
224.808	-23.62
225.042	-8.62
225.277	-4.62
225.511	-8.62
225.746	4.38
225.98	0.38
226.215	2.38
226.449	14.38
226.683	20.38
226.918	34.38
227.152	15.38
227.387	32.38
227.621	41.38
227.856	28.38
228.09	44.38
228.324	43.38
228.559	44.38
228.793	63.38
229.027	96.38
229.262	113.38
229.496	121.38
229.73	110.38
229.964	150.38
230.199	131.38
230.433	100.38
230.667	113.38
230.901	91.38
231.136	100.38
231.37	111.38
231.604	116.38
231.838	117.38
232.072	106.38
232.306	115.38
232.541	121.38
232.775	105.38
233.009	107.38
233.243	108.38
233.477	106.38
233.711	103.38
233.945	113.38
234.179	117.38
234.413	110.38
234.647	122.38
234.881	120.38
235.115	118.38
235.349	110.38
235.583	115.38
235.817	115.38
236.051	130.38
236.285	130.38
236.519	136.38
236.753	131.38
236.987	137.38
237.221	150.38
237.455	197.38
237.689	167.38
237.922	131.38
238.156	130.38
238.39	136.38
238.624	131.38
238.858	119.38
239.091	121.38
239.325	121.38
239.559	142.38
239.793	130.38
240.027	128.38
240.26	145.38
240.494	145.38
240.728	126.38
240.961	163.38
241.195	154.38
241.429	147.38
241.662	141.38
241.896	133.38
242.13	122.38
242.363	131.38
242.597	133.38
242.83	126.38
243.064	136.38
243.298	147.38
243.531	141.38
243.765	141.38
243.998	142.38
244.232	138.38
244.465	154.38
244.699	138.38
244.932	154.38
245.166	143.38
245.399	147.38
245.633	158.38
245.866	153.38
246.099	137.38
246.333	136.38
246.566	161.38
246.8	154.38
247.033	153.38
247.266	162.38
247.5	150.38
247.733	163.38
247.966	174.38
248.2	161.38
248.433	162.38
248.666	186.38
248.899	181.38
249.133	197.38
249.366	191.38
249.599	198.38
249.832	175.38
250.066	188.38
250.299	171.38
250.532	179.38
250.765	196.38
250.998	204.38
251.231	214.38
251.465	209.38
251.698	204.38
251.931	198.38
252.164	202.38
252.397	198.38
252.63	197.38
252.863	204.38
253.096	196.38
253.329	205.38
253.562	217.38
253.795	217.38
254.028	203.38
254.261	224.38
254.494	238.38
254.727	232.38
254.96	271.38
255.193	257.38
255.426	237.38
255.659	235.38
255.892	200.38
256.124	216.38
256.357	210.38
256.59	229.38
256.823	223.38
257.056	222.38
257.289	204.38
257.521	216.38
257.754	212.38
257.987	212.38
258.22	213.38
258.452	206.38
258.685	212.38
258.918	188.38
259.151	209.38
259.383	203.38
259.616	241.38
259.849	211.38
260.081	217.38
260.314	255.38
260.547	262.38
260.779	248.38
261.012	252.38
261.244	232.38
261.477	213.38
261.71	205.38
261.942	203.38
262.175	236.38
262.407	208.38
262.64	206.38
262.872	206.38
263.105	235.38
263.337	209.38
263.57	221.38
263.802	195.38
264.035	230.38
264.267	233.38
264.499	227.38
264.732	213.38
264.964	210.38
265.197	226.38
265.429	225.38
265.661	217.38
265.894	226.38
266.126	217.38
266.358	223.38
266.591	219.38
266.823	222.38
267.055	229.38
267.287	232.38
267.52	246.38
267.752	242.38
267.984	246.38
268.216	231.38
268.448	229.38
268.681	236.38
268.913	246.38
269.145	257.38
269.377	288.38
269.609	281.38
269.841	275.38
270.073	271.38
270.306	277.38
270.538	301.38
270.77	302.38
271.002	297.38
271.234	307.38
271.466	279.38
271.698	300.38
271.93	297.38
272.162	302.38
272.394	307.38
272.626	311.38
272.858	287.38
273.09	277.38
273.322	289.38
273.553	275.38
273.785	267.38
274.017	260.38
274.249	276.38
274.481	277.38
274.713	280.38
274.945	276.38
275.176	282.38
275.408	275.38
275.64	281.38
275.872	282.38
276.104	281.38
276.335	281.38
276.567	278.38
276.799	299.38
277.031	315.38
277.262	325.38
277.494	340.38
277.726	314.38
277.957	309.38
278.189	294.38
278.421	285.38
278.652	288.38
278.884	266.38
279.115	277.38
279.347	276.38
279.579	294.38
279.81	274.38
280.042	276.38
280.273	282.38
280.505	281.38
280.736	282.38
280.968	274.38
281.199	293.38
281.431	304.38
281.662	295.38
281.894	305.38
282.125	290.38
282.356	293.38
282.588	298.38
282.819	313.38
283.051	309.38
283.282	291.38
283.513	307.38
283.745	308.38
283.976	313.38
284.207	282.38
284.439	293.38
284.67	315.38
284.901	299.38
285.132	283.38
285.364	276.38
285.595	279.38
285.826	279.38
286.057	303.38
286.288	299.38
286.52	302.38
286.751	296.38
286.982	291.38
287.213	306.38
287.444	303.38
287.675	321.38
287.906	325.38
288.138	309.38
288.369	325.38
288.6	314.38
288.831	309.38
289.062	317.38
289.293	320.38
289.524	330.38
289.755	323.38
289.986	314.38
290.217	319.38
290.448	309.38
290.679	309.38
290.91	303.38
291.141	298.38
291.371	309.38
291.602	322.38
291.833	318.38
292.064	310.38
292.295	316.38
292.526	316.38
292.757	318.38
292.987	322.38
293.218	307.38
293.449	316.38
293.68	319.38
293.91	305.38
294.141	320.38
294.372	312.38
294.603	321.38
294.833	325.38
295.064	313.38
295.295	314.38
295.525	314.38
295.756	315.38
295.987	340.38
296.217	320.38
296.448	321.38
296.679	320.38
296.909	331.38
297.14	332.38
297.37	317.38
297.601	307.38
297.831	341.38
298.062	301.38
298.292	325.38
298.523	343.38
298.753	339.38
298.984	330.38
299.214	315.38
299.445	323.38
299.675	316.38
299.905	347.38
300.136	347.38
300.366	341.38
300.597	325.38
300.827	355.38
301.057	344.38
301.288	353.38
301.518	332.38
301.748	332.38
301.979	340.38
302.209	355.38
302.439	359.38
302.669	343.38
302.9	339.38
303.13	333.38
303.36	350.38
303.59	345.38
303.82	362.38
304.051	344.38
304.281	352.38
304.511	359.38
304.741	335.38
304.971	343.38
305.201	350.38
305.431	349.38
305.661	344.38
305.891	359.38
306.121	321.38
306.352	373.38
306.582	363.38
306.812	334.38
307.042	350.38
307.272	359.38
307.502	357.38
307.731	347.38
307.961	362.38
308.191	369.38
308.421	359.38
308.651	354.38
308.881	351.38
309.111	349.38
309.341	348.38
309.571	378.38
309.8	372.38
310.03	367.38
310.26	361.38
310.49	366.38
310.72	376.38
310.949	399.38
311.179	384.38
311.409	377.38
311.639	388.38
311.868	370.38
312.098	375.38
312.328	387.38
312.557	400.38
312.787	402.38
313.017	396.38
313.246	395.38
313.476	388.38
313.706	387.38
313.935	385.38
314.165	415.38
314.394	413.38
314.624	397.38
314.853	399.38
315.083	382.38
315.312	380.38
315.542	390.38
315.771	389.38
316.001	393.38
316.23	375.38
316.46	401.38
316.689	380.38
316.919	385.38
317.148	399.38
317.377	405.38
317.607	394.38
317.836	391.38
318.065	383.38
318.295	380.38
318.524	362.38
318.753	377.38
318.983	383.38
319.212	383.38
319.441	386.38
319.67	390.38
319.9	369.38
320.129	398.38
320.358	393.38
320.587	387.38
320.816	391.38
321.046	406.38
321.275	393.38
321.504	401.38
321.733	421.38
321.962	406.38
322.191	396.38
322.42	391.38
322.649	411.38
322.878	413.38
323.108	421.38
323.337	425.38
323.566	449.38
323.795	470.38
324.024	497.38
324.253	556.38
324.482	723.38
324.71	1021.38
324.939	1470.38
325.168	1285.38
325.397	699.38
325.626	529.38
325.855	473.38
326.084	461.38
326.313	467.38
326.542	451.38
326.77	490.38
326.999	558.38
327.228	675.38
327.457	933.38
327.686	1116.38
327.914	788.38
328.143	587.38
328.372	519.38
328.6	497.38
328.829	472.38
329.058	472.38
329.287	510.38
329.515	491.38
329.744	469.38
329.972	474.38
330.201	483.38
330.43	515.38
330.658	525.38
330.887	515.38
331.115	534.38
331.344	490.38
331.572	468.38
331.801	467.38
332.03	469.38
332.258	454.38
332.486	471.38
332.715	486.38
332.943	461.38
333.172	461.38
333.4	492.38
333.629	517.38
333.857	518.38
334.085	515.38
334.314	510.38
334.542	547.38
334.771	568.38
334.999	524.38
335.227	483.38
335.455	473.38
335.684	485.38
335.912	469.38
336.14	476.38
336.369	482.38
336.597	466.38
336.825	469.38
337.053	449.38
337.281	471.38
337.51	440.38
337.738	440.38
337.966	459.38
338.194	449.38
338.422	458.38
338.65	448.38
338.878	452.38
339.106	434.38
339.334	442.38
339.562	442.38
339.79	441.38
340.018	447.38
340.246	431.38
340.474	454.38
340.702	425.38
340.93	424.38
341.158	443.38
341.386	433.38
341.614	445.38
341.842	431.38
342.07	423.38
342.298	415.38
342.526	429.38
342.754	428.38
342.981	423.38
343.209	429.38
343.437	446.38
343.665	459.38
343.893	471.38
344.12	481.38
344.348	473.38
344.576	469.38
344.804	453.38
345.031	438.38
345.259	451.38
345.487	451.38
345.714	428.38
345.942	426.38
346.17	435.38
346.397	432.38
346.625	420.38
346.853	421.38
347.08	431.38
347.308	430.38
347.535	449.38
347.763	414.38
347.99	413.38
348.218	428.38
348.445	428.38
348.673	435.38
348.9	397.38
349.128	423.38
349.355	391.38
349.583	433.38
349.81	400.38
350.037	411.38
350.265	411.38
350.492	402.38
350.72	413.38
350.947	401.38
351.174	401.38
351.402	426.38
351.629	416.38
351.856	418.38
352.083	425.38
352.311	437.38
352.538	395.38
352.765	424.38
352.992	413.38
353.22	422.38
353.447	401.38
353.674	406.38
353.901	411.38
354.128	399.38
354.355	424.38
354.583	389.38
354.81	416.38
355.037	394.38
355.264	406.38
355.491	408.38
355.718	399.38
355.945	391.38
356.172	395.38
356.399	417.38
356.626	400.38
356.853	418.38
357.08	396.38
357.307	383.38
357.534	384.38
357.761	395.38
357.988	408.38
358.215	416.38
358.441	405.38
358.668	403.38
358.895	397.38
359.122	388.38
359.349	406.38
359.576	410.38
359.802	410.38
360.029	427.38
360.256	433.38
360.483	423.38
360.709	420.38
360.936	413.38
361.163	413.38
361.39	394.38
361.616	401.38
361.843	419.38
362.07	414.38
362.296	429.38
362.523	405.38
362.749	418.38
362.976	422.38
363.203	413.38
363.429	405.38
363.656	413.38
363.882	389.38
364.109	427.38
364.335	405.38
364.562	403.38
364.788	390.38
365.015	407.38
365.241	399.38
365.468	420.38
365.694	418.38
365.92	416.38
366.147	389.38
366.373	423.38
366.599	407.38
366.826	425.38
367.052	395.38
367.278	387.38
367.505	402.38
367.731	405.38
367.957	410.38
368.184	406.38
368.41	386.38
368.636	421.38
368.862	415.38
369.089	416.38
369.315	405.38
369.541	408.38
369.767	416.38
369.993	398.38
370.219	384.38
370.445	406.38
370.672	411.38
370.898	393.38
371.124	405.38
371.35	415.38
371.576	413.38
371.802	407.38
372.028	429.38
372.254	440.38
372.48	435.38
372.706	411.38
372.932	436.38
373.158	432.38
373.384	415.38
373.61	407.38
373.835	426.38
374.061	429.38
374.287	419.38
374.513	413.38
374.739	411.38
374.965	429.38
375.191	437.38
375.416	423.38
375.642	430.38
375.868	414.38
376.094	420.38
376.319	415.38
376.545	397.38
376.771	438.38
376.997	413.38
377.222	402.38
377.448	416.38
377.674	401.38
377.899	394.38
378.125	417.38
378.35	392.38
378.576	410.38
378.802	408.38
379.027	414.38
379.253	407.38
379.478	422.38
379.704	408.38
379.929	398.38
380.155	421.38
380.38	410.38
380.606	412.38
380.831	408.38
381.057	425.38
381.282	411.38
381.507	411.38
381.733	431.38
381.958	406.38
382.184	431.38
382.409	402.38
382.634	429.38
382.86	427.38
383.085	433.38
383.31	428.38
383.535	448.38
383.761	453.38
383.986	440.38
384.211	435.38
384.436	442.38
384.662	452.38
384.887	438.38
385.112	452.38
385.337	458.38
385.562	471.38
385.787	471.38
386.013	452.38
386.238	451.38
386.463	471.38
386.688	475.38
386.913	456.38
387.138	465.38
387.363	467.38
387.588	467.38
387.813	468.38
388.038	472.38
388.263	466.38
388.488	448.38
388.713	468.38
388.938	466.38
389.163	459.38
389.387	472.38
389.612	481.38
389.837	463.38
390.062	472.38
390.287	445.38
390.512	464.38
390.736	472.38
390.961	454.38
391.186	455.38
391.411	463.38
391.636	485.38
391.86	489.38
392.085	480.38
392.31	504.38
392.534	499.38
392.759	491.38
392.984	481.38
393.208	477.38
393.433	463.38
393.658	472.38
393.882	457.38
394.107	467.38
394.331	489.38
394.556	460.38
394.78	475.38
395.005	507.38
395.229	462.38
395.454	476.38
395.678	498.38
395.903	531.38
396.127	513.38
396.352	492.38
396.576	481.38
396.801	483.38
397.025	494.38
397.249	484.38
397.474	518.38
397.698	502.38
397.922	514.38
398.147	517.38
398.371	541.38
398.595	543.38
398.82	536.38
399.044	563.38
399.268	591.38
399.492	634.38
399.717	679.38
399.941	737.38
400.165	691.38
400.389	695.38
400.613	616.38
400.837	589.38
401.062	571.38
401.286	545.38
401.51	529.38
401.734	526.38
401.958	548.38
402.182	564.38
402.406	570.38
402.63	581.38
402.854	575.38
403.078	585.38
403.302	588.38
403.526	582.38
403.75	571.38
403.974	556.38
404.198	589.38
404.422	573.38
404.645	594.38
404.869	571.38
405.093	591.38
405.317	656.38
405.541	642.38
405.765	606.38
405.988	594.38
406.212	575.38
406.436	585.38
406.66	614.38
406.883	620.38
407.107	639.38
407.331	673.38
407.555	725.38
407.778	707.38
408.002	673.38
408.226	627.38
408.449	620.38
408.673	627.38
408.896	625.38
409.12	658.38
409.344	647.38
409.567	588.38
409.791	563.38
410.014	589.38
410.238	561.38
410.461	577.38
410.685	563.38
410.908	599.38
411.132	626.38
411.355	645.38
411.578	613.38
411.802	550.38
412.025	578.38
412.249	562.38
412.472	595.38
412.695	611.38
412.919	607.38
413.142	589.38
413.365	579.38
413.589	546.38
413.812	541.38
414.035	538.38
414.258	551.38
414.482	513.38
414.705	540.38
414.928	537.38
415.151	543.38
415.374	506.38
415.597	545.38
415.821	542.38
416.044	513.38
416.267	519.38
416.49	521.38
416.713	525.38
416.936	524.38
417.159	537.38
417.382	525.38
417.605	523.38
417.828	549.38
418.051	533.38
418.274	551.38
418.497	563.38
418.72	539.38
418.943	556.38
419.166	565.38
419.389	579.38
419.611	603.38
419.834	569.38
420.057	584.38
420.28	563.38
420.503	577.38
420.726	561.38
420.948	547.38
421.171	584.38
421.394	604.38
421.617	565.38
421.839	547.38
422.062	555.38
422.285	578.38
422.507	610.38
422.73	653.38
422.953	659.38
423.175	607.38
423.398	562.38
423.621	567.38
423.843	594.38
424.066	615.38
424.288	586.38
424.511	599.38
424.733	654.38
424.956	719.38
425.178	669.38
425.401	649.38
425.623	693.38
425.846	614.38
426.068	561.38
426.291	575.38
426.513	571.38
426.735	553.38
426.958	601.38
427.18	690.38
427.402	791.38
427.625	824.38
427.847	714.38
428.069	617.38
428.292	569.38
428.514	549.38
428.736	537.38
428.958	534.38
429.181	528.38
429.403	523.38
429.625	539.38
429.847	539.38
430.069	602.38
430.292	610.38
430.514	542.38
430.736	526.38
430.958	523.38
431.18	476.38
431.402	501.38
431.624	472.38
431.846	510.38
432.068	523.38
432.29	493.38
432.512	489.38
432.734	513.38
432.956	515.38
433.178	527.38
433.4	498.38
433.622	502.38
433.844	495.38
434.066	529.38
434.287	497.38
434.509	525.38
434.731	525.38
434.953	530.38
435.175	563.38
435.397	559.38
435.618	583.38
435.84	605.38
436.062	665.38
436.284	697.38
436.505	602.38
436.727	556.38
436.949	519.38
437.17	538.38
437.392	526.38
437.614	524.38
437.835	543.38
438.057	621.38
438.278	694.38
438.5	698.38
438.721	764.38
438.943	762.38
439.165	622.38
439.386	536.38
439.608	565.38
439.829	573.38
440.05	598.38
440.272	606.38
440.493	573.38
440.715	544.38
440.936	509.38
441.158	534.38
441.379	530.38
441.6	553.38
441.822	545.38
442.043	598.38
442.264	650.38
442.486	697.38
442.707	604.38
442.928	578.38
443.149	590.38
443.371	602.38
443.592	631.38
443.813	716.38
444.034	761.38
444.255	633.38
444.476	606.38
444.698	601.38
444.919	607.38
445.14	731.38
445.361	647.38
445.582	628.38
445.803	639.38
446.024	729.38
446.245	716.38
446.466	662.38
446.687	574.38
446.908	547.38
447.129	533.38
447.35	513.38
447.571	519.38
447.792	507.38
448.013	513.38
448.234	537.38
448.455	558.38
448.675	659.38
448.896	759.38
449.117	625.38
449.338	583.38
449.559	693.38
449.779	786.38
450	663.38
450.221	546.38
450.442	508.38
450.662	489.38
450.883	490.38
451.104	490.38
451.324	499.38
451.545	481.38
451.766	475.38
451.986	463.38
452.207	453.38
452.428	461.38
452.648	457.38
452.869	438.38
453.089	471.38
453.31	489.38
453.53	480.38
453.751	474.38
453.971	470.38
454.192	463.38
454.412	437.38
454.633	439.38
454.853	476.38
455.073	449.38
455.294	463.38
455.514	521.38
455.734	490.38
455.955	452.38
456.175	454.38
456.395	450.38
456.616	433.38
456.836	437.38
457.056	430.38
457.276	437.38
457.497	449.38
457.717	444.38
457.937	451.38
458.157	449.38
458.377	471.38
458.598	462.38
458.818	497.38
459.038	571.38
459.258	593.38
459.478	532.38
459.698	490.38
459.918	514.38
460.138	523.38
460.358	529.38
460.578	535.38
460.798	540.38
461.018	550.38
461.238	538.38
461.458	531.38
461.678	506.38
461.898	549.38
462.118	540.38
462.338	570.38
462.558	553.38
462.777	585.38
462.997	608.38
463.217	606.38
463.437	644.38
463.657	609.38
463.876	603.38
464.096	565.38
464.316	592.38
464.536	599.38
464.755	568.38
464.975	551.38
465.195	583.38
465.414	622.38
465.634	544.38
465.854	526.38
466.073	503.38
466.293	513.38
466.512	495.38
466.732	487.38
466.951	476.38
467.171	492.38
467.391	481.38
467.61	501.38
467.829	460.38
468.049	465.38
468.268	477.38
468.488	469.38
468.707	464.38
468.927	488.38
469.146	462.38
469.365	481.38
469.585	459.38
469.804	487.38
470.023	498.38
470.243	489.38
470.462	477.38
470.681	476.38
470.901	519.38
471.12	479.38
471.339	520.38
471.558	478.38
471.777	491.38
471.997	486.38
472.216	473.38
472.435	485.38
472.654	477.38
472.873	469.38
473.092	475.38
473.311	453.38
473.53	454.38
473.749	492.38
473.968	499.38
474.187	569.38
474.406	620.38
474.625	522.38
474.844	486.38
475.063	489.38
475.282	482.38
475.501	469.38
475.72	483.38
475.939	494.38
476.158	485.38
476.377	499.38
476.596	487.38
476.814	503.38
477.033	522.38
477.252	512.38
477.471	504.38
477.69	513.38
477.908	528.38
478.127	530.38
478.346	547.38
478.564	558.38
478.783	530.38
479.002	549.38
479.22	558.38
479.439	557.38
479.658	568.38
479.876	573.38
480.095	598.38
480.313	614.38
480.532	617.38
480.751	627.38
480.969	601.38
481.188	627.38
481.406	651.38
481.624	591.38
481.843	541.38
482.061	580.38
482.28	550.38
482.498	545.38
482.717	555.38
482.935	550.38
483.153	551.38
483.372	547.38
483.59	562.38
483.808	575.38
484.027	555.38
484.245	574.38
484.463	555.38
484.681	577.38
484.9	546.38
485.118	574.38
485.336	577.38
485.554	581.38
485.772	590.38
485.99	598.38
486.209	575.38
486.427	582.38
486.645	578.38
486.863	594.38
487.081	573.38
487.299	590.38
487.517	579.38
487.735	593.38
487.953	591.38
488.171	597.38
488.389	585.38
488.607	592.38
488.825	589.38
489.043	616.38
489.261	609.38
489.479	610.38
489.696	597.38
489.914	619.38
490.132	623.38
490.35	626.38
490.568	614.38
490.786	615.38
491.003	632.38
491.221	639.38
491.439	664.38
491.657	661.38
491.874	659.38
492.092	676.38
492.31	685.38
492.527	670.38
492.745	670.38
492.963	691.38
493.18	699.38
493.398	701.38
493.615	691.38
493.833	725.38
494.05	702.38
494.268	705.38
494.485	679.38
494.703	696.38
494.92	681.38
495.138	706.38
495.355	691.38
495.573	675.38
495.79	702.38
496.008	705.38
496.225	689.38
496.442	706.38
496.66	702.38
496.877	701.38
497.094	723.38
497.312	732.38
497.529	724.38
497.746	767.38
497.963	760.38
498.181	776.38
498.398	799.38
498.615	813.38
498.832	840.38
499.049	893.38
499.267	897.38
499.484	962.38
499.701	1018.38
499.918	1043.38
500.135	1131.38
500.352	1187.38
500.569	1220.38
500.786	1228.38
501.003	1197.38
501.22	1152.38
501.437	1070.38
501.654	988.38
