Data from 1973.PennyLincolnUp.Lamp.En5.5.200Scan.071719.P1.Changed Mount._HRD10591_15-43-27-853.txt Node
Date: Thu Jul 18 15:43:27 EDT 2019
User: cochatt
Spectrometer: HR+D1059
Trigger mode: 1
Integration Time (sec): 1.000000E-1
Scans to average: 1
Electric dark correction enabled: true
Nonlinearity correction enabled: false
Boxcar width: 0
XAxis mode: Wavelengths
Number of Pixels in Spectrum: 2048
>>>>>Begin Spectral Data<<<<<
223.165	-9.75
223.4	-9.75
223.635	-9.75
223.869	-12.75
224.104	-11.75
224.338	-17.75
224.573	-10.75
224.808	-16.75
225.042	1.25
225.277	-3.75
225.511	4.25
225.746	2.25
225.98	9.25
226.215	18.25
226.449	9.25
226.683	8.25
226.918	14.25
227.152	16.25
227.387	22.25
227.621	20.25
227.856	54.25
228.09	50.25
228.324	53.25
228.559	50.25
228.793	76.25
229.027	111.25
229.262	110.25
229.496	123.25
229.73	174.25
229.964	215.25
230.199	169.25
230.433	136.25
230.667	144.25
230.901	127.25
231.136	130.25
231.37	120.25
231.604	130.25
231.838	140.25
232.072	141.25
232.306	120.25
232.541	134.25
232.775	120.25
233.009	141.25
233.243	123.25
233.477	136.25
233.711	141.25
233.945	140.25
234.179	150.25
234.413	133.25
234.647	120.25
234.881	132.25
235.115	151.25
235.349	138.25
235.583	133.25
235.817	133.25
236.051	155.25
236.285	170.25
236.519	156.25
236.753	155.25
236.987	163.25
237.221	213.25
237.455	311.25
237.689	238.25
237.922	171.25
238.156	154.25
238.39	141.25
238.624	162.25
238.858	144.25
239.091	140.25
239.325	151.25
239.559	134.25
239.793	159.25
240.027	178.25
240.26	180.25
240.494	208.25
240.728	186.25
240.961	178.25
241.195	196.25
241.429	148.25
241.662	147.25
241.896	154.25
242.13	152.25
242.363	154.25
242.597	147.25
242.83	175.25
243.064	166.25
243.298	171.25
243.531	162.25
243.765	167.25
243.998	164.25
244.232	155.25
244.465	180.25
244.699	176.25
244.932	166.25
245.166	172.25
245.399	172.25
245.633	175.25
245.866	155.25
246.099	179.25
246.333	186.25
246.566	167.25
246.8	176.25
247.033	169.25
247.266	190.25
247.5	188.25
247.733	222.25
247.966	216.25
248.2	228.25
248.433	238.25
248.666	231.25
248.899	230.25
249.133	248.25
249.366	267.25
249.599	249.25
249.832	213.25
250.066	195.25
250.299	207.25
250.532	218.25
250.765	244.25
250.998	284.25
251.231	275.25
251.465	271.25
251.698	270.25
251.931	260.25
252.164	242.25
252.397	248.25
252.63	243.25
252.863	244.25
253.096	267.25
253.329	284.25
253.562	280.25
253.795	249.25
254.028	251.25
254.261	277.25
254.494	279.25
254.727	318.25
254.96	340.25
255.193	313.25
255.426	284.25
255.659	268.25
255.892	254.25
256.124	266.25
256.357	270.25
256.59	252.25
256.823	246.25
257.056	249.25
257.289	250.25
257.521	252.25
257.754	237.25
257.987	241.25
258.22	259.25
258.452	259.25
258.685	243.25
258.918	255.25
259.151	239.25
259.383	260.25
259.616	272.25
259.849	286.25
260.081	298.25
260.314	325.25
260.547	337.25
260.779	285.25
261.012	311.25
261.244	295.25
261.477	295.25
261.71	271.25
261.942	292.25
262.175	334.25
262.407	318.25
262.64	296.25
262.872	282.25
263.105	269.25
263.337	278.25
263.57	293.25
263.802	265.25
264.035	270.25
264.267	255.25
264.499	231.25
264.732	269.25
264.964	263.25
265.197	278.25
265.429	269.25
265.661	268.25
265.894	278.25
266.126	276.25
266.358	276.25
266.591	266.25
266.823	283.25
267.055	295.25
267.287	288.25
267.52	274.25
267.752	276.25
267.984	294.25
268.216	282.25
268.448	278.25
268.681	286.25
268.913	324.25
269.145	332.25
269.377	370.25
269.609	356.25
269.841	327.25
270.073	343.25
270.306	362.25
270.538	390.25
270.77	398.25
271.002	370.25
271.234	351.25
271.466	363.25
271.698	376.25
271.93	406.25
272.162	422.25
272.394	388.25
272.626	380.25
272.858	367.25
273.09	342.25
273.322	334.25
273.553	332.25
273.785	334.25
274.017	332.25
274.249	338.25
274.481	345.25
274.713	375.25
274.945	359.25
275.176	361.25
275.408	351.25
275.64	343.25
275.872	367.25
276.104	351.25
276.335	350.25
276.567	359.25
276.799	375.25
277.031	428.25
277.262	426.25
277.494	433.25
277.726	396.25
277.957	378.25
278.189	363.25
278.421	356.25
278.652	361.25
278.884	359.25
279.115	383.25
279.347	410.25
279.579	487.25
279.81	597.25
280.042	532.25
280.273	486.25
280.505	508.25
280.736	447.25
280.968	378.25
281.199	353.25
281.431	338.25
281.662	333.25
281.894	355.25
282.125	351.25
282.356	375.25
282.588	419.25
282.819	444.25
283.051	380.25
283.282	356.25
283.513	372.25
283.745	378.25
283.976	366.25
284.207	386.25
284.439	360.25
284.67	343.25
284.901	361.25
285.132	353.25
285.364	388.25
285.595	382.25
285.826	366.25
286.057	367.25
286.288	363.25
286.52	371.25
286.751	364.25
286.982	360.25
287.213	367.25
287.444	362.25
287.675	372.25
287.906	398.25
288.138	414.25
288.369	431.25
288.6	424.25
288.831	385.25
289.062	375.25
289.293	401.25
289.524	385.25
289.755	373.25
289.986	366.25
290.217	359.25
290.448	347.25
290.679	381.25
290.91	382.25
291.141	383.25
291.371	373.25
291.602	361.25
291.833	357.25
292.064	378.25
292.295	386.25
292.526	378.25
292.757	383.25
292.987	384.25
293.218	376.25
293.449	377.25
293.68	402.25
293.91	392.25
294.141	387.25
294.372	377.25
294.603	371.25
294.833	394.25
295.064	375.25
295.295	382.25
295.525	395.25
295.756	399.25
295.987	414.25
296.217	456.25
296.448	468.25
296.679	418.25
296.909	402.25
297.14	397.25
297.37	390.25
297.601	382.25
297.831	400.25
298.062	400.25
298.292	438.25
298.523	421.25
298.753	400.25
298.984	397.25
299.214	404.25
299.445	401.25
299.675	410.25
299.905	400.25
300.136	431.25
300.366	420.25
300.597	401.25
300.827	432.25
301.057	446.25
301.288	434.25
301.518	448.25
301.748	429.25
301.979	438.25
302.209	458.25
302.439	453.25
302.669	446.25
302.9	420.25
303.13	420.25
303.36	434.25
303.59	462.25
303.82	477.25
304.051	487.25
304.281	439.25
304.511	418.25
304.741	450.25
304.971	438.25
305.201	426.25
305.431	442.25
305.661	409.25
305.891	425.25
306.121	447.25
306.352	458.25
306.582	446.25
306.812	442.25
307.042	440.25
307.272	429.25
307.502	437.25
307.731	452.25
307.961	450.25
308.191	438.25
308.421	468.25
308.651	452.25
308.881	473.25
309.111	485.25
309.341	482.25
309.571	527.25
309.8	508.25
310.03	512.25
310.26	541.25
310.49	526.25
310.72	532.25
310.949	576.25
311.179	564.25
311.409	532.25
311.639	493.25
311.868	522.25
312.098	524.25
312.328	539.25
312.557	551.25
312.787	595.25
313.017	605.25
313.246	552.25
313.476	505.25
313.706	501.25
313.935	522.25
314.165	547.25
314.394	553.25
314.624	579.25
314.853	551.25
315.083	511.25
315.312	516.25
315.542	502.25
315.771	514.25
316.001	504.25
316.23	513.25
316.46	508.25
316.689	514.25
316.919	538.25
317.148	553.25
317.377	535.25
317.607	537.25
317.836	517.25
318.065	523.25
318.295	555.25
318.524	532.25
318.753	488.25
318.983	499.25
319.212	515.25
319.441	533.25
319.67	549.25
319.9	536.25
320.129	527.25
320.358	496.25
320.587	522.25
320.816	538.25
321.046	541.25
321.275	553.25
321.504	527.25
321.733	546.25
321.962	586.25
322.191	576.25
322.42	594.25
322.649	641.25
322.878	654.25
323.108	682.25
323.337	723.25
323.566	778.25
323.795	845.25
324.024	906.25
324.253	1202.25
324.482	1796.25
324.71	3024.25
324.939	4607.25
325.168	3933.25
325.397	1790.25
325.626	1061.25
325.855	827.25
326.084	744.25
326.313	723.25
326.542	758.25
326.77	845.25
326.999	1084.25
327.228	1604.25
327.457	2694.25
327.686	3522.25
327.914	2084.25
328.143	1208.25
328.372	1013.25
328.6	910.25
328.829	862.25
329.058	934.25
329.287	975.25
329.515	875.25
329.744	738.25
329.972	735.25
330.201	743.25
330.43	821.25
330.658	885.25
330.887	1000.25
331.115	1010.25
331.344	802.25
331.572	717.25
331.801	738.25
332.03	722.25
332.258	687.25
332.486	636.25
332.715	626.25
332.943	626.25
333.172	633.25
333.4	634.25
333.629	654.25
333.857	683.25
334.085	687.25
334.314	686.25
334.542	756.25
334.771	756.25
334.999	679.25
335.227	681.25
335.455	624.25
335.684	632.25
335.912	627.25
336.14	626.25
336.369	658.25
336.597	644.25
336.825	631.25
337.053	626.25
337.281	616.25
337.51	603.25
337.738	596.25
337.966	603.25
338.194	630.25
338.422	642.25
338.65	619.25
338.878	591.25
339.106	603.25
339.334	597.25
339.562	591.25
339.79	595.25
340.018	577.25
340.246	602.25
340.474	603.25
340.702	596.25
340.93	586.25
341.158	582.25
341.386	600.25
341.614	630.25
341.842	606.25
342.07	593.25
342.298	580.25
342.526	556.25
342.754	563.25
342.981	538.25
343.209	560.25
343.437	574.25
343.665	567.25
343.893	589.25
344.12	636.25
344.348	610.25
344.576	589.25
344.804	627.25
345.031	628.25
345.259	656.25
345.487	641.25
345.714	607.25
345.942	588.25
346.17	576.25
346.397	575.25
346.625	568.25
346.853	550.25
347.08	536.25
347.308	583.25
347.535	580.25
347.763	584.25
347.99	596.25
348.218	614.25
348.445	607.25
348.673	612.25
348.9	596.25
349.128	566.25
349.355	543.25
349.583	562.25
349.81	540.25
350.037	564.25
350.265	548.25
350.492	555.25
350.72	567.25
350.947	567.25
351.174	565.25
351.402	613.25
351.629	604.25
351.856	607.25
352.083	606.25
352.311	638.25
352.538	612.25
352.765	647.25
352.992	607.25
353.22	574.25
353.447	575.25
353.674	567.25
353.901	553.25
354.128	536.25
354.355	540.25
354.583	537.25
354.81	530.25
355.037	510.25
355.264	521.25
355.491	527.25
355.718	517.25
355.945	521.25
356.172	523.25
356.399	508.25
356.626	512.25
356.853	543.25
357.08	511.25
357.307	514.25
357.534	538.25
357.761	522.25
357.988	546.25
358.215	564.25
358.441	542.25
358.668	541.25
358.895	556.25
359.122	562.25
359.349	564.25
359.576	605.25
359.802	656.25
360.029	711.25
360.256	728.25
360.483	687.25
360.709	632.25
360.936	588.25
361.163	588.25
361.39	623.25
361.616	609.25
361.843	569.25
362.07	586.25
362.296	607.25
362.523	580.25
362.749	584.25
362.976	585.25
363.203	587.25
363.429	546.25
363.656	540.25
363.882	540.25
364.109	542.25
364.335	537.25
364.562	541.25
364.788	513.25
365.015	559.25
365.241	542.25
365.468	541.25
365.694	549.25
365.92	573.25
366.147	519.25
366.373	564.25
366.599	543.25
366.826	516.25
367.052	512.25
367.278	536.25
367.505	532.25
367.731	540.25
367.957	539.25
368.184	540.25
368.41	559.25
368.636	571.25
368.862	598.25
369.089	565.25
369.315	562.25
369.541	552.25
369.767	562.25
369.993	555.25
370.219	542.25
370.445	558.25
370.672	532.25
370.898	559.25
371.124	551.25
371.35	536.25
371.576	527.25
371.802	520.25
372.028	527.25
372.254	550.25
372.48	542.25
372.706	556.25
372.932	551.25
373.158	542.25
373.384	554.25
373.61	565.25
373.835	557.25
374.061	562.25
374.287	548.25
374.513	571.25
374.739	578.25
374.965	573.25
375.191	578.25
375.416	558.25
375.642	554.25
375.868	547.25
376.094	570.25
376.319	556.25
376.545	534.25
376.771	525.25
376.997	547.25
377.222	525.25
377.448	513.25
377.674	524.25
377.899	513.25
378.125	519.25
378.35	514.25
378.576	528.25
378.802	545.25
379.027	543.25
379.253	526.25
379.478	519.25
379.704	520.25
379.929	547.25
380.155	551.25
380.38	546.25
380.606	548.25
380.831	550.25
381.057	569.25
381.282	538.25
381.507	562.25
381.733	549.25
381.958	574.25
382.184	551.25
382.409	568.25
382.634	576.25
382.86	570.25
383.085	588.25
383.31	572.25
383.535	612.25
383.761	587.25
383.986	612.25
384.211	570.25
384.436	595.25
384.662	579.25
384.887	630.25
385.112	629.25
385.337	634.25
385.562	639.25
385.787	646.25
386.013	654.25
386.238	703.25
386.463	704.25
386.688	659.25
386.913	639.25
387.138	640.25
387.363	651.25
387.588	631.25
387.813	632.25
388.038	612.25
388.263	634.25
388.488	633.25
388.713	635.25
388.938	623.25
389.163	620.25
389.387	589.25
389.612	588.25
389.837	593.25
390.062	608.25
390.287	596.25
390.512	610.25
390.736	620.25
390.961	617.25
391.186	628.25
391.411	604.25
391.636	622.25
391.86	623.25
392.085	655.25
392.31	642.25
392.534	650.25
392.759	671.25
392.984	687.25
393.208	818.25
393.433	1115.25
393.658	1229.25
393.882	812.25
394.107	662.25
394.331	644.25
394.556	650.25
394.78	673.25
395.005	639.25
395.229	646.25
395.454	634.25
395.678	670.25
395.903	667.25
396.127	726.25
396.352	796.25
396.576	779.25
396.801	835.25
397.025	998.25
397.249	866.25
397.474	716.25
397.698	690.25
397.922	662.25
398.147	698.25
398.371	693.25
398.595	705.25
398.82	721.25
399.044	720.25
399.268	765.25
399.492	826.25
399.717	861.25
399.941	896.25
400.165	895.25
400.389	899.25
400.613	823.25
400.837	769.25
401.062	734.25
401.286	768.25
401.51	714.25
401.734	703.25
401.958	720.25
402.182	746.25
402.406	760.25
402.63	758.25
402.854	770.25
403.078	743.25
403.302	766.25
403.526	778.25
403.75	794.25
403.974	790.25
404.198	742.25
404.422	757.25
404.645	783.25
404.869	761.25
405.093	845.25
405.317	849.25
405.541	874.25
405.765	839.25
405.988	810.25
406.212	818.25
406.436	860.25
406.66	892.25
406.883	841.25
407.107	883.25
407.331	946.25
407.555	1048.25
407.778	1028.25
408.002	953.25
408.226	883.25
408.449	829.25
408.673	852.25
408.896	863.25
409.12	971.25
409.344	877.25
409.567	792.25
409.791	774.25
410.014	756.25
410.238	770.25
410.461	754.25
410.685	787.25
410.908	791.25
411.132	848.25
411.355	852.25
411.578	806.25
411.802	735.25
412.025	746.25
412.249	745.25
412.472	758.25
412.695	772.25
412.919	801.25
413.142	714.25
413.365	741.25
413.589	726.25
413.812	728.25
414.035	719.25
414.258	694.25
414.482	695.25
414.705	704.25
414.928	700.25
415.151	690.25
415.374	688.25
415.597	696.25
415.821	691.25
416.044	703.25
416.267	686.25
416.49	717.25
416.713	694.25
416.936	700.25
417.159	709.25
417.382	696.25
417.605	735.25
417.828	718.25
418.051	763.25
418.274	749.25
418.497	715.25
418.72	704.25
418.943	715.25
419.166	740.25
419.389	768.25
419.611	774.25
419.834	756.25
420.057	741.25
420.28	722.25
420.503	712.25
420.726	706.25
420.948	771.25
421.171	831.25
421.394	837.25
421.617	768.25
421.839	726.25
422.062	764.25
422.285	745.25
422.507	834.25
422.73	1007.25
422.953	998.25
423.175	832.25
423.398	783.25
423.621	773.25
423.843	791.25
424.066	790.25
424.288	783.25
424.511	816.25
424.733	890.25
424.956	1015.25
425.178	958.25
425.401	961.25
425.623	999.25
425.846	883.25
426.068	802.25
426.291	812.25
426.513	766.25
426.735	807.25
426.958	868.25
427.18	961.25
427.402	1165.25
427.625	1346.25
427.847	1230.25
428.069	995.25
428.292	884.25
428.514	796.25
428.736	751.25
428.958	764.25
429.181	718.25
429.403	704.25
429.625	729.25
429.847	770.25
430.069	882.25
430.292	877.25
430.514	740.25
430.736	709.25
430.958	710.25
431.18	697.25
431.402	678.25
431.624	674.25
431.846	670.25
432.068	676.25
432.29	674.25
432.512	675.25
432.734	686.25
432.956	670.25
433.178	722.25
433.4	738.25
433.622	697.25
433.844	702.25
434.066	668.25
434.287	698.25
434.509	696.25
434.731	707.25
434.953	727.25
435.175	735.25
435.397	792.25
435.618	770.25
435.84	852.25
436.062	962.25
436.284	1076.25
436.505	902.25
436.727	802.25
436.949	735.25
437.17	720.25
437.392	700.25
437.614	754.25
437.835	785.25
438.057	948.25
438.278	1100.25
438.5	1099.25
438.721	1164.25
438.943	1112.25
439.165	865.25
439.386	804.25
439.608	824.25
439.829	805.25
440.05	892.25
440.272	964.25
440.493	906.25
440.715	841.25
440.936	791.25
441.158	788.25
441.379	732.25
441.6	772.25
441.822	831.25
442.043	855.25
442.264	973.25
442.486	1056.25
442.707	882.25
442.928	824.25
443.149	884.25
443.371	913.25
443.592	942.25
443.813	1057.25
444.034	1148.25
444.255	946.25
444.476	854.25
444.698	834.25
444.919	858.25
445.14	918.25
445.361	906.25
445.582	918.25
445.803	1034.25
446.024	1225.25
446.245	1168.25
446.466	1062.25
446.687	891.25
446.908	795.25
447.129	748.25
447.35	733.25
447.571	717.25
447.792	700.25
448.013	728.25
448.234	740.25
448.455	811.25
448.675	978.25
448.896	1141.25
449.117	962.25
449.338	904.25
449.559	1040.25
449.779	1237.25
450	942.25
450.221	760.25
450.442	715.25
450.662	732.25
450.883	748.25
451.104	785.25
451.324	818.25
451.545	736.25
451.766	697.25
451.986	666.25
452.207	650.25
452.428	642.25
452.648	665.25
452.869	687.25
453.089	653.25
453.31	684.25
453.53	660.25
453.751	675.25
453.971	680.25
454.192	720.25
454.412	718.25
454.633	665.25
454.853	652.25
455.073	647.25
455.294	685.25
455.514	794.25
455.734	777.25
455.955	631.25
456.175	633.25
456.395	603.25
456.616	602.25
456.836	591.25
457.056	612.25
457.276	584.25
457.497	602.25
457.717	610.25
457.937	633.25
458.157	628.25
458.377	636.25
458.598	685.25
458.818	806.25
459.038	998.25
459.258	977.25
459.478	832.25
459.698	756.25
459.918	717.25
460.138	726.25
460.358	720.25
460.578	727.25
460.798	740.25
461.018	745.25
461.238	716.25
461.458	708.25
461.678	718.25
461.898	712.25
462.118	709.25
462.338	747.25
462.558	727.25
462.777	746.25
462.997	795.25
463.217	835.25
463.437	851.25
463.657	791.25
463.876	796.25
464.096	810.25
464.316	802.25
464.536	808.25
464.755	826.25
464.975	842.25
465.195	907.25
465.414	1148.25
465.634	929.25
465.854	811.25
466.073	759.25
466.293	682.25
466.512	668.25
466.732	677.25
466.951	664.25
467.171	684.25
467.391	655.25
467.61	720.25
467.829	759.25
468.049	710.25
468.268	677.25
468.488	676.25
468.707	644.25
468.927	639.25
469.146	646.25
469.365	655.25
469.585	620.25
469.804	680.25
470.023	710.25
470.243	742.25
470.462	712.25
470.681	761.25
470.901	767.25
471.12	708.25
471.339	688.25
471.558	687.25
471.777	652.25
471.997	654.25
472.216	671.25
472.435	723.25
472.654	680.25
472.873	648.25
473.092	664.25
473.311	646.25
473.53	658.25
473.749	656.25
473.968	728.25
474.187	896.25
474.406	931.25
474.625	728.25
474.844	681.25
475.063	664.25
475.282	677.25
475.501	667.25
475.72	670.25
475.939	683.25
476.158	685.25
476.377	700.25
476.596	712.25
476.814	710.25
477.033	738.25
477.252	715.25
477.471	727.25
477.69	704.25
477.908	745.25
478.127	758.25
478.346	760.25
478.564	747.25
478.783	784.25
479.002	811.25
479.22	814.25
479.439	822.25
479.658	866.25
479.876	867.25
480.095	845.25
480.313	914.25
480.532	875.25
480.751	858.25
480.969	857.25
481.188	955.25
481.406	980.25
481.624	891.25
481.843	839.25
482.061	810.25
482.28	815.25
482.498	796.25
482.717	796.25
482.935	777.25
483.153	773.25
483.372	800.25
483.59	798.25
483.808	782.25
484.027	795.25
484.245	822.25
484.463	788.25
484.681	797.25
484.9	842.25
485.118	815.25
485.336	819.25
485.554	848.25
485.772	846.25
485.99	823.25
486.209	834.25
486.427	863.25
486.645	870.25
486.863	927.25
487.081	918.25
487.299	879.25
487.517	864.25
487.735	869.25
487.953	890.25
488.171	844.25
488.389	854.25
488.607	862.25
488.825	894.25
489.043	854.25
489.261	857.25
489.479	849.25
489.696	831.25
489.914	871.25
490.132	875.25
490.35	877.25
490.568	857.25
490.786	899.25
491.003	908.25
491.221	922.25
491.439	949.25
491.657	963.25
491.874	958.25
492.092	976.25
492.31	958.25
492.527	934.25
492.745	948.25
492.963	989.25
493.18	966.25
493.398	979.25
493.615	985.25
493.833	1000.25
494.05	989.25
494.268	990.25
494.485	975.25
494.703	968.25
494.92	987.25
495.138	1014.25
495.355	1020.25
495.573	1023.25
495.79	1015.25
496.008	1047.25
496.225	1015.25
496.442	974.25
496.66	989.25
496.877	974.25
497.094	986.25
497.312	999.25
497.529	1027.25
497.746	1063.25
497.963	1060.25
498.181	1124.25
498.398	1142.25
498.615	1168.25
498.832	1218.25
499.049	1184.25
499.267	1243.25
499.484	1302.25
499.701	1374.25
499.918	1428.25
500.135	1521.25
500.352	1630.25
500.569	1637.25
500.786	1625.25
501.003	1654.25
