Data from 1973.PennyLincolnUp.Lamp.En5.5.200Scan.071719.P1.Changed Mount._HRD10591_15-45-53-852.txt Node
Date: Thu Jul 18 15:45:53 EDT 2019
User: cochatt
Spectrometer: HR+D1059
Trigger mode: 1
Integration Time (sec): 1.000000E-1
Scans to average: 1
Electric dark correction enabled: true
Nonlinearity correction enabled: false
Boxcar width: 0
XAxis mode: Wavelengths
Number of Pixels in Spectrum: 2048
>>>>>Begin Spectral Data<<<<<
223.165	-14.69
223.4	-14.69
223.635	-14.69
223.869	-22.69
224.104	-23.69
224.338	-22.69
224.573	-19.69
224.808	-1.69
225.042	-4.69
225.277	-3.69
225.511	-1.69
225.746	9.31
225.98	9.31
226.215	7.31
226.449	10.31
226.683	22.31
226.918	28.31
227.152	28.31
227.387	39.31
227.621	39.31
227.856	45.31
228.09	43.31
228.324	53.31
228.559	62.31
228.793	65.31
229.027	100.31
229.262	104.31
229.496	98.31
229.73	131.31
229.964	133.31
230.199	126.31
230.433	108.31
230.667	118.31
230.901	104.31
231.136	92.31
231.37	107.31
231.604	109.31
231.838	105.31
232.072	115.31
232.306	109.31
232.541	101.31
232.775	111.31
233.009	137.31
233.243	120.31
233.477	112.31
233.711	106.31
233.945	110.31
234.179	133.31
234.413	133.31
234.647	107.31
234.881	125.31
235.115	119.31
235.349	113.31
235.583	126.31
235.817	129.31
236.051	132.31
236.285	137.31
236.519	116.31
236.753	121.31
236.987	141.31
237.221	168.31
237.455	201.31
237.689	153.31
237.922	157.31
238.156	140.31
238.39	128.31
238.624	121.31
238.858	132.31
239.091	127.31
239.325	119.31
239.559	129.31
239.793	135.31
240.027	138.31
240.26	134.31
240.494	143.31
240.728	139.31
240.961	164.31
241.195	141.31
241.429	136.31
241.662	141.31
241.896	132.31
242.13	134.31
242.363	138.31
242.597	165.31
242.83	139.31
243.064	149.31
243.298	125.31
243.531	135.31
243.765	141.31
243.998	142.31
244.232	129.31
244.465	134.31
244.699	154.31
244.932	133.31
245.166	138.31
245.399	158.31
245.633	156.31
245.866	164.31
246.099	132.31
246.333	141.31
246.566	151.31
246.8	149.31
247.033	148.31
247.266	157.31
247.5	184.31
247.733	169.31
247.966	185.31
248.2	168.31
248.433	168.31
248.666	183.31
248.899	198.31
249.133	188.31
249.366	206.31
249.599	189.31
249.832	171.31
250.066	188.31
250.299	194.31
250.532	203.31
250.765	213.31
250.998	214.31
251.231	223.31
251.465	219.31
251.698	210.31
251.931	214.31
252.164	198.31
252.397	205.31
252.63	199.31
252.863	207.31
253.096	207.31
253.329	232.31
253.562	218.31
253.795	195.31
254.028	226.31
254.261	219.31
254.494	223.31
254.727	243.31
254.96	285.31
255.193	259.31
255.426	258.31
255.659	229.31
255.892	245.31
256.124	225.31
256.357	231.31
256.59	222.31
256.823	235.31
257.056	207.31
257.289	206.31
257.521	210.31
257.754	205.31
257.987	222.31
258.22	224.31
258.452	210.31
258.685	219.31
258.918	216.31
259.151	205.31
259.383	202.31
259.616	217.31
259.849	235.31
260.081	228.31
260.314	242.31
260.547	273.31
260.779	242.31
261.012	238.31
261.244	227.31
261.477	229.31
261.71	222.31
261.942	210.31
262.175	235.31
262.407	222.31
262.64	238.31
262.872	231.31
263.105	215.31
263.337	214.31
263.57	230.31
263.802	229.31
264.035	221.31
264.267	228.31
264.499	219.31
264.732	237.31
264.964	222.31
265.197	226.31
265.429	241.31
265.661	220.31
265.894	224.31
266.126	220.31
266.358	222.31
266.591	232.31
266.823	244.31
267.055	235.31
267.287	235.31
267.52	238.31
267.752	221.31
267.984	221.31
268.216	238.31
268.448	241.31
268.681	248.31
268.913	259.31
269.145	265.31
269.377	270.31
269.609	296.31
269.841	295.31
270.073	273.31
270.306	299.31
270.538	329.31
270.77	315.31
271.002	297.31
271.234	309.31
271.466	309.31
271.698	311.31
271.93	313.31
272.162	306.31
272.394	316.31
272.626	316.31
272.858	289.31
273.09	313.31
273.322	286.31
273.553	295.31
273.785	263.31
274.017	287.31
274.249	282.31
274.481	281.31
274.713	271.31
274.945	281.31
275.176	279.31
275.408	267.31
275.64	293.31
275.872	279.31
276.104	284.31
276.335	284.31
276.567	286.31
276.799	306.31
277.031	313.31
277.262	321.31
277.494	350.31
277.726	306.31
277.957	293.31
278.189	296.31
278.421	274.31
278.652	282.31
278.884	280.31
279.115	290.31
279.347	293.31
279.579	292.31
279.81	285.31
280.042	275.31
280.273	303.31
280.505	268.31
280.736	286.31
280.968	294.31
281.199	297.31
281.431	308.31
281.662	295.31
281.894	287.31
282.125	316.31
282.356	311.31
282.588	323.31
282.819	311.31
283.051	302.31
283.282	283.31
283.513	292.31
283.745	304.31
283.976	335.31
284.207	307.31
284.439	291.31
284.67	314.31
284.901	316.31
285.132	294.31
285.364	289.31
285.595	291.31
285.826	291.31
286.057	311.31
286.288	303.31
286.52	310.31
286.751	300.31
286.982	306.31
287.213	309.31
287.444	310.31
287.675	321.31
287.906	320.31
288.138	329.31
288.369	344.31
288.6	328.31
288.831	335.31
289.062	319.31
289.293	318.31
289.524	320.31
289.755	327.31
289.986	327.31
290.217	313.31
290.448	307.31
290.679	331.31
290.91	327.31
291.141	316.31
291.371	317.31
291.602	322.31
291.833	320.31
292.064	338.31
292.295	310.31
292.526	328.31
292.757	323.31
292.987	322.31
293.218	322.31
293.449	334.31
293.68	339.31
293.91	307.31
294.141	301.31
294.372	318.31
294.603	325.31
294.833	328.31
295.064	329.31
295.295	336.31
295.525	325.31
295.756	336.31
295.987	344.31
296.217	354.31
296.448	347.31
296.679	340.31
296.909	338.31
297.14	333.31
297.37	326.31
297.601	341.31
297.831	341.31
298.062	335.31
298.292	329.31
298.523	354.31
298.753	333.31
298.984	340.31
299.214	342.31
299.445	343.31
299.675	336.31
299.905	348.31
300.136	330.31
300.366	364.31
300.597	366.31
300.827	351.31
301.057	369.31
301.288	369.31
301.518	363.31
301.748	371.31
301.979	353.31
302.209	370.31
302.439	355.31
302.669	356.31
302.9	364.31
303.13	363.31
303.36	366.31
303.59	372.31
303.82	385.31
304.051	380.31
304.281	361.31
304.511	367.31
304.741	375.31
304.971	348.31
305.201	367.31
305.431	346.31
305.661	354.31
305.891	353.31
306.121	350.31
306.352	359.31
306.582	349.31
306.812	373.31
307.042	357.31
307.272	373.31
307.502	346.31
307.731	359.31
307.961	374.31
308.191	354.31
308.421	354.31
308.651	370.31
308.881	373.31
309.111	361.31
309.341	370.31
309.571	383.31
309.8	381.31
310.03	392.31
310.26	371.31
310.49	390.31
310.72	380.31
310.949	426.31
311.179	405.31
311.409	393.31
311.639	378.31
311.868	377.31
312.098	388.31
312.328	392.31
312.557	409.31
312.787	387.31
313.017	421.31
313.246	405.31
313.476	387.31
313.706	408.31
313.935	386.31
314.165	417.31
314.394	437.31
314.624	412.31
314.853	396.31
315.083	396.31
315.312	388.31
315.542	389.31
315.771	397.31
316.001	403.31
316.23	389.31
316.46	377.31
316.689	389.31
316.919	403.31
317.148	397.31
317.377	395.31
317.607	398.31
317.836	405.31
318.065	385.31
318.295	397.31
318.524	398.31
318.753	400.31
318.983	379.31
319.212	395.31
319.441	398.31
319.67	427.31
319.9	402.31
320.129	389.31
320.358	425.31
320.587	415.31
320.816	415.31
321.046	408.31
321.275	414.31
321.504	396.31
321.733	407.31
321.962	396.31
322.191	411.31
322.42	426.31
322.649	435.31
322.878	443.31
323.108	455.31
323.337	472.31
323.566	481.31
323.795	463.31
324.024	491.31
324.253	574.31
324.482	748.31
324.71	1094.31
324.939	1483.31
325.168	1351.31
325.397	759.31
325.626	567.31
325.855	519.31
326.084	491.31
326.313	472.31
326.542	461.31
326.77	510.31
326.999	569.31
327.228	714.31
327.457	988.31
327.686	1188.31
327.914	853.31
328.143	625.31
328.372	550.31
328.6	541.31
328.829	510.31
329.058	541.31
329.287	519.31
329.515	507.31
329.744	487.31
329.972	508.31
330.201	497.31
330.43	511.31
330.658	551.31
330.887	570.31
331.115	543.31
331.344	511.31
331.572	481.31
331.801	493.31
332.03	488.31
332.258	513.31
332.486	489.31
332.715	488.31
332.943	499.31
333.172	515.31
333.4	501.31
333.629	522.31
333.857	545.31
334.085	522.31
334.314	548.31
334.542	550.31
334.771	572.31
334.999	545.31
335.227	508.31
335.455	527.31
335.684	498.31
335.912	509.31
336.14	466.31
336.369	501.31
336.597	485.31
336.825	475.31
337.053	457.31
337.281	469.31
337.51	466.31
337.738	477.31
337.966	469.31
338.194	486.31
338.422	472.31
338.65	462.31
338.878	481.31
339.106	456.31
339.334	465.31
339.562	451.31
339.79	460.31
340.018	478.31
340.246	463.31
340.474	474.31
340.702	455.31
340.93	463.31
341.158	464.31
341.386	471.31
341.614	432.31
341.842	444.31
342.07	461.31
342.298	446.31
342.526	443.31
342.754	450.31
342.981	421.31
343.209	428.31
343.437	462.31
343.665	459.31
343.893	484.31
344.12	494.31
344.348	487.31
344.576	489.31
344.804	482.31
345.031	476.31
345.259	494.31
345.487	458.31
345.714	436.31
345.942	450.31
346.17	434.31
346.397	439.31
346.625	455.31
346.853	436.31
347.08	424.31
347.308	435.31
347.535	430.31
347.763	419.31
347.99	468.31
348.218	436.31
348.445	449.31
348.673	445.31
348.9	424.31
349.128	441.31
349.355	405.31
349.583	412.31
349.81	425.31
350.037	419.31
350.265	412.31
350.492	433.31
350.72	416.31
350.947	445.31
351.174	449.31
351.402	432.31
351.629	421.31
351.856	434.31
352.083	435.31
352.311	446.31
352.538	425.31
352.765	437.31
352.992	417.31
353.22	428.31
353.447	414.31
353.674	429.31
353.901	422.31
354.128	435.31
354.355	394.31
354.583	429.31
354.81	421.31
355.037	423.31
355.264	418.31
355.491	423.31
355.718	409.31
355.945	428.31
356.172	414.31
356.399	417.31
356.626	407.31
356.853	415.31
357.08	412.31
357.307	421.31
357.534	421.31
357.761	418.31
357.988	415.31
358.215	422.31
358.441	411.31
358.668	411.31
358.895	426.31
359.122	436.31
359.349	434.31
359.576	439.31
359.802	430.31
360.029	442.31
360.256	442.31
360.483	442.31
360.709	442.31
360.936	442.31
361.163	421.31
361.39	424.31
361.616	429.31
361.843	424.31
362.07	427.31
362.296	421.31
362.523	440.31
362.749	424.31
362.976	429.31
363.203	431.31
363.429	423.31
363.656	412.31
363.882	400.31
364.109	423.31
364.335	425.31
364.562	426.31
364.788	419.31
365.015	425.31
365.241	389.31
365.468	422.31
365.694	429.31
365.92	438.31
366.147	430.31
366.373	429.31
366.599	417.31
366.826	413.31
367.052	415.31
367.278	426.31
367.505	423.31
367.731	425.31
367.957	450.31
368.184	447.31
368.41	410.31
368.636	450.31
368.862	417.31
369.089	441.31
369.315	423.31
369.541	421.31
369.767	427.31
369.993	437.31
370.219	425.31
370.445	418.31
370.672	424.31
370.898	425.31
371.124	418.31
371.35	405.31
371.576	421.31
371.802	441.31
372.028	413.31
372.254	406.31
372.48	429.31
372.706	440.31
372.932	457.31
373.158	454.31
373.384	447.31
373.61	421.31
373.835	437.31
374.061	430.31
374.287	424.31
374.513	442.31
374.739	440.31
374.965	461.31
375.191	438.31
375.416	457.31
375.642	455.31
375.868	453.31
376.094	426.31
376.319	423.31
376.545	410.31
376.771	407.31
376.997	424.31
377.222	428.31
377.448	397.31
377.674	402.31
377.899	429.31
378.125	439.31
378.35	434.31
378.576	451.31
378.802	423.31
379.027	447.31
379.253	436.31
379.478	427.31
379.704	417.31
379.929	421.31
380.155	428.31
380.38	441.31
380.606	413.31
380.831	427.31
381.057	423.31
381.282	440.31
381.507	423.31
381.733	417.31
381.958	430.31
382.184	456.31
382.409	461.31
382.634	441.31
382.86	437.31
383.085	448.31
383.31	416.31
383.535	442.31
383.761	457.31
383.986	455.31
384.211	461.31
384.436	472.31
384.662	465.31
384.887	461.31
385.112	471.31
385.337	478.31
385.562	470.31
385.787	477.31
386.013	479.31
386.238	509.31
386.463	488.31
386.688	481.31
386.913	478.31
387.138	453.31
387.363	483.31
387.588	470.31
387.813	471.31
388.038	479.31
388.263	491.31
388.488	501.31
388.713	477.31
388.938	492.31
389.163	482.31
389.387	469.31
389.612	459.31
389.837	476.31
390.062	482.31
390.287	498.31
390.512	492.31
390.736	484.31
390.961	451.31
391.186	479.31
391.411	523.31
391.636	504.31
391.86	504.31
392.085	525.31
392.31	518.31
392.534	510.31
392.759	509.31
392.984	487.31
393.208	494.31
393.433	476.31
393.658	469.31
393.882	491.31
394.107	498.31
394.331	511.31
394.556	494.31
394.78	473.31
395.005	494.31
395.229	499.31
395.454	516.31
395.678	492.31
395.903	515.31
396.127	545.31
396.352	532.31
396.576	489.31
396.801	499.31
397.025	515.31
397.249	530.31
397.474	523.31
397.698	527.31
397.922	533.31
398.147	535.31
398.371	578.31
398.595	537.31
398.82	561.31
399.044	589.31
399.268	606.31
399.492	654.31
399.717	707.31
399.941	745.31
400.165	730.31
400.389	711.31
400.613	644.31
400.837	613.31
401.062	590.31
401.286	601.31
401.51	568.31
401.734	570.31
401.958	570.31
402.182	580.31
402.406	580.31
402.63	576.31
402.854	587.31
403.078	574.31
403.302	583.31
403.526	611.31
403.75	627.31
403.974	606.31
404.198	617.31
404.422	610.31
404.645	631.31
404.869	601.31
405.093	633.31
405.317	641.31
405.541	670.31
405.765	613.31
405.988	633.31
406.212	610.31
406.436	631.31
406.66	649.31
406.883	638.31
407.107	667.31
407.331	703.31
407.555	757.31
407.778	743.31
408.002	712.31
408.226	664.31
408.449	659.31
408.673	645.31
408.896	669.31
409.12	690.31
409.344	659.31
409.567	627.31
409.791	597.31
410.014	614.31
410.238	593.31
410.461	587.31
410.685	581.31
410.908	619.31
411.132	613.31
411.355	642.31
411.578	629.31
411.802	600.31
412.025	586.31
412.249	583.31
412.472	618.31
412.695	647.31
412.919	627.31
413.142	586.31
413.365	598.31
413.589	591.31
413.812	559.31
414.035	557.31
414.258	542.31
414.482	553.31
414.705	543.31
414.928	558.31
415.151	555.31
415.374	557.31
415.597	537.31
415.821	546.31
416.044	554.31
416.267	566.31
416.49	554.31
416.713	539.31
416.936	550.31
417.159	546.31
417.382	548.31
417.605	544.31
417.828	570.31
418.051	584.31
418.274	560.31
418.497	565.31
418.72	573.31
418.943	557.31
419.166	583.31
419.389	622.31
419.611	604.31
419.834	606.31
420.057	588.31
420.28	600.31
420.503	574.31
420.726	567.31
420.948	592.31
421.171	632.31
421.394	643.31
421.617	579.31
421.839	567.31
422.062	571.31
422.285	597.31
422.507	636.31
422.73	669.31
422.953	680.31
423.175	635.31
423.398	625.31
423.621	615.31
423.843	625.31
424.066	618.31
424.288	618.31
424.511	633.31
424.733	675.31
424.956	715.31
425.178	712.31
425.401	676.31
425.623	722.31
425.846	629.31
426.068	597.31
426.291	615.31
426.513	598.31
426.735	620.31
426.958	634.31
427.18	697.31
427.402	822.31
427.625	837.31
427.847	749.31
428.069	646.31
428.292	598.31
428.514	556.31
428.736	508.31
428.958	583.31
429.181	550.31
429.403	538.31
429.625	551.31
429.847	595.31
430.069	633.31
430.292	640.31
430.514	554.31
430.736	542.31
430.958	555.31
431.18	538.31
431.402	515.31
431.624	523.31
431.846	511.31
432.068	519.31
432.29	547.31
432.512	522.31
432.734	528.31
432.956	540.31
433.178	541.31
433.4	528.31
433.622	525.31
433.844	560.31
434.066	529.31
434.287	536.31
434.509	542.31
434.731	546.31
434.953	572.31
435.175	564.31
435.397	601.31
435.618	597.31
435.84	578.31
436.062	666.31
436.284	746.31
436.505	653.31
436.727	611.31
436.949	563.31
437.17	559.31
437.392	532.31
437.614	554.31
437.835	565.31
438.057	633.31
438.278	690.31
438.5	726.31
438.721	767.31
438.943	774.31
439.165	609.31
439.386	571.31
439.608	569.31
439.829	591.31
440.05	603.31
440.272	634.31
440.493	609.31
440.715	565.31
440.936	557.31
441.158	563.31
441.379	546.31
441.6	559.31
441.822	592.31
442.043	643.31
442.264	713.31
442.486	716.31
442.707	641.31
442.928	605.31
443.149	605.31
443.371	619.31
443.592	654.31
443.813	735.31
444.034	789.31
444.255	689.31
444.476	635.31
444.698	636.31
444.919	633.31
445.14	710.31
445.361	671.31
445.582	639.31
445.803	671.31
446.024	745.31
446.245	728.31
446.466	694.31
446.687	600.31
446.908	577.31
447.129	523.31
447.35	522.31
447.571	530.31
447.792	532.31
448.013	542.31
448.234	555.31
448.455	587.31
448.675	662.31
448.896	753.31
449.117	667.31
449.338	623.31
449.559	717.31
449.779	808.31
450	655.31
450.221	573.31
450.442	549.31
450.662	531.31
450.883	501.31
451.104	524.31
451.324	506.31
451.545	526.31
451.766	491.31
451.986	500.31
452.207	478.31
452.428	457.31
452.648	483.31
452.869	467.31
453.089	481.31
453.31	509.31
453.53	488.31
453.751	499.31
453.971	477.31
454.192	479.31
454.412	482.31
454.633	465.31
454.853	477.31
455.073	451.31
455.294	498.31
455.514	535.31
455.734	543.31
455.955	470.31
456.175	471.31
456.395	469.31
456.616	465.31
456.836	439.31
457.056	445.31
457.276	464.31
457.497	462.31
457.717	455.31
457.937	474.31
458.157	472.31
458.377	492.31
458.598	483.31
458.818	539.31
459.038	598.31
459.258	591.31
459.478	582.31
459.698	536.31
459.918	536.31
460.138	548.31
460.358	559.31
460.578	545.31
460.798	553.31
461.018	586.31
461.238	563.31
461.458	571.31
461.678	533.31
461.898	563.31
462.118	574.31
462.338	570.31
462.558	571.31
462.777	604.31
462.997	626.31
463.217	644.31
463.437	676.31
463.657	651.31
463.876	619.31
464.096	586.31
464.316	592.31
464.536	620.31
464.755	623.31
464.975	604.31
465.195	615.31
465.414	633.31
465.634	562.31
465.854	566.31
466.073	531.31
466.293	495.31
466.512	485.31
466.732	518.31
466.951	501.31
467.171	503.31
467.391	514.31
467.61	509.31
467.829	519.31
468.049	510.31
468.268	497.31
468.488	496.31
468.707	500.31
468.927	494.31
469.146	481.31
469.365	501.31
469.585	472.31
469.804	521.31
470.023	517.31
470.243	510.31
470.462	537.31
470.681	533.31
470.901	529.31
471.12	504.31
471.339	480.31
471.558	514.31
471.777	498.31
471.997	517.31
472.216	497.31
472.435	517.31
472.654	502.31
472.873	500.31
473.092	510.31
473.311	490.31
473.53	488.31
473.749	493.31
473.968	554.31
474.187	611.31
474.406	625.31
474.625	554.31
474.844	509.31
475.063	499.31
475.282	477.31
475.501	489.31
475.72	508.31
475.939	513.31
476.158	526.31
476.377	515.31
476.596	506.31
476.814	535.31
477.033	535.31
477.252	532.31
477.471	518.31
477.69	547.31
477.908	516.31
478.127	565.31
478.346	566.31
478.564	573.31
478.783	565.31
479.002	571.31
479.22	578.31
479.439	596.31
479.658	595.31
479.876	602.31
480.095	603.31
480.313	653.31
480.532	643.31
480.751	636.31
480.969	615.31
481.188	620.31
481.406	672.31
481.624	641.31
481.843	597.31
482.061	595.31
482.28	562.31
482.498	599.31
482.717	574.31
482.935	596.31
483.153	590.31
483.372	558.31
483.59	588.31
483.808	579.31
484.027	570.31
484.245	579.31
484.463	579.31
484.681	579.31
484.9	590.31
485.118	584.31
485.336	596.31
485.554	590.31
485.772	608.31
485.99	585.31
486.209	591.31
486.427	601.31
486.645	593.31
486.863	613.31
487.081	620.31
487.299	615.31
487.517	644.31
487.735	603.31
487.953	581.31
488.171	642.31
488.389	627.31
488.607	622.31
488.825	621.31
489.043	614.31
489.261	637.31
489.479	636.31
489.696	621.31
489.914	639.31
490.132	633.31
490.35	615.31
490.568	635.31
490.786	665.31
491.003	675.31
491.221	689.31
491.439	654.31
491.657	663.31
491.874	689.31
492.092	686.31
492.31	701.31
492.527	691.31
492.745	714.31
492.963	721.31
493.18	678.31
493.398	712.31
493.615	691.31
493.833	699.31
494.05	735.31
494.268	718.31
494.485	718.31
494.703	718.31
494.92	723.31
495.138	717.31
495.355	727.31
495.573	725.31
495.79	715.31
496.008	734.31
496.225	730.31
496.442	701.31
496.66	753.31
496.877	705.31
497.094	748.31
497.312	765.31
497.529	748.31
497.746	778.31
497.963	805.31
498.181	815.31
498.398	819.31
498.615	863.31
498.832	870.31
499.049	897.31
499.267	954.31
499.484	997.31
499.701	1043.31
499.918	1131.31
500.135	1167.31
500.352	1239.31
500.569	1285.31
500.786	1273.31
501.003	1265.31
501.22	1194.31
501.437	1133.31
501.654	1065.31
