Data from 1973.PennyLincolnUp.Lamp.En5.5.200Scan.071719.P1.Changed Mount._HRD10591_15-43-54-852.txt Node
Date: Thu Jul 18 15:43:54 EDT 2019
User: cochatt
Spectrometer: HR+D1059
Trigger mode: 1
Integration Time (sec): 1.000000E-1
Scans to average: 1
Electric dark correction enabled: true
Nonlinearity correction enabled: false
Boxcar width: 0
XAxis mode: Wavelengths
Number of Pixels in Spectrum: 2048
>>>>>Begin Spectral Data<<<<<
223.165	-19
223.4	-19
223.635	-19
223.869	-12
224.104	-23
224.338	-7
224.573	6
224.808	-20
225.042	-7
225.277	-9
225.511	-8
225.746	5
225.98	9
226.215	10
226.449	11
226.683	29
226.918	12
227.152	23
227.387	35
227.621	32
227.856	41
228.09	47
228.324	36
228.559	53
228.793	63
229.027	105
229.262	102
229.496	94
229.73	116
229.964	134
230.199	131
230.433	104
230.667	114
230.901	90
231.136	100
231.37	115
231.604	91
231.838	106
232.072	118
232.306	118
232.541	115
232.775	118
233.009	106
233.243	119
233.477	109
233.711	109
233.945	107
234.179	118
234.413	125
234.647	116
234.881	121
235.115	121
235.349	117
235.583	91
235.817	126
236.051	116
236.285	107
236.519	142
236.753	122
236.987	125
237.221	150
237.455	181
237.689	162
237.922	126
238.156	125
238.39	120
238.624	134
238.858	134
239.091	129
239.325	141
239.559	119
239.793	123
240.027	130
240.26	142
240.494	149
240.728	142
240.961	154
241.195	120
241.429	146
241.662	126
241.896	124
242.13	136
242.363	127
242.597	124
242.83	142
243.064	133
243.298	146
243.531	145
243.765	142
243.998	135
244.232	142
244.465	151
244.699	147
244.932	144
245.166	138
245.399	143
245.633	139
245.866	155
246.099	149
246.333	136
246.566	140
246.8	154
247.033	152
247.266	145
247.5	151
247.733	167
247.966	164
248.2	167
248.433	152
248.666	160
248.899	176
249.133	176
249.366	203
249.599	168
249.832	175
250.066	158
250.299	172
250.532	158
250.765	198
250.998	217
251.231	199
251.465	183
251.698	171
251.931	188
252.164	190
252.397	180
252.63	182
252.863	194
253.096	192
253.329	213
253.562	213
253.795	190
254.028	203
254.261	211
254.494	204
254.727	218
254.96	230
255.193	228
255.426	217
255.659	196
255.892	205
256.124	223
256.357	230
256.59	214
256.823	238
257.056	203
257.289	205
257.521	192
257.754	200
257.987	217
258.22	196
258.452	194
258.685	198
258.918	191
259.151	198
259.383	208
259.616	207
259.849	219
260.081	227
260.314	228
260.547	231
260.779	220
261.012	211
261.244	220
261.477	225
261.71	200
261.942	214
262.175	237
262.407	211
262.64	213
262.872	208
263.105	195
263.337	215
263.57	216
263.802	210
264.035	205
264.267	204
264.499	189
264.732	219
264.964	203
265.197	222
265.429	216
265.661	211
265.894	207
266.126	206
266.358	213
266.591	217
266.823	229
267.055	223
267.287	222
267.52	212
267.752	208
267.984	211
268.216	225
268.448	224
268.681	240
268.913	233
269.145	221
269.377	257
269.609	252
269.841	239
270.073	252
270.306	253
270.538	282
270.77	278
271.002	259
271.234	298
271.466	274
271.698	283
271.93	292
272.162	285
272.394	276
272.626	276
272.858	290
273.09	261
273.322	265
273.553	250
273.785	273
274.017	261
274.249	248
274.481	267
274.713	243
274.945	268
275.176	250
275.408	256
275.64	258
275.872	236
276.104	254
276.335	260
276.567	260
276.799	258
277.031	288
277.262	290
277.494	294
277.726	291
277.957	274
278.189	262
278.421	262
278.652	269
278.884	276
279.115	276
279.347	267
279.579	273
279.81	251
280.042	262
280.273	273
280.505	249
280.736	273
280.968	261
281.199	270
281.431	258
281.662	272
281.894	290
282.125	267
282.356	280
282.588	279
282.819	287
283.051	272
283.282	286
283.513	282
283.745	273
283.976	290
284.207	277
284.439	280
284.67	297
284.901	274
285.132	274
285.364	270
285.595	285
285.826	275
286.057	263
286.288	282
286.52	278
286.751	297
286.982	292
287.213	298
287.444	280
287.675	297
287.906	293
288.138	305
288.369	300
288.6	296
288.831	293
289.062	287
289.293	288
289.524	293
289.755	306
289.986	290
290.217	283
290.448	300
290.679	299
290.91	294
291.141	295
291.371	291
291.602	302
291.833	303
292.064	279
292.295	288
292.526	293
292.757	288
292.987	268
293.218	306
293.449	311
293.68	303
293.91	324
294.141	299
294.372	293
294.603	322
294.833	311
295.064	310
295.295	306
295.525	290
295.756	303
295.987	302
296.217	340
296.448	325
296.679	298
296.909	304
297.14	315
297.37	316
297.601	305
297.831	302
298.062	315
298.292	328
298.523	320
298.753	307
298.984	287
299.214	340
299.445	313
299.675	322
299.905	335
300.136	320
300.366	333
300.597	320
300.827	332
301.057	324
301.288	326
301.518	312
301.748	322
301.979	323
302.209	334
302.439	311
302.669	336
302.9	333
303.13	348
303.36	340
303.59	362
303.82	341
304.051	351
304.281	317
304.511	336
304.741	344
304.971	339
305.201	334
305.431	352
305.661	330
305.891	342
306.121	326
306.352	341
306.582	332
306.812	330
307.042	334
307.272	351
307.502	323
307.731	340
307.961	333
308.191	335
308.421	334
308.651	331
308.881	328
309.111	347
309.341	335
309.571	329
309.8	381
310.03	356
310.26	355
310.49	356
310.72	346
310.949	355
311.179	344
311.409	371
311.639	352
311.868	345
312.098	359
312.328	376
312.557	366
312.787	374
313.017	374
313.246	349
313.476	344
313.706	365
313.935	341
314.165	376
314.394	364
314.624	378
314.853	378
315.083	382
315.312	362
315.542	370
315.771	379
316.001	371
316.23	356
316.46	350
316.689	376
316.919	352
317.148	385
317.377	382
317.607	339
317.836	370
318.065	366
318.295	366
318.524	351
318.753	362
318.983	357
319.212	357
319.441	365
319.67	360
319.9	356
320.129	350
320.358	351
320.587	358
320.816	376
321.046	363
321.275	374
321.504	378
321.733	373
321.962	351
322.191	372
322.42	386
322.649	378
322.878	399
323.108	396
323.337	405
323.566	438
323.795	437
324.024	451
324.253	509
324.482	655
324.71	901
324.939	1234
325.168	1046
325.397	590
325.626	488
325.855	434
326.084	414
326.313	420
326.542	409
326.77	434
326.999	482
327.228	604
327.457	835
327.686	976
327.914	710
328.143	526
328.372	475
328.6	490
328.829	438
329.058	441
329.287	458
329.515	451
329.744	444
329.972	435
330.201	444
330.43	447
330.658	479
330.887	486
331.115	485
331.344	440
331.572	438
331.801	445
332.03	442
332.258	434
332.486	424
332.715	453
332.943	450
333.172	466
333.4	473
333.629	466
333.857	480
334.085	489
334.314	489
334.542	499
334.771	506
334.999	465
335.227	470
335.455	447
335.684	462
335.912	448
336.14	446
336.369	431
336.597	450
336.825	441
337.053	445
337.281	455
337.51	426
337.738	417
337.966	424
338.194	423
338.422	434
338.65	434
338.878	415
339.106	442
339.334	442
339.562	400
339.79	410
340.018	423
340.246	406
340.474	416
340.702	424
340.93	422
341.158	414
341.386	403
341.614	396
341.842	403
342.07	397
342.298	405
342.526	417
342.754	405
342.981	396
343.209	395
343.437	431
343.665	436
343.893	437
344.12	449
344.348	438
344.576	432
344.804	424
345.031	445
345.259	430
345.487	429
345.714	403
345.942	413
346.17	398
346.397	404
346.625	386
346.853	411
347.08	394
347.308	374
347.535	380
347.763	406
347.99	394
348.218	396
348.445	412
348.673	432
348.9	410
349.128	382
349.355	402
349.583	358
349.81	384
350.037	363
350.265	388
350.492	372
350.72	380
350.947	371
351.174	391
351.402	390
351.629	388
351.856	378
352.083	379
352.311	394
352.538	395
352.765	394
352.992	386
353.22	395
353.447	370
353.674	380
353.901	379
354.128	363
354.355	374
354.583	380
354.81	372
355.037	387
355.264	389
355.491	365
355.718	386
355.945	375
356.172	368
356.399	388
356.626	364
356.853	345
357.08	383
357.307	370
357.534	388
357.761	379
357.988	393
358.215	386
358.441	367
358.668	386
358.895	368
359.122	372
359.349	376
359.576	393
359.802	385
360.029	405
360.256	400
360.483	390
360.709	371
360.936	396
361.163	405
361.39	382
361.616	406
361.843	383
362.07	386
362.296	394
362.523	366
362.749	392
362.976	382
363.203	374
363.429	382
363.656	383
363.882	380
364.109	383
364.335	385
364.562	397
364.788	378
365.015	381
365.241	386
365.468	375
365.694	396
365.92	390
366.147	405
366.373	391
366.599	367
366.826	355
367.052	355
367.278	359
367.505	379
367.731	396
367.957	395
368.184	390
368.41	391
368.636	399
368.862	402
369.089	404
369.315	403
369.541	391
369.767	389
369.993	391
370.219	391
370.445	386
370.672	385
370.898	388
371.124	380
371.35	386
371.576	390
371.802	380
372.028	396
372.254	404
372.48	379
372.706	420
372.932	401
373.158	424
373.384	404
373.61	408
373.835	401
374.061	423
374.287	403
374.513	409
374.739	407
374.965	418
375.191	410
375.416	419
375.642	412
375.868	398
376.094	407
376.319	396
376.545	410
376.771	412
376.997	425
377.222	409
377.448	383
377.674	375
377.899	386
378.125	386
378.35	399
378.576	391
378.802	373
379.027	407
379.253	415
379.478	382
379.704	392
379.929	392
380.155	391
380.38	368
380.606	386
380.831	395
381.057	411
381.282	392
381.507	407
381.733	402
381.958	399
382.184	390
382.409	400
382.634	424
382.86	387
383.085	414
383.31	403
383.535	422
383.761	419
383.986	405
384.211	412
384.436	416
384.662	428
384.887	409
385.112	413
385.337	432
385.562	459
385.787	452
386.013	444
386.238	434
386.463	463
386.688	454
386.913	436
387.138	455
387.363	458
387.588	421
387.813	424
388.038	456
388.263	432
388.488	432
388.713	464
388.938	428
389.163	444
389.387	461
389.612	436
389.837	436
390.062	444
390.287	453
390.512	432
390.736	443
390.961	434
391.186	448
391.411	453
391.636	457
391.86	441
392.085	470
392.31	488
392.534	455
392.759	457
392.984	446
393.208	453
393.433	468
393.658	474
393.882	452
394.107	451
394.331	466
394.556	462
394.78	454
395.005	429
395.229	477
395.454	471
395.678	460
395.903	469
396.127	489
396.352	490
396.576	440
396.801	470
397.025	468
397.249	471
397.474	475
397.698	462
397.922	484
398.147	495
398.371	534
398.595	498
398.82	496
399.044	506
399.268	577
399.492	610
399.717	649
399.941	657
400.165	649
400.389	627
400.613	564
400.837	548
401.062	513
401.286	515
401.51	530
401.734	534
401.958	539
402.182	503
402.406	544
402.63	526
402.854	531
403.078	523
403.302	542
403.526	551
403.75	569
403.974	550
404.198	548
404.422	563
404.645	559
404.869	560
405.093	576
405.317	598
405.541	632
405.765	594
405.988	540
406.212	562
406.436	574
406.66	588
406.883	571
407.107	596
407.331	631
407.555	688
407.778	698
408.002	635
408.226	596
408.449	590
408.673	594
408.896	588
409.12	635
409.344	607
409.567	586
409.791	559
410.014	570
410.238	524
410.461	518
410.685	547
410.908	563
411.132	563
411.355	577
411.578	554
411.802	551
412.025	535
412.249	562
412.472	556
412.695	584
412.919	564
413.142	519
413.365	520
413.589	507
413.812	511
414.035	488
414.258	501
414.482	516
414.705	520
414.928	513
415.151	499
415.374	515
415.597	505
415.821	510
416.044	491
416.267	514
416.49	510
416.713	504
416.936	511
417.159	491
417.382	489
417.605	517
417.828	509
418.051	529
418.274	516
418.497	522
418.72	517
418.943	520
419.166	533
419.389	548
419.611	546
419.834	564
420.057	551
420.28	528
420.503	545
420.726	534
420.948	529
421.171	529
421.394	571
421.617	547
421.839	522
422.062	531
422.285	528
422.507	590
422.73	645
422.953	630
423.175	557
423.398	547
423.621	540
423.843	556
424.066	542
424.288	541
424.511	556
424.733	604
424.956	675
425.178	631
425.401	637
425.623	652
425.846	551
426.068	551
426.291	547
426.513	532
426.735	519
426.958	557
427.18	591
427.402	717
427.625	771
427.847	673
428.069	597
428.292	542
428.514	506
428.736	500
428.958	511
429.181	485
429.403	487
429.625	493
429.847	518
430.069	575
430.292	554
430.514	490
430.736	491
430.958	482
431.18	472
431.402	468
431.624	480
431.846	484
432.068	507
432.29	475
432.512	470
432.734	478
432.956	462
433.178	494
433.4	491
433.622	480
433.844	460
434.066	475
434.287	482
434.509	482
434.731	511
434.953	514
435.175	530
435.397	521
435.618	529
435.84	558
436.062	634
436.284	660
436.505	566
436.727	530
436.949	501
437.17	482
437.392	486
437.614	495
437.835	514
438.057	542
438.278	656
438.5	647
438.721	700
438.943	694
439.165	565
439.386	532
439.608	537
439.829	531
440.05	537
440.272	554
440.493	542
440.715	527
440.936	472
441.158	509
441.379	538
441.6	516
441.822	526
442.043	567
442.264	611
442.486	656
442.707	569
442.928	529
443.149	539
443.371	563
443.592	578
443.813	653
444.034	694
444.255	646
444.476	586
444.698	564
444.919	591
445.14	654
445.361	604
445.582	576
445.803	599
446.024	676
446.245	673
446.466	604
446.687	540
446.908	526
447.129	476
447.35	475
447.571	474
447.792	478
448.013	483
448.234	490
448.455	515
448.675	587
448.896	688
449.117	604
449.338	572
449.559	640
449.779	729
450	601
450.221	493
450.442	493
450.662	475
450.883	464
451.104	459
451.324	446
451.545	458
451.766	436
451.986	427
452.207	428
452.428	428
452.648	423
452.869	437
453.089	432
453.31	454
453.53	437
453.751	430
453.971	432
454.192	439
454.412	409
454.633	450
454.853	449
455.073	427
455.294	460
455.514	500
455.734	485
455.955	436
456.175	426
456.395	396
456.616	423
456.836	430
457.056	414
457.276	402
457.497	434
457.717	419
457.937	420
458.157	462
458.377	425
458.598	432
458.818	470
459.038	517
459.258	556
459.478	487
459.698	462
459.918	465
460.138	490
460.358	505
460.578	522
460.798	524
461.018	504
461.238	490
461.458	487
461.678	511
461.898	502
462.118	510
462.338	552
462.558	527
462.777	548
462.997	569
463.217	585
463.437	590
463.657	592
463.876	547
464.096	579
464.316	566
464.536	546
464.755	542
464.975	554
465.195	546
465.414	574
465.634	518
465.854	481
466.073	482
466.293	470
466.512	452
466.732	440
466.951	446
467.171	451
467.391	456
467.61	467
467.829	471
468.049	464
468.268	459
468.488	426
468.707	463
468.927	453
469.146	437
469.365	454
469.585	447
469.804	455
470.023	476
470.243	477
470.462	467
470.681	453
470.901	467
471.12	468
471.339	458
471.558	466
471.777	452
471.997	458
472.216	450
472.435	486
472.654	461
472.873	431
473.092	454
473.311	476
473.53	450
473.749	466
473.968	472
474.187	551
474.406	559
474.625	501
474.844	461
475.063	454
475.282	453
475.501	455
475.72	459
475.939	456
476.158	454
476.377	474
476.596	486
476.814	482
477.033	475
477.252	479
477.471	487
477.69	488
477.908	491
478.127	493
478.346	532
478.564	514
478.783	519
479.002	543
479.22	530
479.439	532
479.658	544
479.876	551
480.095	537
480.313	570
480.532	582
480.751	588
480.969	591
481.188	600
481.406	598
481.624	556
481.843	543
482.061	525
482.28	533
482.498	531
482.717	524
482.935	513
483.153	551
483.372	546
483.59	538
483.808	543
484.027	527
484.245	544
484.463	530
484.681	549
484.9	541
485.118	532
485.336	531
485.554	526
485.772	553
485.99	531
486.209	558
486.427	518
486.645	556
486.863	565
487.081	541
487.299	559
487.517	554
487.735	564
487.953	565
488.171	564
488.389	564
488.607	567
488.825	552
489.043	532
489.261	548
489.479	578
489.696	594
489.914	563
490.132	571
490.35	584
490.568	574
490.786	583
491.003	592
491.221	604
491.439	603
491.657	629
491.874	640
492.092	637
492.31	616
492.527	635
492.745	631
492.963	632
493.18	631
493.398	659
493.615	645
493.833	637
494.05	661
494.268	649
494.485	645
494.703	645
494.92	621
495.138	643
495.355	655
495.573	640
495.79	663
496.008	652
496.225	623
496.442	658
496.66	650
496.877	676
497.094	644
497.312	675
497.529	666
497.746	704
497.963	741
498.181	726
498.398	741
498.615	747
498.832	766
499.049	808
499.267	855
499.484	896
499.701	956
499.918	989
500.135	1053
500.352	1153
500.569	1175
500.786	1163
501.003	1155
501.22	1068
501.437	1029
501.654	962
501.871	921
502.088	872
502.305	828
502.522	796
502.739	768
502.956	740
503.172	704
503.389	711
503.606	698
503.823	682
504.04	700
504.256	682
504.473	680
504.69	690
504.907	690
505.123	651
505.34	634
505.557	611
505.773	638
505.99	630
506.207	610
506.423	623
506.64	596
506.856	582
507.073	597
507.289	587
507.506	591
507.722	585
507.939	591
508.155	597
508.372	571
508.588	546
508.805	575
509.021	574
509.238	560
509.454	599
509.67	566
509.887	551
510.103	549
510.319	549
510.536	599
510.752	771
510.968	669
511.184	568
511.401	542
511.617	534
511.833	558
512.049	542
512.265	522
512.481	543
512.698	516
512.914	554
513.13	540
513.346	534
513.562	517
513.778	526
513.994	521
514.21	543
514.426	553
514.642	567
514.858	572
515.074	575
515.29	661
515.506	775
515.721	712
515.937	599
516.153	578
516.369	579
516.585	567
516.801	579
517.016	571
517.232	591
517.448	599
517.664	615
517.879	614
518.095	636
518.311	621
518.527	600
518.742	582
518.958	574
519.173	578
519.389	568
519.605	557
519.82	556
520.036	555
520.251	551
520.467	533
520.682	550
520.898	543
521.113	540
521.329	557
521.544	588
521.76	658
521.975	926
522.19	902
522.406	602
522.621	544
522.836	516
523.052	508
523.267	512
523.482	508
523.698	493
523.913	477
524.128	476
524.343	488
524.559	472
524.774	471
524.989	441
525.204	476
525.419	460
525.634	456
525.849	454
526.064	476
526.28	454
526.495	454
526.71	453
526.925	457
527.14	442
527.355	438
527.57	448
527.785	459
527.999	449
528.214	448
528.429	464
528.644	468
528.859	453
529.074	452
529.289	452
529.503	513
529.718	474
529.933	461
530.148	479
530.363	458
530.577	431
530.792	453
531.007	442
531.221	444
531.436	450
531.651	465
531.865	461
532.08	434
532.295	467
532.509	463
532.724	450
532.938	474
533.153	438
533.367	435
533.582	442
533.796	459
534.011	441
534.225	442
534.44	455
534.654	441
534.868	444
535.083	439
535.297	453
535.511	434
535.726	442
535.94	442
536.154	445
536.369	448
536.583	446
536.797	452
537.011	415
537.225	436
537.44	427
537.654	432
537.868	413
538.082	431
538.296	418
538.51	424
538.724	448
538.938	430
539.153	426
539.367	432
539.581	434
539.795	413
540.009	422
540.222	409
540.436	442
540.65	412
540.864	429
541.078	436
541.292	435
541.506	423
541.72	429
541.934	421
542.147	404
542.361	419
542.575	423
542.789	413
543.002	436
543.216	418
543.43	425
543.644	451
543.857	424
544.071	413
544.285	458
544.498	426
544.712	424
544.925	430
545.139	437
545.352	414
545.566	420
545.779	404
545.993	410
546.206	432
546.42	420
546.633	442
546.847	431
547.06	428
547.274	434
547.487	422
547.7	450
547.914	419
548.127	426
548.34	405
548.554	383
548.767	443
548.98	434
549.193	423
549.407	436
549.62	438
549.833	431
550.046	423
550.259	439
550.473	418
550.686	427
550.899	428
551.112	424
551.325	430
551.538	444
551.751	425
551.964	414
552.177	444
552.39	421
552.603	462
552.816	440
553.029	424
553.242	432
553.455	445
553.667	440
553.88	448
554.093	467
554.306	441
554.519	440
554.732	428
554.944	422
555.157	424
555.37	408
555.583	387
555.795	399
556.008	392
556.221	401
556.433	390
556.646	410
556.859	378
557.071	400
557.284	372
557.496	401
557.709	386
557.921	401
558.134	383
558.346	394
558.559	363
558.771	353
558.984	386
559.196	367
559.409	370
559.621	375
559.833	374
560.046	377
560.258	376
560.47	372
560.683	382
560.895	372
561.107	360
561.32	378
561.532	371
561.744	372
561.956	391
562.168	367
562.381	387
562.593	398
562.805	383
563.017	391
563.229	391
563.441	382
