Data from 1973.PennyLincolnUp.Lamp.En5.5.200Scan.071719.P1.Changed Mount._HRD10591_15-46-04-853.txt Node
Date: Thu Jul 18 15:46:04 EDT 2019
User: cochatt
Spectrometer: HR+D1059
Trigger mode: 1
Integration Time (sec): 1.000000E-1
Scans to average: 1
Electric dark correction enabled: true
Nonlinearity correction enabled: false
Boxcar width: 0
XAxis mode: Wavelengths
Number of Pixels in Spectrum: 2048
>>>>>Begin Spectral Data<<<<<
223.165	-16.12
223.4	-16.12
223.635	-16.12
223.869	-27.12
224.104	-27.12
224.338	-18.12
224.573	-16.12
224.808	-4.12
225.042	-9.12
225.277	-10.12
225.511	2.88
225.746	0.88
225.98	6.88
226.215	20.88
226.449	18.88
226.683	32.88
226.918	10.88
227.152	33.88
227.387	49.88
227.621	46.88
227.856	30.88
228.09	44.88
228.324	44.88
228.559	56.88
228.793	72.88
229.027	91.88
229.262	94.88
229.496	114.88
229.73	129.88
229.964	148.88
230.199	109.88
230.433	109.88
230.667	122.88
230.901	116.88
231.136	122.88
231.37	119.88
231.604	112.88
231.838	118.88
232.072	117.88
232.306	118.88
232.541	119.88
232.775	125.88
233.009	113.88
233.243	123.88
233.477	116.88
233.711	128.88
233.945	111.88
234.179	107.88
234.413	134.88
234.647	122.88
234.881	118.88
235.115	125.88
235.349	123.88
235.583	119.88
235.817	128.88
236.051	136.88
236.285	133.88
236.519	128.88
236.753	114.88
236.987	130.88
237.221	180.88
237.455	214.88
237.689	177.88
237.922	146.88
238.156	130.88
238.39	139.88
238.624	133.88
238.858	132.88
239.091	128.88
239.325	134.88
239.559	141.88
239.793	133.88
240.027	131.88
240.26	154.88
240.494	155.88
240.728	165.88
240.961	144.88
241.195	142.88
241.429	159.88
241.662	160.88
241.896	140.88
242.13	128.88
242.363	142.88
242.597	136.88
242.83	150.88
243.064	141.88
243.298	133.88
243.531	169.88
243.765	146.88
243.998	154.88
244.232	159.88
244.465	145.88
244.699	147.88
244.932	150.88
245.166	153.88
245.399	162.88
245.633	154.88
245.866	149.88
246.099	156.88
246.333	144.88
246.566	156.88
246.8	162.88
247.033	163.88
247.266	161.88
247.5	166.88
247.733	168.88
247.966	176.88
248.2	177.88
248.433	176.88
248.666	170.88
248.899	198.88
249.133	214.88
249.366	209.88
249.599	196.88
249.832	191.88
250.066	182.88
250.299	184.88
250.532	185.88
250.765	208.88
250.998	215.88
251.231	251.88
251.465	226.88
251.698	210.88
251.931	216.88
252.164	198.88
252.397	188.88
252.63	194.88
252.863	215.88
253.096	212.88
253.329	251.88
253.562	216.88
253.795	202.88
254.028	208.88
254.261	212.88
254.494	218.88
254.727	254.88
254.96	293.88
255.193	262.88
255.426	239.88
255.659	231.88
255.892	199.88
256.124	240.88
256.357	232.88
256.59	236.88
256.823	218.88
257.056	227.88
257.289	224.88
257.521	231.88
257.754	214.88
257.987	223.88
258.22	213.88
258.452	225.88
258.685	214.88
258.918	222.88
259.151	221.88
259.383	231.88
259.616	227.88
259.849	254.88
260.081	252.88
260.314	256.88
260.547	252.88
260.779	248.88
261.012	238.88
261.244	228.88
261.477	232.88
261.71	230.88
261.942	250.88
262.175	246.88
262.407	219.88
262.64	228.88
262.872	221.88
263.105	232.88
263.337	233.88
263.57	237.88
263.802	232.88
264.035	231.88
264.267	238.88
264.499	233.88
264.732	244.88
264.964	230.88
265.197	229.88
265.429	229.88
265.661	221.88
265.894	241.88
266.126	239.88
266.358	246.88
266.591	235.88
266.823	242.88
267.055	252.88
267.287	244.88
267.52	248.88
267.752	237.88
267.984	239.88
268.216	246.88
268.448	256.88
268.681	261.88
268.913	268.88
269.145	291.88
269.377	300.88
269.609	289.88
269.841	291.88
270.073	280.88
270.306	317.88
270.538	337.88
270.77	334.88
271.002	348.88
271.234	316.88
271.466	311.88
271.698	320.88
271.93	330.88
272.162	322.88
272.394	320.88
272.626	323.88
272.858	308.88
273.09	305.88
273.322	288.88
273.553	273.88
273.785	283.88
274.017	272.88
274.249	280.88
274.481	275.88
274.713	275.88
274.945	293.88
275.176	304.88
275.408	279.88
275.64	275.88
275.872	291.88
276.104	294.88
276.335	284.88
276.567	300.88
276.799	300.88
277.031	315.88
277.262	346.88
277.494	341.88
277.726	304.88
277.957	328.88
278.189	305.88
278.421	291.88
278.652	296.88
278.884	304.88
279.115	293.88
279.347	302.88
279.579	300.88
279.81	308.88
280.042	283.88
280.273	303.88
280.505	317.88
280.736	313.88
280.968	288.88
281.199	296.88
281.431	318.88
281.662	308.88
281.894	297.88
282.125	295.88
282.356	309.88
282.588	339.88
282.819	321.88
283.051	309.88
283.282	295.88
283.513	331.88
283.745	310.88
283.976	319.88
284.207	324.88
284.439	318.88
284.67	325.88
284.901	307.88
285.132	309.88
285.364	313.88
285.595	333.88
285.826	286.88
286.057	308.88
286.288	320.88
286.52	322.88
286.751	333.88
286.982	330.88
287.213	309.88
287.444	328.88
287.675	313.88
287.906	346.88
288.138	338.88
288.369	341.88
288.6	346.88
288.831	336.88
289.062	308.88
289.293	321.88
289.524	320.88
289.755	325.88
289.986	310.88
290.217	325.88
290.448	330.88
290.679	315.88
290.91	330.88
291.141	354.88
291.371	324.88
291.602	320.88
291.833	325.88
292.064	341.88
292.295	338.88
292.526	331.88
292.757	321.88
292.987	363.88
293.218	339.88
293.449	346.88
293.68	329.88
293.91	313.88
294.141	325.88
294.372	321.88
294.603	314.88
294.833	320.88
295.064	331.88
295.295	320.88
295.525	326.88
295.756	333.88
295.987	349.88
296.217	359.88
296.448	378.88
296.679	365.88
296.909	345.88
297.14	335.88
297.37	353.88
297.601	347.88
297.831	348.88
298.062	352.88
298.292	342.88
298.523	347.88
298.753	356.88
298.984	359.88
299.214	356.88
299.445	348.88
299.675	331.88
299.905	365.88
300.136	351.88
300.366	349.88
300.597	349.88
300.827	363.88
301.057	369.88
301.288	379.88
301.518	375.88
301.748	371.88
301.979	373.88
302.209	371.88
302.439	378.88
302.669	375.88
302.9	368.88
303.13	376.88
303.36	378.88
303.59	355.88
303.82	374.88
304.051	388.88
304.281	392.88
304.511	369.88
304.741	372.88
304.971	376.88
305.201	371.88
305.431	369.88
305.661	358.88
305.891	376.88
306.121	363.88
306.352	384.88
306.582	380.88
306.812	379.88
307.042	357.88
307.272	376.88
307.502	383.88
307.731	376.88
307.961	385.88
308.191	367.88
308.421	358.88
308.651	366.88
308.881	376.88
309.111	392.88
309.341	376.88
309.571	378.88
309.8	396.88
310.03	405.88
310.26	399.88
310.49	415.88
310.72	417.88
310.949	408.88
311.179	414.88
311.409	398.88
311.639	408.88
311.868	412.88
312.098	401.88
312.328	403.88
312.557	441.88
312.787	428.88
313.017	396.88
313.246	414.88
313.476	410.88
313.706	403.88
313.935	405.88
314.165	422.88
314.394	410.88
314.624	415.88
314.853	410.88
315.083	411.88
315.312	401.88
315.542	416.88
315.771	401.88
316.001	391.88
316.23	409.88
316.46	409.88
316.689	418.88
316.919	418.88
317.148	420.88
317.377	423.88
317.607	415.88
317.836	415.88
318.065	410.88
318.295	396.88
318.524	398.88
318.753	400.88
318.983	415.88
319.212	420.88
319.441	416.88
319.67	414.88
319.9	406.88
320.129	408.88
320.358	417.88
320.587	416.88
320.816	411.88
321.046	419.88
321.275	428.88
321.504	454.88
321.733	431.88
321.962	422.88
322.191	411.88
322.42	425.88
322.649	463.88
322.878	444.88
323.108	454.88
323.337	465.88
323.566	497.88
323.795	493.88
324.024	525.88
324.253	603.88
324.482	828.88
324.71	1137.88
324.939	1642.88
325.168	1455.88
325.397	794.88
325.626	583.88
325.855	534.88
326.084	504.88
326.313	511.88
326.542	508.88
326.77	509.88
326.999	582.88
327.228	738.88
327.457	1050.88
327.686	1272.88
327.914	898.88
328.143	673.88
328.372	566.88
328.6	558.88
328.829	546.88
329.058	536.88
329.287	570.88
329.515	545.88
329.744	501.88
329.972	528.88
330.201	523.88
330.43	547.88
330.658	570.88
330.887	594.88
331.115	571.88
331.344	503.88
331.572	516.88
331.801	527.88
332.03	507.88
332.258	485.88
332.486	500.88
332.715	500.88
332.943	498.88
333.172	492.88
333.4	509.88
333.629	540.88
333.857	544.88
334.085	529.88
334.314	538.88
334.542	585.88
334.771	575.88
334.999	548.88
335.227	543.88
335.455	532.88
335.684	514.88
335.912	502.88
336.14	503.88
336.369	481.88
336.597	500.88
336.825	501.88
337.053	487.88
337.281	490.88
337.51	483.88
337.738	491.88
337.966	476.88
338.194	487.88
338.422	481.88
338.65	490.88
338.878	466.88
339.106	455.88
339.334	474.88
339.562	464.88
339.79	461.88
340.018	455.88
340.246	467.88
340.474	492.88
340.702	480.88
340.93	464.88
341.158	459.88
341.386	466.88
341.614	463.88
341.842	476.88
342.07	445.88
342.298	446.88
342.526	470.88
342.754	466.88
342.981	458.88
343.209	456.88
343.437	468.88
343.665	479.88
343.893	492.88
344.12	502.88
344.348	507.88
344.576	492.88
344.804	495.88
345.031	488.88
345.259	469.88
345.487	491.88
345.714	458.88
345.942	455.88
346.17	458.88
346.397	440.88
346.625	426.88
346.853	449.88
347.08	442.88
347.308	446.88
347.535	457.88
347.763	466.88
347.99	442.88
348.218	461.88
348.445	447.88
348.673	465.88
348.9	446.88
349.128	441.88
349.355	448.88
349.583	427.88
349.81	424.88
350.037	448.88
350.265	422.88
350.492	436.88
350.72	438.88
350.947	437.88
351.174	441.88
351.402	437.88
351.629	458.88
351.856	439.88
352.083	433.88
352.311	473.88
352.538	461.88
352.765	459.88
352.992	448.88
353.22	437.88
353.447	434.88
353.674	454.88
353.901	430.88
354.128	417.88
354.355	421.88
354.583	440.88
354.81	430.88
355.037	423.88
355.264	413.88
355.491	422.88
355.718	440.88
355.945	428.88
356.172	437.88
356.399	428.88
356.626	432.88
356.853	439.88
357.08	406.88
357.307	420.88
357.534	422.88
357.761	438.88
357.988	423.88
358.215	429.88
358.441	426.88
358.668	406.88
358.895	429.88
359.122	434.88
359.349	422.88
359.576	441.88
359.802	456.88
360.029	455.88
360.256	490.88
360.483	477.88
360.709	438.88
360.936	425.88
361.163	434.88
361.39	425.88
361.616	454.88
361.843	430.88
362.07	420.88
362.296	439.88
362.523	436.88
362.749	416.88
362.976	433.88
363.203	424.88
363.429	418.88
363.656	425.88
363.882	428.88
364.109	420.88
364.335	428.88
364.562	431.88
364.788	434.88
365.015	430.88
365.241	434.88
365.468	417.88
365.694	434.88
365.92	433.88
366.147	422.88
366.373	430.88
366.599	416.88
366.826	430.88
367.052	417.88
367.278	416.88
367.505	434.88
367.731	409.88
367.957	430.88
368.184	448.88
368.41	440.88
368.636	421.88
368.862	446.88
369.089	414.88
369.315	428.88
369.541	425.88
369.767	422.88
369.993	428.88
370.219	434.88
370.445	411.88
370.672	432.88
370.898	427.88
371.124	417.88
371.35	440.88
371.576	423.88
371.802	422.88
372.028	448.88
372.254	420.88
372.48	440.88
372.706	420.88
372.932	444.88
373.158	452.88
373.384	445.88
373.61	447.88
373.835	424.88
374.061	436.88
374.287	439.88
374.513	461.88
374.739	450.88
374.965	461.88
375.191	441.88
375.416	449.88
375.642	450.88
375.868	437.88
376.094	455.88
376.319	440.88
376.545	415.88
376.771	438.88
376.997	426.88
377.222	428.88
377.448	432.88
377.674	423.88
377.899	429.88
378.125	417.88
378.35	417.88
378.576	424.88
378.802	424.88
379.027	446.88
379.253	433.88
379.478	426.88
379.704	427.88
379.929	424.88
380.155	435.88
380.38	417.88
380.606	430.88
380.831	442.88
381.057	458.88
381.282	437.88
381.507	448.88
381.733	453.88
381.958	448.88
382.184	440.88
382.409	443.88
382.634	420.88
382.86	449.88
383.085	443.88
383.31	450.88
383.535	462.88
383.761	459.88
383.986	477.88
384.211	462.88
384.436	457.88
384.662	472.88
384.887	499.88
385.112	480.88
385.337	482.88
385.562	507.88
385.787	494.88
386.013	518.88
386.238	502.88
386.463	516.88
386.688	467.88
386.913	468.88
387.138	484.88
387.363	492.88
387.588	485.88
387.813	482.88
388.038	497.88
388.263	473.88
388.488	489.88
388.713	491.88
388.938	489.88
389.163	484.88
389.387	491.88
389.612	468.88
389.837	485.88
390.062	490.88
390.287	489.88
390.512	500.88
390.736	480.88
390.961	508.88
391.186	493.88
391.411	496.88
391.636	478.88
391.86	516.88
392.085	533.88
392.31	533.88
392.534	518.88
392.759	505.88
392.984	509.88
393.208	499.88
393.433	510.88
393.658	499.88
393.882	494.88
394.107	507.88
394.331	490.88
394.556	479.88
394.78	507.88
395.005	497.88
395.229	514.88
395.454	526.88
395.678	529.88
395.903	551.88
396.127	575.88
396.352	528.88
396.576	542.88
396.801	518.88
397.025	532.88
397.249	505.88
397.474	515.88
397.698	546.88
397.922	560.88
398.147	571.88
398.371	578.88
398.595	549.88
398.82	560.88
399.044	596.88
399.268	639.88
399.492	665.88
399.717	731.88
399.941	753.88
400.165	758.88
400.389	714.88
400.613	643.88
400.837	612.88
401.062	591.88
401.286	599.88
401.51	552.88
401.734	583.88
401.958	598.88
402.182	587.88
402.406	594.88
402.63	608.88
402.854	613.88
403.078	590.88
403.302	604.88
403.526	603.88
403.75	606.88
403.974	622.88
404.198	606.88
404.422	623.88
404.645	617.88
404.869	603.88
405.093	643.88
405.317	676.88
405.541	721.88
405.765	662.88
405.988	624.88
406.212	637.88
406.436	647.88
406.66	650.88
406.883	662.88
407.107	674.88
407.331	721.88
407.555	801.88
407.778	776.88
408.002	716.88
408.226	643.88
408.449	643.88
408.673	633.88
408.896	679.88
409.12	698.88
409.344	655.88
409.567	632.88
409.791	615.88
410.014	586.88
410.238	613.88
410.461	606.88
410.685	605.88
410.908	613.88
411.132	655.88
411.355	653.88
411.578	635.88
411.802	617.88
412.025	591.88
412.249	580.88
412.472	640.88
412.695	663.88
412.919	645.88
413.142	588.88
413.365	590.88
413.589	598.88
413.812	554.88
414.035	588.88
414.258	581.88
414.482	577.88
414.705	570.88
414.928	586.88
415.151	571.88
415.374	570.88
415.597	563.88
415.821	561.88
416.044	577.88
416.267	574.88
416.49	562.88
416.713	573.88
416.936	544.88
417.159	570.88
417.382	573.88
417.605	576.88
417.828	574.88
418.051	598.88
418.274	574.88
418.497	585.88
418.72	578.88
418.943	559.88
419.166	616.88
419.389	618.88
419.611	619.88
419.834	617.88
420.057	608.88
420.28	608.88
420.503	578.88
420.726	568.88
420.948	596.88
421.171	633.88
421.394	666.88
421.617	598.88
421.839	590.88
422.062	599.88
422.285	592.88
422.507	650.88
422.73	702.88
422.953	696.88
423.175	632.88
423.398	614.88
423.621	593.88
423.843	645.88
424.066	632.88
424.288	641.88
424.511	640.88
424.733	689.88
424.956	756.88
425.178	727.88
425.401	700.88
425.623	693.88
425.846	645.88
426.068	619.88
426.291	576.88
426.513	583.88
426.735	614.88
426.958	636.88
427.18	701.88
427.402	814.88
427.625	891.88
427.847	743.88
428.069	686.88
428.292	638.88
428.514	584.88
428.736	581.88
428.958	582.88
429.181	549.88
429.403	561.88
429.625	545.88
429.847	585.88
430.069	617.88
430.292	659.88
430.514	583.88
430.736	551.88
430.958	553.88
431.18	571.88
431.402	533.88
431.624	538.88
431.846	524.88
432.068	530.88
432.29	530.88
432.512	537.88
432.734	560.88
432.956	561.88
433.178	541.88
433.4	512.88
433.622	541.88
433.844	521.88
434.066	533.88
434.287	533.88
434.509	550.88
434.731	577.88
434.953	568.88
435.175	561.88
435.397	600.88
435.618	604.88
435.84	632.88
436.062	705.88
436.284	764.88
436.505	658.88
436.727	604.88
436.949	570.88
437.17	552.88
437.392	541.88
437.614	558.88
437.835	583.88
438.057	653.88
438.278	734.88
438.5	738.88
438.721	821.88
438.943	767.88
439.165	636.88
439.386	587.88
439.608	610.88
439.829	595.88
440.05	606.88
440.272	644.88
440.493	620.88
440.715	604.88
440.936	609.88
441.158	586.88
441.379	551.88
441.6	596.88
441.822	621.88
442.043	665.88
442.264	692.88
442.486	750.88
442.707	650.88
442.928	609.88
443.149	613.88
443.371	619.88
443.592	680.88
443.813	735.88
444.034	823.88
444.255	701.88
444.476	662.88
444.698	632.88
444.919	642.88
445.14	769.88
445.361	702.88
445.582	653.88
445.803	684.88
446.024	784.88
446.245	754.88
446.466	693.88
446.687	625.88
446.908	582.88
447.129	578.88
447.35	541.88
447.571	523.88
447.792	524.88
448.013	553.88
448.234	548.88
448.455	598.88
448.675	692.88
448.896	770.88
449.117	677.88
449.338	638.88
449.559	752.88
449.779	851.88
450	680.88
450.221	586.88
450.442	535.88
450.662	536.88
450.883	553.88
451.104	564.88
451.324	516.88
451.545	518.88
451.766	520.88
451.986	502.88
452.207	488.88
452.428	481.88
452.648	480.88
452.869	483.88
453.089	496.88
453.31	509.88
453.53	486.88
453.751	481.88
453.971	477.88
454.192	485.88
454.412	462.88
454.633	472.88
454.853	484.88
455.073	502.88
455.294	508.88
455.514	583.88
455.734	558.88
455.955	488.88
456.175	473.88
456.395	459.88
456.616	469.88
456.836	476.88
457.056	454.88
457.276	469.88
457.497	460.88
457.717	462.88
457.937	467.88
458.157	486.88
458.377	490.88
458.598	510.88
458.818	527.88
459.038	598.88
459.258	620.88
459.478	566.88
459.698	544.88
459.918	542.88
460.138	556.88
460.358	581.88
460.578	585.88
460.798	577.88
461.018	586.88
461.238	561.88
461.458	572.88
461.678	557.88
461.898	565.88
462.118	591.88
462.338	622.88
462.558	605.88
462.777	622.88
462.997	637.88
463.217	666.88
463.437	658.88
463.657	630.88
463.876	638.88
464.096	610.88
464.316	634.88
464.536	647.88
464.755	648.88
464.975	600.88
465.195	621.88
465.414	656.88
465.634	590.88
465.854	575.88
466.073	525.88
466.293	536.88
466.512	535.88
466.732	520.88
466.951	493.88
467.171	493.88
467.391	508.88
467.61	534.88
467.829	534.88
468.049	521.88
468.268	527.88
468.488	502.88
468.707	483.88
468.927	521.88
469.146	467.88
469.365	489.88
469.585	488.88
469.804	529.88
470.023	498.88
470.243	525.88
470.462	526.88
470.681	529.88
470.901	537.88
471.12	527.88
471.339	482.88
471.558	513.88
471.777	504.88
471.997	507.88
472.216	512.88
472.435	524.88
472.654	489.88
472.873	484.88
473.092	490.88
473.311	492.88
473.53	530.88
473.749	518.88
473.968	529.88
474.187	620.88
474.406	655.88
474.625	545.88
474.844	517.88
475.063	502.88
475.282	515.88
475.501	532.88
475.72	512.88
475.939	521.88
476.158	532.88
476.377	524.88
476.596	503.88
476.814	526.88
477.033	542.88
477.252	544.88
477.471	553.88
477.69	582.88
477.908	549.88
478.127	567.88
478.346	573.88
478.564	582.88
478.783	582.88
479.002	585.88
479.22	612.88
479.439	617.88
479.658	644.88
479.876	630.88
480.095	628.88
480.313	638.88
480.532	653.88
480.751	653.88
480.969	632.88
481.188	679.88
481.406	677.88
481.624	634.88
481.843	602.88
482.061	605.88
482.28	595.88
482.498	612.88
482.717	603.88
482.935	595.88
483.153	588.88
483.372	592.88
483.59	614.88
483.808	578.88
484.027	606.88
484.245	593.88
484.463	601.88
484.681	604.88
484.9	591.88
485.118	599.88
485.336	599.88
485.554	614.88
485.772	597.88
485.99	624.88
486.209	621.88
486.427	638.88
486.645	618.88
486.863	614.88
487.081	641.88
487.299	628.88
487.517	623.88
487.735	632.88
487.953	622.88
488.171	623.88
488.389	605.88
488.607	639.88
488.825	612.88
489.043	609.88
489.261	616.88
489.479	674.88
489.696	658.88
489.914	629.88
490.132	648.88
490.35	644.88
490.568	658.88
490.786	678.88
491.003	686.88
491.221	690.88
491.439	700.88
491.657	705.88
491.874	729.88
492.092	726.88
492.31	699.88
492.527	729.88
492.745	728.88
492.963	735.88
493.18	738.88
493.398	712.88
493.615	723.88
493.833	737.88
494.05	748.88
494.268	721.88
494.485	747.88
494.703	746.88
494.92	728.88
495.138	739.88
495.355	741.88
495.573	745.88
495.79	751.88
496.008	754.88
496.225	729.88
496.442	733.88
496.66	776.88
496.877	756.88
497.094	760.88
497.312	761.88
497.529	774.88
497.746	823.88
497.963	806.88
498.181	817.88
498.398	847.88
498.615	881.88
498.832	872.88
499.049	928.88
499.267	935.88
499.484	989.88
499.701	1021.88
499.918	1092.88
500.135	1192.88
500.352	1277.88
500.569	1352.88
500.786	1326.88
501.003	1275.88
501.22	1221.88
501.437	1152.88
501.654	1078.88
