Data from 1973.PennyLincolnUp.Lamp.En5.5.200Scan.071719.P1.Changed Mount._HRD10591_15-45-44-853.txt Node
Date: Thu Jul 18 15:45:44 EDT 2019
User: cochatt
Spectrometer: HR+D1059
Trigger mode: 1
Integration Time (sec): 1.000000E-1
Scans to average: 1
Electric dark correction enabled: true
Nonlinearity correction enabled: false
Boxcar width: 0
XAxis mode: Wavelengths
Number of Pixels in Spectrum: 2048
>>>>>Begin Spectral Data<<<<<
223.165	-3
223.4	-3
223.635	-3
223.869	-9
224.104	-12
224.338	-27
224.573	-4
224.808	-7
225.042	-21
225.277	5
225.511	0
225.746	-4
225.98	-2
226.215	8
226.449	6
226.683	21
226.918	27
227.152	22
227.387	33
227.621	39
227.856	45
228.09	41
228.324	45
228.559	64
228.793	66
229.027	99
229.262	108
229.496	125
229.73	112
229.964	140
230.199	118
230.433	100
230.667	126
230.901	120
231.136	105
231.37	108
231.604	116
231.838	104
232.072	102
232.306	110
232.541	105
232.775	104
233.009	116
233.243	114
233.477	102
233.711	120
233.945	118
234.179	130
234.413	113
234.647	120
234.881	120
235.115	119
235.349	108
235.583	99
235.817	123
236.051	109
236.285	120
236.519	109
236.753	122
236.987	128
237.221	169
237.455	204
237.689	165
237.922	149
238.156	138
238.39	136
238.624	123
238.858	130
239.091	123
239.325	127
239.559	123
239.793	126
240.027	134
240.26	164
240.494	148
240.728	141
240.961	145
241.195	154
241.429	123
241.662	141
241.896	120
242.13	126
242.363	141
242.597	153
242.83	141
243.064	151
243.298	142
243.531	133
243.765	140
243.998	151
244.232	159
244.465	146
244.699	144
244.932	150
245.166	157
245.399	139
245.633	146
245.866	138
246.099	164
246.333	157
246.566	153
246.8	164
247.033	180
247.266	158
247.5	165
247.733	163
247.966	176
248.2	171
248.433	164
248.666	161
248.899	180
249.133	195
249.366	194
249.599	202
249.832	190
250.066	178
250.299	179
250.532	195
250.765	205
250.998	217
251.231	220
251.465	218
251.698	206
251.931	204
252.164	186
252.397	213
252.63	214
252.863	220
253.096	211
253.329	219
253.562	221
253.795	220
254.028	216
254.261	213
254.494	239
254.727	249
254.96	267
255.193	285
255.426	260
255.659	246
255.892	222
256.124	232
256.357	232
256.59	218
256.823	224
257.056	205
257.289	215
257.521	242
257.754	216
257.987	224
258.22	201
258.452	211
258.685	213
258.918	216
259.151	223
259.383	222
259.616	230
259.849	231
260.081	253
260.314	244
260.547	269
260.779	236
261.012	242
261.244	222
261.477	230
261.71	230
261.942	227
262.175	246
262.407	224
262.64	213
262.872	238
263.105	213
263.337	221
263.57	217
263.802	242
264.035	237
264.267	221
264.499	230
264.732	225
264.964	244
265.197	222
265.429	227
265.661	230
265.894	232
266.126	241
266.358	224
266.591	253
266.823	254
267.055	243
267.287	235
267.52	229
267.752	243
267.984	249
268.216	262
268.448	250
268.681	250
268.913	259
269.145	266
269.377	274
269.609	284
269.841	268
270.073	285
270.306	290
270.538	326
270.77	314
271.002	314
271.234	289
271.466	300
271.698	337
271.93	314
272.162	306
272.394	327
272.626	297
272.858	299
273.09	285
273.322	295
273.553	301
273.785	262
274.017	282
274.249	294
274.481	275
274.713	291
274.945	277
275.176	292
275.408	299
275.64	287
275.872	281
276.104	280
276.335	287
276.567	294
276.799	296
277.031	320
277.262	335
277.494	344
277.726	319
277.957	311
278.189	294
278.421	292
278.652	287
278.884	301
279.115	289
279.347	297
279.579	312
279.81	290
280.042	281
280.273	315
280.505	295
280.736	297
280.968	283
281.199	325
281.431	312
281.662	316
281.894	324
282.125	305
282.356	308
282.588	312
282.819	314
283.051	314
283.282	299
283.513	314
283.745	306
283.976	317
284.207	305
284.439	306
284.67	301
284.901	325
285.132	314
285.364	320
285.595	301
285.826	299
286.057	309
286.288	327
286.52	332
286.751	318
286.982	309
287.213	330
287.444	323
287.675	314
287.906	347
288.138	349
288.369	310
288.6	341
288.831	341
289.062	326
289.293	321
289.524	310
289.755	326
289.986	330
290.217	331
290.448	325
290.679	326
290.91	325
291.141	309
291.371	328
291.602	313
291.833	327
292.064	329
292.295	344
292.526	310
292.757	333
292.987	315
293.218	319
293.449	328
293.68	332
293.91	320
294.141	337
294.372	321
294.603	318
294.833	321
295.064	346
295.295	338
295.525	332
295.756	334
295.987	334
296.217	364
296.448	348
296.679	345
296.909	341
297.14	338
297.37	334
297.601	327
297.831	344
298.062	345
298.292	349
298.523	344
298.753	355
298.984	345
299.214	340
299.445	347
299.675	360
299.905	361
300.136	363
300.366	352
300.597	361
300.827	373
301.057	353
301.288	372
301.518	365
301.748	352
301.979	379
302.209	368
302.439	372
302.669	372
302.9	348
303.13	356
303.36	372
303.59	360
303.82	378
304.051	406
304.281	361
304.511	380
304.741	372
304.971	384
305.201	359
305.431	368
305.661	366
305.891	359
306.121	360
306.352	360
306.582	372
306.812	355
307.042	382
307.272	342
307.502	376
307.731	372
307.961	376
308.191	366
308.421	363
308.651	383
308.881	372
309.111	361
309.341	372
309.571	365
309.8	386
310.03	396
310.26	387
310.49	411
310.72	411
310.949	404
311.179	393
311.409	380
311.639	379
311.868	390
312.098	417
312.328	394
312.557	411
312.787	419
313.017	414
313.246	402
313.476	420
313.706	398
313.935	416
314.165	422
314.394	417
314.624	437
314.853	417
315.083	417
315.312	419
315.542	418
315.771	398
316.001	396
316.23	404
316.46	398
316.689	406
316.919	417
317.148	409
317.377	434
317.607	404
317.836	420
318.065	417
318.295	413
318.524	398
318.753	409
318.983	380
319.212	404
319.441	402
319.67	408
319.9	400
320.129	404
320.358	403
320.587	406
320.816	424
321.046	412
321.275	423
321.504	426
321.733	429
321.962	412
322.191	428
322.42	435
322.649	448
322.878	471
323.108	452
323.337	461
323.566	507
323.795	491
324.024	530
324.253	591
324.482	779
324.71	1107
324.939	1564
325.168	1371
325.397	775
325.626	588
325.855	512
326.084	488
326.313	492
326.542	476
326.77	503
326.999	597
327.228	712
327.457	1012
327.686	1204
327.914	874
328.143	644
328.372	550
328.6	532
328.829	522
329.058	548
329.287	531
329.515	509
329.744	512
329.972	520
330.201	518
330.43	534
330.658	535
330.887	544
331.115	556
331.344	507
331.572	495
331.801	508
332.03	508
332.258	514
332.486	500
332.715	500
332.943	488
333.172	517
333.4	506
333.629	522
333.857	538
334.085	556
334.314	547
334.542	569
334.771	545
334.999	548
335.227	508
335.455	510
335.684	504
335.912	491
336.14	502
336.369	500
336.597	493
336.825	500
337.053	484
337.281	485
337.51	458
337.738	493
337.966	483
338.194	509
338.422	491
338.65	493
338.878	482
339.106	466
339.334	467
339.562	470
339.79	480
340.018	464
340.246	466
340.474	456
340.702	462
340.93	482
341.158	456
341.386	476
341.614	460
341.842	465
342.07	462
342.298	486
342.526	425
342.754	442
342.981	458
343.209	474
343.437	451
343.665	476
343.893	496
344.12	507
344.348	500
344.576	480
344.804	486
345.031	473
345.259	472
345.487	460
345.714	487
345.942	463
346.17	442
346.397	458
346.625	453
346.853	450
347.08	428
347.308	434
347.535	449
347.763	458
347.99	437
348.218	453
348.445	459
348.673	426
348.9	422
349.128	456
349.355	428
349.583	446
349.81	422
350.037	454
350.265	433
350.492	416
350.72	432
350.947	437
351.174	440
351.402	436
351.629	441
351.856	426
352.083	428
352.311	439
352.538	460
352.765	450
352.992	430
353.22	431
353.447	434
353.674	428
353.901	434
354.128	412
354.355	413
354.583	430
354.81	423
355.037	413
355.264	416
355.491	433
355.718	418
355.945	414
356.172	412
356.399	425
356.626	429
356.853	424
357.08	414
357.307	407
357.534	418
357.761	428
357.988	427
358.215	416
358.441	426
358.668	393
358.895	417
359.122	430
359.349	440
359.576	444
359.802	456
360.029	465
360.256	466
360.483	446
360.709	442
360.936	450
361.163	410
361.39	453
361.616	451
361.843	441
362.07	436
362.296	419
362.523	449
362.749	457
362.976	412
363.203	424
363.429	416
363.656	444
363.882	447
364.109	428
364.335	414
364.562	411
364.788	420
365.015	426
365.241	417
365.468	418
365.694	421
365.92	406
366.147	411
366.373	433
366.599	430
366.826	412
367.052	429
367.278	425
367.505	428
367.731	429
367.957	438
368.184	422
368.41	440
368.636	441
368.862	438
369.089	440
369.315	430
369.541	406
369.767	409
369.993	443
370.219	417
370.445	439
370.672	447
370.898	425
371.124	441
371.35	454
371.576	458
371.802	423
372.028	428
372.254	446
372.48	440
372.706	440
372.932	444
373.158	456
373.384	428
373.61	440
373.835	434
374.061	426
374.287	434
374.513	452
374.739	460
374.965	462
375.191	456
375.416	452
375.642	446
375.868	433
376.094	442
376.319	429
376.545	438
376.771	432
376.997	427
377.222	455
377.448	437
377.674	422
377.899	434
378.125	419
378.35	434
378.576	434
378.802	426
379.027	422
379.253	429
379.478	417
379.704	436
379.929	438
380.155	443
380.38	426
380.606	445
380.831	434
381.057	442
381.282	420
381.507	422
381.733	444
381.958	461
382.184	456
382.409	442
382.634	441
382.86	432
383.085	450
383.31	474
383.535	452
383.761	457
383.986	440
384.211	459
384.436	476
384.662	484
384.887	477
385.112	483
385.337	500
385.562	488
385.787	505
386.013	481
386.238	502
386.463	501
386.688	493
386.913	518
387.138	500
387.363	505
387.588	490
387.813	501
388.038	488
388.263	522
388.488	497
388.713	506
388.938	485
389.163	479
389.387	459
389.612	508
389.837	488
390.062	473
390.287	471
390.512	465
390.736	485
390.961	496
391.186	498
391.411	468
391.636	516
391.86	522
392.085	512
392.31	517
392.534	506
392.759	493
392.984	501
393.208	526
393.433	512
393.658	514
393.882	481
394.107	488
394.331	503
394.556	506
394.78	517
395.005	523
395.229	517
395.454	540
395.678	519
395.903	525
396.127	538
396.352	527
396.576	546
396.801	514
397.025	498
397.249	498
397.474	521
397.698	550
397.922	533
398.147	551
398.371	568
398.595	556
398.82	580
399.044	593
399.268	626
399.492	669
399.717	730
399.941	760
400.165	761
400.389	717
400.613	650
400.837	597
401.062	572
401.286	597
401.51	567
401.734	557
401.958	595
402.182	593
402.406	598
402.63	611
402.854	611
403.078	604
403.302	608
403.526	596
403.75	639
403.974	635
404.198	616
404.422	608
404.645	617
404.869	619
405.093	641
405.317	661
405.541	698
405.765	648
405.988	627
406.212	621
406.436	647
406.66	656
406.883	639
407.107	693
407.331	722
407.555	762
407.778	786
408.002	750
408.226	650
408.449	663
408.673	664
408.896	656
409.12	700
409.344	680
409.567	605
409.791	613
410.014	617
410.238	601
410.461	595
410.685	620
410.908	628
411.132	637
411.355	662
411.578	633
411.802	602
412.025	588
412.249	618
412.472	638
412.695	654
412.919	631
413.142	605
413.365	588
413.589	568
413.812	570
414.035	585
414.258	552
414.482	573
414.705	569
414.928	574
415.151	590
415.374	565
415.597	573
415.821	557
416.044	569
416.267	571
416.49	552
416.713	552
416.936	549
417.159	561
417.382	553
417.605	557
417.828	588
418.051	596
418.274	554
418.497	576
418.72	564
418.943	565
419.166	625
419.389	630
419.611	611
419.834	596
420.057	617
420.28	590
420.503	588
420.726	583
420.948	600
421.171	604
421.394	642
421.617	603
421.839	566
422.062	610
422.285	608
422.507	661
422.73	704
422.953	665
423.175	636
423.398	591
423.621	607
423.843	631
424.066	620
424.288	614
424.511	631
424.733	717
424.956	732
425.178	692
425.401	716
425.623	726
425.846	655
426.068	612
426.291	615
426.513	584
426.735	596
426.958	640
427.18	725
427.402	811
427.625	877
427.847	755
428.069	650
428.292	619
428.514	599
428.736	584
428.958	567
429.181	545
429.403	546
429.625	546
429.847	568
430.069	626
430.292	636
430.514	544
430.736	560
430.958	535
431.18	530
431.402	543
431.624	548
431.846	528
432.068	536
432.29	536
432.512	546
432.734	554
432.956	546
433.178	550
433.4	548
433.622	552
433.844	521
434.066	525
434.287	546
434.509	548
434.731	548
434.953	578
435.175	587
435.397	609
435.618	606
435.84	624
436.062	679
436.284	762
436.505	644
436.727	598
436.949	574
437.17	582
437.392	559
437.614	560
437.835	590
438.057	636
438.278	747
438.5	720
438.721	775
438.943	762
439.165	628
439.386	601
439.608	598
439.829	568
440.05	601
440.272	634
440.493	603
440.715	566
440.936	589
441.158	568
441.379	566
441.6	596
441.822	581
442.043	635
442.264	711
442.486	730
442.707	634
442.928	622
443.149	596
443.371	631
443.592	671
443.813	738
444.034	777
444.255	690
444.476	650
444.698	652
444.919	647
445.14	742
445.361	694
445.582	645
445.803	700
446.024	767
446.245	753
446.466	678
446.687	631
446.908	574
447.129	590
447.35	557
447.571	571
447.792	534
448.013	530
448.234	552
448.455	598
448.675	677
448.896	788
449.117	670
449.338	633
449.559	722
449.779	829
450	680
450.221	589
450.442	555
450.662	522
450.883	514
451.104	528
451.324	521
451.545	513
451.766	514
451.986	478
452.207	480
452.428	481
452.648	483
452.869	512
453.089	480
453.31	518
453.53	502
453.751	496
453.971	493
454.192	501
454.412	483
454.633	465
454.853	483
455.073	461
455.294	485
455.514	568
455.734	543
455.955	471
456.175	484
456.395	456
456.616	465
456.836	457
457.056	470
457.276	455
457.497	469
457.717	473
457.937	476
458.157	472
458.377	473
458.598	496
458.818	527
459.038	578
459.258	622
459.478	565
459.698	552
459.918	530
460.138	540
460.358	544
460.578	550
460.798	541
461.018	590
461.238	590
461.458	568
461.678	583
461.898	585
462.118	574
462.338	586
462.558	608
462.777	628
462.997	638
463.217	635
463.437	709
463.657	646
463.876	636
464.096	634
464.316	612
464.536	616
464.755	617
464.975	609
465.195	617
465.414	658
465.634	594
465.854	545
466.073	514
466.293	518
466.512	521
466.732	506
466.951	510
467.171	509
467.391	508
467.61	510
467.829	532
468.049	519
468.268	530
468.488	504
468.707	517
468.927	495
469.146	496
469.365	481
469.585	498
469.804	503
470.023	522
470.243	542
470.462	505
470.681	536
470.901	529
471.12	518
471.339	512
471.558	530
471.777	525
471.997	506
472.216	494
472.435	530
472.654	532
472.873	508
473.092	506
473.311	519
473.53	519
473.749	522
473.968	540
474.187	648
474.406	637
474.625	517
474.844	501
475.063	509
475.282	518
475.501	526
475.72	515
475.939	535
476.158	536
476.377	507
476.596	538
476.814	552
477.033	536
477.252	547
477.471	534
477.69	548
477.908	576
478.127	569
478.346	576
478.564	590
478.783	572
479.002	613
479.22	621
479.439	615
479.658	594
479.876	602
480.095	628
480.313	660
480.532	675
480.751	663
480.969	638
481.188	670
481.406	680
481.624	608
481.843	622
482.061	610
482.28	592
482.498	586
482.717	588
482.935	605
483.153	616
483.372	592
483.59	611
483.808	599
484.027	579
484.245	562
484.463	597
484.681	600
484.9	590
485.118	635
485.336	595
485.554	587
485.772	613
485.99	601
486.209	614
486.427	606
486.645	624
486.863	653
487.081	646
487.299	625
487.517	611
487.735	649
487.953	636
488.171	638
488.389	641
488.607	643
488.825	645
489.043	640
489.261	638
489.479	631
489.696	629
489.914	634
490.132	633
490.35	675
490.568	668
490.786	656
491.003	644
491.221	700
491.439	688
491.657	702
491.874	706
492.092	694
492.31	717
492.527	746
492.745	740
492.963	714
493.18	730
493.398	723
493.615	725
493.833	736
494.05	732
494.268	738
494.485	737
494.703	729
494.92	742
495.138	737
495.355	756
495.573	749
495.79	724
496.008	729
496.225	760
496.442	768
496.66	745
496.877	740
497.094	753
497.312	756
497.529	762
497.746	777
497.963	789
498.181	827
498.398	867
498.615	885
498.832	914
499.049	936
499.267	936
499.484	998
499.701	1080
499.918	1124
500.135	1214
500.352	1324
500.569	1352
500.786	1294
501.003	1285
501.22	1237
501.437	1140
501.654	1096
501.871	1044
502.088	993
502.305	940
502.522	909
502.739	896
502.956	825
503.172	840
503.389	805
503.606	774
503.823	770
504.04	764
504.256	774
504.473	788
504.69	791
504.907	780
505.123	752
505.34	741
505.557	746
505.773	717
505.99	725
506.207	696
506.423	682
506.64	701
506.856	667
507.073	649
507.289	668
507.506	672
507.722	677
507.939	671
508.155	681
508.372	660
508.588	657
508.805	654
509.021	643
509.238	665
509.454	658
509.67	653
509.887	636
510.103	660
510.319	673
510.536	693
510.752	939
510.968	816
511.184	630
511.401	614
511.617	616
511.833	618
512.049	594
512.265	611
512.481	618
512.698	614
512.914	616
513.13	591
513.346	598
513.562	579
513.778	604
513.994	612
514.21	619
514.426	631
514.642	636
514.858	640
515.074	692
515.29	724
515.506	961
515.721	838
515.937	690
516.153	634
516.369	653
516.585	650
516.801	637
517.016	660
517.232	686
517.448	692
517.664	701
517.879	725
518.095	699
518.311	690
518.527	690
518.742	661
518.958	645
519.173	625
519.389	634
519.605	625
519.82	610
520.036	598
520.251	611
520.467	636
520.682	652
520.898	659
521.113	625
521.329	641
521.544	684
521.76	787
521.975	1168
522.19	1130
522.406	732
522.621	636
522.836	588
523.052	583
523.267	560
523.482	561
523.698	556
523.913	556
524.128	550
524.343	551
524.559	536
524.774	509
524.989	545
525.204	540
525.419	539
525.634	533
525.849	537
526.064	517
526.28	522
526.495	492
526.71	526
526.925	513
527.14	527
527.355	513
527.57	497
527.785	515
527.999	521
528.214	518
528.429	530
528.644	531
528.859	526
529.074	512
529.289	537
529.503	563
529.718	548
529.933	511
530.148	530
530.363	520
530.577	509
530.792	516
531.007	488
531.221	502
531.436	511
531.651	512
531.865	513
532.08	480
532.295	498
532.509	498
532.724	492
532.938	523
533.153	508
533.367	506
533.582	493
533.796	492
534.011	498
534.225	490
534.44	490
534.654	500
534.868	487
535.083	479
535.297	482
535.511	461
535.726	506
535.94	493
536.154	480
536.369	479
536.583	469
536.797	489
537.011	475
537.225	462
537.44	477
537.654	475
537.868	480
538.082	491
538.296	477
538.51	491
538.724	487
538.938	471
539.153	480
539.367	490
539.581	479
539.795	466
540.009	466
540.222	468
540.436	458
540.65	471
540.864	476
541.078	468
541.292	474
541.506	507
541.72	468
541.934	476
542.147	482
542.361	463
542.575	456
542.789	453
543.002	462
543.216	472
543.43	493
543.644	501
543.857	477
544.071	467
544.285	493
544.498	479
544.712	468
544.925	483
545.139	481
545.352	466
545.566	472
545.779	473
545.993	469
546.206	481
546.42	475
546.633	481
546.847	487
547.06	471
547.274	465
547.487	482
547.7	480
547.914	466
548.127	461
548.34	463
548.554	460
548.767	490
548.98	467
549.193	472
549.407	482
549.62	465
549.833	462
550.046	498
550.259	448
550.473	465
550.686	485
550.899	473
551.112	450
551.325	456
551.538	462
551.751	469
551.964	468
552.177	482
552.39	472
552.603	488
552.816	496
553.029	501
553.242	481
553.455	503
553.667	525
553.88	517
554.093	477
554.306	477
554.519	491
554.732	495
554.944	475
555.157	443
555.37	445
555.583	458
555.795	457
556.008	449
556.221	422
556.433	429
556.646	412
556.859	414
557.071	407
557.284	418
557.496	424
557.709	440
557.921	406
558.134	432
558.346	419
558.559	408
558.771	394
558.984	393
559.196	398
559.409	425
559.621	410
559.833	409
560.046	396
560.258	405
560.47	412
560.683	393
560.895	398
561.107	418
561.32	415
561.532	404
561.744	417
561.956	406
562.168	433
562.381	420
562.593	438
562.805	426
563.017	413
563.229	430
