Data from 1973.PennyLincolnUp.Lamp.En5.5.200Scan.071719.P1.Changed Mount._HRD10591_15-44-10-851.txt Node
Date: Thu Jul 18 15:44:10 EDT 2019
User: cochatt
Spectrometer: HR+D1059
Trigger mode: 1
Integration Time (sec): 1.000000E-1
Scans to average: 1
Electric dark correction enabled: true
Nonlinearity correction enabled: false
Boxcar width: 0
XAxis mode: Wavelengths
Number of Pixels in Spectrum: 2048
>>>>>Begin Spectral Data<<<<<
223.165	-20.5
223.4	-20.5
223.635	-20.5
223.869	-13.5
224.104	-24.5
224.338	-14.5
224.573	-21.5
224.808	-6.5
225.042	5.5
225.277	6.5
225.511	-3.5
225.746	8.5
225.98	5.5
226.215	4.5
226.449	14.5
226.683	9.5
226.918	16.5
227.152	33.5
227.387	31.5
227.621	35.5
227.856	33.5
228.09	34.5
228.324	59.5
228.559	40.5
228.793	52.5
229.027	91.5
229.262	102.5
229.496	85.5
229.73	126.5
229.964	126.5
230.199	114.5
230.433	96.5
230.667	95.5
230.901	104.5
231.136	98.5
231.37	110.5
231.604	105.5
231.838	113.5
232.072	105.5
232.306	117.5
232.541	103.5
232.775	108.5
233.009	129.5
233.243	120.5
233.477	97.5
233.711	112.5
233.945	105.5
234.179	118.5
234.413	110.5
234.647	126.5
234.881	114.5
235.115	119.5
235.349	123.5
235.583	121.5
235.817	125.5
236.051	115.5
236.285	104.5
236.519	128.5
236.753	125.5
236.987	132.5
237.221	171.5
237.455	192.5
237.689	167.5
237.922	133.5
238.156	132.5
238.39	118.5
238.624	134.5
238.858	118.5
239.091	135.5
239.325	127.5
239.559	133.5
239.793	137.5
240.027	120.5
240.26	134.5
240.494	143.5
240.728	128.5
240.961	141.5
241.195	136.5
241.429	133.5
241.662	126.5
241.896	132.5
242.13	140.5
242.363	128.5
242.597	124.5
242.83	112.5
243.064	119.5
243.298	141.5
243.531	123.5
243.765	139.5
243.998	145.5
244.232	151.5
244.465	141.5
244.699	128.5
244.932	132.5
245.166	154.5
245.399	134.5
245.633	132.5
245.866	139.5
246.099	159.5
246.333	144.5
246.566	164.5
246.8	142.5
247.033	142.5
247.266	160.5
247.5	164.5
247.733	171.5
247.966	161.5
248.2	160.5
248.433	170.5
248.666	180.5
248.899	190.5
249.133	184.5
249.366	195.5
249.599	187.5
249.832	182.5
250.066	171.5
250.299	169.5
250.532	182.5
250.765	194.5
250.998	202.5
251.231	219.5
251.465	209.5
251.698	194.5
251.931	200.5
252.164	185.5
252.397	194.5
252.63	203.5
252.863	199.5
253.096	204.5
253.329	217.5
253.562	231.5
253.795	216.5
254.028	203.5
254.261	216.5
254.494	216.5
254.727	235.5
254.96	248.5
255.193	242.5
255.426	212.5
255.659	218.5
255.892	248.5
256.124	238.5
256.357	231.5
256.59	203.5
256.823	213.5
257.056	206.5
257.289	213.5
257.521	193.5
257.754	217.5
257.987	208.5
258.22	199.5
258.452	196.5
258.685	220.5
258.918	209.5
259.151	214.5
259.383	215.5
259.616	222.5
259.849	206.5
260.081	213.5
260.314	224.5
260.547	247.5
260.779	240.5
261.012	217.5
261.244	219.5
261.477	211.5
261.71	219.5
261.942	220.5
262.175	228.5
262.407	206.5
262.64	207.5
262.872	237.5
263.105	221.5
263.337	221.5
263.57	208.5
263.802	222.5
264.035	231.5
264.267	216.5
264.499	218.5
264.732	218.5
264.964	222.5
265.197	209.5
265.429	224.5
265.661	220.5
265.894	227.5
266.126	209.5
266.358	222.5
266.591	232.5
266.823	246.5
267.055	255.5
267.287	228.5
267.52	226.5
267.752	229.5
267.984	238.5
268.216	243.5
268.448	223.5
268.681	246.5
268.913	262.5
269.145	272.5
269.377	276.5
269.609	272.5
269.841	275.5
270.073	263.5
270.306	286.5
270.538	308.5
270.77	316.5
271.002	305.5
271.234	275.5
271.466	296.5
271.698	318.5
271.93	317.5
272.162	327.5
272.394	313.5
272.626	284.5
272.858	295.5
273.09	291.5
273.322	268.5
273.553	292.5
273.785	282.5
274.017	272.5
274.249	274.5
274.481	276.5
274.713	287.5
274.945	274.5
275.176	282.5
275.408	260.5
275.64	271.5
275.872	262.5
276.104	283.5
276.335	280.5
276.567	273.5
276.799	309.5
277.031	296.5
277.262	321.5
277.494	299.5
277.726	301.5
277.957	294.5
278.189	279.5
278.421	280.5
278.652	275.5
278.884	281.5
279.115	262.5
279.347	275.5
279.579	280.5
279.81	282.5
280.042	275.5
280.273	299.5
280.505	297.5
280.736	294.5
280.968	288.5
281.199	281.5
281.431	276.5
281.662	273.5
281.894	283.5
282.125	299.5
282.356	295.5
282.588	317.5
282.819	293.5
283.051	297.5
283.282	288.5
283.513	281.5
283.745	286.5
283.976	290.5
284.207	306.5
284.439	307.5
284.67	291.5
284.901	284.5
285.132	294.5
285.364	280.5
285.595	308.5
285.826	297.5
286.057	295.5
286.288	289.5
286.52	307.5
286.751	297.5
286.982	312.5
287.213	323.5
287.444	320.5
287.675	292.5
287.906	324.5
288.138	319.5
288.369	307.5
288.6	325.5
288.831	312.5
289.062	328.5
289.293	298.5
289.524	323.5
289.755	310.5
289.986	322.5
290.217	311.5
290.448	298.5
290.679	310.5
290.91	306.5
291.141	307.5
291.371	324.5
291.602	309.5
291.833	295.5
292.064	291.5
292.295	308.5
292.526	295.5
292.757	318.5
292.987	306.5
293.218	309.5
293.449	305.5
293.68	318.5
293.91	327.5
294.141	294.5
294.372	322.5
294.603	316.5
294.833	323.5
295.064	310.5
295.295	321.5
295.525	302.5
295.756	324.5
295.987	314.5
296.217	318.5
296.448	324.5
296.679	342.5
296.909	313.5
297.14	315.5
297.37	328.5
297.601	315.5
297.831	328.5
298.062	321.5
298.292	315.5
298.523	335.5
298.753	345.5
298.984	317.5
299.214	327.5
299.445	330.5
299.675	323.5
299.905	339.5
300.136	335.5
300.366	336.5
300.597	335.5
300.827	337.5
301.057	338.5
301.288	353.5
301.518	319.5
301.748	347.5
301.979	358.5
302.209	356.5
302.439	349.5
302.669	359.5
302.9	333.5
303.13	344.5
303.36	354.5
303.59	356.5
303.82	362.5
304.051	345.5
304.281	350.5
304.511	360.5
304.741	340.5
304.971	343.5
305.201	338.5
305.431	355.5
305.661	355.5
305.891	360.5
306.121	342.5
306.352	353.5
306.582	360.5
306.812	342.5
307.042	338.5
307.272	344.5
307.502	331.5
307.731	342.5
307.961	336.5
308.191	362.5
308.421	358.5
308.651	339.5
308.881	346.5
309.111	359.5
309.341	348.5
309.571	352.5
309.8	378.5
310.03	353.5
310.26	398.5
310.49	378.5
310.72	368.5
310.949	375.5
311.179	395.5
311.409	374.5
311.639	384.5
311.868	376.5
312.098	391.5
312.328	377.5
312.557	392.5
312.787	383.5
313.017	408.5
313.246	394.5
313.476	403.5
313.706	382.5
313.935	384.5
314.165	387.5
314.394	400.5
314.624	380.5
314.853	387.5
315.083	399.5
315.312	399.5
315.542	397.5
315.771	394.5
316.001	387.5
316.23	387.5
316.46	392.5
316.689	386.5
316.919	402.5
317.148	380.5
317.377	399.5
317.607	393.5
317.836	397.5
318.065	396.5
318.295	388.5
318.524	389.5
318.753	391.5
318.983	388.5
319.212	410.5
319.441	403.5
319.67	389.5
319.9	378.5
320.129	402.5
320.358	389.5
320.587	403.5
320.816	388.5
321.046	398.5
321.275	409.5
321.504	405.5
321.733	387.5
321.962	400.5
322.191	427.5
322.42	410.5
322.649	432.5
322.878	443.5
323.108	442.5
323.337	434.5
323.566	470.5
323.795	487.5
324.024	474.5
324.253	564.5
324.482	718.5
324.71	1045.5
324.939	1473.5
325.168	1270.5
325.397	703.5
325.626	544.5
325.855	488.5
326.084	461.5
326.313	474.5
326.542	438.5
326.77	492.5
326.999	558.5
327.228	683.5
327.457	939.5
327.686	1122.5
327.914	774.5
328.143	587.5
328.372	512.5
328.6	501.5
328.829	504.5
329.058	514.5
329.287	508.5
329.515	484.5
329.744	481.5
329.972	467.5
330.201	488.5
330.43	512.5
330.658	490.5
330.887	560.5
331.115	538.5
331.344	493.5
331.572	480.5
331.801	473.5
332.03	477.5
332.258	480.5
332.486	495.5
332.715	468.5
332.943	474.5
333.172	484.5
333.4	484.5
333.629	469.5
333.857	516.5
334.085	514.5
334.314	491.5
334.542	548.5
334.771	519.5
334.999	534.5
335.227	511.5
335.455	475.5
335.684	474.5
335.912	484.5
336.14	488.5
336.369	483.5
336.597	470.5
336.825	475.5
337.053	495.5
337.281	462.5
337.51	438.5
337.738	469.5
337.966	469.5
338.194	471.5
338.422	446.5
338.65	466.5
338.878	465.5
339.106	445.5
339.334	443.5
339.562	431.5
339.79	430.5
340.018	440.5
340.246	444.5
340.474	432.5
340.702	424.5
340.93	432.5
341.158	457.5
341.386	420.5
341.614	437.5
341.842	427.5
342.07	427.5
342.298	422.5
342.526	422.5
342.754	417.5
342.981	416.5
343.209	429.5
343.437	437.5
343.665	427.5
343.893	482.5
344.12	482.5
344.348	479.5
344.576	459.5
344.804	452.5
345.031	454.5
345.259	463.5
345.487	452.5
345.714	439.5
345.942	433.5
346.17	428.5
346.397	423.5
346.625	428.5
346.853	406.5
347.08	434.5
347.308	420.5
347.535	421.5
347.763	422.5
347.99	414.5
348.218	425.5
348.445	422.5
348.673	437.5
348.9	425.5
349.128	415.5
349.355	402.5
349.583	412.5
349.81	410.5
350.037	408.5
350.265	412.5
350.492	418.5
350.72	407.5
350.947	412.5
351.174	417.5
351.402	427.5
351.629	426.5
351.856	427.5
352.083	407.5
352.311	412.5
352.538	426.5
352.765	415.5
352.992	418.5
353.22	413.5
353.447	412.5
353.674	410.5
353.901	408.5
354.128	412.5
354.355	388.5
354.583	388.5
354.81	414.5
355.037	412.5
355.264	402.5
355.491	406.5
355.718	392.5
355.945	406.5
356.172	395.5
356.399	388.5
356.626	394.5
356.853	387.5
357.08	401.5
357.307	407.5
357.534	383.5
357.761	409.5
357.988	404.5
358.215	402.5
358.441	402.5
358.668	393.5
358.895	433.5
359.122	397.5
359.349	441.5
359.576	415.5
359.802	424.5
360.029	416.5
360.256	459.5
360.483	428.5
360.709	425.5
360.936	423.5
361.163	418.5
361.39	413.5
361.616	426.5
361.843	410.5
362.07	418.5
362.296	419.5
362.523	422.5
362.749	409.5
362.976	401.5
363.203	401.5
363.429	416.5
363.656	390.5
363.882	387.5
364.109	384.5
364.335	390.5
364.562	416.5
364.788	404.5
365.015	410.5
365.241	408.5
365.468	404.5
365.694	407.5
365.92	409.5
366.147	407.5
366.373	405.5
366.599	392.5
366.826	426.5
367.052	408.5
367.278	417.5
367.505	399.5
367.731	396.5
367.957	408.5
368.184	414.5
368.41	406.5
368.636	405.5
368.862	426.5
369.089	394.5
369.315	414.5
369.541	398.5
369.767	407.5
369.993	400.5
370.219	413.5
370.445	402.5
370.672	405.5
370.898	406.5
371.124	425.5
371.35	416.5
371.576	405.5
371.802	422.5
372.028	403.5
372.254	402.5
372.48	405.5
372.706	426.5
372.932	435.5
373.158	411.5
373.384	442.5
373.61	400.5
373.835	396.5
374.061	413.5
374.287	417.5
374.513	419.5
374.739	434.5
374.965	416.5
375.191	424.5
375.416	420.5
375.642	419.5
375.868	398.5
376.094	430.5
376.319	414.5
376.545	438.5
376.771	408.5
376.997	408.5
377.222	417.5
377.448	424.5
377.674	404.5
377.899	422.5
378.125	412.5
378.35	411.5
378.576	400.5
378.802	407.5
379.027	404.5
379.253	404.5
379.478	416.5
379.704	398.5
379.929	429.5
380.155	398.5
380.38	407.5
380.606	402.5
380.831	425.5
381.057	418.5
381.282	409.5
381.507	431.5
381.733	426.5
381.958	414.5
382.184	410.5
382.409	428.5
382.634	426.5
382.86	419.5
383.085	430.5
383.31	436.5
383.535	443.5
383.761	433.5
383.986	453.5
384.211	451.5
384.436	451.5
384.662	452.5
384.887	452.5
385.112	473.5
385.337	456.5
385.562	471.5
385.787	452.5
386.013	480.5
386.238	482.5
386.463	476.5
386.688	452.5
386.913	488.5
387.138	471.5
387.363	461.5
387.588	453.5
387.813	463.5
388.038	489.5
388.263	473.5
388.488	473.5
388.713	466.5
388.938	482.5
389.163	457.5
389.387	484.5
389.612	471.5
389.837	460.5
390.062	459.5
390.287	475.5
390.512	479.5
390.736	481.5
390.961	483.5
391.186	495.5
391.411	488.5
391.636	488.5
391.86	502.5
392.085	473.5
392.31	486.5
392.534	483.5
392.759	494.5
392.984	466.5
393.208	475.5
393.433	475.5
393.658	475.5
393.882	466.5
394.107	491.5
394.331	481.5
394.556	483.5
394.78	465.5
395.005	480.5
395.229	489.5
395.454	481.5
395.678	478.5
395.903	507.5
396.127	500.5
396.352	524.5
396.576	502.5
396.801	483.5
397.025	497.5
397.249	517.5
397.474	509.5
397.698	525.5
397.922	524.5
398.147	525.5
398.371	537.5
398.595	527.5
398.82	542.5
399.044	572.5
399.268	583.5
399.492	649.5
399.717	706.5
399.941	716.5
400.165	710.5
400.389	674.5
400.613	628.5
400.837	603.5
401.062	568.5
401.286	554.5
401.51	562.5
401.734	576.5
401.958	566.5
402.182	536.5
402.406	544.5
402.63	551.5
402.854	586.5
403.078	558.5
403.302	574.5
403.526	566.5
403.75	589.5
403.974	583.5
404.198	560.5
404.422	611.5
404.645	588.5
404.869	574.5
405.093	614.5
405.317	636.5
405.541	653.5
405.765	634.5
405.988	580.5
406.212	594.5
406.436	615.5
406.66	616.5
406.883	593.5
407.107	652.5
407.331	690.5
407.555	755.5
407.778	710.5
408.002	679.5
408.226	646.5
408.449	628.5
408.673	631.5
408.896	658.5
409.12	676.5
409.344	643.5
409.567	598.5
409.791	578.5
410.014	571.5
410.238	558.5
410.461	574.5
410.685	586.5
410.908	588.5
411.132	620.5
411.355	623.5
411.578	627.5
411.802	574.5
412.025	595.5
412.249	586.5
412.472	613.5
412.695	612.5
412.919	622.5
413.142	576.5
413.365	547.5
413.589	566.5
413.812	563.5
414.035	550.5
414.258	549.5
414.482	550.5
414.705	545.5
414.928	556.5
415.151	553.5
415.374	540.5
415.597	532.5
415.821	543.5
416.044	543.5
416.267	560.5
416.49	532.5
416.713	528.5
416.936	523.5
417.159	523.5
417.382	563.5
417.605	537.5
417.828	542.5
418.051	544.5
418.274	551.5
418.497	544.5
418.72	560.5
418.943	562.5
419.166	576.5
419.389	589.5
419.611	582.5
419.834	588.5
420.057	584.5
420.28	566.5
420.503	568.5
420.726	556.5
420.948	584.5
421.171	587.5
421.394	614.5
421.617	577.5
421.839	583.5
422.062	551.5
422.285	577.5
422.507	597.5
422.73	687.5
422.953	670.5
423.175	600.5
423.398	571.5
423.621	605.5
423.843	617.5
424.066	592.5
424.288	596.5
424.511	623.5
424.733	631.5
424.956	715.5
425.178	669.5
425.401	693.5
425.623	679.5
425.846	623.5
426.068	568.5
426.291	566.5
426.513	559.5
426.735	564.5
426.958	609.5
427.18	664.5
427.402	772.5
427.625	831.5
427.847	720.5
428.069	646.5
428.292	599.5
428.514	550.5
428.736	528.5
428.958	542.5
429.181	539.5
429.403	494.5
429.625	528.5
429.847	539.5
430.069	599.5
430.292	607.5
430.514	514.5
430.736	514.5
430.958	500.5
431.18	532.5
431.402	521.5
431.624	495.5
431.846	508.5
432.068	500.5
432.29	516.5
432.512	531.5
432.734	510.5
432.956	520.5
433.178	513.5
433.4	488.5
433.622	512.5
433.844	526.5
434.066	527.5
434.287	523.5
434.509	547.5
434.731	516.5
434.953	555.5
435.175	559.5
435.397	609.5
435.618	600.5
435.84	593.5
436.062	659.5
436.284	733.5
436.505	601.5
436.727	574.5
436.949	530.5
437.17	515.5
437.392	539.5
437.614	527.5
437.835	563.5
438.057	625.5
438.278	709.5
438.5	699.5
438.721	776.5
438.943	747.5
439.165	608.5
439.386	588.5
439.608	551.5
439.829	528.5
440.05	587.5
440.272	613.5
440.493	579.5
440.715	565.5
440.936	535.5
441.158	536.5
441.379	559.5
441.6	576.5
441.822	591.5
442.043	617.5
442.264	677.5
442.486	715.5
442.707	634.5
442.928	595.5
443.149	585.5
443.371	589.5
443.592	651.5
443.813	723.5
444.034	768.5
444.255	659.5
444.476	607.5
444.698	602.5
444.919	603.5
445.14	684.5
445.361	644.5
445.582	641.5
445.803	652.5
446.024	723.5
446.245	732.5
446.466	662.5
446.687	578.5
446.908	542.5
447.129	533.5
447.35	516.5
447.571	506.5
447.792	498.5
448.013	493.5
448.234	518.5
448.455	577.5
448.675	658.5
448.896	770.5
449.117	634.5
449.338	625.5
449.559	707.5
449.779	779.5
450	628.5
450.221	563.5
450.442	504.5
450.662	501.5
450.883	502.5
451.104	521.5
451.324	508.5
451.545	498.5
451.766	479.5
451.986	466.5
452.207	457.5
452.428	452.5
452.648	463.5
452.869	460.5
453.089	481.5
453.31	488.5
453.53	474.5
453.751	435.5
453.971	457.5
454.192	466.5
454.412	442.5
454.633	459.5
454.853	448.5
455.073	459.5
455.294	455.5
455.514	524.5
455.734	504.5
455.955	449.5
456.175	440.5
456.395	434.5
456.616	436.5
456.836	453.5
457.056	440.5
457.276	418.5
457.497	434.5
457.717	452.5
457.937	465.5
458.157	434.5
458.377	454.5
458.598	470.5
458.818	494.5
459.038	558.5
459.258	583.5
459.478	528.5
459.698	514.5
459.918	515.5
460.138	523.5
460.358	538.5
460.578	558.5
460.798	543.5
461.018	521.5
461.238	538.5
461.458	514.5
461.678	518.5
461.898	551.5
462.118	539.5
462.338	571.5
462.558	570.5
462.777	588.5
462.997	596.5
463.217	620.5
463.437	630.5
463.657	607.5
463.876	596.5
464.096	578.5
464.316	603.5
464.536	605.5
464.755	587.5
464.975	581.5
465.195	571.5
465.414	572.5
465.634	562.5
465.854	532.5
466.073	492.5
466.293	512.5
466.512	464.5
466.732	482.5
466.951	491.5
467.171	471.5
467.391	484.5
467.61	491.5
467.829	475.5
468.049	505.5
468.268	476.5
468.488	461.5
468.707	482.5
468.927	472.5
469.146	472.5
469.365	472.5
469.585	480.5
469.804	503.5
470.023	522.5
470.243	503.5
470.462	507.5
470.681	527.5
470.901	525.5
471.12	506.5
471.339	484.5
471.558	500.5
471.777	500.5
471.997	479.5
472.216	478.5
472.435	523.5
472.654	504.5
472.873	490.5
473.092	482.5
473.311	489.5
473.53	466.5
473.749	480.5
473.968	528.5
474.187	607.5
474.406	650.5
474.625	532.5
474.844	482.5
475.063	488.5
475.282	492.5
475.501	482.5
475.72	500.5
475.939	487.5
476.158	498.5
476.377	477.5
476.596	528.5
476.814	546.5
477.033	511.5
477.252	498.5
477.471	523.5
477.69	522.5
477.908	529.5
478.127	553.5
478.346	546.5
478.564	542.5
478.783	529.5
479.002	576.5
479.22	587.5
479.439	584.5
479.658	574.5
479.876	598.5
480.095	597.5
480.313	610.5
480.532	611.5
480.751	601.5
480.969	605.5
481.188	640.5
481.406	632.5
481.624	588.5
481.843	554.5
482.061	565.5
482.28	574.5
482.498	564.5
482.717	549.5
482.935	546.5
483.153	578.5
483.372	564.5
483.59	562.5
483.808	550.5
484.027	547.5
484.245	569.5
484.463	579.5
484.681	567.5
484.9	551.5
485.118	570.5
485.336	558.5
485.554	570.5
485.772	575.5
485.99	591.5
486.209	581.5
486.427	591.5
486.645	570.5
486.863	591.5
487.081	587.5
487.299	598.5
487.517	613.5
487.735	601.5
487.953	589.5
488.171	604.5
488.389	595.5
488.607	592.5
488.825	620.5
489.043	602.5
489.261	607.5
489.479	591.5
489.696	613.5
489.914	597.5
490.132	625.5
490.35	622.5
490.568	613.5
490.786	640.5
491.003	644.5
491.221	648.5
491.439	657.5
491.657	667.5
491.874	695.5
492.092	679.5
492.31	675.5
492.527	680.5
492.745	670.5
492.963	680.5
493.18	689.5
493.398	708.5
493.615	707.5
493.833	678.5
494.05	700.5
494.268	697.5
494.485	692.5
494.703	683.5
494.92	690.5
495.138	665.5
495.355	713.5
495.573	716.5
495.79	722.5
496.008	681.5
496.225	703.5
496.442	695.5
496.66	710.5
496.877	699.5
497.094	741.5
497.312	706.5
497.529	730.5
497.746	756.5
497.963	758.5
498.181	750.5
498.398	789.5
498.615	814.5
498.832	846.5
499.049	899.5
499.267	914.5
499.484	931.5
499.701	1001.5
499.918	1074.5
500.135	1160.5
500.352	1217.5
500.569	1247.5
500.786	1272.5
501.003	1224.5
501.22	1152.5
501.437	1123.5
501.654	1009.5
501.871	955.5
502.088	903.5
502.305	891.5
502.522	845.5
502.739	822.5
502.956	790.5
503.172	771.5
503.389	769.5
503.606	754.5
503.823	756.5
504.04	737.5
504.256	724.5
504.473	715.5
504.69	723.5
504.907	725.5
505.123	720.5
505.34	666.5
505.557	686.5
505.773	664.5
505.99	670.5
506.207	665.5
506.423	663.5
506.64	634.5
506.856	654.5
507.073	650.5
507.289	648.5
507.506	634.5
507.722	629.5
507.939	626.5
508.155	613.5
508.372	618.5
508.588	603.5
508.805	608.5
509.021	616.5
509.238	626.5
509.454	641.5
509.67	623.5
509.887	614.5
510.103	600.5
510.319	608.5
510.536	653.5
510.752	896.5
510.968	762.5
511.184	601.5
511.401	597.5
511.617	551.5
511.833	567.5
512.049	575.5
512.265	580.5
512.481	586.5
512.698	560.5
512.914	583.5
513.13	569.5
513.346	553.5
513.562	564.5
513.778	585.5
513.994	600.5
514.21	560.5
514.426	602.5
514.642	607.5
514.858	624.5
515.074	641.5
515.29	696.5
515.506	912.5
515.721	793.5
515.937	626.5
516.153	598.5
516.369	595.5
516.585	630.5
516.801	630.5
517.016	644.5
517.232	649.5
517.448	644.5
517.664	654.5
517.879	650.5
518.095	661.5
518.311	651.5
518.527	662.5
518.742	637.5
518.958	613.5
519.173	581.5
519.389	582.5
519.605	579.5
