Data from 1973.PennyLincolnUp.Lamp.En5.5.200Scan.071719.P1.Changed Mount._HRD10591_15-46-10-853.txt Node
Date: Thu Jul 18 15:46:10 EDT 2019
User: cochatt
Spectrometer: HR+D1059
Trigger mode: 1
Integration Time (sec): 1.000000E-1
Scans to average: 1
Electric dark correction enabled: true
Nonlinearity correction enabled: false
Boxcar width: 0
XAxis mode: Wavelengths
Number of Pixels in Spectrum: 2048
>>>>>Begin Spectral Data<<<<<
223.165	-12.44
223.4	-12.44
223.635	-12.44
223.869	-19.44
224.104	-24.44
224.338	-14.44
224.573	-7.44
224.808	-24.44
225.042	-16.44
225.277	-9.44
225.511	-7.44
225.746	3.56
225.98	13.56
226.215	5.56
226.449	28.56
226.683	19.56
226.918	27.56
227.152	37.56
227.387	38.56
227.621	51.56
227.856	33.56
228.09	37.56
228.324	47.56
228.559	66.56
228.793	89.56
229.027	93.56
229.262	87.56
229.496	113.56
229.73	143.56
229.964	143.56
230.199	134.56
230.433	107.56
230.667	109.56
230.901	103.56
231.136	101.56
231.37	116.56
231.604	121.56
231.838	127.56
232.072	118.56
232.306	121.56
232.541	124.56
232.775	114.56
233.009	121.56
233.243	110.56
233.477	119.56
233.711	100.56
233.945	109.56
234.179	116.56
234.413	111.56
234.647	121.56
234.881	117.56
235.115	116.56
235.349	135.56
235.583	114.56
235.817	114.56
236.051	131.56
236.285	142.56
236.519	132.56
236.753	126.56
236.987	132.56
237.221	164.56
237.455	214.56
237.689	179.56
237.922	147.56
238.156	144.56
238.39	131.56
238.624	126.56
238.858	131.56
239.091	127.56
239.325	130.56
239.559	129.56
239.793	130.56
240.027	142.56
240.26	145.56
240.494	151.56
240.728	154.56
240.961	163.56
241.195	149.56
241.429	155.56
241.662	161.56
241.896	120.56
242.13	141.56
242.363	144.56
242.597	138.56
242.83	131.56
243.064	147.56
243.298	152.56
243.531	140.56
243.765	146.56
243.998	159.56
244.232	150.56
244.465	148.56
244.699	157.56
244.932	150.56
245.166	149.56
245.399	147.56
245.633	151.56
245.866	153.56
246.099	151.56
246.333	153.56
246.566	152.56
246.8	143.56
247.033	159.56
247.266	160.56
247.5	169.56
247.733	169.56
247.966	172.56
248.2	179.56
248.433	172.56
248.666	171.56
248.899	189.56
249.133	186.56
249.366	206.56
249.599	197.56
249.832	193.56
250.066	190.56
250.299	189.56
250.532	188.56
250.765	211.56
250.998	234.56
251.231	238.56
251.465	228.56
251.698	208.56
251.931	202.56
252.164	208.56
252.397	213.56
252.63	205.56
252.863	213.56
253.096	222.56
253.329	225.56
253.562	219.56
253.795	234.56
254.028	218.56
254.261	241.56
254.494	207.56
254.727	246.56
254.96	284.56
255.193	299.56
255.426	251.56
255.659	230.56
255.892	261.56
256.124	253.56
256.357	232.56
256.59	235.56
256.823	205.56
257.056	216.56
257.289	221.56
257.521	218.56
257.754	215.56
257.987	225.56
258.22	223.56
258.452	219.56
258.685	211.56
258.918	229.56
259.151	228.56
259.383	247.56
259.616	235.56
259.849	225.56
260.081	254.56
260.314	265.56
260.547	257.56
260.779	260.56
261.012	248.56
261.244	234.56
261.477	241.56
261.71	227.56
261.942	236.56
262.175	242.56
262.407	234.56
262.64	230.56
262.872	237.56
263.105	222.56
263.337	226.56
263.57	228.56
263.802	212.56
264.035	227.56
264.267	237.56
264.499	224.56
264.732	235.56
264.964	236.56
265.197	226.56
265.429	227.56
265.661	236.56
265.894	220.56
266.126	233.56
266.358	253.56
266.591	249.56
266.823	238.56
267.055	235.56
267.287	237.56
267.52	236.56
267.752	247.56
267.984	237.56
268.216	271.56
268.448	264.56
268.681	257.56
268.913	268.56
269.145	266.56
269.377	293.56
269.609	303.56
269.841	302.56
270.073	289.56
270.306	313.56
270.538	321.56
270.77	341.56
271.002	322.56
271.234	307.56
271.466	312.56
271.698	303.56
271.93	326.56
272.162	332.56
272.394	333.56
272.626	328.56
272.858	315.56
273.09	302.56
273.322	278.56
273.553	317.56
273.785	299.56
274.017	287.56
274.249	282.56
274.481	280.56
274.713	294.56
274.945	293.56
275.176	289.56
275.408	291.56
275.64	286.56
275.872	297.56
276.104	284.56
276.335	295.56
276.567	292.56
276.799	316.56
277.031	310.56
277.262	345.56
277.494	358.56
277.726	335.56
277.957	338.56
278.189	307.56
278.421	310.56
278.652	305.56
278.884	313.56
279.115	300.56
279.347	288.56
279.579	294.56
279.81	315.56
280.042	300.56
280.273	309.56
280.505	316.56
280.736	305.56
280.968	315.56
281.199	318.56
281.431	281.56
281.662	295.56
281.894	293.56
282.125	293.56
282.356	308.56
282.588	310.56
282.819	315.56
283.051	303.56
283.282	297.56
283.513	301.56
283.745	293.56
283.976	323.56
284.207	327.56
284.439	311.56
284.67	316.56
284.901	314.56
285.132	314.56
285.364	309.56
285.595	307.56
285.826	310.56
286.057	327.56
286.288	290.56
286.52	324.56
286.751	341.56
286.982	328.56
287.213	318.56
287.444	329.56
287.675	309.56
287.906	327.56
288.138	336.56
288.369	320.56
288.6	333.56
288.831	333.56
289.062	311.56
289.293	333.56
289.524	326.56
289.755	338.56
289.986	314.56
290.217	336.56
290.448	328.56
290.679	324.56
290.91	324.56
291.141	328.56
291.371	341.56
291.602	340.56
291.833	321.56
292.064	325.56
292.295	342.56
292.526	325.56
292.757	334.56
292.987	319.56
293.218	325.56
293.449	336.56
293.68	335.56
293.91	332.56
294.141	335.56
294.372	317.56
294.603	330.56
294.833	329.56
295.064	332.56
295.295	354.56
295.525	324.56
295.756	335.56
295.987	345.56
296.217	370.56
296.448	339.56
296.679	351.56
296.909	338.56
297.14	350.56
297.37	359.56
297.601	355.56
297.831	341.56
298.062	347.56
298.292	339.56
298.523	346.56
298.753	353.56
298.984	347.56
299.214	345.56
299.445	347.56
299.675	356.56
299.905	344.56
300.136	349.56
300.366	354.56
300.597	351.56
300.827	360.56
301.057	364.56
301.288	378.56
301.518	375.56
301.748	363.56
301.979	375.56
302.209	359.56
302.439	366.56
302.669	375.56
302.9	360.56
303.13	371.56
303.36	381.56
303.59	370.56
303.82	374.56
304.051	395.56
304.281	375.56
304.511	373.56
304.741	374.56
304.971	341.56
305.201	369.56
305.431	375.56
305.661	368.56
305.891	367.56
306.121	364.56
306.352	380.56
306.582	373.56
306.812	370.56
307.042	368.56
307.272	372.56
307.502	379.56
307.731	374.56
307.961	387.56
308.191	375.56
308.421	367.56
308.651	371.56
308.881	366.56
309.111	373.56
309.341	381.56
309.571	388.56
309.8	385.56
310.03	397.56
310.26	407.56
310.49	413.56
310.72	413.56
310.949	417.56
311.179	422.56
311.409	411.56
311.639	418.56
311.868	404.56
312.098	406.56
312.328	404.56
312.557	433.56
312.787	429.56
313.017	422.56
313.246	427.56
313.476	409.56
313.706	391.56
313.935	426.56
314.165	395.56
314.394	423.56
314.624	440.56
314.853	418.56
315.083	406.56
315.312	407.56
315.542	406.56
315.771	404.56
316.001	421.56
316.23	405.56
316.46	399.56
316.689	408.56
316.919	413.56
317.148	431.56
317.377	436.56
317.607	424.56
317.836	421.56
318.065	419.56
318.295	405.56
318.524	406.56
318.753	403.56
318.983	419.56
319.212	395.56
319.441	408.56
319.67	405.56
319.9	409.56
320.129	422.56
320.358	415.56
320.587	411.56
320.816	418.56
321.046	439.56
321.275	427.56
321.504	433.56
321.733	425.56
321.962	435.56
322.191	437.56
322.42	446.56
322.649	443.56
322.878	452.56
323.108	463.56
323.337	481.56
323.566	483.56
323.795	522.56
324.024	556.56
324.253	627.56
324.482	843.56
324.71	1233.56
324.939	1756.56
325.168	1491.56
325.397	836.56
325.626	617.56
325.855	557.56
326.084	505.56
326.313	505.56
326.542	498.56
326.77	539.56
326.999	614.56
327.228	775.56
327.457	1127.56
327.686	1338.56
327.914	919.56
328.143	658.56
328.372	606.56
328.6	573.56
328.829	549.56
329.058	543.56
329.287	572.56
329.515	543.56
329.744	498.56
329.972	507.56
330.201	538.56
330.43	570.56
330.658	563.56
330.887	584.56
331.115	573.56
331.344	535.56
331.572	526.56
331.801	509.56
332.03	524.56
332.258	515.56
332.486	502.56
332.715	521.56
332.943	535.56
333.172	511.56
333.4	523.56
333.629	545.56
333.857	542.56
334.085	556.56
334.314	559.56
334.542	578.56
334.771	591.56
334.999	566.56
335.227	537.56
335.455	502.56
335.684	505.56
335.912	521.56
336.14	502.56
336.369	499.56
336.597	508.56
336.825	500.56
337.053	497.56
337.281	490.56
337.51	492.56
337.738	479.56
337.966	484.56
338.194	478.56
338.422	474.56
338.65	481.56
338.878	472.56
339.106	472.56
339.334	478.56
339.562	469.56
339.79	481.56
340.018	471.56
340.246	478.56
340.474	479.56
340.702	463.56
340.93	463.56
341.158	467.56
341.386	474.56
341.614	471.56
341.842	487.56
342.07	443.56
342.298	456.56
342.526	450.56
342.754	467.56
342.981	464.56
343.209	462.56
343.437	488.56
343.665	498.56
343.893	483.56
344.12	492.56
344.348	510.56
344.576	492.56
344.804	497.56
345.031	489.56
345.259	478.56
345.487	473.56
345.714	479.56
345.942	457.56
346.17	451.56
346.397	451.56
346.625	458.56
346.853	435.56
347.08	440.56
347.308	441.56
347.535	454.56
347.763	459.56
347.99	457.56
348.218	449.56
348.445	461.56
348.673	463.56
348.9	447.56
349.128	441.56
349.355	448.56
349.583	442.56
349.81	434.56
350.037	444.56
350.265	427.56
350.492	422.56
350.72	438.56
350.947	426.56
351.174	439.56
351.402	453.56
351.629	453.56
351.856	436.56
352.083	444.56
352.311	438.56
352.538	451.56
352.765	442.56
352.992	451.56
353.22	448.56
353.447	441.56
353.674	439.56
353.901	425.56
354.128	430.56
354.355	435.56
354.583	426.56
354.81	405.56
355.037	418.56
355.264	415.56
355.491	424.56
355.718	423.56
355.945	428.56
356.172	444.56
356.399	424.56
356.626	437.56
356.853	402.56
357.08	427.56
357.307	423.56
357.534	419.56
357.761	425.56
357.988	411.56
358.215	407.56
358.441	403.56
358.668	438.56
358.895	423.56
359.122	446.56
359.349	441.56
359.576	434.56
359.802	441.56
360.029	467.56
360.256	484.56
360.483	467.56
360.709	459.56
360.936	425.56
361.163	440.56
361.39	428.56
361.616	440.56
361.843	443.56
362.07	424.56
362.296	434.56
362.523	430.56
362.749	442.56
362.976	436.56
363.203	420.56
363.429	422.56
363.656	429.56
363.882	430.56
364.109	419.56
364.335	439.56
364.562	432.56
364.788	445.56
365.015	430.56
365.241	423.56
365.468	451.56
365.694	443.56
365.92	455.56
366.147	422.56
366.373	426.56
366.599	413.56
366.826	419.56
367.052	427.56
367.278	452.56
367.505	430.56
367.731	429.56
367.957	419.56
368.184	447.56
368.41	436.56
368.636	426.56
368.862	459.56
369.089	426.56
369.315	418.56
369.541	425.56
369.767	441.56
369.993	413.56
370.219	439.56
370.445	420.56
370.672	427.56
370.898	425.56
371.124	427.56
371.35	445.56
371.576	415.56
371.802	406.56
372.028	450.56
372.254	435.56
372.48	452.56
372.706	446.56
372.932	404.56
373.158	443.56
373.384	435.56
373.61	449.56
373.835	438.56
374.061	443.56
374.287	434.56
374.513	452.56
374.739	467.56
374.965	447.56
375.191	453.56
375.416	453.56
375.642	454.56
375.868	451.56
376.094	419.56
376.319	438.56
376.545	440.56
376.771	430.56
376.997	431.56
377.222	429.56
377.448	424.56
377.674	421.56
377.899	419.56
378.125	443.56
378.35	425.56
378.576	438.56
378.802	436.56
379.027	444.56
379.253	425.56
379.478	415.56
379.704	455.56
379.929	420.56
380.155	437.56
380.38	452.56
380.606	415.56
380.831	431.56
381.057	451.56
381.282	440.56
381.507	443.56
381.733	447.56
381.958	443.56
382.184	456.56
382.409	442.56
382.634	460.56
382.86	460.56
383.085	456.56
383.31	475.56
383.535	465.56
383.761	448.56
383.986	461.56
384.211	471.56
384.436	494.56
384.662	478.56
384.887	489.56
385.112	491.56
385.337	483.56
385.562	505.56
385.787	481.56
386.013	480.56
386.238	486.56
386.463	483.56
386.688	498.56
386.913	472.56
387.138	469.56
387.363	470.56
387.588	466.56
387.813	512.56
388.038	490.56
388.263	509.56
388.488	474.56
388.713	499.56
388.938	475.56
389.163	484.56
389.387	488.56
389.612	492.56
389.837	509.56
390.062	465.56
390.287	479.56
390.512	502.56
390.736	496.56
390.961	493.56
391.186	489.56
391.411	504.56
391.636	527.56
391.86	532.56
392.085	526.56
392.31	531.56
392.534	514.56
392.759	513.56
392.984	505.56
393.208	497.56
393.433	502.56
393.658	500.56
393.882	483.56
394.107	499.56
394.331	520.56
394.556	472.56
394.78	519.56
395.005	523.56
395.229	518.56
395.454	482.56
395.678	507.56
395.903	523.56
396.127	550.56
396.352	571.56
396.576	507.56
396.801	536.56
397.025	515.56
397.249	513.56
397.474	523.56
397.698	522.56
397.922	548.56
398.147	558.56
398.371	565.56
398.595	559.56
398.82	559.56
399.044	594.56
399.268	607.56
399.492	647.56
399.717	729.56
399.941	742.56
400.165	747.56
400.389	710.56
400.613	656.56
400.837	625.56
401.062	591.56
401.286	589.56
401.51	586.56
401.734	583.56
401.958	575.56
402.182	612.56
402.406	582.56
402.63	590.56
402.854	610.56
403.078	614.56
403.302	619.56
403.526	612.56
403.75	612.56
403.974	626.56
404.198	611.56
404.422	625.56
404.645	627.56
404.869	639.56
405.093	639.56
405.317	673.56
405.541	678.56
405.765	641.56
405.988	627.56
406.212	642.56
406.436	661.56
406.66	662.56
406.883	662.56
407.107	661.56
407.331	723.56
407.555	777.56
407.778	787.56
408.002	710.56
408.226	659.56
408.449	664.56
408.673	685.56
408.896	670.56
409.12	715.56
409.344	694.56
409.567	634.56
409.791	609.56
410.014	604.56
410.238	603.56
410.461	598.56
410.685	607.56
410.908	639.56
411.132	635.56
411.355	695.56
411.578	655.56
411.802	574.56
412.025	587.56
412.249	609.56
412.472	644.56
412.695	639.56
412.919	642.56
413.142	605.56
413.365	565.56
413.589	574.56
413.812	553.56
414.035	575.56
414.258	551.56
414.482	583.56
414.705	573.56
414.928	562.56
415.151	549.56
415.374	575.56
415.597	580.56
415.821	561.56
416.044	562.56
416.267	550.56
416.49	556.56
416.713	543.56
416.936	545.56
417.159	554.56
417.382	564.56
417.605	575.56
417.828	572.56
418.051	593.56
418.274	565.56
418.497	574.56
418.72	572.56
418.943	573.56
419.166	591.56
419.389	630.56
419.611	633.56
419.834	593.56
420.057	611.56
420.28	602.56
420.503	597.56
420.726	579.56
420.948	575.56
421.171	613.56
421.394	648.56
421.617	607.56
421.839	581.56
422.062	607.56
422.285	625.56
422.507	650.56
422.73	719.56
422.953	708.56
423.175	625.56
423.398	609.56
423.621	606.56
423.843	604.56
424.066	625.56
424.288	643.56
424.511	623.56
424.733	684.56
424.956	744.56
425.178	702.56
425.401	724.56
425.623	737.56
425.846	659.56
426.068	615.56
426.291	602.56
426.513	604.56
426.735	612.56
426.958	643.56
427.18	702.56
427.402	845.56
427.625	908.56
427.847	777.56
428.069	670.56
428.292	613.56
428.514	589.56
428.736	594.56
428.958	551.56
429.181	551.56
429.403	563.56
429.625	588.56
429.847	607.56
430.069	624.56
430.292	636.56
430.514	579.56
430.736	555.56
430.958	567.56
431.18	527.56
431.402	541.56
431.624	537.56
431.846	513.56
432.068	531.56
432.29	548.56
432.512	540.56
432.734	550.56
432.956	532.56
433.178	567.56
433.4	537.56
433.622	521.56
433.844	526.56
434.066	543.56
434.287	534.56
434.509	558.56
434.731	575.56
434.953	582.56
435.175	573.56
435.397	591.56
435.618	612.56
435.84	655.56
436.062	699.56
436.284	761.56
436.505	663.56
436.727	577.56
436.949	553.56
437.17	573.56
437.392	548.56
437.614	565.56
437.835	583.56
438.057	654.56
438.278	740.56
438.5	729.56
438.721	815.56
438.943	780.56
439.165	658.56
439.386	617.56
439.608	593.56
439.829	595.56
440.05	589.56
440.272	659.56
440.493	625.56
440.715	586.56
440.936	558.56
441.158	574.56
441.379	581.56
441.6	567.56
441.822	598.56
442.043	627.56
442.264	726.56
442.486	762.56
442.707	663.56
442.928	633.56
443.149	626.56
443.371	636.56
443.592	660.56
443.813	747.56
444.034	810.56
444.255	703.56
444.476	643.56
444.698	645.56
444.919	653.56
445.14	732.56
445.361	665.56
445.582	648.56
445.803	697.56
446.024	760.56
446.245	759.56
446.466	686.56
446.687	625.56
446.908	599.56
447.129	563.56
447.35	546.56
447.571	567.56
447.792	531.56
448.013	546.56
448.234	542.56
448.455	587.56
448.675	689.56
448.896	792.56
449.117	694.56
449.338	636.56
449.559	747.56
449.779	837.56
450	661.56
450.221	579.56
450.442	556.56
450.662	529.56
450.883	527.56
451.104	547.56
451.324	536.56
451.545	522.56
451.766	491.56
451.986	507.56
452.207	486.56
452.428	487.56
452.648	477.56
452.869	482.56
453.089	492.56
453.31	515.56
453.53	490.56
453.751	501.56
453.971	488.56
454.192	497.56
454.412	480.56
454.633	501.56
454.853	490.56
455.073	462.56
455.294	505.56
455.514	553.56
455.734	555.56
455.955	488.56
456.175	476.56
456.395	481.56
456.616	461.56
456.836	462.56
457.056	457.56
457.276	465.56
457.497	463.56
457.717	460.56
457.937	470.56
458.157	500.56
458.377	483.56
458.598	522.56
458.818	545.56
459.038	612.56
459.258	639.56
459.478	589.56
459.698	569.56
459.918	525.56
460.138	538.56
460.358	546.56
460.578	536.56
460.798	580.56
461.018	567.56
461.238	567.56
461.458	562.56
461.678	544.56
461.898	595.56
462.118	571.56
462.338	610.56
462.558	589.56
462.777	605.56
462.997	638.56
463.217	659.56
463.437	658.56
463.657	634.56
463.876	650.56
464.096	633.56
464.316	627.56
464.536	623.56
464.755	615.56
464.975	618.56
465.195	609.56
465.414	656.56
465.634	589.56
465.854	582.56
466.073	546.56
466.293	518.56
466.512	536.56
466.732	512.56
466.951	515.56
467.171	499.56
467.391	514.56
467.61	517.56
467.829	521.56
468.049	531.56
468.268	516.56
468.488	492.56
468.707	487.56
468.927	499.56
469.146	515.56
469.365	488.56
469.585	521.56
469.804	508.56
470.023	526.56
470.243	533.56
470.462	516.56
470.681	529.56
470.901	521.56
471.12	515.56
471.339	534.56
471.558	508.56
471.777	500.56
471.997	505.56
472.216	521.56
472.435	535.56
472.654	531.56
472.873	504.56
473.092	509.56
473.311	500.56
473.53	504.56
473.749	513.56
473.968	563.56
474.187	629.56
474.406	667.56
474.625	582.56
474.844	543.56
475.063	509.56
475.282	503.56
475.501	512.56
475.72	522.56
475.939	521.56
476.158	522.56
476.377	536.56
476.596	523.56
476.814	536.56
477.033	529.56
477.252	540.56
477.471	562.56
477.69	527.56
477.908	542.56
478.127	563.56
478.346	557.56
478.564	594.56
478.783	574.56
479.002	597.56
479.22	597.56
479.439	618.56
479.658	615.56
479.876	614.56
480.095	659.56
480.313	648.56
480.532	647.56
480.751	629.56
480.969	671.56
481.188	684.56
481.406	697.56
481.624	661.56
481.843	605.56
482.061	613.56
482.28	598.56
482.498	591.56
482.717	583.56
482.935	573.56
483.153	601.56
483.372	585.56
483.59	603.56
483.808	595.56
484.027	586.56
484.245	602.56
484.463	612.56
484.681	610.56
484.9	592.56
485.118	627.56
485.336	619.56
485.554	593.56
485.772	617.56
485.99	610.56
486.209	595.56
486.427	629.56
486.645	630.56
486.863	621.56
487.081	623.56
487.299	631.56
487.517	615.56
487.735	629.56
487.953	631.56
488.171	619.56
488.389	627.56
488.607	615.56
488.825	621.56
489.043	617.56
489.261	633.56
489.479	638.56
489.696	629.56
489.914	660.56
490.132	649.56
490.35	659.56
490.568	693.56
490.786	658.56
491.003	677.56
491.221	693.56
491.439	684.56
491.657	697.56
491.874	711.56
492.092	714.56
492.31	743.56
492.527	686.56
492.745	711.56
492.963	711.56
493.18	719.56
493.398	726.56
493.615	753.56
493.833	744.56
494.05	734.56
494.268	731.56
494.485	730.56
494.703	729.56
494.92	760.56
495.138	750.56
495.355	745.56
495.573	762.56
495.79	750.56
496.008	747.56
496.225	741.56
496.442	744.56
496.66	758.56
496.877	739.56
497.094	786.56
497.312	793.56
497.529	757.56
497.746	788.56
497.963	795.56
498.181	860.56
498.398	842.56
498.615	877.56
498.832	905.56
499.049	909.56
499.267	946.56
499.484	1010.56
499.701	1081.56
499.918	1112.56
500.135	1189.56
500.352	1270.56
500.569	1326.56
500.786	1286.56
501.003	1271.56
501.22	1226.56
501.437	1119.56
501.654	1074.56
