Data from 1973.PennyLincolnUp.Lamp.En5.5.200Scan.071719.P1.Changed Mount._HRD10591_15-43-32-851.txt Node
Date: Thu Jul 18 15:43:32 EDT 2019
User: cochatt
Spectrometer: HR+D1059
Trigger mode: 1
Integration Time (sec): 1.000000E-1
Scans to average: 1
Electric dark correction enabled: true
Nonlinearity correction enabled: false
Boxcar width: 0
XAxis mode: Wavelengths
Number of Pixels in Spectrum: 2048
>>>>>Begin Spectral Data<<<<<
223.165	-18.5
223.4	-18.5
223.635	-18.5
223.869	-17.5
224.104	-17.5
224.338	-10.5
224.573	-16.5
224.808	-10.5
225.042	-14.5
225.277	-1.5
225.511	-7.5
225.746	-7.5
225.98	5.5
226.215	11.5
226.449	18.5
226.683	29.5
226.918	27.5
227.152	29.5
227.387	43.5
227.621	41.5
227.856	52.5
228.09	41.5
228.324	61.5
228.559	69.5
228.793	65.5
229.027	86.5
229.262	94.5
229.496	106.5
229.73	120.5
229.964	125.5
230.199	110.5
230.433	108.5
230.667	98.5
230.901	85.5
231.136	109.5
231.37	103.5
231.604	101.5
231.838	110.5
232.072	111.5
232.306	110.5
232.541	114.5
232.775	105.5
233.009	108.5
233.243	111.5
233.477	116.5
233.711	107.5
233.945	117.5
234.179	109.5
234.413	109.5
234.647	107.5
234.881	110.5
235.115	121.5
235.349	109.5
235.583	110.5
235.817	111.5
236.051	130.5
236.285	107.5
236.519	117.5
236.753	119.5
236.987	126.5
237.221	154.5
237.455	168.5
237.689	149.5
237.922	117.5
238.156	130.5
238.39	119.5
238.624	122.5
238.858	125.5
239.091	126.5
239.325	123.5
239.559	114.5
239.793	137.5
240.027	120.5
240.26	139.5
240.494	140.5
240.728	142.5
240.961	133.5
241.195	138.5
241.429	126.5
241.662	120.5
241.896	128.5
242.13	123.5
242.363	136.5
242.597	133.5
242.83	127.5
243.064	144.5
243.298	132.5
243.531	130.5
243.765	143.5
243.998	139.5
244.232	140.5
244.465	140.5
244.699	124.5
244.932	121.5
245.166	143.5
245.399	141.5
245.633	140.5
245.866	149.5
246.099	142.5
246.333	128.5
246.566	161.5
246.8	148.5
247.033	131.5
247.266	143.5
247.5	147.5
247.733	159.5
247.966	161.5
248.2	144.5
248.433	157.5
248.666	165.5
248.899	161.5
249.133	186.5
249.366	187.5
249.599	172.5
249.832	174.5
250.066	158.5
250.299	165.5
250.532	180.5
250.765	174.5
250.998	191.5
251.231	208.5
251.465	187.5
251.698	185.5
251.931	172.5
252.164	183.5
252.397	175.5
252.63	169.5
252.863	177.5
253.096	174.5
253.329	203.5
253.562	195.5
253.795	194.5
254.028	199.5
254.261	202.5
254.494	206.5
254.727	221.5
254.96	232.5
255.193	220.5
255.426	220.5
255.659	204.5
255.892	187.5
256.124	209.5
256.357	201.5
256.59	208.5
256.823	175.5
257.056	197.5
257.289	211.5
257.521	191.5
257.754	196.5
257.987	198.5
258.22	210.5
258.452	210.5
258.685	198.5
258.918	195.5
259.151	196.5
259.383	217.5
259.616	187.5
259.849	193.5
260.081	216.5
260.314	221.5
260.547	231.5
260.779	226.5
261.012	215.5
261.244	202.5
261.477	212.5
261.71	190.5
261.942	202.5
262.175	203.5
262.407	214.5
262.64	205.5
262.872	201.5
263.105	207.5
263.337	185.5
263.57	197.5
263.802	198.5
264.035	192.5
264.267	191.5
264.499	210.5
264.732	202.5
264.964	201.5
265.197	200.5
265.429	197.5
265.661	207.5
265.894	191.5
266.126	201.5
266.358	208.5
266.591	212.5
266.823	217.5
267.055	216.5
267.287	213.5
267.52	231.5
267.752	202.5
267.984	219.5
268.216	213.5
268.448	217.5
268.681	215.5
268.913	226.5
269.145	237.5
269.377	250.5
269.609	251.5
269.841	247.5
270.073	251.5
270.306	257.5
270.538	273.5
270.77	279.5
271.002	271.5
271.234	266.5
271.466	255.5
271.698	266.5
271.93	266.5
272.162	270.5
272.394	260.5
272.626	264.5
272.858	252.5
273.09	237.5
273.322	247.5
273.553	248.5
273.785	245.5
274.017	238.5
274.249	237.5
274.481	267.5
274.713	251.5
274.945	250.5
275.176	261.5
275.408	255.5
275.64	237.5
275.872	251.5
276.104	271.5
276.335	261.5
276.567	259.5
276.799	276.5
277.031	283.5
277.262	284.5
277.494	286.5
277.726	277.5
277.957	265.5
278.189	272.5
278.421	275.5
278.652	279.5
278.884	257.5
279.115	255.5
279.347	263.5
279.579	249.5
279.81	259.5
280.042	286.5
280.273	250.5
280.505	261.5
280.736	257.5
280.968	260.5
281.199	249.5
281.431	243.5
281.662	251.5
281.894	268.5
282.125	255.5
282.356	266.5
282.588	284.5
282.819	276.5
283.051	253.5
283.282	261.5
283.513	270.5
283.745	274.5
283.976	292.5
284.207	270.5
284.439	277.5
284.67	275.5
284.901	274.5
285.132	276.5
285.364	262.5
285.595	275.5
285.826	276.5
286.057	285.5
286.288	287.5
286.52	284.5
286.751	291.5
286.982	281.5
287.213	282.5
287.444	286.5
287.675	291.5
287.906	288.5
288.138	295.5
288.369	296.5
288.6	293.5
288.831	291.5
289.062	285.5
289.293	292.5
289.524	292.5
289.755	282.5
289.986	299.5
290.217	302.5
290.448	297.5
290.679	294.5
290.91	295.5
291.141	284.5
291.371	293.5
291.602	293.5
291.833	289.5
292.064	307.5
292.295	295.5
292.526	286.5
292.757	298.5
292.987	294.5
293.218	293.5
293.449	286.5
293.68	282.5
293.91	309.5
294.141	299.5
294.372	292.5
294.603	301.5
294.833	270.5
295.064	291.5
295.295	290.5
295.525	311.5
295.756	309.5
295.987	297.5
296.217	309.5
296.448	299.5
296.679	284.5
296.909	302.5
297.14	289.5
297.37	325.5
297.601	292.5
297.831	296.5
298.062	289.5
298.292	298.5
298.523	312.5
298.753	303.5
298.984	305.5
299.214	302.5
299.445	296.5
299.675	303.5
299.905	308.5
300.136	321.5
300.366	304.5
300.597	312.5
300.827	343.5
301.057	326.5
301.288	333.5
301.518	312.5
301.748	310.5
301.979	319.5
302.209	325.5
302.439	348.5
302.669	318.5
302.9	316.5
303.13	308.5
303.36	322.5
303.59	331.5
303.82	325.5
304.051	337.5
304.281	317.5
304.511	327.5
304.741	313.5
304.971	323.5
305.201	319.5
305.431	323.5
305.661	326.5
305.891	317.5
306.121	330.5
306.352	325.5
306.582	323.5
306.812	330.5
307.042	331.5
307.272	333.5
307.502	325.5
307.731	347.5
307.961	308.5
308.191	319.5
308.421	329.5
308.651	338.5
308.881	318.5
309.111	316.5
309.341	330.5
309.571	338.5
309.8	347.5
310.03	358.5
310.26	350.5
310.49	356.5
310.72	342.5
310.949	362.5
311.179	353.5
311.409	343.5
311.639	325.5
311.868	341.5
312.098	346.5
312.328	343.5
312.557	354.5
312.787	370.5
313.017	377.5
313.246	366.5
313.476	337.5
313.706	344.5
313.935	351.5
314.165	362.5
314.394	367.5
314.624	371.5
314.853	369.5
315.083	359.5
315.312	334.5
315.542	355.5
315.771	353.5
316.001	357.5
316.23	349.5
316.46	344.5
316.689	363.5
316.919	349.5
317.148	377.5
317.377	382.5
317.607	355.5
317.836	358.5
318.065	341.5
318.295	353.5
318.524	353.5
318.753	343.5
318.983	367.5
319.212	346.5
319.441	348.5
319.67	381.5
319.9	343.5
320.129	345.5
320.358	364.5
320.587	368.5
320.816	387.5
321.046	359.5
321.275	362.5
321.504	379.5
321.733	371.5
321.962	378.5
322.191	377.5
322.42	379.5
322.649	354.5
322.878	373.5
323.108	389.5
323.337	387.5
323.566	397.5
323.795	404.5
324.024	424.5
324.253	498.5
324.482	614.5
324.71	830.5
324.939	1160.5
325.168	1018.5
325.397	567.5
325.626	438.5
325.855	422.5
326.084	383.5
326.313	399.5
326.542	414.5
326.77	430.5
326.999	462.5
327.228	569.5
327.457	746.5
327.686	890.5
327.914	647.5
328.143	491.5
328.372	438.5
328.6	435.5
328.829	445.5
329.058	445.5
329.287	438.5
329.515	429.5
329.744	417.5
329.972	416.5
330.201	427.5
330.43	409.5
330.658	451.5
330.887	446.5
331.115	457.5
331.344	444.5
331.572	404.5
331.801	423.5
332.03	418.5
332.258	424.5
332.486	419.5
332.715	424.5
332.943	430.5
333.172	436.5
333.4	434.5
333.629	444.5
333.857	462.5
334.085	475.5
334.314	478.5
334.542	481.5
334.771	483.5
334.999	479.5
335.227	441.5
335.455	442.5
335.684	437.5
335.912	424.5
336.14	453.5
336.369	440.5
336.597	421.5
336.825	441.5
337.053	433.5
337.281	425.5
337.51	410.5
337.738	414.5
337.966	415.5
338.194	407.5
338.422	399.5
338.65	424.5
338.878	398.5
339.106	425.5
339.334	421.5
339.562	402.5
339.79	415.5
340.018	413.5
340.246	408.5
340.474	393.5
340.702	401.5
340.93	385.5
341.158	390.5
341.386	425.5
341.614	408.5
341.842	390.5
342.07	405.5
342.298	402.5
342.526	392.5
342.754	386.5
342.981	396.5
343.209	402.5
343.437	429.5
343.665	404.5
343.893	439.5
344.12	463.5
344.348	450.5
344.576	427.5
344.804	424.5
345.031	413.5
345.259	436.5
345.487	405.5
345.714	398.5
345.942	379.5
346.17	403.5
346.397	381.5
346.625	401.5
346.853	390.5
347.08	369.5
347.308	394.5
347.535	394.5
347.763	402.5
347.99	395.5
348.218	396.5
348.445	397.5
348.673	371.5
348.9	387.5
349.128	383.5
349.355	382.5
349.583	377.5
349.81	380.5
350.037	385.5
350.265	380.5
350.492	375.5
350.72	389.5
350.947	381.5
351.174	385.5
351.402	391.5
351.629	378.5
351.856	384.5
352.083	399.5
352.311	374.5
352.538	389.5
352.765	394.5
352.992	389.5
353.22	375.5
353.447	371.5
353.674	388.5
353.901	373.5
354.128	388.5
354.355	369.5
354.583	379.5
354.81	375.5
355.037	385.5
355.264	385.5
355.491	377.5
355.718	376.5
355.945	368.5
356.172	371.5
356.399	365.5
356.626	370.5
356.853	364.5
357.08	369.5
357.307	366.5
357.534	355.5
357.761	369.5
357.988	383.5
358.215	353.5
358.441	363.5
358.668	362.5
358.895	384.5
359.122	392.5
359.349	366.5
359.576	377.5
359.802	396.5
360.029	393.5
360.256	402.5
360.483	381.5
360.709	390.5
360.936	374.5
361.163	384.5
361.39	407.5
361.616	390.5
361.843	363.5
362.07	382.5
362.296	394.5
362.523	373.5
362.749	391.5
362.976	381.5
363.203	379.5
363.429	368.5
363.656	383.5
363.882	370.5
364.109	369.5
364.335	372.5
364.562	374.5
364.788	370.5
365.015	381.5
365.241	361.5
365.468	364.5
365.694	363.5
365.92	371.5
366.147	365.5
366.373	357.5
366.599	379.5
366.826	376.5
367.052	384.5
367.278	353.5
367.505	354.5
367.731	379.5
367.957	388.5
368.184	375.5
368.41	379.5
368.636	390.5
368.862	389.5
369.089	375.5
369.315	390.5
369.541	394.5
369.767	391.5
369.993	386.5
370.219	362.5
370.445	362.5
370.672	379.5
370.898	395.5
371.124	379.5
371.35	380.5
371.576	385.5
371.802	388.5
372.028	391.5
372.254	361.5
372.48	419.5
372.706	382.5
372.932	400.5
373.158	380.5
373.384	389.5
373.61	397.5
373.835	389.5
374.061	382.5
374.287	376.5
374.513	396.5
374.739	395.5
374.965	401.5
375.191	419.5
375.416	413.5
375.642	395.5
375.868	401.5
376.094	394.5
376.319	391.5
376.545	388.5
376.771	397.5
376.997	381.5
377.222	412.5
377.448	381.5
377.674	367.5
377.899	385.5
378.125	386.5
378.35	394.5
378.576	378.5
378.802	384.5
379.027	407.5
379.253	385.5
379.478	385.5
379.704	380.5
379.929	416.5
380.155	375.5
380.38	389.5
380.606	392.5
380.831	393.5
381.057	402.5
381.282	392.5
381.507	412.5
381.733	406.5
381.958	400.5
382.184	381.5
382.409	422.5
382.634	413.5
382.86	403.5
383.085	423.5
383.31	406.5
383.535	422.5
383.761	401.5
383.986	405.5
384.211	438.5
384.436	446.5
384.662	420.5
384.887	434.5
385.112	405.5
385.337	458.5
385.562	466.5
385.787	434.5
386.013	447.5
386.238	476.5
386.463	451.5
386.688	442.5
386.913	455.5
387.138	439.5
387.363	462.5
387.588	436.5
387.813	428.5
388.038	438.5
388.263	443.5
388.488	426.5
388.713	450.5
388.938	417.5
389.163	421.5
389.387	423.5
389.612	435.5
389.837	414.5
390.062	425.5
390.287	423.5
390.512	452.5
390.736	438.5
390.961	449.5
391.186	443.5
391.411	438.5
391.636	462.5
391.86	455.5
392.085	463.5
392.31	477.5
392.534	468.5
392.759	472.5
392.984	437.5
393.208	447.5
393.433	448.5
393.658	467.5
393.882	459.5
394.107	441.5
394.331	446.5
394.556	448.5
394.78	460.5
395.005	446.5
395.229	461.5
395.454	466.5
395.678	460.5
395.903	479.5
396.127	486.5
396.352	470.5
396.576	446.5
396.801	459.5
397.025	444.5
397.249	467.5
397.474	476.5
397.698	460.5
397.922	510.5
398.147	486.5
398.371	506.5
398.595	494.5
398.82	517.5
399.044	531.5
399.268	569.5
399.492	591.5
399.717	647.5
399.941	661.5
400.165	664.5
400.389	634.5
400.613	586.5
400.837	535.5
401.062	512.5
401.286	532.5
401.51	522.5
401.734	531.5
401.958	517.5
402.182	535.5
402.406	510.5
402.63	523.5
402.854	501.5
403.078	523.5
403.302	527.5
403.526	537.5
403.75	547.5
403.974	553.5
404.198	548.5
404.422	539.5
404.645	539.5
404.869	553.5
405.093	579.5
405.317	590.5
405.541	603.5
405.765	580.5
405.988	539.5
406.212	545.5
406.436	551.5
406.66	565.5
406.883	562.5
407.107	579.5
407.331	630.5
407.555	689.5
407.778	667.5
408.002	643.5
408.226	577.5
408.449	582.5
408.673	569.5
408.896	586.5
409.12	617.5
409.344	583.5
409.567	553.5
409.791	548.5
410.014	543.5
410.238	526.5
410.461	527.5
410.685	537.5
410.908	538.5
411.132	583.5
411.355	592.5
411.578	551.5
411.802	541.5
412.025	552.5
412.249	526.5
412.472	565.5
412.695	551.5
412.919	559.5
413.142	549.5
413.365	503.5
413.589	513.5
413.812	509.5
414.035	491.5
414.258	505.5
414.482	510.5
414.705	507.5
414.928	510.5
415.151	499.5
415.374	515.5
415.597	493.5
415.821	508.5
416.044	515.5
416.267	512.5
416.49	485.5
416.713	514.5
416.936	513.5
417.159	509.5
417.382	504.5
417.605	505.5
417.828	501.5
418.051	511.5
418.274	508.5
418.497	502.5
418.72	497.5
418.943	521.5
419.166	532.5
419.389	561.5
419.611	558.5
419.834	529.5
420.057	520.5
420.28	508.5
420.503	543.5
420.726	532.5
420.948	502.5
421.171	539.5
421.394	558.5
421.617	539.5
421.839	506.5
422.062	500.5
422.285	524.5
422.507	578.5
422.73	621.5
422.953	603.5
423.175	553.5
423.398	535.5
423.621	544.5
423.843	567.5
424.066	562.5
424.288	537.5
424.511	566.5
424.733	599.5
424.956	650.5
425.178	636.5
425.401	614.5
425.623	639.5
425.846	547.5
426.068	539.5
426.291	542.5
426.513	503.5
426.735	536.5
426.958	573.5
427.18	624.5
427.402	694.5
427.625	771.5
427.847	636.5
428.069	566.5
428.292	523.5
428.514	491.5
428.736	501.5
428.958	481.5
429.181	490.5
429.403	469.5
429.625	479.5
429.847	488.5
430.069	550.5
430.292	559.5
430.514	488.5
430.736	493.5
430.958	494.5
431.18	472.5
431.402	492.5
431.624	482.5
431.846	473.5
432.068	474.5
432.29	465.5
432.512	485.5
432.734	483.5
432.956	474.5
433.178	493.5
433.4	490.5
433.622	509.5
433.844	474.5
434.066	457.5
434.287	471.5
434.509	457.5
434.731	485.5
434.953	500.5
435.175	521.5
435.397	531.5
435.618	527.5
435.84	535.5
436.062	604.5
436.284	653.5
436.505	542.5
436.727	499.5
436.949	488.5
437.17	481.5
437.392	466.5
437.614	471.5
437.835	484.5
438.057	567.5
438.278	636.5
438.5	624.5
438.721	684.5
438.943	668.5
439.165	554.5
439.386	521.5
439.608	510.5
439.829	514.5
440.05	528.5
440.272	537.5
440.493	517.5
440.715	521.5
440.936	494.5
441.158	508.5
441.379	483.5
441.6	504.5
441.822	527.5
442.043	523.5
442.264	596.5
442.486	639.5
442.707	566.5
442.928	555.5
443.149	564.5
443.371	538.5
443.592	569.5
443.813	663.5
444.034	705.5
444.255	599.5
444.476	571.5
444.698	565.5
444.919	565.5
445.14	656.5
445.361	597.5
445.582	561.5
445.803	591.5
446.024	650.5
446.245	681.5
446.466	591.5
446.687	549.5
446.908	494.5
447.129	484.5
447.35	506.5
447.571	458.5
447.792	490.5
448.013	486.5
448.234	476.5
448.455	494.5
448.675	581.5
448.896	705.5
449.117	587.5
449.338	541.5
449.559	638.5
449.779	713.5
450	586.5
450.221	519.5
450.442	479.5
450.662	475.5
450.883	461.5
451.104	458.5
451.324	444.5
451.545	427.5
451.766	409.5
451.986	443.5
452.207	432.5
452.428	453.5
452.648	415.5
452.869	444.5
453.089	420.5
453.31	443.5
453.53	432.5
453.751	423.5
453.971	421.5
454.192	425.5
454.412	424.5
454.633	422.5
454.853	434.5
455.073	425.5
455.294	433.5
455.514	477.5
455.734	475.5
455.955	439.5
456.175	411.5
456.395	416.5
456.616	427.5
456.836	429.5
457.056	418.5
457.276	415.5
457.497	421.5
457.717	417.5
457.937	408.5
458.157	408.5
458.377	410.5
458.598	446.5
458.818	440.5
459.038	534.5
459.258	531.5
459.478	474.5
459.698	494.5
459.918	465.5
460.138	462.5
460.358	495.5
460.578	492.5
460.798	498.5
461.018	493.5
461.238	527.5
461.458	503.5
461.678	489.5
461.898	520.5
462.118	510.5
462.338	543.5
462.558	519.5
462.777	544.5
462.997	570.5
463.217	602.5
463.437	605.5
463.657	593.5
463.876	574.5
464.096	582.5
464.316	547.5
464.536	568.5
464.755	556.5
464.975	547.5
465.195	537.5
465.414	567.5
465.634	512.5
465.854	499.5
466.073	468.5
466.293	446.5
466.512	451.5
466.732	449.5
466.951	448.5
467.171	452.5
467.391	475.5
467.61	444.5
467.829	452.5
468.049	479.5
468.268	437.5
468.488	447.5
468.707	437.5
468.927	439.5
469.146	423.5
469.365	449.5
469.585	431.5
469.804	455.5
470.023	463.5
470.243	452.5
470.462	454.5
470.681	455.5
470.901	468.5
471.12	446.5
471.339	473.5
471.558	475.5
471.777	456.5
471.997	463.5
472.216	466.5
472.435	467.5
472.654	460.5
472.873	457.5
473.092	447.5
473.311	451.5
473.53	454.5
473.749	472.5
473.968	472.5
474.187	551.5
474.406	557.5
474.625	471.5
474.844	441.5
475.063	442.5
475.282	472.5
475.501	440.5
475.72	454.5
475.939	466.5
476.158	475.5
476.377	482.5
476.596	471.5
476.814	469.5
477.033	474.5
477.252	463.5
477.471	492.5
477.69	480.5
477.908	503.5
478.127	490.5
478.346	503.5
478.564	539.5
478.783	540.5
479.002	510.5
479.22	536.5
479.439	525.5
479.658	549.5
479.876	557.5
480.095	574.5
480.313	583.5
480.532	569.5
480.751	553.5
480.969	579.5
481.188	587.5
481.406	594.5
481.624	554.5
481.843	547.5
482.061	511.5
482.28	516.5
482.498	521.5
482.717	525.5
482.935	518.5
483.153	516.5
483.372	504.5
483.59	527.5
483.808	521.5
484.027	524.5
484.245	539.5
484.463	499.5
484.681	539.5
484.9	538.5
485.118	557.5
485.336	530.5
485.554	533.5
485.772	547.5
485.99	555.5
486.209	559.5
486.427	561.5
486.645	556.5
486.863	567.5
487.081	583.5
487.299	558.5
487.517	572.5
487.735	541.5
487.953	565.5
488.171	558.5
488.389	581.5
488.607	559.5
488.825	588.5
489.043	553.5
489.261	547.5
489.479	566.5
489.696	581.5
489.914	567.5
490.132	579.5
490.35	587.5
490.568	585.5
490.786	595.5
491.003	602.5
491.221	621.5
491.439	598.5
491.657	627.5
491.874	612.5
492.092	613.5
492.31	649.5
492.527	623.5
492.745	659.5
492.963	625.5
493.18	649.5
493.398	640.5
493.615	659.5
493.833	655.5
494.05	655.5
494.268	642.5
494.485	668.5
494.703	631.5
494.92	645.5
495.138	638.5
495.355	641.5
495.573	651.5
495.79	628.5
496.008	643.5
496.225	661.5
496.442	651.5
496.66	647.5
496.877	648.5
497.094	674.5
497.312	663.5
497.529	687.5
497.746	685.5
497.963	708.5
498.181	731.5
498.398	744.5
498.615	763.5
498.832	783.5
499.049	831.5
499.267	840.5
499.484	893.5
499.701	963.5
499.918	997.5
500.135	1057.5
500.352	1130.5
500.569	1206.5
500.786	1203.5
501.003	1167.5
501.22	1075.5
501.437	1028.5
501.654	921.5
501.871	929.5
502.088	879.5
502.305	825.5
502.522	797.5
502.739	796.5
502.956	720.5
503.172	713.5
503.389	702.5
503.606	691.5
503.823	713.5
504.04	675.5
504.256	682.5
504.473	678.5
504.69	694.5
504.907	671.5
505.123	655.5
505.34	651.5
505.557	641.5
505.773	622.5
505.99	636.5
506.207	609.5
506.423	631.5
506.64	616.5
506.856	581.5
507.073	605.5
507.289	579.5
507.506	590.5
507.722	582.5
507.939	580.5
508.155	571.5
508.372	556.5
508.588	573.5
508.805	559.5
509.021	553.5
509.238	582.5
509.454	594.5
509.67	565.5
509.887	569.5
510.103	552.5
510.319	545.5
510.536	582.5
510.752	737.5
510.968	666.5
511.184	541.5
511.401	543.5
511.617	545.5
511.833	547.5
512.049	518.5
512.265	526.5
512.481	521.5
512.698	525.5
512.914	546.5
513.13	517.5
513.346	528.5
513.562	508.5
513.778	507.5
513.994	535.5
514.21	533.5
514.426	547.5
514.642	569.5
514.858	563.5
515.074	591.5
515.29	607.5
515.506	731.5
515.721	670.5
515.937	578.5
516.153	562.5
516.369	569.5
516.585	575.5
516.801	582.5
517.016	593.5
517.232	579.5
517.448	617.5
517.664	629.5
517.879	622.5
518.095	625.5
518.311	610.5
518.527	607.5
518.742	586.5
518.958	580.5
519.173	575.5
519.389	557.5
519.605	552.5
