Data from 1973.PennyLincolnUp.Lamp.En5.5.200Scan.071719.P1.Changed Mount._HRD10591_15-45-00-852.txt Node
Date: Thu Jul 18 15:45:00 EDT 2019
User: cochatt
Spectrometer: HR+D1059
Trigger mode: 1
Integration Time (sec): 1.000000E-1
Scans to average: 1
Electric dark correction enabled: true
Nonlinearity correction enabled: false
Boxcar width: 0
XAxis mode: Wavelengths
Number of Pixels in Spectrum: 2048
>>>>>Begin Spectral Data<<<<<
223.165	-14.19
223.4	-14.19
223.635	-14.19
223.869	-18.19
224.104	-25.19
224.338	-25.19
224.573	-28.19
224.808	-1.19
225.042	-11.19
225.277	0.81
225.511	-2.19
225.746	12.81
225.98	-1.19
226.215	21.81
226.449	20.81
226.683	24.81
226.918	25.81
227.152	19.81
227.387	48.81
227.621	26.81
227.856	25.81
228.09	36.81
228.324	34.81
228.559	50.81
228.793	68.81
229.027	105.81
229.262	95.81
229.496	107.81
229.73	114.81
229.964	127.81
230.199	124.81
230.433	114.81
230.667	102.81
230.901	114.81
231.136	107.81
231.37	103.81
231.604	106.81
231.838	105.81
232.072	97.81
232.306	101.81
232.541	101.81
232.775	113.81
233.009	116.81
233.243	124.81
233.477	110.81
233.711	107.81
233.945	119.81
234.179	125.81
234.413	114.81
234.647	107.81
234.881	112.81
235.115	107.81
235.349	100.81
235.583	121.81
235.817	125.81
236.051	141.81
236.285	117.81
236.519	120.81
236.753	143.81
236.987	140.81
237.221	174.81
237.455	217.81
237.689	177.81
237.922	131.81
238.156	132.81
238.39	132.81
238.624	125.81
238.858	138.81
239.091	129.81
239.325	109.81
239.559	110.81
239.793	126.81
240.027	124.81
240.26	141.81
240.494	141.81
240.728	140.81
240.961	145.81
241.195	143.81
241.429	145.81
241.662	147.81
241.896	130.81
242.13	126.81
242.363	137.81
242.597	137.81
242.83	136.81
243.064	143.81
243.298	136.81
243.531	157.81
243.765	148.81
243.998	140.81
244.232	149.81
244.465	148.81
244.699	148.81
244.932	139.81
245.166	144.81
245.399	136.81
245.633	157.81
245.866	138.81
246.099	141.81
246.333	151.81
246.566	154.81
246.8	152.81
247.033	155.81
247.266	149.81
247.5	153.81
247.733	172.81
247.966	162.81
248.2	168.81
248.433	162.81
248.666	175.81
248.899	180.81
249.133	178.81
249.366	190.81
249.599	184.81
249.832	189.81
250.066	184.81
250.299	181.81
250.532	177.81
250.765	168.81
250.998	206.81
251.231	208.81
251.465	208.81
251.698	224.81
251.931	204.81
252.164	194.81
252.397	184.81
252.63	196.81
252.863	195.81
253.096	188.81
253.329	221.81
253.562	219.81
253.795	205.81
254.028	212.81
254.261	207.81
254.494	208.81
254.727	252.81
254.96	265.81
255.193	261.81
255.426	233.81
255.659	230.81
255.892	223.81
256.124	222.81
256.357	228.81
256.59	219.81
256.823	224.81
257.056	204.81
257.289	223.81
257.521	225.81
257.754	200.81
257.987	198.81
258.22	222.81
258.452	204.81
258.685	221.81
258.918	216.81
259.151	207.81
259.383	226.81
259.616	214.81
259.849	209.81
260.081	232.81
260.314	248.81
260.547	262.81
260.779	249.81
261.012	232.81
261.244	235.81
261.477	211.81
261.71	229.81
261.942	221.81
262.175	233.81
262.407	224.81
262.64	222.81
262.872	229.81
263.105	227.81
263.337	214.81
263.57	230.81
263.802	220.81
264.035	225.81
264.267	216.81
264.499	229.81
264.732	201.81
264.964	230.81
265.197	228.81
265.429	239.81
265.661	246.81
265.894	228.81
266.126	227.81
266.358	234.81
266.591	245.81
266.823	232.81
267.055	246.81
267.287	245.81
267.52	245.81
267.752	235.81
267.984	236.81
268.216	242.81
268.448	252.81
268.681	236.81
268.913	242.81
269.145	268.81
269.377	299.81
269.609	274.81
269.841	279.81
270.073	279.81
270.306	295.81
270.538	317.81
270.77	310.81
271.002	308.81
271.234	310.81
271.466	296.81
271.698	320.81
271.93	320.81
272.162	304.81
272.394	311.81
272.626	294.81
272.858	292.81
273.09	285.81
273.322	305.81
273.553	264.81
273.785	256.81
274.017	259.81
274.249	293.81
274.481	254.81
274.713	274.81
274.945	292.81
275.176	257.81
275.408	278.81
275.64	274.81
275.872	263.81
276.104	264.81
276.335	274.81
276.567	285.81
276.799	286.81
277.031	316.81
277.262	324.81
277.494	319.81
277.726	315.81
277.957	298.81
278.189	286.81
278.421	284.81
278.652	280.81
278.884	290.81
279.115	278.81
279.347	267.81
279.579	275.81
279.81	279.81
280.042	274.81
280.273	284.81
280.505	297.81
280.736	277.81
280.968	274.81
281.199	282.81
281.431	311.81
281.662	286.81
281.894	300.81
282.125	297.81
282.356	308.81
282.588	313.81
282.819	298.81
283.051	296.81
283.282	293.81
283.513	306.81
283.745	311.81
283.976	304.81
284.207	319.81
284.439	315.81
284.67	307.81
284.901	305.81
285.132	301.81
285.364	307.81
285.595	315.81
285.826	291.81
286.057	305.81
286.288	301.81
286.52	300.81
286.751	296.81
286.982	325.81
287.213	308.81
287.444	312.81
287.675	290.81
287.906	306.81
288.138	332.81
288.369	323.81
288.6	321.81
288.831	320.81
289.062	336.81
289.293	331.81
289.524	344.81
289.755	312.81
289.986	312.81
290.217	341.81
290.448	320.81
290.679	311.81
290.91	316.81
291.141	334.81
291.371	317.81
291.602	322.81
291.833	316.81
292.064	310.81
292.295	322.81
292.526	311.81
292.757	302.81
292.987	316.81
293.218	315.81
293.449	330.81
293.68	308.81
293.91	306.81
294.141	332.81
294.372	330.81
294.603	317.81
294.833	332.81
295.064	318.81
295.295	314.81
295.525	313.81
295.756	316.81
295.987	346.81
296.217	347.81
296.448	345.81
296.679	323.81
296.909	345.81
297.14	334.81
297.37	339.81
297.601	331.81
297.831	340.81
298.062	332.81
298.292	324.81
298.523	338.81
298.753	349.81
298.984	337.81
299.214	331.81
299.445	331.81
299.675	356.81
299.905	349.81
300.136	354.81
300.366	344.81
300.597	343.81
300.827	355.81
301.057	357.81
301.288	341.81
301.518	341.81
301.748	361.81
301.979	345.81
302.209	324.81
302.439	355.81
302.669	349.81
302.9	351.81
303.13	348.81
303.36	363.81
303.59	334.81
303.82	356.81
304.051	373.81
304.281	362.81
304.511	352.81
304.741	363.81
304.971	352.81
305.201	355.81
305.431	356.81
305.661	361.81
305.891	349.81
306.121	346.81
306.352	362.81
306.582	356.81
306.812	332.81
307.042	355.81
307.272	361.81
307.502	366.81
307.731	350.81
307.961	357.81
308.191	368.81
308.421	372.81
308.651	372.81
308.881	364.81
309.111	361.81
309.341	366.81
309.571	371.81
309.8	376.81
310.03	381.81
310.26	388.81
310.49	384.81
310.72	393.81
310.949	389.81
311.179	402.81
311.409	371.81
311.639	391.81
311.868	393.81
312.098	403.81
312.328	390.81
312.557	432.81
312.787	395.81
313.017	398.81
313.246	416.81
313.476	403.81
313.706	395.81
313.935	391.81
314.165	414.81
314.394	412.81
314.624	429.81
314.853	396.81
315.083	401.81
315.312	409.81
315.542	390.81
315.771	396.81
316.001	394.81
316.23	411.81
316.46	386.81
316.689	392.81
316.919	387.81
317.148	392.81
317.377	402.81
317.607	388.81
317.836	418.81
318.065	405.81
318.295	376.81
318.524	408.81
318.753	382.81
318.983	394.81
319.212	398.81
319.441	388.81
319.67	403.81
319.9	388.81
320.129	394.81
320.358	404.81
320.587	418.81
320.816	408.81
321.046	420.81
321.275	414.81
321.504	410.81
321.733	414.81
321.962	412.81
322.191	410.81
322.42	415.81
322.649	420.81
322.878	431.81
323.108	427.81
323.337	448.81
323.566	459.81
323.795	480.81
324.024	518.81
324.253	576.81
324.482	721.81
324.71	1043.81
324.939	1478.81
325.168	1340.81
325.397	754.81
325.626	549.81
325.855	490.81
326.084	484.81
326.313	471.81
326.542	470.81
326.77	502.81
326.999	557.81
327.228	691.81
327.457	958.81
327.686	1184.81
327.914	840.81
328.143	594.81
328.372	544.81
328.6	528.81
328.829	499.81
329.058	510.81
329.287	536.81
329.515	500.81
329.744	515.81
329.972	475.81
330.201	509.81
330.43	544.81
330.658	508.81
330.887	536.81
331.115	519.81
331.344	499.81
331.572	475.81
331.801	494.81
332.03	492.81
332.258	478.81
332.486	483.81
332.715	492.81
332.943	471.81
333.172	492.81
333.4	478.81
333.629	507.81
333.857	537.81
334.085	539.81
334.314	540.81
334.542	561.81
334.771	562.81
334.999	515.81
335.227	523.81
335.455	497.81
335.684	504.81
335.912	470.81
336.14	485.81
336.369	482.81
336.597	498.81
336.825	477.81
337.053	478.81
337.281	460.81
337.51	486.81
337.738	464.81
337.966	472.81
338.194	484.81
338.422	457.81
338.65	468.81
338.878	466.81
339.106	441.81
339.334	468.81
339.562	467.81
339.79	433.81
340.018	447.81
340.246	443.81
340.474	459.81
340.702	454.81
340.93	454.81
341.158	460.81
341.386	458.81
341.614	460.81
341.842	436.81
342.07	469.81
342.298	443.81
342.526	444.81
342.754	446.81
342.981	435.81
343.209	451.81
343.437	440.81
343.665	476.81
343.893	473.81
344.12	492.81
344.348	490.81
344.576	468.81
344.804	496.81
345.031	470.81
345.259	450.81
345.487	458.81
345.714	444.81
345.942	420.81
346.17	422.81
346.397	439.81
346.625	426.81
346.853	438.81
347.08	422.81
347.308	405.81
347.535	425.81
347.763	441.81
347.99	452.81
348.218	426.81
348.445	445.81
348.673	422.81
348.9	404.81
349.128	425.81
349.355	425.81
349.583	419.81
349.81	426.81
350.037	424.81
350.265	409.81
350.492	426.81
350.72	414.81
350.947	422.81
351.174	434.81
351.402	445.81
351.629	412.81
351.856	409.81
352.083	428.81
352.311	426.81
352.538	425.81
352.765	425.81
352.992	420.81
353.22	425.81
353.447	401.81
353.674	415.81
353.901	424.81
354.128	417.81
354.355	413.81
354.583	408.81
354.81	408.81
355.037	405.81
355.264	407.81
355.491	386.81
355.718	384.81
355.945	424.81
356.172	407.81
356.399	413.81
356.626	381.81
356.853	405.81
357.08	417.81
357.307	408.81
357.534	395.81
357.761	383.81
357.988	416.81
358.215	406.81
358.441	388.81
358.668	404.81
358.895	404.81
359.122	407.81
359.349	405.81
359.576	424.81
359.802	454.81
360.029	447.81
360.256	425.81
360.483	438.81
360.709	428.81
360.936	425.81
361.163	424.81
361.39	435.81
361.616	438.81
361.843	432.81
362.07	420.81
362.296	440.81
362.523	443.81
362.749	429.81
362.976	434.81
363.203	420.81
363.429	414.81
363.656	409.81
363.882	425.81
364.109	397.81
364.335	416.81
364.562	404.81
364.788	407.81
365.015	408.81
365.241	413.81
365.468	450.81
365.694	414.81
365.92	402.81
366.147	421.81
366.373	423.81
366.599	416.81
366.826	412.81
367.052	416.81
367.278	390.81
367.505	417.81
367.731	404.81
367.957	406.81
368.184	410.81
368.41	408.81
368.636	410.81
368.862	436.81
369.089	404.81
369.315	420.81
369.541	409.81
369.767	413.81
369.993	417.81
370.219	404.81
370.445	415.81
370.672	423.81
370.898	393.81
371.124	418.81
371.35	422.81
371.576	427.81
371.802	390.81
372.028	440.81
372.254	412.81
372.48	429.81
372.706	441.81
372.932	431.81
373.158	420.81
373.384	437.81
373.61	433.81
373.835	441.81
374.061	424.81
374.287	409.81
374.513	436.81
374.739	419.81
374.965	434.81
375.191	441.81
375.416	429.81
375.642	428.81
375.868	440.81
376.094	405.81
376.319	417.81
376.545	414.81
376.771	422.81
376.997	420.81
377.222	437.81
377.448	437.81
377.674	429.81
377.899	421.81
378.125	435.81
378.35	429.81
378.576	408.81
378.802	426.81
379.027	408.81
379.253	399.81
379.478	421.81
379.704	420.81
379.929	440.81
380.155	432.81
380.38	408.81
380.606	414.81
380.831	416.81
381.057	434.81
381.282	411.81
381.507	421.81
381.733	421.81
381.958	426.81
382.184	414.81
382.409	437.81
382.634	429.81
382.86	429.81
383.085	434.81
383.31	427.81
383.535	416.81
383.761	436.81
383.986	446.81
384.211	457.81
384.436	466.81
384.662	450.81
384.887	484.81
385.112	469.81
385.337	455.81
385.562	478.81
385.787	468.81
386.013	487.81
386.238	466.81
386.463	466.81
386.688	480.81
386.913	463.81
387.138	477.81
387.363	492.81
387.588	478.81
387.813	490.81
388.038	463.81
388.263	496.81
388.488	477.81
388.713	480.81
388.938	477.81
389.163	476.81
389.387	476.81
389.612	481.81
389.837	468.81
390.062	467.81
390.287	480.81
390.512	470.81
390.736	452.81
390.961	467.81
391.186	472.81
391.411	505.81
391.636	494.81
391.86	505.81
392.085	510.81
392.31	509.81
392.534	503.81
392.759	485.81
392.984	493.81
393.208	479.81
393.433	492.81
393.658	502.81
393.882	466.81
394.107	492.81
394.331	470.81
394.556	484.81
394.78	482.81
395.005	508.81
395.229	520.81
395.454	507.81
395.678	505.81
395.903	516.81
396.127	528.81
396.352	524.81
396.576	503.81
396.801	485.81
397.025	492.81
397.249	503.81
397.474	525.81
397.698	520.81
397.922	519.81
398.147	548.81
398.371	536.81
398.595	543.81
398.82	540.81
399.044	561.81
399.268	608.81
399.492	658.81
399.717	695.81
399.941	760.81
400.165	718.81
400.389	680.81
400.613	683.81
400.837	608.81
401.062	594.81
401.286	549.81
401.51	587.81
401.734	580.81
401.958	556.81
402.182	569.81
402.406	572.81
402.63	584.81
402.854	578.81
403.078	579.81
403.302	569.81
403.526	584.81
403.75	608.81
403.974	587.81
404.198	611.81
404.422	605.81
404.645	586.81
404.869	595.81
405.093	617.81
405.317	653.81
405.541	676.81
405.765	646.81
405.988	624.81
406.212	619.81
406.436	624.81
406.66	637.81
406.883	637.81
407.107	683.81
407.331	694.81
407.555	740.81
407.778	727.81
408.002	718.81
408.226	662.81
408.449	674.81
408.673	628.81
408.896	671.81
409.12	712.81
409.344	651.81
409.567	612.81
409.791	574.81
410.014	580.81
410.238	578.81
410.461	586.81
410.685	595.81
410.908	583.81
411.132	635.81
411.355	636.81
411.578	634.81
411.802	590.81
412.025	577.81
412.249	584.81
412.472	602.81
412.695	646.81
412.919	620.81
413.142	573.81
413.365	586.81
413.589	553.81
413.812	530.81
414.035	557.81
414.258	578.81
414.482	534.81
414.705	556.81
414.928	544.81
415.151	558.81
415.374	574.81
415.597	538.81
415.821	540.81
416.044	548.81
416.267	532.81
416.49	561.81
416.713	557.81
416.936	550.81
417.159	545.81
417.382	549.81
417.605	541.81
417.828	542.81
418.051	561.81
418.274	567.81
418.497	562.81
418.72	549.81
418.943	554.81
419.166	544.81
419.389	626.81
419.611	624.81
419.834	581.81
420.057	582.81
420.28	562.81
420.503	564.81
420.726	565.81
420.948	569.81
421.171	599.81
421.394	628.81
421.617	578.81
421.839	561.81
422.062	552.81
422.285	562.81
422.507	632.81
422.73	680.81
422.953	678.81
423.175	600.81
423.398	586.81
423.621	593.81
423.843	613.81
424.066	622.81
424.288	619.81
424.511	596.81
424.733	648.81
424.956	699.81
425.178	683.81
425.401	689.81
425.623	714.81
425.846	628.81
426.068	596.81
426.291	611.81
426.513	569.81
426.735	567.81
426.958	619.81
427.18	697.81
427.402	805.81
427.625	873.81
427.847	753.81
428.069	657.81
428.292	623.81
428.514	562.81
428.736	568.81
428.958	587.81
429.181	532.81
429.403	522.81
429.625	545.81
429.847	574.81
430.069	608.81
430.292	603.81
430.514	544.81
430.736	543.81
430.958	540.81
431.18	521.81
431.402	511.81
431.624	494.81
431.846	500.81
432.068	502.81
432.29	518.81
432.512	513.81
432.734	534.81
432.956	547.81
433.178	519.81
433.4	544.81
433.622	525.81
433.844	509.81
434.066	521.81
434.287	517.81
434.509	527.81
434.731	543.81
434.953	579.81
435.175	556.81
435.397	598.81
435.618	606.81
435.84	621.81
436.062	692.81
436.284	760.81
436.505	646.81
436.727	570.81
436.949	545.81
437.17	528.81
437.392	549.81
437.614	535.81
437.835	560.81
438.057	614.81
438.278	719.81
438.5	722.81
438.721	765.81
438.943	750.81
439.165	625.81
439.386	580.81
439.608	572.81
439.829	584.81
440.05	585.81
440.272	613.81
440.493	602.81
440.715	572.81
440.936	536.81
441.158	579.81
441.379	586.81
441.6	564.81
441.822	586.81
442.043	610.81
442.264	685.81
442.486	719.81
442.707	626.81
442.928	579.81
443.149	611.81
443.371	603.81
443.592	640.81
443.813	732.81
444.034	797.81
444.255	678.81
444.476	615.81
444.698	633.81
444.919	615.81
445.14	749.81
445.361	659.81
445.582	633.81
445.803	654.81
446.024	730.81
446.245	768.81
446.466	693.81
446.687	591.81
446.908	569.81
447.129	555.81
447.35	528.81
447.571	527.81
447.792	525.81
448.013	538.81
448.234	556.81
448.455	575.81
448.675	675.81
448.896	756.81
449.117	670.81
449.338	614.81
449.559	714.81
449.779	810.81
450	653.81
450.221	564.81
450.442	518.81
450.662	511.81
450.883	525.81
451.104	518.81
451.324	511.81
451.545	518.81
451.766	501.81
451.986	474.81
452.207	479.81
452.428	468.81
452.648	492.81
452.869	468.81
453.089	472.81
453.31	499.81
453.53	463.81
453.751	476.81
453.971	470.81
454.192	474.81
454.412	461.81
454.633	488.81
454.853	462.81
455.073	449.81
455.294	489.81
455.514	517.81
455.734	494.81
455.955	468.81
456.175	469.81
456.395	462.81
456.616	448.81
456.836	452.81
457.056	447.81
457.276	441.81
457.497	457.81
457.717	446.81
457.937	439.81
458.157	475.81
458.377	462.81
458.598	472.81
458.818	508.81
459.038	582.81
459.258	610.81
459.478	541.81
459.698	514.81
459.918	521.81
460.138	528.81
460.358	536.81
460.578	552.81
460.798	544.81
461.018	560.81
461.238	574.81
461.458	557.81
461.678	550.81
461.898	544.81
462.118	562.81
462.338	552.81
462.558	580.81
462.777	594.81
462.997	609.81
463.217	650.81
463.437	648.81
463.657	621.81
463.876	595.81
464.096	609.81
464.316	600.81
464.536	602.81
464.755	592.81
464.975	575.81
465.195	594.81
465.414	611.81
465.634	548.81
465.854	538.81
466.073	514.81
466.293	527.81
466.512	514.81
466.732	517.81
466.951	515.81
467.171	502.81
467.391	482.81
467.61	501.81
467.829	481.81
468.049	495.81
468.268	486.81
468.488	496.81
468.707	493.81
468.927	491.81
469.146	484.81
469.365	462.81
469.585	504.81
469.804	512.81
470.023	507.81
470.243	501.81
470.462	515.81
470.681	517.81
470.901	519.81
471.12	520.81
471.339	501.81
471.558	508.81
471.777	503.81
471.997	497.81
472.216	523.81
472.435	498.81
472.654	512.81
472.873	493.81
473.092	497.81
473.311	512.81
473.53	485.81
473.749	504.81
473.968	533.81
474.187	586.81
474.406	609.81
474.625	544.81
474.844	515.81
475.063	510.81
475.282	476.81
475.501	488.81
475.72	483.81
475.939	492.81
476.158	521.81
476.377	504.81
476.596	504.81
476.814	526.81
477.033	510.81
477.252	525.81
477.471	538.81
477.69	549.81
477.908	562.81
478.127	568.81
478.346	557.81
478.564	564.81
478.783	580.81
479.002	563.81
479.22	582.81
479.439	598.81
479.658	596.81
479.876	597.81
480.095	626.81
480.313	629.81
480.532	626.81
480.751	632.81
480.969	615.81
481.188	639.81
481.406	633.81
481.624	596.81
481.843	608.81
482.061	593.81
482.28	569.81
482.498	565.81
482.717	574.81
482.935	571.81
483.153	566.81
483.372	573.81
483.59	581.81
483.808	563.81
484.027	585.81
484.245	579.81
484.463	562.81
484.681	587.81
484.9	587.81
485.118	593.81
485.336	607.81
485.554	600.81
485.772	578.81
485.99	589.81
486.209	583.81
486.427	605.81
486.645	608.81
486.863	584.81
487.081	626.81
487.299	612.81
487.517	597.81
487.735	611.81
487.953	607.81
488.171	618.81
488.389	598.81
488.607	600.81
488.825	609.81
489.043	606.81
489.261	625.81
489.479	614.81
489.696	634.81
489.914	626.81
490.132	618.81
490.35	650.81
490.568	631.81
490.786	658.81
491.003	655.81
491.221	649.81
491.439	670.81
491.657	708.81
491.874	699.81
492.092	689.81
492.31	691.81
492.527	684.81
492.745	676.81
492.963	690.81
493.18	678.81
493.398	694.81
493.615	732.81
493.833	715.81
494.05	707.81
494.268	722.81
494.485	712.81
494.703	728.81
494.92	700.81
495.138	701.81
495.355	701.81
495.573	726.81
495.79	713.81
496.008	719.81
496.225	719.81
496.442	703.81
496.66	710.81
496.877	693.81
497.094	690.81
497.312	747.81
497.529	754.81
497.746	770.81
497.963	802.81
498.181	815.81
498.398	812.81
498.615	826.81
498.832	898.81
499.049	894.81
499.267	943.81
499.484	974.81
499.701	1056.81
499.918	1075.81
500.135	1140.81
500.352	1244.81
500.569	1305.81
500.786	1306.81
501.003	1213.81
501.22	1176.81
501.437	1127.81
501.654	1020.81
