Data from 1973.PennyLincolnUp.Lamp.En5.5.200Scan.071719.P1.Changed Mount._HRD10591_15-45-30-853.txt Node
Date: Thu Jul 18 15:45:30 EDT 2019
User: cochatt
Spectrometer: HR+D1059
Trigger mode: 1
Integration Time (sec): 1.000000E-1
Scans to average: 1
Electric dark correction enabled: true
Nonlinearity correction enabled: false
Boxcar width: 0
XAxis mode: Wavelengths
Number of Pixels in Spectrum: 2048
>>>>>Begin Spectral Data<<<<<
223.165	-22.25
223.4	-22.25
223.635	-22.25
223.869	-17.25
224.104	-12.25
224.338	-14.25
224.573	-7.25
224.808	-23.25
225.042	-9.25
225.277	-3.25
225.511	-3.25
225.746	6.75
225.98	7.75
226.215	9.75
226.449	17.75
226.683	22.75
226.918	27.75
227.152	19.75
227.387	21.75
227.621	33.75
227.856	39.75
228.09	49.75
228.324	59.75
228.559	58.75
228.793	65.75
229.027	96.75
229.262	106.75
229.496	116.75
229.73	127.75
229.964	141.75
230.199	125.75
230.433	106.75
230.667	105.75
230.901	122.75
231.136	121.75
231.37	114.75
231.604	91.75
231.838	112.75
232.072	107.75
232.306	125.75
232.541	105.75
232.775	111.75
233.009	103.75
233.243	103.75
233.477	124.75
233.711	110.75
233.945	106.75
234.179	107.75
234.413	116.75
234.647	125.75
234.881	117.75
235.115	129.75
235.349	138.75
235.583	126.75
235.817	129.75
236.051	125.75
236.285	125.75
236.519	120.75
236.753	143.75
236.987	133.75
237.221	190.75
237.455	220.75
237.689	187.75
237.922	138.75
238.156	138.75
238.39	135.75
238.624	110.75
238.858	125.75
239.091	126.75
239.325	130.75
239.559	130.75
239.793	129.75
240.027	135.75
240.26	149.75
240.494	179.75
240.728	151.75
240.961	163.75
241.195	137.75
241.429	142.75
241.662	142.75
241.896	134.75
242.13	149.75
242.363	141.75
242.597	136.75
242.83	146.75
243.064	146.75
243.298	134.75
243.531	153.75
243.765	143.75
243.998	159.75
244.232	165.75
244.465	144.75
244.699	162.75
244.932	162.75
245.166	143.75
245.399	158.75
245.633	135.75
245.866	154.75
246.099	150.75
246.333	147.75
246.566	164.75
246.8	160.75
247.033	163.75
247.266	169.75
247.5	177.75
247.733	182.75
247.966	171.75
248.2	179.75
248.433	172.75
248.666	156.75
248.899	183.75
249.133	198.75
249.366	202.75
249.599	193.75
249.832	190.75
250.066	165.75
250.299	185.75
250.532	191.75
250.765	203.75
250.998	223.75
251.231	237.75
251.465	198.75
251.698	201.75
251.931	213.75
252.164	199.75
252.397	204.75
252.63	211.75
252.863	193.75
253.096	216.75
253.329	231.75
253.562	227.75
253.795	217.75
254.028	226.75
254.261	220.75
254.494	223.75
254.727	252.75
254.96	265.75
255.193	275.75
255.426	250.75
255.659	235.75
255.892	246.75
256.124	237.75
256.357	236.75
256.59	237.75
256.823	231.75
257.056	213.75
257.289	205.75
257.521	214.75
257.754	217.75
257.987	225.75
258.22	208.75
258.452	206.75
258.685	220.75
258.918	215.75
259.151	216.75
259.383	228.75
259.616	222.75
259.849	225.75
260.081	251.75
260.314	253.75
260.547	270.75
260.779	260.75
261.012	241.75
261.244	234.75
261.477	230.75
261.71	233.75
261.942	244.75
262.175	230.75
262.407	232.75
262.64	229.75
262.872	238.75
263.105	229.75
263.337	229.75
263.57	234.75
263.802	227.75
264.035	219.75
264.267	220.75
264.499	221.75
264.732	230.75
264.964	228.75
265.197	222.75
265.429	235.75
265.661	230.75
265.894	218.75
266.126	234.75
266.358	231.75
266.591	236.75
266.823	253.75
267.055	261.75
267.287	250.75
267.52	233.75
267.752	251.75
267.984	254.75
268.216	233.75
268.448	258.75
268.681	247.75
268.913	259.75
269.145	259.75
269.377	268.75
269.609	286.75
269.841	285.75
270.073	268.75
270.306	286.75
270.538	325.75
270.77	333.75
271.002	301.75
271.234	312.75
271.466	311.75
271.698	333.75
271.93	314.75
272.162	341.75
272.394	342.75
272.626	333.75
272.858	324.75
273.09	309.75
273.322	283.75
273.553	281.75
273.785	307.75
274.017	285.75
274.249	283.75
274.481	278.75
274.713	281.75
274.945	295.75
275.176	301.75
275.408	298.75
275.64	297.75
275.872	273.75
276.104	282.75
276.335	290.75
276.567	283.75
276.799	302.75
277.031	317.75
277.262	312.75
277.494	356.75
277.726	323.75
277.957	326.75
278.189	323.75
278.421	292.75
278.652	275.75
278.884	301.75
279.115	293.75
279.347	317.75
279.579	297.75
279.81	278.75
280.042	293.75
280.273	298.75
280.505	296.75
280.736	289.75
280.968	298.75
281.199	310.75
281.431	301.75
281.662	309.75
281.894	313.75
282.125	310.75
282.356	317.75
282.588	316.75
282.819	326.75
283.051	302.75
283.282	300.75
283.513	303.75
283.745	298.75
283.976	305.75
284.207	309.75
284.439	308.75
284.67	306.75
284.901	321.75
285.132	316.75
285.364	307.75
285.595	301.75
285.826	309.75
286.057	327.75
286.288	327.75
286.52	327.75
286.751	317.75
286.982	318.75
287.213	322.75
287.444	321.75
287.675	320.75
287.906	342.75
288.138	338.75
288.369	333.75
288.6	344.75
288.831	320.75
289.062	330.75
289.293	305.75
289.524	322.75
289.755	295.75
289.986	333.75
290.217	309.75
290.448	343.75
290.679	343.75
290.91	326.75
291.141	331.75
291.371	327.75
291.602	326.75
291.833	324.75
292.064	316.75
292.295	331.75
292.526	345.75
292.757	316.75
292.987	335.75
293.218	311.75
293.449	327.75
293.68	335.75
293.91	331.75
294.141	326.75
294.372	341.75
294.603	341.75
294.833	346.75
295.064	336.75
295.295	359.75
295.525	331.75
295.756	338.75
295.987	341.75
296.217	354.75
296.448	377.75
296.679	337.75
296.909	334.75
297.14	349.75
297.37	352.75
297.601	365.75
297.831	348.75
298.062	329.75
298.292	353.75
298.523	341.75
298.753	353.75
298.984	333.75
299.214	371.75
299.445	354.75
299.675	353.75
299.905	346.75
300.136	351.75
300.366	362.75
300.597	350.75
300.827	350.75
301.057	367.75
301.288	361.75
301.518	360.75
301.748	367.75
301.979	380.75
302.209	378.75
302.439	387.75
302.669	371.75
302.9	374.75
303.13	369.75
303.36	370.75
303.59	366.75
303.82	372.75
304.051	385.75
304.281	366.75
304.511	359.75
304.741	369.75
304.971	389.75
305.201	355.75
305.431	374.75
305.661	370.75
305.891	362.75
306.121	379.75
306.352	352.75
306.582	365.75
306.812	385.75
307.042	379.75
307.272	362.75
307.502	365.75
307.731	377.75
307.961	360.75
308.191	355.75
308.421	371.75
308.651	376.75
308.881	366.75
309.111	383.75
309.341	363.75
309.571	391.75
309.8	397.75
310.03	376.75
310.26	416.75
310.49	404.75
310.72	400.75
310.949	426.75
311.179	414.75
311.409	404.75
311.639	397.75
311.868	403.75
312.098	401.75
312.328	413.75
312.557	417.75
312.787	407.75
313.017	412.75
313.246	420.75
313.476	407.75
313.706	412.75
313.935	395.75
314.165	429.75
314.394	420.75
314.624	438.75
314.853	415.75
315.083	415.75
315.312	412.75
315.542	404.75
315.771	405.75
316.001	395.75
316.23	437.75
316.46	403.75
316.689	428.75
316.919	414.75
317.148	403.75
317.377	423.75
317.607	398.75
317.836	410.75
318.065	404.75
318.295	405.75
318.524	413.75
318.753	415.75
318.983	417.75
319.212	381.75
319.441	407.75
319.67	403.75
319.9	410.75
320.129	410.75
320.358	408.75
320.587	419.75
320.816	420.75
321.046	413.75
321.275	425.75
321.504	437.75
321.733	440.75
321.962	427.75
322.191	441.75
322.42	451.75
322.649	462.75
322.878	468.75
323.108	485.75
323.337	467.75
323.566	493.75
323.795	483.75
324.024	526.75
324.253	638.75
324.482	790.75
324.71	1154.75
324.939	1649.75
325.168	1450.75
325.397	815.75
325.626	582.75
325.855	517.75
326.084	475.75
326.313	493.75
326.542	493.75
326.77	526.75
326.999	618.75
327.228	745.75
327.457	1077.75
327.686	1272.75
327.914	894.75
328.143	628.75
328.372	603.75
328.6	573.75
328.829	540.75
329.058	569.75
329.287	546.75
329.515	543.75
329.744	515.75
329.972	504.75
330.201	521.75
330.43	552.75
330.658	579.75
330.887	586.75
331.115	563.75
331.344	536.75
331.572	509.75
331.801	520.75
332.03	517.75
332.258	502.75
332.486	509.75
332.715	492.75
332.943	533.75
333.172	535.75
333.4	533.75
333.629	516.75
333.857	540.75
334.085	537.75
334.314	588.75
334.542	572.75
334.771	562.75
334.999	546.75
335.227	523.75
335.455	532.75
335.684	503.75
335.912	504.75
336.14	511.75
336.369	503.75
336.597	507.75
336.825	531.75
337.053	507.75
337.281	488.75
337.51	485.75
337.738	487.75
337.966	469.75
338.194	484.75
338.422	477.75
338.65	470.75
338.878	486.75
339.106	443.75
339.334	479.75
339.562	460.75
339.79	468.75
340.018	464.75
340.246	465.75
340.474	465.75
340.702	484.75
340.93	459.75
341.158	470.75
341.386	478.75
341.614	469.75
341.842	471.75
342.07	468.75
342.298	452.75
342.526	454.75
342.754	457.75
342.981	447.75
343.209	470.75
343.437	483.75
343.665	491.75
343.893	500.75
344.12	507.75
344.348	476.75
344.576	473.75
344.804	486.75
345.031	481.75
345.259	475.75
345.487	481.75
345.714	446.75
345.942	426.75
346.17	439.75
346.397	455.75
346.625	457.75
346.853	451.75
347.08	446.75
347.308	462.75
347.535	435.75
347.763	450.75
347.99	442.75
348.218	439.75
348.445	449.75
348.673	441.75
348.9	450.75
349.128	452.75
349.355	453.75
349.583	446.75
349.81	438.75
350.037	438.75
350.265	440.75
350.492	450.75
350.72	420.75
350.947	412.75
351.174	440.75
351.402	441.75
351.629	430.75
351.856	446.75
352.083	442.75
352.311	455.75
352.538	433.75
352.765	447.75
352.992	463.75
353.22	431.75
353.447	426.75
353.674	449.75
353.901	423.75
354.128	435.75
354.355	425.75
354.583	430.75
354.81	410.75
355.037	421.75
355.264	408.75
355.491	416.75
355.718	409.75
355.945	426.75
356.172	425.75
356.399	413.75
356.626	412.75
356.853	415.75
357.08	397.75
357.307	414.75
357.534	399.75
357.761	425.75
357.988	413.75
358.215	393.75
358.441	424.75
358.668	422.75
358.895	439.75
359.122	429.75
359.349	450.75
359.576	453.75
359.802	456.75
360.029	455.75
360.256	468.75
360.483	477.75
360.709	457.75
360.936	429.75
361.163	419.75
361.39	441.75
361.616	446.75
361.843	439.75
362.07	447.75
362.296	434.75
362.523	420.75
362.749	446.75
362.976	435.75
363.203	446.75
363.429	441.75
363.656	434.75
363.882	419.75
364.109	419.75
364.335	440.75
364.562	423.75
364.788	407.75
365.015	424.75
365.241	417.75
365.468	389.75
365.694	431.75
365.92	423.75
366.147	419.75
366.373	402.75
366.599	428.75
366.826	417.75
367.052	424.75
367.278	422.75
367.505	399.75
367.731	425.75
367.957	430.75
368.184	441.75
368.41	417.75
368.636	414.75
368.862	445.75
369.089	441.75
369.315	433.75
369.541	409.75
369.767	409.75
369.993	435.75
370.219	424.75
370.445	422.75
370.672	425.75
370.898	438.75
371.124	433.75
371.35	437.75
371.576	430.75
371.802	416.75
372.028	435.75
372.254	405.75
372.48	422.75
372.706	440.75
372.932	436.75
373.158	451.75
373.384	445.75
373.61	426.75
373.835	437.75
374.061	428.75
374.287	442.75
374.513	443.75
374.739	433.75
374.965	447.75
375.191	458.75
375.416	441.75
375.642	485.75
375.868	441.75
376.094	462.75
376.319	439.75
376.545	456.75
376.771	410.75
376.997	419.75
377.222	440.75
377.448	433.75
377.674	438.75
377.899	409.75
378.125	419.75
378.35	421.75
378.576	430.75
378.802	427.75
379.027	425.75
379.253	436.75
379.478	433.75
379.704	417.75
379.929	438.75
380.155	426.75
380.38	433.75
380.606	427.75
380.831	437.75
381.057	409.75
381.282	437.75
381.507	436.75
381.733	437.75
381.958	440.75
382.184	428.75
382.409	465.75
382.634	448.75
382.86	461.75
383.085	435.75
383.31	432.75
383.535	463.75
383.761	448.75
383.986	467.75
384.211	447.75
384.436	463.75
384.662	486.75
384.887	485.75
385.112	490.75
385.337	497.75
385.562	473.75
385.787	479.75
386.013	500.75
386.238	488.75
386.463	506.75
386.688	493.75
386.913	482.75
387.138	468.75
387.363	502.75
387.588	498.75
387.813	513.75
388.038	478.75
388.263	469.75
388.488	477.75
388.713	501.75
388.938	499.75
389.163	493.75
389.387	477.75
389.612	492.75
389.837	493.75
390.062	477.75
390.287	459.75
390.512	487.75
390.736	472.75
390.961	486.75
391.186	489.75
391.411	501.75
391.636	523.75
391.86	513.75
392.085	512.75
392.31	521.75
392.534	511.75
392.759	500.75
392.984	500.75
393.208	494.75
393.433	512.75
393.658	492.75
393.882	485.75
394.107	479.75
394.331	517.75
394.556	502.75
394.78	514.75
395.005	492.75
395.229	506.75
395.454	526.75
395.678	532.75
395.903	521.75
396.127	541.75
396.352	539.75
396.576	531.75
396.801	503.75
397.025	513.75
397.249	522.75
397.474	532.75
397.698	538.75
397.922	547.75
398.147	552.75
398.371	589.75
398.595	562.75
398.82	575.75
399.044	598.75
399.268	619.75
399.492	690.75
399.717	751.75
399.941	715.75
400.165	735.75
400.389	723.75
400.613	643.75
400.837	622.75
401.062	609.75
401.286	609.75
401.51	579.75
401.734	581.75
401.958	599.75
402.182	578.75
402.406	578.75
402.63	595.75
402.854	591.75
403.078	596.75
403.302	631.75
403.526	619.75
403.75	615.75
403.974	634.75
404.198	609.75
404.422	609.75
404.645	620.75
404.869	614.75
405.093	645.75
405.317	680.75
405.541	684.75
405.765	655.75
405.988	613.75
406.212	679.75
406.436	637.75
406.66	656.75
406.883	641.75
407.107	675.75
407.331	742.75
407.555	782.75
407.778	769.75
408.002	709.75
408.226	674.75
408.449	655.75
408.673	649.75
408.896	667.75
409.12	687.75
409.344	686.75
409.567	627.75
409.791	629.75
410.014	596.75
410.238	599.75
410.461	598.75
410.685	603.75
410.908	612.75
411.132	641.75
411.355	671.75
411.578	649.75
411.802	591.75
412.025	596.75
412.249	616.75
412.472	619.75
412.695	632.75
412.919	631.75
413.142	580.75
413.365	581.75
413.589	569.75
413.812	546.75
414.035	585.75
414.258	571.75
414.482	570.75
414.705	563.75
414.928	568.75
415.151	543.75
415.374	557.75
415.597	543.75
415.821	564.75
416.044	548.75
416.267	555.75
416.49	543.75
416.713	553.75
416.936	567.75
417.159	564.75
417.382	565.75
417.605	581.75
417.828	575.75
418.051	599.75
418.274	583.75
418.497	560.75
418.72	583.75
418.943	551.75
419.166	586.75
419.389	637.75
419.611	609.75
419.834	619.75
420.057	604.75
420.28	606.75
420.503	583.75
420.726	580.75
420.948	611.75
421.171	637.75
421.394	629.75
421.617	591.75
421.839	571.75
422.062	563.75
422.285	589.75
422.507	637.75
422.73	700.75
422.953	669.75
423.175	627.75
423.398	613.75
423.621	623.75
423.843	599.75
424.066	633.75
424.288	635.75
424.511	642.75
424.733	636.75
424.956	729.75
425.178	694.75
425.401	728.75
425.623	721.75
425.846	626.75
426.068	591.75
426.291	599.75
426.513	580.75
426.735	604.75
426.958	629.75
427.18	697.75
427.402	821.75
427.625	890.75
427.847	765.75
428.069	678.75
428.292	643.75
428.514	578.75
428.736	546.75
428.958	556.75
429.181	558.75
429.403	559.75
429.625	586.75
429.847	605.75
430.069	641.75
430.292	636.75
430.514	591.75
430.736	571.75
430.958	550.75
431.18	536.75
431.402	545.75
431.624	533.75
431.846	536.75
432.068	544.75
432.29	554.75
432.512	528.75
432.734	535.75
432.956	531.75
433.178	536.75
433.4	549.75
433.622	541.75
433.844	537.75
434.066	534.75
434.287	527.75
434.509	531.75
434.731	555.75
434.953	565.75
435.175	571.75
435.397	619.75
435.618	593.75
435.84	627.75
436.062	708.75
436.284	751.75
436.505	635.75
436.727	603.75
436.949	572.75
437.17	557.75
437.392	578.75
437.614	555.75
437.835	578.75
438.057	677.75
438.278	749.75
438.5	766.75
438.721	808.75
438.943	808.75
439.165	664.75
439.386	611.75
439.608	595.75
439.829	601.75
440.05	603.75
440.272	654.75
440.493	613.75
440.715	574.75
440.936	561.75
441.158	545.75
441.379	586.75
441.6	597.75
441.822	617.75
442.043	645.75
442.264	721.75
442.486	728.75
442.707	666.75
442.928	626.75
443.149	619.75
443.371	625.75
443.592	686.75
443.813	770.75
444.034	819.75
444.255	697.75
444.476	657.75
444.698	660.75
444.919	637.75
445.14	766.75
445.361	670.75
445.582	661.75
445.803	707.75
446.024	774.75
446.245	762.75
446.466	716.75
446.687	620.75
446.908	579.75
447.129	584.75
447.35	531.75
447.571	540.75
447.792	554.75
448.013	534.75
448.234	535.75
448.455	585.75
448.675	679.75
448.896	795.75
449.117	691.75
449.338	643.75
449.559	717.75
449.779	817.75
450	664.75
450.221	593.75
450.442	545.75
450.662	521.75
450.883	541.75
451.104	525.75
451.324	533.75
451.545	511.75
451.766	515.75
451.986	513.75
452.207	508.75
452.428	481.75
452.648	489.75
452.869	469.75
453.089	524.75
453.31	509.75
453.53	482.75
453.751	473.75
453.971	506.75
454.192	487.75
454.412	491.75
454.633	496.75
454.853	473.75
455.073	474.75
455.294	493.75
455.514	539.75
455.734	558.75
455.955	494.75
456.175	456.75
456.395	453.75
456.616	466.75
456.836	441.75
457.056	450.75
457.276	466.75
457.497	453.75
457.717	486.75
457.937	484.75
458.157	485.75
458.377	490.75
458.598	481.75
458.818	533.75
459.038	599.75
459.258	632.75
459.478	557.75
459.698	551.75
459.918	539.75
460.138	563.75
460.358	563.75
460.578	536.75
460.798	573.75
461.018	573.75
461.238	549.75
461.458	576.75
461.678	561.75
461.898	567.75
462.118	578.75
462.338	575.75
462.558	586.75
462.777	633.75
462.997	657.75
463.217	672.75
463.437	651.75
463.657	635.75
463.876	645.75
464.096	625.75
464.316	610.75
464.536	631.75
464.755	613.75
464.975	615.75
465.195	605.75
465.414	637.75
465.634	620.75
465.854	569.75
466.073	528.75
466.293	525.75
466.512	508.75
466.732	499.75
466.951	505.75
467.171	505.75
467.391	502.75
467.61	523.75
467.829	542.75
468.049	516.75
468.268	516.75
468.488	487.75
468.707	471.75
468.927	490.75
469.146	516.75
469.365	519.75
469.585	485.75
469.804	529.75
470.023	509.75
470.243	534.75
470.462	531.75
470.681	517.75
470.901	548.75
471.12	524.75
471.339	517.75
471.558	525.75
471.777	518.75
471.997	514.75
472.216	499.75
472.435	531.75
472.654	528.75
472.873	516.75
473.092	509.75
473.311	513.75
473.53	501.75
473.749	513.75
473.968	550.75
474.187	643.75
474.406	633.75
474.625	535.75
474.844	523.75
475.063	509.75
475.282	527.75
475.501	517.75
475.72	533.75
475.939	513.75
476.158	519.75
476.377	501.75
476.596	523.75
476.814	543.75
477.033	555.75
477.252	529.75
477.471	538.75
477.69	551.75
477.908	580.75
478.127	589.75
478.346	566.75
478.564	569.75
478.783	578.75
479.002	609.75
479.22	607.75
479.439	595.75
479.658	617.75
479.876	606.75
480.095	643.75
480.313	634.75
480.532	634.75
480.751	635.75
480.969	638.75
481.188	658.75
481.406	683.75
481.624	646.75
481.843	615.75
482.061	585.75
482.28	598.75
482.498	586.75
482.717	593.75
482.935	584.75
483.153	583.75
483.372	577.75
483.59	563.75
483.808	579.75
484.027	569.75
484.245	607.75
484.463	598.75
484.681	619.75
484.9	592.75
485.118	578.75
485.336	599.75
485.554	608.75
485.772	610.75
485.99	614.75
486.209	598.75
486.427	615.75
486.645	631.75
486.863	616.75
487.081	629.75
487.299	618.75
487.517	606.75
487.735	630.75
487.953	635.75
488.171	622.75
488.389	605.75
488.607	618.75
488.825	630.75
489.043	632.75
489.261	631.75
489.479	619.75
489.696	614.75
489.914	655.75
490.132	659.75
490.35	659.75
490.568	647.75
490.786	670.75
491.003	653.75
491.221	684.75
491.439	712.75
491.657	697.75
491.874	693.75
492.092	695.75
492.31	721.75
492.527	727.75
492.745	737.75
492.963	721.75
493.18	711.75
493.398	744.75
493.615	734.75
493.833	731.75
494.05	727.75
494.268	717.75
494.485	748.75
494.703	712.75
494.92	733.75
495.138	743.75
495.355	737.75
495.573	738.75
495.79	751.75
496.008	747.75
496.225	743.75
496.442	730.75
496.66	739.75
496.877	740.75
497.094	735.75
497.312	753.75
497.529	753.75
497.746	795.75
497.963	803.75
498.181	818.75
498.398	851.75
498.615	837.75
498.832	874.75
499.049	909.75
499.267	971.75
499.484	998.75
499.701	1069.75
499.918	1091.75
500.135	1185.75
500.352	1239.75
500.569	1292.75
500.786	1285.75
501.003	1258.75
501.22	1196.75
501.437	1156.75
501.654	1101.75
