Data from 1973.PennyLincolnUp.Lamp.En5.5.200Scan.071719.P1.Changed Mount._HRD10591_15-46-03-853.txt Node
Date: Thu Jul 18 15:46:03 EDT 2019
User: cochatt
Spectrometer: HR+D1059
Trigger mode: 1
Integration Time (sec): 1.000000E-1
Scans to average: 1
Electric dark correction enabled: true
Nonlinearity correction enabled: false
Boxcar width: 0
XAxis mode: Wavelengths
Number of Pixels in Spectrum: 2048
>>>>>Begin Spectral Data<<<<<
223.165	-16.75
223.4	-16.75
223.635	-16.75
223.869	-27.75
224.104	-14.75
224.338	-12.75
224.573	-24.75
224.808	-5.75
225.042	8.25
225.277	-15.75
225.511	7.25
225.746	2.25
225.98	13.25
226.215	11.25
226.449	2.25
226.683	22.25
226.918	25.25
227.152	26.25
227.387	28.25
227.621	24.25
227.856	53.25
228.09	48.25
228.324	45.25
228.559	52.25
228.793	59.25
229.027	99.25
229.262	92.25
229.496	89.25
229.73	118.25
229.964	120.25
230.199	127.25
230.433	115.25
230.667	102.25
230.901	111.25
231.136	108.25
231.37	104.25
231.604	122.25
231.838	110.25
232.072	100.25
232.306	116.25
232.541	110.25
232.775	106.25
233.009	110.25
233.243	101.25
233.477	110.25
233.711	108.25
233.945	108.25
234.179	109.25
234.413	98.25
234.647	105.25
234.881	116.25
235.115	120.25
235.349	102.25
235.583	102.25
235.817	101.25
236.051	119.25
236.285	116.25
236.519	123.25
236.753	110.25
236.987	135.25
237.221	152.25
237.455	192.25
237.689	158.25
237.922	128.25
238.156	121.25
238.39	119.25
238.624	117.25
238.858	105.25
239.091	111.25
239.325	126.25
239.559	126.25
239.793	136.25
240.027	120.25
240.26	127.25
240.494	138.25
240.728	152.25
240.961	126.25
241.195	136.25
241.429	138.25
241.662	141.25
241.896	124.25
242.13	127.25
242.363	138.25
242.597	134.25
242.83	144.25
243.064	136.25
243.298	133.25
243.531	121.25
243.765	150.25
243.998	129.25
244.232	138.25
244.465	152.25
244.699	134.25
244.932	124.25
245.166	147.25
245.399	140.25
245.633	144.25
245.866	142.25
246.099	154.25
246.333	142.25
246.566	139.25
246.8	147.25
247.033	136.25
247.266	144.25
247.5	162.25
247.733	163.25
247.966	159.25
248.2	159.25
248.433	139.25
248.666	161.25
248.899	167.25
249.133	162.25
249.366	180.25
249.599	180.25
249.832	168.25
250.066	154.25
250.299	163.25
250.532	174.25
250.765	174.25
250.998	195.25
251.231	198.25
251.465	195.25
251.698	185.25
251.931	201.25
252.164	167.25
252.397	172.25
252.63	186.25
252.863	181.25
253.096	191.25
253.329	198.25
253.562	187.25
253.795	193.25
254.028	192.25
254.261	195.25
254.494	208.25
254.727	226.25
254.96	233.25
255.193	243.25
255.426	215.25
255.659	213.25
255.892	213.25
256.124	209.25
256.357	208.25
256.59	204.25
256.823	196.25
257.056	197.25
257.289	204.25
257.521	204.25
257.754	183.25
257.987	185.25
258.22	194.25
258.452	197.25
258.685	205.25
258.918	195.25
259.151	216.25
259.383	208.25
259.616	212.25
259.849	212.25
260.081	202.25
260.314	240.25
260.547	239.25
260.779	220.25
261.012	212.25
261.244	208.25
261.477	207.25
261.71	212.25
261.942	207.25
262.175	209.25
262.407	212.25
262.64	228.25
262.872	200.25
263.105	204.25
263.337	202.25
263.57	207.25
263.802	197.25
264.035	199.25
264.267	188.25
264.499	186.25
264.732	207.25
264.964	206.25
265.197	227.25
265.429	198.25
265.661	205.25
265.894	206.25
266.126	206.25
266.358	200.25
266.591	211.25
266.823	222.25
267.055	210.25
267.287	212.25
267.52	210.25
267.752	219.25
267.984	216.25
268.216	228.25
268.448	234.25
268.681	225.25
268.913	239.25
269.145	242.25
269.377	256.25
269.609	250.25
269.841	249.25
270.073	230.25
270.306	258.25
270.538	274.25
270.77	272.25
271.002	278.25
271.234	269.25
271.466	263.25
271.698	269.25
271.93	280.25
272.162	294.25
272.394	268.25
272.626	276.25
272.858	256.25
273.09	244.25
273.322	264.25
273.553	249.25
273.785	240.25
274.017	242.25
274.249	265.25
274.481	237.25
274.713	246.25
274.945	255.25
275.176	254.25
275.408	235.25
275.64	247.25
275.872	259.25
276.104	247.25
276.335	243.25
276.567	254.25
276.799	267.25
277.031	275.25
277.262	264.25
277.494	292.25
277.726	263.25
277.957	272.25
278.189	267.25
278.421	264.25
278.652	261.25
278.884	242.25
279.115	262.25
279.347	255.25
279.579	263.25
279.81	258.25
280.042	257.25
280.273	260.25
280.505	263.25
280.736	271.25
280.968	270.25
281.199	266.25
281.431	269.25
281.662	247.25
281.894	266.25
282.125	266.25
282.356	268.25
282.588	278.25
282.819	287.25
283.051	273.25
283.282	272.25
283.513	258.25
283.745	262.25
283.976	264.25
284.207	276.25
284.439	278.25
284.67	280.25
284.901	280.25
285.132	288.25
285.364	277.25
285.595	279.25
285.826	282.25
286.057	288.25
286.288	280.25
286.52	284.25
286.751	302.25
286.982	269.25
287.213	290.25
287.444	294.25
287.675	286.25
287.906	297.25
288.138	308.25
288.369	295.25
288.6	304.25
288.831	294.25
289.062	287.25
289.293	293.25
289.524	293.25
289.755	301.25
289.986	286.25
290.217	264.25
290.448	275.25
290.679	295.25
290.91	322.25
291.141	301.25
291.371	297.25
291.602	290.25
291.833	272.25
292.064	291.25
292.295	287.25
292.526	286.25
292.757	290.25
292.987	298.25
293.218	292.25
293.449	284.25
293.68	297.25
293.91	295.25
294.141	300.25
294.372	294.25
294.603	306.25
294.833	308.25
295.064	295.25
295.295	298.25
295.525	295.25
295.756	306.25
295.987	306.25
296.217	313.25
296.448	318.25
296.679	297.25
296.909	305.25
297.14	300.25
297.37	298.25
297.601	308.25
297.831	318.25
298.062	311.25
298.292	300.25
298.523	304.25
298.753	300.25
298.984	316.25
299.214	294.25
299.445	312.25
299.675	309.25
299.905	310.25
300.136	317.25
300.366	302.25
300.597	308.25
300.827	300.25
301.057	319.25
301.288	310.25
301.518	336.25
301.748	323.25
301.979	327.25
302.209	328.25
302.439	336.25
302.669	322.25
302.9	334.25
303.13	323.25
303.36	320.25
303.59	331.25
303.82	335.25
304.051	331.25
304.281	314.25
304.511	336.25
304.741	320.25
304.971	318.25
305.201	332.25
305.431	320.25
305.661	320.25
305.891	304.25
306.121	344.25
306.352	319.25
306.582	341.25
306.812	312.25
307.042	329.25
307.272	327.25
307.502	300.25
307.731	325.25
307.961	326.25
308.191	339.25
308.421	339.25
308.651	342.25
308.881	320.25
309.111	347.25
309.341	329.25
309.571	333.25
309.8	341.25
310.03	344.25
310.26	357.25
310.49	347.25
310.72	353.25
310.949	370.25
311.179	371.25
311.409	347.25
311.639	352.25
311.868	349.25
312.098	324.25
312.328	343.25
312.557	358.25
312.787	371.25
313.017	382.25
313.246	351.25
313.476	356.25
313.706	341.25
313.935	347.25
314.165	346.25
314.394	358.25
314.624	359.25
314.853	366.25
315.083	380.25
315.312	358.25
315.542	355.25
315.771	370.25
316.001	344.25
316.23	355.25
316.46	365.25
316.689	340.25
316.919	363.25
317.148	346.25
317.377	362.25
317.607	394.25
317.836	364.25
318.065	351.25
318.295	360.25
318.524	351.25
318.753	348.25
318.983	359.25
319.212	362.25
319.441	359.25
319.67	373.25
319.9	366.25
320.129	351.25
320.358	364.25
320.587	356.25
320.816	365.25
321.046	359.25
321.275	358.25
321.504	389.25
321.733	367.25
321.962	365.25
322.191	362.25
322.42	379.25
322.649	388.25
322.878	408.25
323.108	406.25
323.337	397.25
323.566	429.25
323.795	415.25
324.024	458.25
324.253	518.25
324.482	640.25
324.71	987.25
324.939	1312.25
325.168	1198.25
325.397	679.25
325.626	491.25
325.855	454.25
326.084	424.25
326.313	425.25
326.542	444.25
326.77	448.25
326.999	498.25
327.228	615.25
327.457	849.25
327.686	1040.25
327.914	741.25
328.143	530.25
328.372	500.25
328.6	473.25
328.829	455.25
329.058	465.25
329.287	455.25
329.515	468.25
329.744	437.25
329.972	446.25
330.201	443.25
330.43	473.25
330.658	479.25
330.887	472.25
331.115	480.25
331.344	446.25
331.572	424.25
331.801	444.25
332.03	445.25
332.258	446.25
332.486	422.25
332.715	438.25
332.943	445.25
333.172	439.25
333.4	448.25
333.629	451.25
333.857	470.25
334.085	462.25
334.314	474.25
334.542	489.25
334.771	486.25
334.999	449.25
335.227	453.25
335.455	465.25
335.684	443.25
335.912	431.25
336.14	435.25
336.369	429.25
336.597	431.25
336.825	426.25
337.053	424.25
337.281	436.25
337.51	436.25
337.738	407.25
337.966	424.25
338.194	424.25
338.422	423.25
338.65	422.25
338.878	411.25
339.106	413.25
339.334	416.25
339.562	383.25
339.79	394.25
340.018	418.25
340.246	428.25
340.474	410.25
340.702	399.25
340.93	408.25
341.158	400.25
341.386	395.25
341.614	395.25
341.842	395.25
342.07	394.25
342.298	388.25
342.526	392.25
342.754	388.25
342.981	378.25
343.209	396.25
343.437	413.25
343.665	401.25
343.893	436.25
344.12	434.25
344.348	437.25
344.576	418.25
344.804	441.25
345.031	430.25
345.259	417.25
345.487	388.25
345.714	404.25
345.942	398.25
346.17	387.25
346.397	390.25
346.625	394.25
346.853	380.25
347.08	388.25
347.308	410.25
347.535	416.25
347.763	394.25
347.99	402.25
348.218	403.25
348.445	414.25
348.673	380.25
348.9	382.25
349.128	383.25
349.355	375.25
349.583	382.25
349.81	389.25
350.037	394.25
350.265	384.25
350.492	372.25
350.72	379.25
350.947	383.25
351.174	415.25
351.402	393.25
351.629	380.25
351.856	365.25
352.083	383.25
352.311	398.25
352.538	391.25
352.765	401.25
352.992	377.25
353.22	389.25
353.447	377.25
353.674	370.25
353.901	355.25
354.128	365.25
354.355	375.25
354.583	381.25
354.81	378.25
355.037	363.25
355.264	381.25
355.491	361.25
355.718	384.25
355.945	360.25
356.172	367.25
356.399	362.25
356.626	372.25
356.853	380.25
357.08	357.25
357.307	359.25
357.534	350.25
357.761	347.25
357.988	357.25
358.215	380.25
358.441	381.25
358.668	364.25
358.895	378.25
359.122	368.25
359.349	367.25
359.576	378.25
359.802	376.25
360.029	387.25
360.256	406.25
360.483	412.25
360.709	376.25
360.936	386.25
361.163	385.25
361.39	399.25
361.616	378.25
361.843	384.25
362.07	392.25
362.296	378.25
362.523	385.25
362.749	366.25
362.976	363.25
363.203	383.25
363.429	368.25
363.656	374.25
363.882	388.25
364.109	359.25
364.335	378.25
364.562	378.25
364.788	381.25
365.015	390.25
365.241	377.25
365.468	381.25
365.694	386.25
365.92	390.25
366.147	359.25
366.373	374.25
366.599	369.25
366.826	366.25
367.052	374.25
367.278	380.25
367.505	382.25
367.731	371.25
367.957	375.25
368.184	387.25
368.41	361.25
368.636	396.25
368.862	388.25
369.089	382.25
369.315	361.25
369.541	378.25
369.767	378.25
369.993	379.25
370.219	368.25
370.445	382.25
370.672	372.25
370.898	376.25
371.124	394.25
371.35	373.25
371.576	363.25
371.802	370.25
372.028	390.25
372.254	372.25
372.48	371.25
372.706	385.25
372.932	380.25
373.158	398.25
373.384	393.25
373.61	406.25
373.835	383.25
374.061	389.25
374.287	366.25
374.513	404.25
374.739	396.25
374.965	418.25
375.191	399.25
375.416	393.25
375.642	398.25
375.868	379.25
376.094	374.25
376.319	398.25
376.545	374.25
376.771	366.25
376.997	368.25
377.222	365.25
377.448	370.25
377.674	372.25
377.899	387.25
378.125	388.25
378.35	391.25
378.576	366.25
378.802	390.25
379.027	392.25
379.253	391.25
379.478	368.25
379.704	384.25
379.929	390.25
380.155	390.25
380.38	367.25
380.606	390.25
380.831	366.25
381.057	390.25
381.282	395.25
381.507	392.25
381.733	390.25
381.958	382.25
382.184	380.25
382.409	368.25
382.634	378.25
382.86	412.25
383.085	383.25
383.31	373.25
383.535	399.25
383.761	387.25
383.986	406.25
384.211	414.25
384.436	409.25
384.662	401.25
384.887	413.25
385.112	408.25
385.337	430.25
385.562	410.25
385.787	432.25
386.013	451.25
386.238	428.25
386.463	422.25
386.688	438.25
386.913	430.25
387.138	411.25
387.363	429.25
387.588	435.25
387.813	418.25
388.038	436.25
388.263	433.25
388.488	424.25
388.713	425.25
388.938	420.25
389.163	429.25
389.387	432.25
389.612	408.25
389.837	413.25
390.062	438.25
390.287	433.25
390.512	425.25
390.736	426.25
390.961	417.25
391.186	441.25
391.411	433.25
391.636	435.25
391.86	441.25
392.085	469.25
392.31	449.25
392.534	434.25
392.759	442.25
392.984	422.25
393.208	424.25
393.433	434.25
393.658	459.25
393.882	426.25
394.107	439.25
394.331	438.25
394.556	434.25
394.78	434.25
395.005	454.25
395.229	447.25
395.454	444.25
395.678	439.25
395.903	456.25
396.127	466.25
396.352	457.25
396.576	456.25
396.801	444.25
397.025	446.25
397.249	451.25
397.474	470.25
397.698	457.25
397.922	473.25
398.147	468.25
398.371	471.25
398.595	492.25
398.82	501.25
399.044	514.25
399.268	527.25
399.492	583.25
399.717	629.25
399.941	644.25
400.165	646.25
400.389	618.25
400.613	567.25
400.837	534.25
401.062	519.25
401.286	518.25
401.51	502.25
401.734	487.25
401.958	524.25
402.182	518.25
402.406	512.25
402.63	513.25
402.854	508.25
403.078	508.25
403.302	516.25
403.526	541.25
403.75	528.25
403.974	547.25
404.198	544.25
404.422	533.25
404.645	534.25
404.869	544.25
405.093	555.25
405.317	582.25
405.541	602.25
405.765	564.25
405.988	556.25
406.212	550.25
406.436	550.25
406.66	553.25
406.883	547.25
407.107	591.25
407.331	617.25
407.555	671.25
407.778	678.25
408.002	625.25
408.226	574.25
408.449	552.25
408.673	559.25
408.896	562.25
409.12	616.25
409.344	586.25
409.567	538.25
409.791	521.25
410.014	522.25
410.238	525.25
410.461	549.25
410.685	517.25
410.908	511.25
411.132	535.25
411.355	593.25
411.578	544.25
411.802	532.25
412.025	519.25
412.249	518.25
412.472	542.25
412.695	565.25
412.919	546.25
413.142	502.25
413.365	508.25
413.589	518.25
413.812	480.25
414.035	491.25
414.258	503.25
414.482	494.25
414.705	501.25
414.928	478.25
415.151	494.25
415.374	471.25
415.597	505.25
415.821	484.25
416.044	494.25
416.267	492.25
416.49	487.25
416.713	498.25
416.936	483.25
417.159	484.25
417.382	492.25
417.605	467.25
417.828	490.25
418.051	510.25
418.274	505.25
418.497	461.25
418.72	519.25
418.943	483.25
419.166	524.25
419.389	543.25
419.611	518.25
419.834	536.25
420.057	525.25
420.28	510.25
420.503	521.25
420.726	502.25
420.948	511.25
421.171	535.25
421.394	555.25
421.617	499.25
421.839	497.25
422.062	523.25
422.285	486.25
422.507	551.25
422.73	607.25
422.953	579.25
423.175	542.25
423.398	534.25
423.621	522.25
423.843	521.25
424.066	535.25
424.288	546.25
424.511	556.25
424.733	596.25
424.956	632.25
425.178	610.25
425.401	613.25
425.623	606.25
425.846	551.25
426.068	527.25
426.291	532.25
426.513	519.25
426.735	517.25
426.958	555.25
427.18	600.25
427.402	685.25
427.625	750.25
427.847	681.25
428.069	582.25
428.292	534.25
428.514	487.25
428.736	506.25
428.958	469.25
429.181	470.25
429.403	498.25
429.625	478.25
429.847	496.25
430.069	547.25
430.292	556.25
430.514	474.25
430.736	484.25
430.958	472.25
431.18	463.25
431.402	452.25
431.624	454.25
431.846	471.25
432.068	453.25
432.29	472.25
432.512	479.25
432.734	467.25
432.956	467.25
433.178	482.25
433.4	458.25
433.622	468.25
433.844	474.25
434.066	441.25
434.287	450.25
434.509	466.25
434.731	483.25
434.953	489.25
435.175	490.25
435.397	527.25
435.618	521.25
435.84	547.25
436.062	609.25
436.284	632.25
436.505	584.25
436.727	516.25
436.949	492.25
437.17	457.25
437.392	477.25
437.614	465.25
437.835	504.25
438.057	569.25
438.278	616.25
438.5	618.25
438.721	667.25
438.943	649.25
439.165	534.25
439.386	525.25
439.608	506.25
439.829	508.25
440.05	520.25
440.272	519.25
440.493	527.25
440.715	513.25
440.936	501.25
441.158	502.25
441.379	471.25
441.6	511.25
441.822	515.25
442.043	561.25
442.264	603.25
442.486	633.25
442.707	548.25
442.928	525.25
443.149	516.25
443.371	563.25
443.592	590.25
443.813	660.25
444.034	696.25
444.255	597.25
444.476	580.25
444.698	562.25
444.919	553.25
445.14	662.25
445.361	591.25
445.582	553.25
445.803	574.25
446.024	626.25
446.245	636.25
446.466	598.25
446.687	547.25
446.908	526.25
447.129	484.25
447.35	473.25
447.571	491.25
447.792	456.25
448.013	477.25
448.234	482.25
448.455	503.25
448.675	581.25
448.896	681.25
449.117	578.25
449.338	538.25
449.559	642.25
449.779	710.25
450	554.25
450.221	478.25
450.442	474.25
450.662	472.25
450.883	432.25
451.104	465.25
451.324	459.25
451.545	437.25
451.766	459.25
451.986	444.25
452.207	415.25
452.428	442.25
452.648	429.25
452.869	425.25
453.089	434.25
453.31	444.25
453.53	425.25
453.751	448.25
453.971	410.25
454.192	428.25
454.412	444.25
454.633	394.25
454.853	419.25
455.073	434.25
455.294	439.25
455.514	469.25
455.734	469.25
455.955	418.25
456.175	407.25
456.395	398.25
456.616	411.25
456.836	394.25
457.056	411.25
457.276	388.25
457.497	413.25
457.717	412.25
457.937	411.25
458.157	417.25
458.377	427.25
458.598	418.25
458.818	466.25
459.038	485.25
459.258	520.25
459.478	487.25
459.698	468.25
459.918	442.25
460.138	486.25
460.358	491.25
460.578	485.25
460.798	494.25
461.018	502.25
461.238	491.25
461.458	498.25
461.678	496.25
461.898	507.25
462.118	488.25
462.338	501.25
462.558	521.25
462.777	532.25
462.997	562.25
463.217	579.25
463.437	597.25
463.657	543.25
463.876	538.25
464.096	526.25
464.316	525.25
464.536	540.25
464.755	550.25
464.975	512.25
465.195	527.25
465.414	540.25
465.634	509.25
465.854	473.25
466.073	470.25
466.293	476.25
466.512	460.25
466.732	443.25
466.951	458.25
467.171	424.25
467.391	422.25
467.61	447.25
467.829	453.25
468.049	450.25
468.268	448.25
468.488	439.25
468.707	409.25
468.927	410.25
469.146	425.25
469.365	440.25
469.585	448.25
469.804	447.25
470.023	445.25
470.243	428.25
470.462	442.25
470.681	448.25
470.901	454.25
471.12	442.25
471.339	468.25
471.558	464.25
471.777	454.25
471.997	422.25
472.216	414.25
472.435	442.25
472.654	448.25
472.873	441.25
473.092	446.25
473.311	465.25
473.53	427.25
473.749	446.25
473.968	454.25
474.187	550.25
474.406	540.25
474.625	473.25
474.844	444.25
475.063	455.25
475.282	445.25
475.501	445.25
475.72	464.25
475.939	461.25
476.158	443.25
476.377	468.25
476.596	441.25
476.814	459.25
477.033	467.25
477.252	480.25
477.471	456.25
477.69	494.25
477.908	472.25
478.127	491.25
478.346	493.25
478.564	495.25
478.783	503.25
479.002	510.25
479.22	523.25
479.439	501.25
479.658	543.25
479.876	543.25
480.095	537.25
480.313	551.25
480.532	525.25
480.751	538.25
480.969	546.25
481.188	604.25
481.406	587.25
481.624	523.25
481.843	536.25
482.061	524.25
482.28	505.25
482.498	491.25
482.717	514.25
482.935	491.25
483.153	513.25
483.372	502.25
483.59	507.25
483.808	496.25
484.027	514.25
484.245	490.25
484.463	526.25
484.681	532.25
484.9	523.25
485.118	540.25
485.336	526.25
485.554	504.25
485.772	540.25
485.99	507.25
486.209	517.25
486.427	546.25
486.645	535.25
486.863	530.25
487.081	548.25
487.299	538.25
487.517	542.25
487.735	532.25
487.953	529.25
488.171	558.25
488.389	536.25
488.607	556.25
488.825	527.25
489.043	541.25
489.261	525.25
489.479	564.25
489.696	536.25
489.914	557.25
490.132	549.25
490.35	568.25
490.568	548.25
490.786	590.25
491.003	588.25
491.221	585.25
491.439	586.25
491.657	586.25
491.874	615.25
492.092	614.25
492.31	631.25
492.527	604.25
492.745	634.25
492.963	615.25
493.18	604.25
493.398	626.25
493.615	617.25
493.833	623.25
494.05	612.25
494.268	608.25
494.485	628.25
494.703	639.25
494.92	629.25
495.138	647.25
495.355	636.25
495.573	628.25
495.79	636.25
496.008	632.25
496.225	632.25
496.442	638.25
496.66	640.25
496.877	650.25
497.094	676.25
497.312	642.25
497.529	685.25
497.746	655.25
497.963	666.25
498.181	709.25
498.398	736.25
498.615	775.25
498.832	803.25
499.049	821.25
499.267	813.25
499.484	850.25
499.701	918.25
499.918	959.25
500.135	1027.25
500.352	1107.25
500.569	1112.25
500.786	1110.25
501.003	1087.25
501.22	1034.25
501.437	999.25
501.654	922.25
