Data from 1973.PennyLincolnUp.Lamp.En5.5.200Scan.071719.P1.Changed Mount._HRD10591_15-45-07-853.txt Node
Date: Thu Jul 18 15:45:07 EDT 2019
User: cochatt
Spectrometer: HR+D1059
Trigger mode: 1
Integration Time (sec): 1.000000E-1
Scans to average: 1
Electric dark correction enabled: true
Nonlinearity correction enabled: false
Boxcar width: 0
XAxis mode: Wavelengths
Number of Pixels in Spectrum: 2048
>>>>>Begin Spectral Data<<<<<
223.165	-16.44
223.4	-16.44
223.635	-16.44
223.869	-7.44
224.104	-21.44
224.338	-21.44
224.573	-14.44
224.808	-23.44
225.042	-14.44
225.277	-7.44
225.511	2.56
225.746	14.56
225.98	4.56
226.215	12.56
226.449	5.56
226.683	23.56
226.918	41.56
227.152	21.56
227.387	34.56
227.621	49.56
227.856	37.56
228.09	45.56
228.324	54.56
228.559	49.56
228.793	65.56
229.027	85.56
229.262	108.56
229.496	116.56
229.73	129.56
229.964	148.56
230.199	127.56
230.433	116.56
230.667	118.56
230.901	127.56
231.136	106.56
231.37	118.56
231.604	101.56
231.838	123.56
232.072	125.56
232.306	118.56
232.541	120.56
232.775	115.56
233.009	119.56
233.243	114.56
233.477	110.56
233.711	127.56
233.945	117.56
234.179	111.56
234.413	126.56
234.647	123.56
234.881	125.56
235.115	129.56
235.349	114.56
235.583	118.56
235.817	120.56
236.051	116.56
236.285	125.56
236.519	130.56
236.753	131.56
236.987	134.56
237.221	164.56
237.455	237.56
237.689	170.56
237.922	141.56
238.156	135.56
238.39	121.56
238.624	127.56
238.858	130.56
239.091	132.56
239.325	121.56
239.559	140.56
239.793	126.56
240.027	122.56
240.26	149.56
240.494	155.56
240.728	149.56
240.961	145.56
241.195	138.56
241.429	152.56
241.662	146.56
241.896	139.56
242.13	148.56
242.363	140.56
242.597	129.56
242.83	143.56
243.064	154.56
243.298	146.56
243.531	150.56
243.765	135.56
243.998	156.56
244.232	140.56
244.465	156.56
244.699	151.56
244.932	170.56
245.166	150.56
245.399	141.56
245.633	142.56
245.866	151.56
246.099	153.56
246.333	164.56
246.566	161.56
246.8	169.56
247.033	177.56
247.266	143.56
247.5	154.56
247.733	170.56
247.966	178.56
248.2	177.56
248.433	184.56
248.666	179.56
248.899	180.56
249.133	200.56
249.366	215.56
249.599	209.56
249.832	179.56
250.066	195.56
250.299	174.56
250.532	186.56
250.765	209.56
250.998	217.56
251.231	226.56
251.465	214.56
251.698	202.56
251.931	227.56
252.164	177.56
252.397	188.56
252.63	212.56
252.863	222.56
253.096	220.56
253.329	230.56
253.562	219.56
253.795	215.56
254.028	213.56
254.261	215.56
254.494	203.56
254.727	237.56
254.96	291.56
255.193	273.56
255.426	249.56
255.659	233.56
255.892	231.56
256.124	232.56
256.357	246.56
256.59	237.56
256.823	229.56
257.056	219.56
257.289	220.56
257.521	223.56
257.754	213.56
257.987	218.56
258.22	222.56
258.452	221.56
258.685	226.56
258.918	226.56
259.151	220.56
259.383	217.56
259.616	237.56
259.849	235.56
260.081	239.56
260.314	275.56
260.547	277.56
260.779	251.56
261.012	272.56
261.244	246.56
261.477	219.56
261.71	228.56
261.942	219.56
262.175	249.56
262.407	242.56
262.64	231.56
262.872	222.56
263.105	222.56
263.337	221.56
263.57	241.56
263.802	217.56
264.035	237.56
264.267	227.56
264.499	207.56
264.732	231.56
264.964	240.56
265.197	225.56
265.429	239.56
265.661	225.56
265.894	221.56
266.126	225.56
266.358	237.56
266.591	235.56
266.823	241.56
267.055	255.56
267.287	263.56
267.52	224.56
267.752	257.56
267.984	231.56
268.216	250.56
268.448	249.56
268.681	257.56
268.913	271.56
269.145	270.56
269.377	299.56
269.609	313.56
269.841	270.56
270.073	281.56
270.306	305.56
270.538	332.56
270.77	324.56
271.002	318.56
271.234	291.56
271.466	281.56
271.698	315.56
271.93	331.56
272.162	351.56
272.394	334.56
272.626	323.56
272.858	297.56
273.09	291.56
273.322	292.56
273.553	305.56
273.785	277.56
274.017	269.56
274.249	284.56
274.481	282.56
274.713	281.56
274.945	277.56
275.176	298.56
275.408	287.56
275.64	297.56
275.872	286.56
276.104	307.56
276.335	275.56
276.567	293.56
276.799	308.56
277.031	319.56
277.262	317.56
277.494	342.56
277.726	314.56
277.957	340.56
278.189	310.56
278.421	282.56
278.652	289.56
278.884	311.56
279.115	309.56
279.347	298.56
279.579	302.56
279.81	300.56
280.042	290.56
280.273	270.56
280.505	289.56
280.736	285.56
280.968	302.56
281.199	282.56
281.431	306.56
281.662	305.56
281.894	303.56
282.125	316.56
282.356	297.56
282.588	331.56
282.819	346.56
283.051	310.56
283.282	307.56
283.513	305.56
283.745	335.56
283.976	319.56
284.207	314.56
284.439	329.56
284.67	319.56
284.901	335.56
285.132	326.56
285.364	313.56
285.595	318.56
285.826	323.56
286.057	313.56
286.288	330.56
286.52	312.56
286.751	316.56
286.982	315.56
287.213	311.56
287.444	323.56
287.675	335.56
287.906	338.56
288.138	365.56
288.369	322.56
288.6	347.56
288.831	350.56
289.062	326.56
289.293	323.56
289.524	333.56
289.755	321.56
289.986	329.56
290.217	328.56
290.448	317.56
290.679	322.56
290.91	350.56
291.141	344.56
291.371	310.56
291.602	334.56
291.833	334.56
292.064	351.56
292.295	326.56
292.526	337.56
292.757	347.56
292.987	320.56
293.218	335.56
293.449	348.56
293.68	333.56
293.91	343.56
294.141	347.56
294.372	334.56
294.603	330.56
294.833	330.56
295.064	339.56
295.295	341.56
295.525	334.56
295.756	334.56
295.987	333.56
296.217	375.56
296.448	379.56
296.679	356.56
296.909	326.56
297.14	340.56
297.37	342.56
297.601	339.56
297.831	335.56
298.062	350.56
298.292	343.56
298.523	354.56
298.753	358.56
298.984	356.56
299.214	358.56
299.445	351.56
299.675	347.56
299.905	362.56
300.136	347.56
300.366	350.56
300.597	365.56
300.827	349.56
301.057	388.56
301.288	388.56
301.518	374.56
301.748	367.56
301.979	371.56
302.209	369.56
302.439	387.56
302.669	374.56
302.9	370.56
303.13	374.56
303.36	357.56
303.59	362.56
303.82	381.56
304.051	381.56
304.281	363.56
304.511	373.56
304.741	374.56
304.971	374.56
305.201	371.56
305.431	380.56
305.661	362.56
305.891	373.56
306.121	374.56
306.352	353.56
306.582	374.56
306.812	371.56
307.042	355.56
307.272	371.56
307.502	387.56
307.731	377.56
307.961	376.56
308.191	392.56
308.421	359.56
308.651	367.56
308.881	380.56
309.111	385.56
309.341	392.56
309.571	398.56
309.8	387.56
310.03	393.56
310.26	413.56
310.49	400.56
310.72	400.56
310.949	407.56
311.179	412.56
311.409	417.56
311.639	404.56
311.868	393.56
312.098	424.56
312.328	427.56
312.557	445.56
312.787	408.56
313.017	433.56
313.246	407.56
313.476	398.56
313.706	385.56
313.935	435.56
314.165	413.56
314.394	422.56
314.624	427.56
314.853	422.56
315.083	443.56
315.312	430.56
315.542	410.56
315.771	413.56
316.001	417.56
316.23	415.56
316.46	401.56
316.689	393.56
316.919	424.56
317.148	433.56
317.377	419.56
317.607	399.56
317.836	403.56
318.065	414.56
318.295	406.56
318.524	407.56
318.753	413.56
318.983	415.56
319.212	423.56
319.441	428.56
319.67	417.56
319.9	426.56
320.129	415.56
320.358	426.56
320.587	411.56
320.816	435.56
321.046	449.56
321.275	429.56
321.504	415.56
321.733	434.56
321.962	426.56
322.191	439.56
322.42	447.56
322.649	464.56
322.878	473.56
323.108	459.56
323.337	479.56
323.566	480.56
323.795	511.56
324.024	547.56
324.253	643.56
324.482	854.56
324.71	1211.56
324.939	1702.56
325.168	1522.56
325.397	839.56
325.626	595.56
325.855	521.56
326.084	527.56
326.313	497.56
326.542	518.56
326.77	515.56
326.999	588.56
327.228	776.56
327.457	1099.56
327.686	1354.56
327.914	937.56
328.143	685.56
328.372	599.56
328.6	571.56
328.829	551.56
329.058	563.56
329.287	589.56
329.515	549.56
329.744	513.56
329.972	515.56
330.201	542.56
330.43	558.56
330.658	606.56
330.887	575.56
331.115	595.56
331.344	570.56
331.572	523.56
331.801	529.56
332.03	516.56
332.258	506.56
332.486	503.56
332.715	504.56
332.943	502.56
333.172	519.56
333.4	521.56
333.629	543.56
333.857	554.56
334.085	563.56
334.314	565.56
334.542	574.56
334.771	596.56
334.999	570.56
335.227	522.56
335.455	492.56
335.684	496.56
335.912	501.56
336.14	511.56
336.369	494.56
336.597	523.56
336.825	505.56
337.053	478.56
337.281	469.56
337.51	474.56
337.738	508.56
337.966	482.56
338.194	501.56
338.422	473.56
338.65	475.56
338.878	487.56
339.106	461.56
339.334	467.56
339.562	468.56
339.79	470.56
340.018	474.56
340.246	462.56
340.474	449.56
340.702	465.56
340.93	459.56
341.158	451.56
341.386	479.56
341.614	479.56
341.842	483.56
342.07	477.56
342.298	452.56
342.526	459.56
342.754	443.56
342.981	466.56
343.209	456.56
343.437	459.56
343.665	482.56
343.893	487.56
344.12	535.56
344.348	514.56
344.576	494.56
344.804	460.56
345.031	505.56
345.259	477.56
345.487	476.56
345.714	469.56
345.942	462.56
346.17	447.56
346.397	449.56
346.625	437.56
346.853	445.56
347.08	443.56
347.308	452.56
347.535	451.56
347.763	452.56
347.99	446.56
348.218	447.56
348.445	452.56
348.673	457.56
348.9	442.56
349.128	449.56
349.355	426.56
349.583	437.56
349.81	409.56
350.037	450.56
350.265	435.56
350.492	436.56
350.72	418.56
350.947	465.56
351.174	453.56
351.402	452.56
351.629	455.56
351.856	443.56
352.083	451.56
352.311	460.56
352.538	450.56
352.765	458.56
352.992	448.56
353.22	448.56
353.447	443.56
353.674	452.56
353.901	446.56
354.128	405.56
354.355	412.56
354.583	417.56
354.81	408.56
355.037	439.56
355.264	425.56
355.491	413.56
355.718	409.56
355.945	430.56
356.172	429.56
356.399	417.56
356.626	410.56
356.853	408.56
357.08	414.56
357.307	445.56
357.534	427.56
357.761	437.56
357.988	421.56
358.215	413.56
358.441	438.56
358.668	432.56
358.895	438.56
359.122	434.56
359.349	439.56
359.576	445.56
359.802	447.56
360.029	461.56
360.256	469.56
360.483	451.56
360.709	439.56
360.936	449.56
361.163	445.56
361.39	442.56
361.616	451.56
361.843	450.56
362.07	439.56
362.296	423.56
362.523	431.56
362.749	422.56
362.976	425.56
363.203	427.56
363.429	452.56
363.656	417.56
363.882	433.56
364.109	438.56
364.335	421.56
364.562	413.56
364.788	431.56
365.015	423.56
365.241	419.56
365.468	417.56
365.694	423.56
365.92	437.56
366.147	421.56
366.373	428.56
366.599	428.56
366.826	420.56
367.052	431.56
367.278	411.56
367.505	428.56
367.731	419.56
367.957	421.56
368.184	424.56
368.41	435.56
368.636	450.56
368.862	437.56
369.089	439.56
369.315	438.56
369.541	419.56
369.767	438.56
369.993	448.56
370.219	424.56
370.445	411.56
370.672	437.56
370.898	428.56
371.124	429.56
371.35	434.56
371.576	427.56
371.802	435.56
372.028	434.56
372.254	425.56
372.48	436.56
372.706	460.56
372.932	450.56
373.158	438.56
373.384	446.56
373.61	441.56
373.835	422.56
374.061	439.56
374.287	431.56
374.513	462.56
374.739	443.56
374.965	461.56
375.191	441.56
375.416	448.56
375.642	467.56
375.868	451.56
376.094	426.56
376.319	438.56
376.545	441.56
376.771	440.56
376.997	441.56
377.222	418.56
377.448	438.56
377.674	444.56
377.899	418.56
378.125	432.56
378.35	421.56
378.576	429.56
378.802	439.56
379.027	439.56
379.253	447.56
379.478	436.56
379.704	425.56
379.929	433.56
380.155	455.56
380.38	437.56
380.606	452.56
380.831	420.56
381.057	445.56
381.282	430.56
381.507	421.56
381.733	451.56
381.958	431.56
382.184	428.56
382.409	430.56
382.634	437.56
382.86	432.56
383.085	426.56
383.31	445.56
383.535	449.56
383.761	446.56
383.986	443.56
384.211	475.56
384.436	452.56
384.662	485.56
384.887	461.56
385.112	500.56
385.337	484.56
385.562	479.56
385.787	482.56
386.013	498.56
386.238	525.56
386.463	504.56
386.688	496.56
386.913	490.56
387.138	482.56
387.363	494.56
387.588	498.56
387.813	485.56
388.038	478.56
388.263	489.56
388.488	480.56
388.713	492.56
388.938	500.56
389.163	480.56
389.387	485.56
389.612	472.56
389.837	482.56
390.062	481.56
390.287	505.56
390.512	473.56
390.736	491.56
390.961	491.56
391.186	483.56
391.411	487.56
391.636	497.56
391.86	517.56
392.085	526.56
392.31	508.56
392.534	525.56
392.759	495.56
392.984	519.56
393.208	500.56
393.433	494.56
393.658	506.56
393.882	497.56
394.107	503.56
394.331	506.56
394.556	501.56
394.78	499.56
395.005	495.56
395.229	511.56
395.454	504.56
395.678	533.56
395.903	509.56
396.127	552.56
396.352	555.56
396.576	525.56
396.801	514.56
397.025	526.56
397.249	515.56
397.474	525.56
397.698	531.56
397.922	543.56
398.147	546.56
398.371	547.56
398.595	579.56
398.82	573.56
399.044	609.56
399.268	610.56
399.492	651.56
399.717	705.56
399.941	734.56
400.165	732.56
400.389	725.56
400.613	667.56
400.837	615.56
401.062	591.56
401.286	568.56
401.51	578.56
401.734	577.56
401.958	568.56
402.182	581.56
402.406	576.56
402.63	578.56
402.854	613.56
403.078	608.56
403.302	615.56
403.526	611.56
403.75	639.56
403.974	619.56
404.198	590.56
404.422	609.56
404.645	618.56
404.869	619.56
405.093	651.56
405.317	660.56
405.541	708.56
405.765	666.56
405.988	636.56
406.212	636.56
406.436	624.56
406.66	667.56
406.883	667.56
407.107	665.56
407.331	712.56
407.555	757.56
407.778	780.56
408.002	736.56
408.226	677.56
408.449	658.56
408.673	661.56
408.896	677.56
409.12	709.56
409.344	690.56
409.567	613.56
409.791	617.56
410.014	606.56
410.238	609.56
410.461	597.56
410.685	614.56
410.908	596.56
411.132	632.56
411.355	686.56
411.578	658.56
411.802	615.56
412.025	622.56
412.249	609.56
412.472	612.56
412.695	632.56
412.919	625.56
413.142	618.56
413.365	598.56
413.589	563.56
413.812	563.56
414.035	561.56
414.258	573.56
414.482	550.56
414.705	563.56
414.928	560.56
415.151	550.56
415.374	567.56
415.597	541.56
415.821	558.56
416.044	581.56
416.267	558.56
416.49	565.56
416.713	572.56
416.936	558.56
417.159	551.56
417.382	555.56
417.605	561.56
417.828	605.56
418.051	582.56
418.274	572.56
418.497	561.56
418.72	551.56
418.943	545.56
419.166	608.56
419.389	611.56
419.611	618.56
419.834	604.56
420.057	599.56
420.28	577.56
420.503	584.56
420.726	557.56
420.948	595.56
421.171	632.56
421.394	647.56
421.617	590.56
421.839	581.56
422.062	600.56
422.285	595.56
422.507	636.56
422.73	721.56
422.953	692.56
423.175	639.56
423.398	642.56
423.621	631.56
423.843	625.56
424.066	623.56
424.288	604.56
424.511	633.56
424.733	654.56
424.956	735.56
425.178	720.56
425.401	717.56
425.623	717.56
425.846	639.56
426.068	628.56
426.291	595.56
426.513	599.56
426.735	610.56
426.958	639.56
427.18	689.56
427.402	819.56
427.625	889.56
427.847	743.56
428.069	685.56
428.292	635.56
428.514	583.56
428.736	577.56
428.958	569.56
429.181	554.56
429.403	547.56
429.625	586.56
429.847	605.56
430.069	614.56
430.292	647.56
430.514	568.56
430.736	549.56
430.958	549.56
431.18	544.56
431.402	526.56
431.624	521.56
431.846	521.56
432.068	550.56
432.29	525.56
432.512	551.56
432.734	518.56
432.956	523.56
433.178	539.56
433.4	546.56
433.622	539.56
433.844	538.56
434.066	512.56
434.287	531.56
434.509	541.56
434.731	573.56
434.953	581.56
435.175	556.56
435.397	608.56
435.618	593.56
435.84	635.56
436.062	698.56
436.284	757.56
436.505	628.56
436.727	570.56
436.949	566.56
437.17	550.56
437.392	562.56
437.614	563.56
437.835	603.56
438.057	654.56
438.278	757.56
438.5	735.56
438.721	803.56
438.943	784.56
439.165	629.56
439.386	581.56
439.608	590.56
439.829	563.56
440.05	598.56
440.272	630.56
440.493	616.56
440.715	595.56
440.936	589.56
441.158	569.56
441.379	571.56
441.6	586.56
441.822	617.56
442.043	649.56
442.264	682.56
442.486	717.56
442.707	663.56
442.928	616.56
443.149	602.56
443.371	618.56
443.592	670.56
443.813	742.56
444.034	849.56
444.255	706.56
444.476	635.56
444.698	638.56
444.919	655.56
445.14	796.56
445.361	691.56
445.582	651.56
445.803	689.56
446.024	757.56
446.245	757.56
446.466	706.56
446.687	623.56
446.908	595.56
447.129	577.56
447.35	572.56
447.571	535.56
447.792	556.56
448.013	549.56
448.234	578.56
448.455	577.56
448.675	677.56
448.896	789.56
449.117	692.56
449.338	657.56
449.559	758.56
449.779	803.56
450	656.56
450.221	577.56
450.442	523.56
450.662	518.56
450.883	547.56
451.104	524.56
451.324	533.56
451.545	522.56
451.766	503.56
451.986	478.56
452.207	487.56
452.428	462.56
452.648	495.56
452.869	479.56
453.089	486.56
453.31	519.56
453.53	483.56
453.751	505.56
453.971	492.56
454.192	501.56
454.412	486.56
454.633	482.56
454.853	469.56
455.073	489.56
455.294	519.56
455.514	545.56
455.734	566.56
455.955	462.56
456.175	460.56
456.395	468.56
456.616	443.56
456.836	455.56
457.056	475.56
457.276	472.56
457.497	465.56
457.717	455.56
457.937	454.56
458.157	487.56
458.377	480.56
458.598	508.56
458.818	549.56
459.038	592.56
459.258	636.56
459.478	568.56
459.698	549.56
459.918	541.56
460.138	542.56
460.358	564.56
460.578	576.56
460.798	601.56
461.018	567.56
461.238	577.56
461.458	538.56
461.678	554.56
461.898	550.56
462.118	573.56
462.338	600.56
462.558	588.56
462.777	625.56
462.997	655.56
463.217	668.56
463.437	674.56
463.657	637.56
463.876	635.56
464.096	628.56
464.316	602.56
464.536	616.56
464.755	607.56
464.975	604.56
465.195	631.56
465.414	663.56
465.634	585.56
465.854	537.56
466.073	533.56
466.293	537.56
466.512	513.56
466.732	504.56
466.951	508.56
467.171	509.56
467.391	507.56
467.61	508.56
467.829	518.56
468.049	519.56
468.268	500.56
468.488	497.56
468.707	494.56
468.927	507.56
469.146	501.56
469.365	499.56
469.585	479.56
469.804	507.56
470.023	498.56
470.243	541.56
470.462	516.56
470.681	532.56
470.901	524.56
471.12	526.56
471.339	522.56
471.558	514.56
471.777	529.56
471.997	495.56
472.216	509.56
472.435	528.56
472.654	506.56
472.873	503.56
473.092	498.56
473.311	501.56
473.53	499.56
473.749	538.56
473.968	528.56
474.187	628.56
474.406	610.56
474.625	555.56
474.844	524.56
475.063	483.56
475.282	489.56
475.501	522.56
475.72	505.56
475.939	517.56
476.158	523.56
476.377	535.56
476.596	530.56
476.814	526.56
477.033	542.56
477.252	537.56
477.471	556.56
477.69	558.56
477.908	552.56
478.127	567.56
478.346	549.56
478.564	542.56
478.783	578.56
479.002	576.56
479.22	561.56
479.439	603.56
479.658	583.56
479.876	596.56
480.095	607.56
480.313	663.56
480.532	637.56
480.751	622.56
480.969	629.56
481.188	659.56
481.406	677.56
481.624	673.56
481.843	585.56
482.061	573.56
482.28	598.56
482.498	599.56
482.717	577.56
482.935	602.56
483.153	584.56
483.372	603.56
483.59	589.56
483.808	601.56
484.027	593.56
484.245	581.56
484.463	598.56
484.681	573.56
484.9	587.56
485.118	598.56
485.336	575.56
485.554	597.56
485.772	630.56
485.99	616.56
486.209	609.56
486.427	636.56
486.645	605.56
486.863	625.56
487.081	625.56
487.299	630.56
487.517	622.56
487.735	599.56
487.953	630.56
488.171	613.56
488.389	635.56
488.607	633.56
488.825	619.56
489.043	628.56
489.261	638.56
489.479	620.56
489.696	615.56
489.914	644.56
490.132	653.56
490.35	626.56
490.568	645.56
490.786	664.56
491.003	682.56
491.221	699.56
491.439	663.56
491.657	693.56
491.874	708.56
492.092	704.56
492.31	681.56
492.527	693.56
492.745	717.56
492.963	706.56
493.18	730.56
493.398	726.56
493.615	722.56
493.833	718.56
494.05	722.56
494.268	716.56
494.485	718.56
494.703	706.56
494.92	732.56
495.138	747.56
495.355	733.56
495.573	739.56
495.79	741.56
496.008	718.56
496.225	739.56
496.442	747.56
496.66	742.56
496.877	744.56
497.094	757.56
497.312	771.56
497.529	776.56
497.746	759.56
497.963	780.56
498.181	810.56
498.398	829.56
498.615	844.56
498.832	896.56
499.049	895.56
499.267	930.56
499.484	980.56
499.701	1040.56
499.918	1109.56
500.135	1185.56
500.352	1277.56
500.569	1329.56
500.786	1300.56
501.003	1265.56
501.22	1175.56
501.437	1104.56
501.654	1094.56
