Data from 1973.PennyLincolnUp.Lamp.En5.5.200Scan.071719.P1.Changed Mount._HRD10591_15-44-48-852.txt Node
Date: Thu Jul 18 15:44:48 EDT 2019
User: cochatt
Spectrometer: HR+D1059
Trigger mode: 1
Integration Time (sec): 1.000000E-1
Scans to average: 1
Electric dark correction enabled: true
Nonlinearity correction enabled: false
Boxcar width: 0
XAxis mode: Wavelengths
Number of Pixels in Spectrum: 2048
>>>>>Begin Spectral Data<<<<<
223.165	-12.38
223.4	-12.38
223.635	-12.38
223.869	-20.38
224.104	-15.38
224.338	-18.38
224.573	-9.38
224.808	-27.38
225.042	-8.38
225.277	-13.38
225.511	-2.38
225.746	-11.38
225.98	19.62
226.215	23.62
226.449	19.62
226.683	19.62
226.918	25.62
227.152	30.62
227.387	40.62
227.621	34.62
227.856	34.62
228.09	47.62
228.324	55.62
228.559	48.62
228.793	65.62
229.027	96.62
229.262	115.62
229.496	104.62
229.73	97.62
229.964	143.62
230.199	112.62
230.433	95.62
230.667	119.62
230.901	108.62
231.136	113.62
231.37	116.62
231.604	105.62
231.838	108.62
232.072	117.62
232.306	107.62
232.541	115.62
232.775	112.62
233.009	106.62
233.243	108.62
233.477	113.62
233.711	104.62
233.945	113.62
234.179	123.62
234.413	115.62
234.647	107.62
234.881	108.62
235.115	121.62
235.349	123.62
235.583	115.62
235.817	120.62
236.051	121.62
236.285	121.62
236.519	111.62
236.753	129.62
236.987	140.62
237.221	153.62
237.455	209.62
237.689	169.62
237.922	119.62
238.156	124.62
238.39	127.62
238.624	129.62
238.858	119.62
239.091	127.62
239.325	131.62
239.559	128.62
239.793	127.62
240.027	139.62
240.26	133.62
240.494	161.62
240.728	140.62
240.961	147.62
241.195	140.62
241.429	147.62
241.662	133.62
241.896	141.62
242.13	136.62
242.363	139.62
242.597	135.62
242.83	135.62
243.064	144.62
243.298	147.62
243.531	144.62
243.765	154.62
243.998	147.62
244.232	133.62
244.465	137.62
244.699	144.62
244.932	148.62
245.166	146.62
245.399	147.62
245.633	147.62
245.866	162.62
246.099	165.62
246.333	156.62
246.566	131.62
246.8	133.62
247.033	156.62
247.266	154.62
247.5	167.62
247.733	151.62
247.966	180.62
248.2	172.62
248.433	153.62
248.666	179.62
248.899	169.62
249.133	170.62
249.366	209.62
249.599	188.62
249.832	165.62
250.066	179.62
250.299	179.62
250.532	190.62
250.765	206.62
250.998	232.62
251.231	212.62
251.465	214.62
251.698	190.62
251.931	196.62
252.164	184.62
252.397	196.62
252.63	190.62
252.863	223.62
253.096	208.62
253.329	223.62
253.562	220.62
253.795	219.62
254.028	224.62
254.261	220.62
254.494	216.62
254.727	240.62
254.96	262.62
255.193	258.62
255.426	224.62
255.659	230.62
255.892	226.62
256.124	232.62
256.357	241.62
256.59	220.62
256.823	219.62
257.056	204.62
257.289	200.62
257.521	211.62
257.754	213.62
257.987	214.62
258.22	197.62
258.452	204.62
258.685	195.62
258.918	209.62
259.151	216.62
259.383	214.62
259.616	224.62
259.849	226.62
260.081	242.62
260.314	264.62
260.547	264.62
260.779	259.62
261.012	270.62
261.244	237.62
261.477	236.62
261.71	218.62
261.942	223.62
262.175	239.62
262.407	209.62
262.64	205.62
262.872	218.62
263.105	220.62
263.337	227.62
263.57	225.62
263.802	224.62
264.035	227.62
264.267	210.62
264.499	222.62
264.732	242.62
264.964	225.62
265.197	211.62
265.429	234.62
265.661	217.62
265.894	215.62
266.126	230.62
266.358	224.62
266.591	227.62
266.823	231.62
267.055	226.62
267.287	226.62
267.52	236.62
267.752	234.62
267.984	247.62
268.216	241.62
268.448	244.62
268.681	235.62
268.913	244.62
269.145	267.62
269.377	295.62
269.609	272.62
269.841	278.62
270.073	273.62
270.306	283.62
270.538	298.62
270.77	303.62
271.002	298.62
271.234	303.62
271.466	303.62
271.698	313.62
271.93	305.62
272.162	315.62
272.394	305.62
272.626	311.62
272.858	306.62
273.09	271.62
273.322	277.62
273.553	279.62
273.785	277.62
274.017	267.62
274.249	250.62
274.481	286.62
274.713	270.62
274.945	272.62
275.176	275.62
275.408	290.62
275.64	274.62
275.872	275.62
276.104	284.62
276.335	275.62
276.567	274.62
276.799	305.62
277.031	324.62
277.262	305.62
277.494	314.62
277.726	318.62
277.957	316.62
278.189	288.62
278.421	294.62
278.652	292.62
278.884	273.62
279.115	282.62
279.347	279.62
279.579	282.62
279.81	277.62
280.042	281.62
280.273	289.62
280.505	289.62
280.736	291.62
280.968	292.62
281.199	288.62
281.431	300.62
281.662	287.62
281.894	308.62
282.125	311.62
282.356	292.62
282.588	318.62
282.819	315.62
283.051	294.62
283.282	289.62
283.513	307.62
283.745	306.62
283.976	299.62
284.207	309.62
284.439	301.62
284.67	298.62
284.901	306.62
285.132	295.62
285.364	318.62
285.595	315.62
285.826	296.62
286.057	303.62
286.288	300.62
286.52	317.62
286.751	321.62
286.982	309.62
287.213	308.62
287.444	315.62
287.675	321.62
287.906	339.62
288.138	316.62
288.369	323.62
288.6	315.62
288.831	320.62
289.062	331.62
289.293	320.62
289.524	317.62
289.755	316.62
289.986	317.62
290.217	317.62
290.448	319.62
290.679	315.62
290.91	322.62
291.141	320.62
291.371	316.62
291.602	329.62
291.833	319.62
292.064	332.62
292.295	331.62
292.526	326.62
292.757	332.62
292.987	315.62
293.218	317.62
293.449	323.62
293.68	328.62
293.91	323.62
294.141	330.62
294.372	329.62
294.603	327.62
294.833	341.62
295.064	343.62
295.295	331.62
295.525	318.62
295.756	339.62
295.987	332.62
296.217	345.62
296.448	327.62
296.679	322.62
296.909	324.62
297.14	347.62
297.37	333.62
297.601	332.62
297.831	332.62
298.062	322.62
298.292	360.62
298.523	351.62
298.753	346.62
298.984	349.62
299.214	328.62
299.445	345.62
299.675	323.62
299.905	355.62
300.136	344.62
300.366	334.62
300.597	355.62
300.827	365.62
301.057	367.62
301.288	371.62
301.518	361.62
301.748	365.62
301.979	359.62
302.209	373.62
302.439	391.62
302.669	356.62
302.9	370.62
303.13	360.62
303.36	350.62
303.59	369.62
303.82	359.62
304.051	368.62
304.281	351.62
304.511	373.62
304.741	339.62
304.971	380.62
305.201	372.62
305.431	380.62
305.661	361.62
305.891	359.62
306.121	354.62
306.352	359.62
306.582	373.62
306.812	368.62
307.042	356.62
307.272	373.62
307.502	377.62
307.731	364.62
307.961	362.62
308.191	356.62
308.421	361.62
308.651	369.62
308.881	339.62
309.111	368.62
309.341	353.62
309.571	362.62
309.8	362.62
310.03	393.62
310.26	392.62
310.49	402.62
310.72	402.62
310.949	386.62
311.179	403.62
311.409	402.62
311.639	383.62
311.868	389.62
312.098	388.62
312.328	383.62
312.557	422.62
312.787	416.62
313.017	411.62
313.246	399.62
313.476	405.62
313.706	387.62
313.935	400.62
314.165	399.62
314.394	420.62
314.624	425.62
314.853	402.62
315.083	373.62
315.312	384.62
315.542	385.62
315.771	380.62
316.001	407.62
316.23	393.62
316.46	397.62
316.689	371.62
316.919	391.62
317.148	403.62
317.377	405.62
317.607	390.62
317.836	403.62
318.065	393.62
318.295	383.62
318.524	415.62
318.753	413.62
318.983	415.62
319.212	406.62
319.441	387.62
319.67	408.62
319.9	410.62
320.129	417.62
320.358	415.62
320.587	414.62
320.816	391.62
321.046	423.62
321.275	396.62
321.504	411.62
321.733	417.62
321.962	418.62
322.191	431.62
322.42	418.62
322.649	451.62
322.878	448.62
323.108	447.62
323.337	473.62
323.566	469.62
323.795	468.62
324.024	500.62
324.253	568.62
324.482	756.62
324.71	1078.62
324.939	1505.62
325.168	1331.62
325.397	753.62
325.626	571.62
325.855	492.62
326.084	469.62
326.313	480.62
326.542	483.62
326.77	505.62
326.999	568.62
327.228	707.62
327.457	979.62
327.686	1173.62
327.914	833.62
328.143	595.62
328.372	543.62
328.6	518.62
328.829	498.62
329.058	519.62
329.287	541.62
329.515	492.62
329.744	481.62
329.972	478.62
330.201	488.62
330.43	520.62
330.658	541.62
330.887	534.62
331.115	537.62
331.344	496.62
331.572	488.62
331.801	483.62
332.03	488.62
332.258	495.62
332.486	484.62
332.715	490.62
332.943	497.62
333.172	503.62
333.4	492.62
333.629	505.62
333.857	505.62
334.085	544.62
334.314	560.62
334.542	586.62
334.771	557.62
334.999	530.62
335.227	537.62
335.455	511.62
335.684	495.62
335.912	491.62
336.14	479.62
336.369	486.62
336.597	497.62
336.825	473.62
337.053	482.62
337.281	496.62
337.51	472.62
337.738	457.62
337.966	449.62
338.194	465.62
338.422	475.62
338.65	469.62
338.878	462.62
339.106	450.62
339.334	466.62
339.562	458.62
339.79	462.62
340.018	454.62
340.246	460.62
340.474	456.62
340.702	460.62
340.93	454.62
341.158	473.62
341.386	451.62
341.614	441.62
341.842	451.62
342.07	458.62
342.298	444.62
342.526	440.62
342.754	453.62
342.981	459.62
343.209	446.62
343.437	450.62
343.665	464.62
343.893	510.62
344.12	496.62
344.348	475.62
344.576	478.62
344.804	460.62
345.031	453.62
345.259	474.62
345.487	462.62
345.714	460.62
345.942	426.62
346.17	452.62
346.397	439.62
346.625	429.62
346.853	431.62
347.08	417.62
347.308	433.62
347.535	428.62
347.763	444.62
347.99	445.62
348.218	444.62
348.445	442.62
348.673	455.62
348.9	445.62
349.128	443.62
349.355	418.62
349.583	404.62
349.81	424.62
350.037	416.62
350.265	442.62
350.492	413.62
350.72	419.62
350.947	423.62
351.174	423.62
351.402	419.62
351.629	413.62
351.856	425.62
352.083	436.62
352.311	426.62
352.538	426.62
352.765	443.62
352.992	435.62
353.22	435.62
353.447	437.62
353.674	416.62
353.901	399.62
354.128	395.62
354.355	420.62
354.583	430.62
354.81	412.62
355.037	427.62
355.264	418.62
355.491	408.62
355.718	433.62
355.945	425.62
356.172	389.62
356.399	393.62
356.626	420.62
356.853	421.62
357.08	407.62
357.307	419.62
357.534	404.62
357.761	413.62
357.988	406.62
358.215	418.62
358.441	426.62
358.668	411.62
358.895	406.62
359.122	422.62
359.349	435.62
359.576	433.62
359.802	453.62
360.029	470.62
360.256	463.62
360.483	449.62
360.709	430.62
360.936	419.62
361.163	426.62
361.39	433.62
361.616	429.62
361.843	421.62
362.07	431.62
362.296	424.62
362.523	428.62
362.749	433.62
362.976	422.62
363.203	410.62
363.429	406.62
363.656	417.62
363.882	400.62
364.109	416.62
364.335	408.62
364.562	411.62
364.788	395.62
365.015	431.62
365.241	383.62
365.468	394.62
365.694	416.62
365.92	421.62
366.147	412.62
366.373	422.62
366.599	407.62
366.826	424.62
367.052	395.62
367.278	408.62
367.505	411.62
367.731	404.62
367.957	413.62
368.184	404.62
368.41	419.62
368.636	433.62
368.862	422.62
369.089	432.62
369.315	420.62
369.541	407.62
369.767	426.62
369.993	427.62
370.219	440.62
370.445	414.62
370.672	422.62
370.898	402.62
371.124	419.62
371.35	423.62
371.576	427.62
371.802	420.62
372.028	429.62
372.254	441.62
372.48	436.62
372.706	447.62
372.932	436.62
373.158	438.62
373.384	432.62
373.61	422.62
373.835	410.62
374.061	408.62
374.287	429.62
374.513	434.62
374.739	451.62
374.965	439.62
375.191	431.62
375.416	444.62
375.642	422.62
375.868	427.62
376.094	457.62
376.319	427.62
376.545	414.62
376.771	429.62
376.997	434.62
377.222	417.62
377.448	420.62
377.674	432.62
377.899	432.62
378.125	422.62
378.35	417.62
378.576	416.62
378.802	427.62
379.027	438.62
379.253	405.62
379.478	421.62
379.704	397.62
379.929	441.62
380.155	442.62
380.38	432.62
380.606	417.62
380.831	413.62
381.057	425.62
381.282	412.62
381.507	423.62
381.733	436.62
381.958	411.62
382.184	425.62
382.409	458.62
382.634	427.62
382.86	413.62
383.085	433.62
383.31	438.62
383.535	454.62
383.761	442.62
383.986	450.62
384.211	462.62
384.436	452.62
384.662	479.62
384.887	478.62
385.112	488.62
385.337	456.62
385.562	470.62
385.787	472.62
386.013	466.62
386.238	493.62
386.463	482.62
386.688	480.62
386.913	463.62
387.138	475.62
387.363	480.62
387.588	459.62
387.813	468.62
388.038	465.62
388.263	472.62
388.488	467.62
388.713	475.62
388.938	459.62
389.163	467.62
389.387	477.62
389.612	461.62
389.837	460.62
390.062	470.62
390.287	477.62
390.512	485.62
390.736	459.62
390.961	473.62
391.186	474.62
391.411	506.62
391.636	513.62
391.86	504.62
392.085	488.62
392.31	519.62
392.534	505.62
392.759	499.62
392.984	489.62
393.208	463.62
393.433	476.62
393.658	475.62
393.882	493.62
394.107	500.62
394.331	493.62
394.556	493.62
394.78	510.62
395.005	498.62
395.229	483.62
395.454	503.62
395.678	533.62
395.903	515.62
396.127	547.62
396.352	530.62
396.576	515.62
396.801	497.62
397.025	501.62
397.249	514.62
397.474	493.62
397.698	518.62
397.922	551.62
398.147	541.62
398.371	563.62
398.595	571.62
398.82	561.62
399.044	579.62
399.268	615.62
399.492	660.62
399.717	689.62
399.941	737.62
400.165	701.62
400.389	719.62
400.613	653.62
400.837	594.62
401.062	594.62
401.286	561.62
401.51	565.62
401.734	551.62
401.958	578.62
402.182	572.62
402.406	587.62
402.63	573.62
402.854	593.62
403.078	607.62
403.302	599.62
403.526	616.62
403.75	609.62
403.974	583.62
404.198	601.62
404.422	620.62
404.645	610.62
404.869	598.62
405.093	625.62
405.317	662.62
405.541	667.62
405.765	641.62
405.988	620.62
406.212	609.62
406.436	639.62
406.66	644.62
406.883	632.62
407.107	662.62
407.331	706.62
407.555	745.62
407.778	743.62
408.002	712.62
408.226	656.62
408.449	654.62
408.673	651.62
408.896	670.62
409.12	679.62
409.344	657.62
409.567	595.62
409.791	583.62
410.014	597.62
410.238	583.62
410.461	579.62
410.685	580.62
410.908	610.62
411.132	643.62
411.355	644.62
411.578	619.62
411.802	592.62
412.025	589.62
412.249	604.62
412.472	620.62
412.695	609.62
412.919	619.62
413.142	588.62
413.365	580.62
413.589	582.62
413.812	569.62
414.035	548.62
414.258	539.62
414.482	565.62
414.705	543.62
414.928	550.62
415.151	559.62
415.374	555.62
415.597	537.62
415.821	539.62
416.044	547.62
416.267	541.62
416.49	555.62
416.713	566.62
416.936	549.62
417.159	535.62
417.382	549.62
417.605	548.62
417.828	566.62
418.051	581.62
418.274	577.62
418.497	530.62
418.72	541.62
418.943	575.62
419.166	567.62
419.389	618.62
419.611	599.62
419.834	593.62
420.057	601.62
420.28	574.62
420.503	581.62
420.726	577.62
420.948	584.62
421.171	591.62
421.394	639.62
421.617	591.62
421.839	586.62
422.062	592.62
422.285	581.62
422.507	642.62
422.73	672.62
422.953	690.62
423.175	575.62
423.398	587.62
423.621	585.62
423.843	619.62
424.066	636.62
424.288	597.62
424.511	612.62
424.733	676.62
424.956	756.62
425.178	693.62
425.401	679.62
425.623	723.62
425.846	630.62
426.068	594.62
426.291	575.62
426.513	591.62
426.735	595.62
426.958	633.62
427.18	667.62
427.402	807.62
427.625	856.62
427.847	749.62
428.069	644.62
428.292	578.62
428.514	567.62
428.736	565.62
428.958	548.62
429.181	525.62
429.403	525.62
429.625	544.62
429.847	571.62
430.069	616.62
430.292	627.62
430.514	540.62
430.736	548.62
430.958	549.62
431.18	536.62
431.402	529.62
431.624	501.62
431.846	515.62
432.068	534.62
432.29	531.62
432.512	531.62
432.734	560.62
432.956	533.62
433.178	544.62
433.4	535.62
433.622	508.62
433.844	504.62
434.066	516.62
434.287	513.62
434.509	549.62
434.731	527.62
434.953	557.62
435.175	567.62
435.397	596.62
435.618	588.62
435.84	603.62
436.062	665.62
436.284	733.62
436.505	600.62
436.727	597.62
436.949	540.62
437.17	539.62
437.392	537.62
437.614	519.62
437.835	573.62
438.057	653.62
438.278	724.62
438.5	734.62
438.721	787.62
438.943	761.62
439.165	606.62
439.386	585.62
439.608	585.62
439.829	587.62
440.05	601.62
440.272	613.62
440.493	603.62
440.715	566.62
440.936	539.62
441.158	565.62
441.379	564.62
441.6	565.62
441.822	610.62
442.043	637.62
442.264	699.62
442.486	706.62
442.707	629.62
442.928	595.62
443.149	611.62
443.371	599.62
443.592	633.62
443.813	726.62
444.034	792.62
444.255	686.62
444.476	620.62
444.698	633.62
444.919	642.62
445.14	757.62
445.361	663.62
445.582	616.62
445.803	654.62
446.024	721.62
446.245	718.62
446.466	669.62
446.687	598.62
446.908	575.62
447.129	564.62
447.35	555.62
447.571	518.62
447.792	501.62
448.013	531.62
448.234	530.62
448.455	568.62
448.675	653.62
448.896	766.62
449.117	673.62
449.338	643.62
449.559	701.62
449.779	780.62
450	669.62
450.221	566.62
450.442	513.62
450.662	533.62
450.883	512.62
451.104	499.62
451.324	501.62
451.545	491.62
451.766	522.62
451.986	447.62
452.207	463.62
452.428	468.62
452.648	481.62
452.869	488.62
453.089	467.62
453.31	487.62
453.53	500.62
453.751	467.62
453.971	472.62
454.192	469.62
454.412	488.62
454.633	466.62
454.853	481.62
455.073	456.62
455.294	494.62
455.514	535.62
455.734	541.62
455.955	475.62
456.175	451.62
456.395	465.62
456.616	454.62
456.836	468.62
457.056	456.62
457.276	445.62
457.497	427.62
457.717	454.62
457.937	455.62
458.157	445.62
458.377	467.62
458.598	509.62
458.818	531.62
459.038	604.62
459.258	604.62
459.478	544.62
459.698	531.62
459.918	507.62
460.138	541.62
460.358	548.62
460.578	555.62
460.798	541.62
461.018	553.62
461.238	562.62
461.458	542.62
461.678	543.62
461.898	559.62
462.118	561.62
462.338	581.62
462.558	567.62
462.777	601.62
462.997	633.62
463.217	633.62
463.437	660.62
463.657	621.62
463.876	602.62
464.096	581.62
464.316	592.62
464.536	599.62
464.755	602.62
464.975	592.62
465.195	605.62
465.414	608.62
465.634	589.62
465.854	552.62
466.073	513.62
466.293	514.62
466.512	510.62
466.732	506.62
466.951	492.62
467.171	496.62
467.391	497.62
467.61	500.62
467.829	509.62
468.049	516.62
468.268	477.62
468.488	506.62
468.707	472.62
468.927	474.62
469.146	496.62
469.365	488.62
469.585	485.62
469.804	501.62
470.023	492.62
470.243	491.62
470.462	497.62
470.681	505.62
470.901	499.62
471.12	489.62
471.339	511.62
471.558	507.62
471.777	503.62
471.997	478.62
472.216	496.62
472.435	501.62
472.654	498.62
472.873	465.62
473.092	481.62
473.311	495.62
473.53	496.62
473.749	510.62
473.968	524.62
474.187	613.62
474.406	611.62
474.625	523.62
474.844	515.62
475.063	469.62
475.282	471.62
475.501	494.62
475.72	525.62
475.939	515.62
476.158	505.62
476.377	492.62
476.596	526.62
476.814	523.62
477.033	521.62
477.252	514.62
477.471	535.62
477.69	535.62
477.908	549.62
478.127	538.62
478.346	559.62
478.564	559.62
478.783	563.62
479.002	569.62
479.22	611.62
479.439	581.62
479.658	593.62
479.876	591.62
480.095	591.62
480.313	642.62
480.532	613.62
480.751	628.62
480.969	620.62
481.188	651.62
481.406	649.62
481.624	623.62
481.843	603.62
482.061	584.62
482.28	558.62
482.498	591.62
482.717	553.62
482.935	588.62
483.153	586.62
483.372	561.62
483.59	565.62
483.808	562.62
484.027	566.62
484.245	563.62
484.463	576.62
484.681	563.62
484.9	582.62
485.118	579.62
485.336	588.62
485.554	599.62
485.772	591.62
485.99	601.62
486.209	583.62
486.427	572.62
486.645	605.62
486.863	636.62
487.081	618.62
487.299	597.62
487.517	605.62
487.735	599.62
487.953	614.62
488.171	606.62
488.389	594.62
488.607	611.62
488.825	624.62
489.043	616.62
489.261	597.62
489.479	599.62
489.696	617.62
489.914	623.62
490.132	639.62
490.35	623.62
490.568	668.62
490.786	641.62
491.003	675.62
491.221	675.62
491.439	673.62
491.657	689.62
491.874	699.62
492.092	686.62
492.31	701.62
492.527	690.62
492.745	702.62
492.963	688.62
493.18	687.62
493.398	704.62
493.615	711.62
493.833	656.62
494.05	732.62
494.268	714.62
494.485	714.62
494.703	700.62
494.92	702.62
495.138	723.62
495.355	721.62
495.573	718.62
495.79	719.62
496.008	714.62
496.225	723.62
496.442	743.62
496.66	723.62
496.877	724.62
497.094	724.62
497.312	740.62
497.529	785.62
497.746	819.62
497.963	801.62
498.181	820.62
498.398	825.62
498.615	839.62
498.832	860.62
499.049	899.62
499.267	927.62
499.484	994.62
499.701	1029.62
499.918	1089.62
500.135	1148.62
500.352	1254.62
500.569	1284.62
500.786	1306.62
501.003	1251.62
501.22	1173.62
501.437	1117.62
501.654	1036.62
