Data from 1973.PennyLincolnUp.Lamp.En5.5.200Scan.071719.P1.Changed Mount._HRD10591_15-45-48-852.txt Node
Date: Thu Jul 18 15:45:48 EDT 2019
User: cochatt
Spectrometer: HR+D1059
Trigger mode: 1
Integration Time (sec): 1.000000E-1
Scans to average: 1
Electric dark correction enabled: true
Nonlinearity correction enabled: false
Boxcar width: 0
XAxis mode: Wavelengths
Number of Pixels in Spectrum: 2048
>>>>>Begin Spectral Data<<<<<
223.165	-16.88
223.4	-16.88
223.635	-16.88
223.869	-21.88
224.104	-17.88
224.338	-17.88
224.573	-16.88
224.808	-12.88
225.042	-1.88
225.277	3.12
225.511	0.12
225.746	-0.88
225.98	8.12
226.215	19.12
226.449	4.12
226.683	24.12
226.918	17.12
227.152	31.12
227.387	53.12
227.621	27.12
227.856	42.12
228.09	50.12
228.324	54.12
228.559	54.12
228.793	65.12
229.027	86.12
229.262	100.12
229.496	100.12
229.73	114.12
229.964	139.12
230.199	125.12
230.433	106.12
230.667	117.12
230.901	117.12
231.136	121.12
231.37	126.12
231.604	112.12
231.838	106.12
232.072	118.12
232.306	122.12
232.541	124.12
232.775	125.12
233.009	121.12
233.243	110.12
233.477	116.12
233.711	118.12
233.945	118.12
234.179	120.12
234.413	130.12
234.647	131.12
234.881	120.12
235.115	122.12
235.349	129.12
235.583	134.12
235.817	136.12
236.051	123.12
236.285	119.12
236.519	115.12
236.753	122.12
236.987	142.12
237.221	154.12
237.455	222.12
237.689	187.12
237.922	130.12
238.156	130.12
238.39	133.12
238.624	130.12
238.858	142.12
239.091	123.12
239.325	119.12
239.559	124.12
239.793	123.12
240.027	139.12
240.26	132.12
240.494	174.12
240.728	165.12
240.961	157.12
241.195	159.12
241.429	138.12
241.662	133.12
241.896	144.12
242.13	151.12
242.363	128.12
242.597	130.12
242.83	149.12
243.064	152.12
243.298	158.12
243.531	147.12
243.765	135.12
243.998	151.12
244.232	162.12
244.465	148.12
244.699	149.12
244.932	149.12
245.166	149.12
245.399	163.12
245.633	151.12
245.866	151.12
246.099	147.12
246.333	140.12
246.566	135.12
246.8	158.12
247.033	172.12
247.266	162.12
247.5	170.12
247.733	162.12
247.966	187.12
248.2	192.12
248.433	183.12
248.666	187.12
248.899	192.12
249.133	184.12
249.366	213.12
249.599	199.12
249.832	196.12
250.066	186.12
250.299	180.12
250.532	192.12
250.765	235.12
250.998	222.12
251.231	232.12
251.465	220.12
251.698	199.12
251.931	186.12
252.164	198.12
252.397	202.12
252.63	200.12
252.863	222.12
253.096	208.12
253.329	225.12
253.562	229.12
253.795	205.12
254.028	218.12
254.261	209.12
254.494	228.12
254.727	254.12
254.96	286.12
255.193	250.12
255.426	241.12
255.659	247.12
255.892	236.12
256.124	233.12
256.357	228.12
256.59	254.12
256.823	227.12
257.056	225.12
257.289	210.12
257.521	225.12
257.754	213.12
257.987	214.12
258.22	212.12
258.452	210.12
258.685	212.12
258.918	205.12
259.151	228.12
259.383	230.12
259.616	241.12
259.849	251.12
260.081	230.12
260.314	260.12
260.547	253.12
260.779	266.12
261.012	253.12
261.244	226.12
261.477	226.12
261.71	220.12
261.942	225.12
262.175	237.12
262.407	237.12
262.64	230.12
262.872	218.12
263.105	230.12
263.337	233.12
263.57	217.12
263.802	211.12
264.035	230.12
264.267	236.12
264.499	220.12
264.732	216.12
264.964	234.12
265.197	221.12
265.429	239.12
265.661	235.12
265.894	230.12
266.126	229.12
266.358	225.12
266.591	243.12
266.823	229.12
267.055	234.12
267.287	255.12
267.52	253.12
267.752	239.12
267.984	239.12
268.216	264.12
268.448	264.12
268.681	273.12
268.913	254.12
269.145	279.12
269.377	280.12
269.609	299.12
269.841	272.12
270.073	298.12
270.306	312.12
270.538	320.12
270.77	318.12
271.002	297.12
271.234	294.12
271.466	299.12
271.698	318.12
271.93	325.12
272.162	322.12
272.394	318.12
272.626	341.12
272.858	294.12
273.09	285.12
273.322	280.12
273.553	285.12
273.785	286.12
274.017	271.12
274.249	276.12
274.481	272.12
274.713	287.12
274.945	277.12
275.176	295.12
275.408	299.12
275.64	276.12
275.872	268.12
276.104	280.12
276.335	312.12
276.567	325.12
276.799	318.12
277.031	310.12
277.262	335.12
277.494	342.12
277.726	330.12
277.957	309.12
278.189	291.12
278.421	299.12
278.652	302.12
278.884	290.12
279.115	309.12
279.347	288.12
279.579	310.12
279.81	306.12
280.042	296.12
280.273	296.12
280.505	299.12
280.736	290.12
280.968	301.12
281.199	273.12
281.431	292.12
281.662	314.12
281.894	327.12
282.125	310.12
282.356	307.12
282.588	307.12
282.819	322.12
283.051	307.12
283.282	307.12
283.513	292.12
283.745	300.12
283.976	324.12
284.207	312.12
284.439	318.12
284.67	314.12
284.901	334.12
285.132	309.12
285.364	296.12
285.595	310.12
285.826	318.12
286.057	335.12
286.288	306.12
286.52	335.12
286.751	325.12
286.982	321.12
287.213	325.12
287.444	324.12
287.675	330.12
287.906	331.12
288.138	342.12
288.369	334.12
288.6	328.12
288.831	334.12
289.062	342.12
289.293	316.12
289.524	322.12
289.755	331.12
289.986	336.12
290.217	320.12
290.448	341.12
290.679	316.12
290.91	335.12
291.141	332.12
291.371	333.12
291.602	339.12
291.833	311.12
292.064	331.12
292.295	322.12
292.526	333.12
292.757	344.12
292.987	336.12
293.218	341.12
293.449	332.12
293.68	319.12
293.91	325.12
294.141	331.12
294.372	312.12
294.603	326.12
294.833	349.12
295.064	329.12
295.295	331.12
295.525	326.12
295.756	335.12
295.987	343.12
296.217	359.12
296.448	364.12
296.679	327.12
296.909	354.12
297.14	321.12
297.37	339.12
297.601	337.12
297.831	335.12
298.062	366.12
298.292	351.12
298.523	352.12
298.753	351.12
298.984	346.12
299.214	336.12
299.445	336.12
299.675	346.12
299.905	351.12
300.136	338.12
300.366	347.12
300.597	349.12
300.827	334.12
301.057	349.12
301.288	367.12
301.518	365.12
301.748	336.12
301.979	378.12
302.209	380.12
302.439	370.12
302.669	374.12
302.9	376.12
303.13	357.12
303.36	374.12
303.59	370.12
303.82	373.12
304.051	364.12
304.281	377.12
304.511	352.12
304.741	356.12
304.971	367.12
305.201	355.12
305.431	352.12
305.661	378.12
305.891	358.12
306.121	345.12
306.352	371.12
306.582	380.12
306.812	363.12
307.042	363.12
307.272	372.12
307.502	359.12
307.731	382.12
307.961	370.12
308.191	373.12
308.421	377.12
308.651	372.12
308.881	370.12
309.111	378.12
309.341	350.12
309.571	395.12
309.8	394.12
310.03	395.12
310.26	412.12
310.49	387.12
310.72	390.12
310.949	392.12
311.179	411.12
311.409	388.12
311.639	395.12
311.868	422.12
312.098	410.12
312.328	410.12
312.557	419.12
312.787	425.12
313.017	421.12
313.246	428.12
313.476	412.12
313.706	421.12
313.935	414.12
314.165	436.12
314.394	432.12
314.624	434.12
314.853	406.12
315.083	384.12
315.312	421.12
315.542	424.12
315.771	395.12
316.001	407.12
316.23	396.12
316.46	400.12
316.689	406.12
316.919	411.12
317.148	431.12
317.377	418.12
317.607	427.12
317.836	395.12
318.065	405.12
318.295	414.12
318.524	418.12
318.753	413.12
318.983	407.12
319.212	396.12
319.441	416.12
319.67	398.12
319.9	416.12
320.129	404.12
320.358	428.12
320.587	407.12
320.816	407.12
321.046	422.12
321.275	413.12
321.504	409.12
321.733	428.12
321.962	435.12
322.191	434.12
322.42	444.12
322.649	458.12
322.878	451.12
323.108	464.12
323.337	482.12
323.566	482.12
323.795	501.12
324.024	547.12
324.253	589.12
324.482	816.12
324.71	1152.12
324.939	1676.12
325.168	1464.12
325.397	800.12
325.626	610.12
325.855	493.12
326.084	496.12
326.313	493.12
326.542	491.12
326.77	542.12
326.999	586.12
327.228	749.12
327.457	1112.12
327.686	1303.12
327.914	917.12
328.143	633.12
328.372	599.12
328.6	558.12
328.829	536.12
329.058	533.12
329.287	536.12
329.515	533.12
329.744	498.12
329.972	512.12
330.201	521.12
330.43	547.12
330.658	544.12
330.887	577.12
331.115	556.12
331.344	529.12
331.572	510.12
331.801	503.12
332.03	535.12
332.258	496.12
332.486	505.12
332.715	495.12
332.943	528.12
333.172	491.12
333.4	534.12
333.629	529.12
333.857	536.12
334.085	538.12
334.314	580.12
334.542	565.12
334.771	572.12
334.999	525.12
335.227	531.12
335.455	525.12
335.684	522.12
335.912	503.12
336.14	499.12
336.369	495.12
336.597	507.12
336.825	491.12
337.053	502.12
337.281	486.12
337.51	480.12
337.738	491.12
337.966	483.12
338.194	471.12
338.422	498.12
338.65	466.12
338.878	461.12
339.106	473.12
339.334	461.12
339.562	472.12
339.79	462.12
340.018	461.12
340.246	454.12
340.474	467.12
340.702	471.12
340.93	468.12
341.158	475.12
341.386	467.12
341.614	473.12
341.842	473.12
342.07	456.12
342.298	465.12
342.526	457.12
342.754	456.12
342.981	457.12
343.209	444.12
343.437	491.12
343.665	453.12
343.893	501.12
344.12	500.12
344.348	500.12
344.576	502.12
344.804	493.12
345.031	463.12
345.259	482.12
345.487	473.12
345.714	452.12
345.942	431.12
346.17	438.12
346.397	439.12
346.625	462.12
346.853	443.12
347.08	440.12
347.308	457.12
347.535	463.12
347.763	449.12
347.99	466.12
348.218	467.12
348.445	463.12
348.673	457.12
348.9	444.12
349.128	444.12
349.355	440.12
349.583	435.12
349.81	422.12
350.037	457.12
350.265	423.12
350.492	416.12
350.72	441.12
350.947	440.12
351.174	439.12
351.402	430.12
351.629	426.12
351.856	460.12
352.083	430.12
352.311	444.12
352.538	440.12
352.765	445.12
352.992	446.12
353.22	440.12
353.447	447.12
353.674	438.12
353.901	420.12
354.128	416.12
354.355	421.12
354.583	398.12
354.81	420.12
355.037	436.12
355.264	408.12
355.491	418.12
355.718	403.12
355.945	421.12
356.172	431.12
356.399	439.12
356.626	423.12
356.853	426.12
357.08	427.12
357.307	420.12
357.534	406.12
357.761	411.12
357.988	394.12
358.215	450.12
358.441	422.12
358.668	419.12
358.895	429.12
359.122	427.12
359.349	413.12
359.576	426.12
359.802	458.12
360.029	459.12
360.256	479.12
360.483	446.12
360.709	444.12
360.936	437.12
361.163	440.12
361.39	446.12
361.616	462.12
361.843	445.12
362.07	450.12
362.296	436.12
362.523	442.12
362.749	428.12
362.976	424.12
363.203	428.12
363.429	431.12
363.656	442.12
363.882	432.12
364.109	415.12
364.335	425.12
364.562	435.12
364.788	418.12
365.015	445.12
365.241	436.12
365.468	444.12
365.694	436.12
365.92	430.12
366.147	423.12
366.373	424.12
366.599	428.12
366.826	425.12
367.052	409.12
367.278	430.12
367.505	430.12
367.731	424.12
367.957	430.12
368.184	415.12
368.41	434.12
368.636	440.12
368.862	450.12
369.089	424.12
369.315	420.12
369.541	432.12
369.767	414.12
369.993	428.12
370.219	416.12
370.445	425.12
370.672	424.12
370.898	436.12
371.124	438.12
371.35	422.12
371.576	442.12
371.802	432.12
372.028	447.12
372.254	440.12
372.48	440.12
372.706	452.12
372.932	448.12
373.158	450.12
373.384	448.12
373.61	455.12
373.835	440.12
374.061	432.12
374.287	439.12
374.513	442.12
374.739	455.12
374.965	462.12
375.191	477.12
375.416	459.12
375.642	443.12
375.868	461.12
376.094	462.12
376.319	435.12
376.545	430.12
376.771	427.12
376.997	446.12
377.222	424.12
377.448	448.12
377.674	425.12
377.899	438.12
378.125	436.12
378.35	428.12
378.576	436.12
378.802	437.12
379.027	442.12
379.253	446.12
379.478	433.12
379.704	433.12
379.929	420.12
380.155	431.12
380.38	426.12
380.606	447.12
380.831	423.12
381.057	458.12
381.282	443.12
381.507	447.12
381.733	422.12
381.958	429.12
382.184	427.12
382.409	445.12
382.634	434.12
382.86	457.12
383.085	454.12
383.31	444.12
383.535	454.12
383.761	471.12
383.986	455.12
384.211	468.12
384.436	483.12
384.662	472.12
384.887	472.12
385.112	484.12
385.337	519.12
385.562	482.12
385.787	468.12
386.013	487.12
386.238	503.12
386.463	517.12
386.688	473.12
386.913	489.12
387.138	499.12
387.363	503.12
387.588	495.12
387.813	490.12
388.038	472.12
388.263	471.12
388.488	508.12
388.713	504.12
388.938	505.12
389.163	483.12
389.387	522.12
389.612	479.12
389.837	488.12
390.062	456.12
390.287	488.12
390.512	498.12
390.736	502.12
390.961	476.12
391.186	504.12
391.411	494.12
391.636	517.12
391.86	502.12
392.085	515.12
392.31	520.12
392.534	499.12
392.759	523.12
392.984	509.12
393.208	500.12
393.433	498.12
393.658	478.12
393.882	487.12
394.107	493.12
394.331	522.12
394.556	498.12
394.78	520.12
395.005	497.12
395.229	517.12
395.454	540.12
395.678	525.12
395.903	506.12
396.127	540.12
396.352	536.12
396.576	528.12
396.801	524.12
397.025	499.12
397.249	540.12
397.474	546.12
397.698	551.12
397.922	541.12
398.147	545.12
398.371	558.12
398.595	551.12
398.82	576.12
399.044	594.12
399.268	628.12
399.492	672.12
399.717	731.12
399.941	764.12
400.165	741.12
400.389	720.12
400.613	671.12
400.837	610.12
401.062	604.12
401.286	567.12
401.51	587.12
401.734	578.12
401.958	593.12
402.182	600.12
402.406	616.12
402.63	621.12
402.854	586.12
403.078	588.12
403.302	610.12
403.526	607.12
403.75	633.12
403.974	606.12
404.198	609.12
404.422	648.12
404.645	616.12
404.869	620.12
405.093	642.12
405.317	697.12
405.541	704.12
405.765	645.12
405.988	648.12
406.212	634.12
406.436	642.12
406.66	654.12
406.883	632.12
407.107	688.12
407.331	736.12
407.555	778.12
407.778	763.12
408.002	730.12
408.226	686.12
408.449	640.12
408.673	652.12
408.896	688.12
409.12	710.12
409.344	680.12
409.567	641.12
409.791	627.12
410.014	603.12
410.238	606.12
410.461	602.12
410.685	595.12
410.908	597.12
411.132	626.12
411.355	662.12
411.578	633.12
411.802	610.12
412.025	592.12
412.249	613.12
412.472	619.12
412.695	667.12
412.919	646.12
413.142	603.12
413.365	590.12
413.589	601.12
413.812	587.12
414.035	590.12
414.258	591.12
414.482	566.12
414.705	575.12
414.928	577.12
415.151	572.12
415.374	564.12
415.597	578.12
415.821	566.12
416.044	551.12
416.267	562.12
416.49	562.12
416.713	549.12
416.936	562.12
417.159	535.12
417.382	562.12
417.605	547.12
417.828	562.12
418.051	565.12
418.274	578.12
418.497	551.12
418.72	578.12
418.943	551.12
419.166	591.12
419.389	612.12
419.611	646.12
419.834	613.12
420.057	592.12
420.28	575.12
420.503	575.12
420.726	567.12
420.948	604.12
421.171	607.12
421.394	663.12
421.617	606.12
421.839	602.12
422.062	573.12
422.285	600.12
422.507	628.12
422.73	685.12
422.953	667.12
423.175	626.12
423.398	607.12
423.621	596.12
423.843	607.12
424.066	619.12
424.288	635.12
424.511	627.12
424.733	637.12
424.956	744.12
425.178	733.12
425.401	693.12
425.623	738.12
425.846	632.12
426.068	606.12
426.291	611.12
426.513	608.12
426.735	622.12
426.958	633.12
427.18	693.12
427.402	798.12
427.625	871.12
427.847	773.12
428.069	654.12
428.292	626.12
428.514	581.12
428.736	570.12
428.958	553.12
429.181	546.12
429.403	570.12
429.625	576.12
429.847	572.12
430.069	660.12
430.292	655.12
430.514	580.12
430.736	538.12
430.958	521.12
431.18	542.12
431.402	544.12
431.624	522.12
431.846	505.12
432.068	526.12
432.29	541.12
432.512	551.12
432.734	560.12
432.956	538.12
433.178	529.12
433.4	555.12
433.622	538.12
433.844	522.12
434.066	546.12
434.287	521.12
434.509	522.12
434.731	564.12
434.953	584.12
435.175	580.12
435.397	604.12
435.618	617.12
435.84	618.12
436.062	685.12
436.284	762.12
436.505	640.12
436.727	593.12
436.949	574.12
437.17	558.12
437.392	549.12
437.614	562.12
437.835	568.12
438.057	649.12
438.278	752.12
438.5	716.12
438.721	818.12
438.943	783.12
439.165	644.12
439.386	586.12
439.608	587.12
439.829	576.12
440.05	587.12
440.272	656.12
440.493	612.12
440.715	585.12
440.936	571.12
441.158	587.12
441.379	580.12
441.6	566.12
441.822	591.12
442.043	650.12
442.264	714.12
442.486	763.12
442.707	654.12
442.928	646.12
443.149	626.12
443.371	646.12
443.592	653.12
443.813	715.12
444.034	810.12
444.255	696.12
444.476	640.12
444.698	649.12
444.919	663.12
445.14	722.12
445.361	694.12
445.582	654.12
445.803	682.12
446.024	766.12
446.245	793.12
446.466	740.12
446.687	648.12
446.908	596.12
447.129	559.12
447.35	548.12
447.571	554.12
447.792	551.12
448.013	544.12
448.234	545.12
448.455	581.12
448.675	678.12
448.896	781.12
449.117	697.12
449.338	646.12
449.559	749.12
449.779	846.12
450	677.12
450.221	586.12
450.442	552.12
450.662	540.12
450.883	531.12
451.104	555.12
451.324	523.12
451.545	514.12
451.766	505.12
451.986	486.12
452.207	492.12
452.428	491.12
452.648	495.12
452.869	490.12
453.089	487.12
453.31	503.12
453.53	494.12
453.751	503.12
453.971	464.12
454.192	491.12
454.412	484.12
454.633	484.12
454.853	503.12
455.073	482.12
455.294	505.12
455.514	594.12
455.734	552.12
455.955	498.12
456.175	488.12
456.395	473.12
456.616	470.12
456.836	469.12
457.056	467.12
457.276	446.12
457.497	464.12
457.717	454.12
457.937	491.12
458.157	483.12
458.377	479.12
458.598	512.12
458.818	548.12
459.038	612.12
459.258	623.12
459.478	547.12
459.698	528.12
459.918	551.12
460.138	531.12
460.358	565.12
460.578	557.12
460.798	566.12
461.018	575.12
461.238	546.12
461.458	565.12
461.678	551.12
461.898	567.12
462.118	566.12
462.338	600.12
462.558	610.12
462.777	603.12
462.997	652.12
463.217	635.12
463.437	663.12
463.657	645.12
463.876	628.12
464.096	631.12
464.316	612.12
464.536	629.12
464.755	608.12
464.975	603.12
465.195	636.12
465.414	645.12
465.634	587.12
465.854	550.12
466.073	535.12
466.293	536.12
466.512	531.12
466.732	499.12
466.951	502.12
467.171	493.12
467.391	504.12
467.61	539.12
467.829	536.12
468.049	512.12
468.268	513.12
468.488	488.12
468.707	494.12
468.927	522.12
469.146	492.12
469.365	502.12
469.585	488.12
469.804	500.12
470.023	541.12
470.243	530.12
470.462	529.12
470.681	525.12
470.901	542.12
471.12	534.12
471.339	526.12
471.558	521.12
471.777	520.12
471.997	513.12
472.216	520.12
472.435	523.12
472.654	529.12
472.873	501.12
473.092	503.12
473.311	496.12
473.53	500.12
473.749	520.12
473.968	539.12
474.187	623.12
474.406	646.12
474.625	550.12
474.844	521.12
475.063	512.12
475.282	514.12
475.501	506.12
475.72	527.12
475.939	505.12
476.158	526.12
476.377	528.12
476.596	536.12
476.814	535.12
477.033	524.12
477.252	550.12
477.471	570.12
477.69	556.12
477.908	572.12
478.127	588.12
478.346	566.12
478.564	591.12
478.783	596.12
479.002	604.12
479.22	609.12
479.439	585.12
479.658	611.12
479.876	617.12
480.095	634.12
480.313	631.12
480.532	651.12
480.751	631.12
480.969	674.12
481.188	682.12
481.406	683.12
481.624	630.12
481.843	605.12
482.061	620.12
482.28	598.12
482.498	594.12
482.717	578.12
482.935	580.12
483.153	590.12
483.372	588.12
483.59	600.12
483.808	582.12
484.027	594.12
484.245	577.12
484.463	602.12
484.681	594.12
484.9	598.12
485.118	604.12
485.336	622.12
485.554	619.12
485.772	617.12
485.99	595.12
486.209	622.12
486.427	620.12
486.645	593.12
486.863	635.12
487.081	628.12
487.299	637.12
487.517	621.12
487.735	615.12
487.953	621.12
488.171	621.12
488.389	606.12
488.607	641.12
488.825	617.12
489.043	642.12
489.261	621.12
489.479	631.12
489.696	638.12
489.914	651.12
490.132	647.12
490.35	655.12
490.568	668.12
490.786	682.12
491.003	667.12
491.221	694.12
491.439	669.12
491.657	705.12
491.874	680.12
492.092	707.12
492.31	708.12
492.527	727.12
492.745	720.12
492.963	714.12
493.18	727.12
493.398	712.12
493.615	725.12
493.833	735.12
494.05	722.12
494.268	762.12
494.485	733.12
494.703	708.12
494.92	738.12
495.138	741.12
495.355	749.12
495.573	740.12
495.79	726.12
496.008	759.12
496.225	745.12
496.442	732.12
496.66	732.12
496.877	740.12
497.094	749.12
497.312	747.12
497.529	773.12
497.746	790.12
497.963	797.12
498.181	815.12
498.398	849.12
498.615	861.12
498.832	902.12
499.049	906.12
499.267	936.12
499.484	1017.12
499.701	1034.12
499.918	1135.12
500.135	1204.12
500.352	1245.12
500.569	1311.12
500.786	1309.12
501.003	1284.12
501.22	1213.12
501.437	1133.12
501.654	1046.12
