Data from 1973.PennyLincolnUp.Lamp.En5.5.200Scan.071719.P1.Changed Mount._HRD10591_15-44-23-852.txt Node
Date: Thu Jul 18 15:44:23 EDT 2019
User: cochatt
Spectrometer: HR+D1059
Trigger mode: 1
Integration Time (sec): 1.000000E-1
Scans to average: 1
Electric dark correction enabled: true
Nonlinearity correction enabled: false
Boxcar width: 0
XAxis mode: Wavelengths
Number of Pixels in Spectrum: 2048
>>>>>Begin Spectral Data<<<<<
223.165	-5.19
223.4	-5.19
223.635	-5.19
223.869	-4.19
224.104	-23.19
224.338	-14.19
224.573	-6.19
224.808	-3.19
225.042	-10.19
225.277	-6.19
225.511	0.81
225.746	1.81
225.98	-3.19
226.215	11.81
226.449	14.81
226.683	7.81
226.918	13.81
227.152	24.81
227.387	33.81
227.621	43.81
227.856	37.81
228.09	28.81
228.324	34.81
228.559	60.81
228.793	66.81
229.027	98.81
229.262	90.81
229.496	121.81
229.73	134.81
229.964	148.81
230.199	110.81
230.433	102.81
230.667	101.81
230.901	114.81
231.136	109.81
231.37	112.81
231.604	105.81
231.838	108.81
232.072	116.81
232.306	102.81
232.541	112.81
232.775	109.81
233.009	106.81
233.243	121.81
233.477	116.81
233.711	100.81
233.945	105.81
234.179	129.81
234.413	112.81
234.647	114.81
234.881	122.81
235.115	114.81
235.349	109.81
235.583	112.81
235.817	114.81
236.051	133.81
236.285	119.81
236.519	115.81
236.753	128.81
236.987	136.81
237.221	184.81
237.455	189.81
237.689	166.81
237.922	134.81
238.156	141.81
238.39	145.81
238.624	124.81
238.858	118.81
239.091	123.81
239.325	125.81
239.559	121.81
239.793	118.81
240.027	133.81
240.26	133.81
240.494	156.81
240.728	141.81
240.961	134.81
241.195	140.81
241.429	150.81
241.662	137.81
241.896	118.81
242.13	128.81
242.363	123.81
242.597	138.81
242.83	154.81
243.064	140.81
243.298	129.81
243.531	156.81
243.765	137.81
243.998	144.81
244.232	136.81
244.465	149.81
244.699	151.81
244.932	156.81
245.166	144.81
245.399	149.81
245.633	136.81
245.866	153.81
246.099	140.81
246.333	159.81
246.566	153.81
246.8	160.81
247.033	166.81
247.266	155.81
247.5	160.81
247.733	167.81
247.966	161.81
248.2	165.81
248.433	180.81
248.666	168.81
248.899	175.81
249.133	194.81
249.366	170.81
249.599	193.81
249.832	194.81
250.066	185.81
250.299	183.81
250.532	200.81
250.765	196.81
250.998	208.81
251.231	219.81
251.465	202.81
251.698	209.81
251.931	197.81
252.164	210.81
252.397	187.81
252.63	206.81
252.863	210.81
253.096	224.81
253.329	227.81
253.562	208.81
253.795	224.81
254.028	194.81
254.261	232.81
254.494	224.81
254.727	244.81
254.96	265.81
255.193	258.81
255.426	235.81
255.659	235.81
255.892	234.81
256.124	251.81
256.357	231.81
256.59	214.81
256.823	194.81
257.056	229.81
257.289	215.81
257.521	192.81
257.754	216.81
257.987	209.81
258.22	195.81
258.452	226.81
258.685	212.81
258.918	226.81
259.151	197.81
259.383	214.81
259.616	240.81
259.849	228.81
260.081	243.81
260.314	243.81
260.547	258.81
260.779	245.81
261.012	226.81
261.244	245.81
261.477	216.81
261.71	234.81
261.942	230.81
262.175	228.81
262.407	219.81
262.64	228.81
262.872	221.81
263.105	214.81
263.337	219.81
263.57	200.81
263.802	225.81
264.035	229.81
264.267	222.81
264.499	213.81
264.732	231.81
264.964	216.81
265.197	224.81
265.429	229.81
265.661	233.81
265.894	229.81
266.126	233.81
266.358	213.81
266.591	242.81
266.823	249.81
267.055	247.81
267.287	258.81
267.52	227.81
267.752	220.81
267.984	242.81
268.216	240.81
268.448	228.81
268.681	256.81
268.913	240.81
269.145	276.81
269.377	274.81
269.609	271.81
269.841	278.81
270.073	265.81
270.306	280.81
270.538	315.81
270.77	313.81
271.002	301.81
271.234	314.81
271.466	292.81
271.698	299.81
271.93	294.81
272.162	312.81
272.394	317.81
272.626	322.81
272.858	276.81
273.09	289.81
273.322	274.81
273.553	286.81
273.785	265.81
274.017	264.81
274.249	270.81
274.481	262.81
274.713	283.81
274.945	284.81
275.176	288.81
275.408	266.81
275.64	279.81
275.872	271.81
276.104	279.81
276.335	265.81
276.567	273.81
276.799	288.81
277.031	308.81
277.262	322.81
277.494	316.81
277.726	312.81
277.957	293.81
278.189	291.81
278.421	277.81
278.652	274.81
278.884	264.81
279.115	286.81
279.347	296.81
279.579	304.81
279.81	285.81
280.042	286.81
280.273	287.81
280.505	280.81
280.736	281.81
280.968	287.81
281.199	298.81
281.431	285.81
281.662	298.81
281.894	262.81
282.125	282.81
282.356	316.81
282.588	305.81
282.819	312.81
283.051	296.81
283.282	298.81
283.513	282.81
283.745	297.81
283.976	312.81
284.207	311.81
284.439	297.81
284.67	313.81
284.901	300.81
285.132	301.81
285.364	279.81
285.595	292.81
285.826	298.81
286.057	309.81
286.288	297.81
286.52	310.81
286.751	299.81
286.982	316.81
287.213	308.81
287.444	330.81
287.675	310.81
287.906	316.81
288.138	308.81
288.369	316.81
288.6	303.81
288.831	324.81
289.062	324.81
289.293	310.81
289.524	315.81
289.755	301.81
289.986	324.81
290.217	306.81
290.448	304.81
290.679	316.81
290.91	330.81
291.141	314.81
291.371	314.81
291.602	309.81
291.833	324.81
292.064	327.81
292.295	322.81
292.526	301.81
292.757	302.81
292.987	308.81
293.218	313.81
293.449	293.81
293.68	320.81
293.91	320.81
294.141	334.81
294.372	306.81
294.603	317.81
294.833	307.81
295.064	300.81
295.295	309.81
295.525	334.81
295.756	320.81
295.987	337.81
296.217	336.81
296.448	333.81
296.679	344.81
296.909	308.81
297.14	314.81
297.37	329.81
297.601	335.81
297.831	332.81
298.062	317.81
298.292	309.81
298.523	330.81
298.753	337.81
298.984	335.81
299.214	324.81
299.445	336.81
299.675	334.81
299.905	333.81
300.136	347.81
300.366	335.81
300.597	346.81
300.827	357.81
301.057	363.81
301.288	365.81
301.518	351.81
301.748	350.81
301.979	350.81
302.209	359.81
302.439	358.81
302.669	343.81
302.9	371.81
303.13	348.81
303.36	361.81
303.59	355.81
303.82	375.81
304.051	358.81
304.281	355.81
304.511	362.81
304.741	360.81
304.971	362.81
305.201	372.81
305.431	347.81
305.661	376.81
305.891	352.81
306.121	344.81
306.352	362.81
306.582	343.81
306.812	388.81
307.042	346.81
307.272	357.81
307.502	348.81
307.731	355.81
307.961	362.81
308.191	362.81
308.421	349.81
308.651	350.81
308.881	358.81
309.111	349.81
309.341	352.81
309.571	376.81
309.8	360.81
310.03	346.81
310.26	375.81
310.49	376.81
310.72	370.81
310.949	396.81
311.179	394.81
311.409	388.81
311.639	382.81
311.868	371.81
312.098	367.81
312.328	386.81
312.557	399.81
312.787	399.81
313.017	401.81
313.246	385.81
313.476	387.81
313.706	387.81
313.935	409.81
314.165	407.81
314.394	421.81
314.624	403.81
314.853	401.81
315.083	409.81
315.312	408.81
315.542	396.81
315.771	395.81
316.001	375.81
316.23	408.81
316.46	394.81
316.689	385.81
316.919	392.81
317.148	386.81
317.377	412.81
317.607	400.81
317.836	390.81
318.065	400.81
318.295	405.81
318.524	393.81
318.753	393.81
318.983	379.81
319.212	382.81
319.441	399.81
319.67	388.81
319.9	384.81
320.129	382.81
320.358	387.81
320.587	396.81
320.816	405.81
321.046	412.81
321.275	416.81
321.504	396.81
321.733	396.81
321.962	403.81
322.191	412.81
322.42	427.81
322.649	439.81
322.878	436.81
323.108	439.81
323.337	480.81
323.566	449.81
323.795	450.81
324.024	513.81
324.253	567.81
324.482	758.81
324.71	1078.81
324.939	1458.81
325.168	1288.81
325.397	720.81
325.626	538.81
325.855	496.81
326.084	469.81
326.313	446.81
326.542	478.81
326.77	500.81
326.999	554.81
327.228	686.81
327.457	969.81
327.686	1150.81
327.914	788.81
328.143	587.81
328.372	540.81
328.6	504.81
328.829	499.81
329.058	513.81
329.287	483.81
329.515	491.81
329.744	459.81
329.972	462.81
330.201	485.81
330.43	509.81
330.658	516.81
330.887	550.81
331.115	533.81
331.344	490.81
331.572	475.81
331.801	461.81
332.03	482.81
332.258	471.81
332.486	470.81
332.715	482.81
332.943	487.81
333.172	482.81
333.4	508.81
333.629	492.81
333.857	523.81
334.085	536.81
334.314	526.81
334.542	539.81
334.771	543.81
334.999	518.81
335.227	491.81
335.455	489.81
335.684	487.81
335.912	476.81
336.14	469.81
336.369	474.81
336.597	489.81
336.825	477.81
337.053	458.81
337.281	454.81
337.51	452.81
337.738	473.81
337.966	474.81
338.194	456.81
338.422	456.81
338.65	469.81
338.878	442.81
339.106	465.81
339.334	472.81
339.562	438.81
339.79	436.81
340.018	454.81
340.246	426.81
340.474	466.81
340.702	447.81
340.93	445.81
341.158	468.81
341.386	448.81
341.614	460.81
341.842	437.81
342.07	443.81
342.298	426.81
342.526	425.81
342.754	424.81
342.981	423.81
343.209	435.81
343.437	431.81
343.665	461.81
343.893	469.81
344.12	477.81
344.348	482.81
344.576	476.81
344.804	456.81
345.031	492.81
345.259	464.81
345.487	438.81
345.714	458.81
345.942	428.81
346.17	428.81
346.397	449.81
346.625	440.81
346.853	406.81
347.08	416.81
347.308	422.81
347.535	434.81
347.763	434.81
347.99	428.81
348.218	436.81
348.445	451.81
348.673	424.81
348.9	411.81
349.128	428.81
349.355	427.81
349.583	421.81
349.81	389.81
350.037	414.81
350.265	418.81
350.492	422.81
350.72	420.81
350.947	417.81
351.174	429.81
351.402	426.81
351.629	403.81
351.856	423.81
352.083	417.81
352.311	424.81
352.538	418.81
352.765	413.81
352.992	421.81
353.22	425.81
353.447	419.81
353.674	438.81
353.901	400.81
354.128	388.81
354.355	399.81
354.583	404.81
354.81	408.81
355.037	409.81
355.264	393.81
355.491	410.81
355.718	405.81
355.945	412.81
356.172	399.81
356.399	405.81
356.626	404.81
356.853	409.81
357.08	416.81
357.307	409.81
357.534	390.81
357.761	404.81
357.988	418.81
358.215	417.81
358.441	398.81
358.668	400.81
358.895	408.81
359.122	407.81
359.349	410.81
359.576	416.81
359.802	457.81
360.029	440.81
360.256	446.81
360.483	425.81
360.709	417.81
360.936	410.81
361.163	429.81
361.39	424.81
361.616	416.81
361.843	413.81
362.07	421.81
362.296	412.81
362.523	425.81
362.749	407.81
362.976	408.81
363.203	443.81
363.429	390.81
363.656	414.81
363.882	397.81
364.109	420.81
364.335	396.81
364.562	404.81
364.788	393.81
365.015	405.81
365.241	410.81
365.468	412.81
365.694	413.81
365.92	444.81
366.147	419.81
366.373	409.81
366.599	389.81
366.826	407.81
367.052	406.81
367.278	424.81
367.505	406.81
367.731	415.81
367.957	425.81
368.184	411.81
368.41	404.81
368.636	404.81
368.862	424.81
369.089	407.81
369.315	419.81
369.541	408.81
369.767	404.81
369.993	418.81
370.219	424.81
370.445	416.81
370.672	426.81
370.898	421.81
371.124	436.81
371.35	434.81
371.576	425.81
371.802	432.81
372.028	402.81
372.254	422.81
372.48	420.81
372.706	434.81
372.932	427.81
373.158	423.81
373.384	434.81
373.61	442.81
373.835	430.81
374.061	413.81
374.287	427.81
374.513	422.81
374.739	448.81
374.965	444.81
375.191	434.81
375.416	430.81
375.642	425.81
375.868	448.81
376.094	424.81
376.319	419.81
376.545	410.81
376.771	401.81
376.997	422.81
377.222	413.81
377.448	405.81
377.674	402.81
377.899	410.81
378.125	417.81
378.35	403.81
378.576	416.81
378.802	392.81
379.027	418.81
379.253	421.81
379.478	404.81
379.704	427.81
379.929	433.81
380.155	412.81
380.38	420.81
380.606	411.81
380.831	427.81
381.057	412.81
381.282	407.81
381.507	432.81
381.733	412.81
381.958	410.81
382.184	432.81
382.409	427.81
382.634	432.81
382.86	444.81
383.085	443.81
383.31	453.81
383.535	421.81
383.761	452.81
383.986	443.81
384.211	458.81
384.436	458.81
384.662	466.81
384.887	465.81
385.112	456.81
385.337	469.81
385.562	458.81
385.787	456.81
386.013	481.81
386.238	489.81
386.463	453.81
386.688	497.81
386.913	473.81
387.138	486.81
387.363	473.81
387.588	456.81
387.813	457.81
388.038	479.81
388.263	462.81
388.488	461.81
388.713	459.81
388.938	453.81
389.163	488.81
389.387	477.81
389.612	448.81
389.837	466.81
390.062	487.81
390.287	466.81
390.512	462.81
390.736	462.81
390.961	460.81
391.186	472.81
391.411	480.81
391.636	486.81
391.86	485.81
392.085	512.81
392.31	489.81
392.534	489.81
392.759	501.81
392.984	482.81
393.208	496.81
393.433	483.81
393.658	472.81
393.882	487.81
394.107	487.81
394.331	476.81
394.556	483.81
394.78	491.81
395.005	489.81
395.229	472.81
395.454	469.81
395.678	509.81
395.903	526.81
396.127	544.81
396.352	518.81
396.576	509.81
396.801	493.81
397.025	482.81
397.249	514.81
397.474	518.81
397.698	505.81
397.922	522.81
398.147	539.81
398.371	553.81
398.595	533.81
398.82	532.81
399.044	591.81
399.268	602.81
399.492	668.81
399.717	698.81
399.941	730.81
400.165	686.81
400.389	676.81
400.613	630.81
400.837	579.81
401.062	556.81
401.286	564.81
401.51	578.81
401.734	561.81
401.958	566.81
402.182	556.81
402.406	570.81
402.63	606.81
402.854	591.81
403.078	584.81
403.302	571.81
403.526	587.81
403.75	603.81
403.974	598.81
404.198	591.81
404.422	593.81
404.645	602.81
404.869	599.81
405.093	618.81
405.317	659.81
405.541	670.81
405.765	620.81
405.988	600.81
406.212	611.81
406.436	627.81
406.66	647.81
406.883	627.81
407.107	627.81
407.331	696.81
407.555	737.81
407.778	728.81
408.002	691.81
408.226	642.81
408.449	633.81
408.673	643.81
408.896	648.81
409.12	686.81
409.344	648.81
409.567	583.81
409.791	603.81
410.014	576.81
410.238	590.81
410.461	581.81
410.685	575.81
410.908	579.81
411.132	594.81
411.355	626.81
411.578	628.81
411.802	568.81
412.025	574.81
412.249	602.81
412.472	598.81
412.695	638.81
412.919	620.81
413.142	585.81
413.365	562.81
413.589	561.81
413.812	566.81
414.035	549.81
414.258	556.81
414.482	545.81
414.705	542.81
414.928	538.81
415.151	540.81
415.374	545.81
415.597	536.81
415.821	518.81
416.044	516.81
416.267	538.81
416.49	542.81
416.713	505.81
416.936	537.81
417.159	539.81
417.382	522.81
417.605	521.81
417.828	550.81
418.051	579.81
418.274	548.81
418.497	528.81
418.72	538.81
418.943	536.81
419.166	581.81
419.389	592.81
419.611	571.81
419.834	573.81
420.057	594.81
420.28	556.81
420.503	574.81
420.726	576.81
420.948	584.81
421.171	627.81
421.394	622.81
421.617	568.81
421.839	550.81
422.062	564.81
422.285	569.81
422.507	609.81
422.73	663.81
422.953	648.81
423.175	605.81
423.398	577.81
423.621	587.81
423.843	602.81
424.066	626.81
424.288	595.81
424.511	602.81
424.733	645.81
424.956	710.81
425.178	690.81
425.401	656.81
425.623	673.81
425.846	620.81
426.068	596.81
426.291	591.81
426.513	577.81
426.735	568.81
426.958	589.81
427.18	667.81
427.402	776.81
427.625	828.81
427.847	752.81
428.069	639.81
428.292	613.81
428.514	580.81
428.736	546.81
428.958	574.81
429.181	517.81
429.403	538.81
429.625	527.81
429.847	572.81
430.069	613.81
430.292	617.81
430.514	547.81
430.736	546.81
430.958	528.81
431.18	530.81
431.402	518.81
431.624	525.81
431.846	518.81
432.068	512.81
432.29	518.81
432.512	536.81
432.734	512.81
432.956	500.81
433.178	520.81
433.4	533.81
433.622	496.81
433.844	525.81
434.066	532.81
434.287	510.81
434.509	532.81
434.731	544.81
434.953	532.81
435.175	541.81
435.397	589.81
435.618	573.81
435.84	611.81
436.062	680.81
436.284	726.81
436.505	618.81
436.727	579.81
436.949	533.81
437.17	525.81
437.392	533.81
437.614	525.81
437.835	572.81
438.057	631.81
438.278	692.81
438.5	724.81
438.721	802.81
438.943	755.81
439.165	615.81
439.386	597.81
439.608	556.81
439.829	566.81
440.05	589.81
440.272	615.81
440.493	592.81
440.715	552.81
440.936	536.81
441.158	546.81
441.379	551.81
441.6	547.81
441.822	593.81
442.043	608.81
442.264	680.81
442.486	703.81
442.707	626.81
442.928	584.81
443.149	572.81
443.371	616.81
443.592	674.81
443.813	729.81
444.034	774.81
444.255	649.81
444.476	624.81
444.698	621.81
444.919	625.81
445.14	750.81
445.361	679.81
445.582	653.81
445.803	648.81
446.024	741.81
446.245	735.81
446.466	672.81
446.687	600.81
446.908	584.81
447.129	541.81
447.35	524.81
447.571	508.81
447.792	509.81
448.013	515.81
448.234	533.81
448.455	581.81
448.675	649.81
448.896	770.81
449.117	643.81
449.338	606.81
449.559	698.81
449.779	797.81
450	634.81
450.221	534.81
450.442	547.81
450.662	515.81
450.883	502.81
451.104	498.81
451.324	498.81
451.545	478.81
451.766	520.81
451.986	461.81
452.207	473.81
452.428	448.81
452.648	472.81
452.869	482.81
453.089	479.81
453.31	483.81
453.53	463.81
453.751	440.81
453.971	469.81
454.192	468.81
454.412	457.81
454.633	468.81
454.853	459.81
455.073	453.81
455.294	485.81
455.514	530.81
455.734	497.81
455.955	449.81
456.175	470.81
456.395	458.81
456.616	450.81
456.836	448.81
457.056	436.81
457.276	439.81
457.497	428.81
457.717	453.81
457.937	457.81
458.157	475.81
458.377	444.81
458.598	469.81
458.818	510.81
459.038	579.81
459.258	604.81
459.478	540.81
459.698	518.81
459.918	508.81
460.138	527.81
460.358	532.81
460.578	554.81
460.798	544.81
461.018	548.81
461.238	550.81
461.458	531.81
461.678	542.81
461.898	536.81
462.118	551.81
462.338	578.81
462.558	589.81
462.777	563.81
462.997	615.81
463.217	618.81
463.437	661.81
463.657	632.81
463.876	603.81
464.096	587.81
464.316	569.81
464.536	595.81
464.755	600.81
464.975	606.81
465.195	600.81
465.414	597.81
465.634	567.81
465.854	536.81
466.073	521.81
466.293	512.81
466.512	491.81
466.732	506.81
466.951	508.81
467.171	477.81
467.391	489.81
467.61	478.81
467.829	488.81
468.049	489.81
468.268	490.81
468.488	481.81
468.707	469.81
468.927	508.81
469.146	469.81
469.365	465.81
469.585	506.81
469.804	492.81
470.023	503.81
470.243	496.81
470.462	505.81
470.681	519.81
470.901	524.81
471.12	498.81
471.339	506.81
471.558	487.81
471.777	480.81
471.997	492.81
472.216	507.81
472.435	504.81
472.654	474.81
472.873	488.81
473.092	497.81
473.311	475.81
473.53	502.81
473.749	486.81
473.968	552.81
474.187	591.81
474.406	603.81
474.625	531.81
474.844	516.81
475.063	497.81
475.282	490.81
475.501	503.81
475.72	489.81
475.939	509.81
476.158	489.81
476.377	497.81
476.596	481.81
476.814	500.81
477.033	554.81
477.252	520.81
477.471	532.81
477.69	513.81
477.908	526.81
478.127	558.81
478.346	564.81
478.564	546.81
478.783	560.81
479.002	556.81
479.22	573.81
479.439	560.81
479.658	592.81
479.876	570.81
480.095	580.81
480.313	640.81
480.532	630.81
480.751	611.81
480.969	610.81
481.188	626.81
481.406	662.81
481.624	614.81
481.843	593.81
482.061	549.81
482.28	569.81
482.498	556.81
482.717	572.81
482.935	549.81
483.153	537.81
483.372	562.81
483.59	569.81
483.808	545.81
484.027	565.81
484.245	564.81
484.463	567.81
484.681	565.81
484.9	589.81
485.118	587.81
485.336	581.81
485.554	585.81
485.772	570.81
485.99	594.81
486.209	576.81
486.427	572.81
486.645	594.81
486.863	595.81
487.081	616.81
487.299	594.81
487.517	616.81
487.735	596.81
487.953	612.81
488.171	602.81
488.389	596.81
488.607	603.81
488.825	613.81
489.043	610.81
489.261	596.81
489.479	595.81
489.696	590.81
489.914	610.81
490.132	611.81
490.35	619.81
490.568	636.81
490.786	626.81
491.003	647.81
491.221	649.81
491.439	673.81
491.657	669.81
491.874	676.81
492.092	675.81
492.31	678.81
492.527	675.81
492.745	688.81
492.963	690.81
493.18	689.81
493.398	712.81
493.615	715.81
493.833	711.81
494.05	694.81
494.268	699.81
494.485	679.81
494.703	698.81
494.92	687.81
495.138	692.81
495.355	728.81
495.573	708.81
495.79	719.81
496.008	715.81
496.225	719.81
496.442	690.81
496.66	724.81
496.877	720.81
497.094	727.81
497.312	707.81
497.529	734.81
497.746	727.81
497.963	754.81
498.181	809.81
498.398	797.81
498.615	813.81
498.832	847.81
499.049	877.81
499.267	902.81
499.484	977.81
499.701	984.81
499.918	1074.81
500.135	1130.81
500.352	1222.81
500.569	1278.81
500.786	1238.81
501.003	1202.81
501.22	1179.81
501.437	1082.81
501.654	1024.81
