Data from 1973.PennyLincolnUp.Lamp.En5.5.200Scan.071719.P1.Changed Mount._HRD10591_15-45-11-853.txt Node
Date: Thu Jul 18 15:45:11 EDT 2019
User: cochatt
Spectrometer: HR+D1059
Trigger mode: 1
Integration Time (sec): 1.000000E-1
Scans to average: 1
Electric dark correction enabled: true
Nonlinearity correction enabled: false
Boxcar width: 0
XAxis mode: Wavelengths
Number of Pixels in Spectrum: 2048
>>>>>Begin Spectral Data<<<<<
223.165	0.25
223.4	0.25
223.635	0.25
223.869	-9.75
224.104	-5.75
224.338	-4.75
224.573	-26.75
224.808	-8.75
225.042	-5.75
225.277	-12.75
225.511	-5.75
225.746	7.25
225.98	-3.75
226.215	-2.75
226.449	9.25
226.683	21.25
226.918	20.25
227.152	28.25
227.387	33.25
227.621	39.25
227.856	38.25
228.09	43.25
228.324	56.25
228.559	65.25
228.793	66.25
229.027	88.25
229.262	91.25
229.496	118.25
229.73	124.25
229.964	144.25
230.199	120.25
230.433	122.25
230.667	110.25
230.901	106.25
231.136	99.25
231.37	109.25
231.604	103.25
231.838	116.25
232.072	107.25
232.306	110.25
232.541	128.25
232.775	121.25
233.009	106.25
233.243	106.25
233.477	109.25
233.711	124.25
233.945	108.25
234.179	116.25
234.413	102.25
234.647	113.25
234.881	126.25
235.115	120.25
235.349	128.25
235.583	124.25
235.817	125.25
236.051	124.25
236.285	134.25
236.519	135.25
236.753	117.25
236.987	143.25
237.221	153.25
237.455	188.25
237.689	162.25
237.922	127.25
238.156	132.25
238.39	142.25
238.624	118.25
238.858	129.25
239.091	124.25
239.325	140.25
239.559	136.25
239.793	135.25
240.027	131.25
240.26	138.25
240.494	132.25
240.728	150.25
240.961	144.25
241.195	154.25
241.429	145.25
241.662	132.25
241.896	130.25
242.13	138.25
242.363	141.25
242.597	142.25
242.83	139.25
243.064	156.25
243.298	151.25
243.531	135.25
243.765	123.25
243.998	148.25
244.232	150.25
244.465	136.25
244.699	138.25
244.932	154.25
245.166	157.25
245.399	154.25
245.633	149.25
245.866	147.25
246.099	135.25
246.333	157.25
246.566	145.25
246.8	143.25
247.033	155.25
247.266	166.25
247.5	150.25
247.733	180.25
247.966	180.25
248.2	184.25
248.433	186.25
248.666	160.25
248.899	183.25
249.133	194.25
249.366	183.25
249.599	188.25
249.832	184.25
250.066	169.25
250.299	186.25
250.532	182.25
250.765	207.25
250.998	220.25
251.231	228.25
251.465	202.25
251.698	204.25
251.931	204.25
252.164	202.25
252.397	187.25
252.63	212.25
252.863	208.25
253.096	221.25
253.329	227.25
253.562	214.25
253.795	222.25
254.028	207.25
254.261	225.25
254.494	225.25
254.727	253.25
254.96	256.25
255.193	263.25
255.426	253.25
255.659	237.25
255.892	222.25
256.124	237.25
256.357	229.25
256.59	221.25
256.823	213.25
257.056	219.25
257.289	218.25
257.521	215.25
257.754	210.25
257.987	194.25
258.22	190.25
258.452	208.25
258.685	212.25
258.918	204.25
259.151	231.25
259.383	214.25
259.616	246.25
259.849	233.25
260.081	242.25
260.314	244.25
260.547	237.25
260.779	254.25
261.012	240.25
261.244	242.25
261.477	233.25
261.71	233.25
261.942	227.25
262.175	236.25
262.407	232.25
262.64	224.25
262.872	220.25
263.105	229.25
263.337	223.25
263.57	222.25
263.802	217.25
264.035	244.25
264.267	219.25
264.499	233.25
264.732	219.25
264.964	215.25
265.197	231.25
265.429	236.25
265.661	221.25
265.894	215.25
266.126	214.25
266.358	225.25
266.591	228.25
266.823	226.25
267.055	224.25
267.287	233.25
267.52	246.25
267.752	232.25
267.984	238.25
268.216	226.25
268.448	239.25
268.681	255.25
268.913	261.25
269.145	257.25
269.377	279.25
269.609	263.25
269.841	268.25
270.073	264.25
270.306	299.25
270.538	318.25
270.77	314.25
271.002	308.25
271.234	299.25
271.466	309.25
271.698	297.25
271.93	315.25
272.162	310.25
272.394	304.25
272.626	307.25
272.858	292.25
273.09	297.25
273.322	278.25
273.553	280.25
273.785	260.25
274.017	278.25
274.249	278.25
274.481	278.25
274.713	271.25
274.945	271.25
275.176	278.25
275.408	266.25
275.64	274.25
275.872	272.25
276.104	279.25
276.335	260.25
276.567	295.25
276.799	300.25
277.031	298.25
277.262	314.25
277.494	315.25
277.726	315.25
277.957	302.25
278.189	307.25
278.421	282.25
278.652	286.25
278.884	276.25
279.115	297.25
279.347	294.25
279.579	292.25
279.81	263.25
280.042	288.25
280.273	291.25
280.505	294.25
280.736	266.25
280.968	272.25
281.199	297.25
281.431	290.25
281.662	292.25
281.894	282.25
282.125	294.25
282.356	301.25
282.588	313.25
282.819	302.25
283.051	299.25
283.282	302.25
283.513	296.25
283.745	306.25
283.976	305.25
284.207	302.25
284.439	316.25
284.67	306.25
284.901	322.25
285.132	311.25
285.364	321.25
285.595	299.25
285.826	301.25
286.057	310.25
286.288	302.25
286.52	306.25
286.751	297.25
286.982	311.25
287.213	316.25
287.444	314.25
287.675	322.25
287.906	331.25
288.138	322.25
288.369	328.25
288.6	315.25
288.831	327.25
289.062	319.25
289.293	323.25
289.524	320.25
289.755	331.25
289.986	329.25
290.217	321.25
290.448	315.25
290.679	313.25
290.91	333.25
291.141	322.25
291.371	312.25
291.602	331.25
291.833	314.25
292.064	306.25
292.295	326.25
292.526	315.25
292.757	318.25
292.987	331.25
293.218	329.25
293.449	316.25
293.68	318.25
293.91	319.25
294.141	306.25
294.372	314.25
294.603	327.25
294.833	318.25
295.064	322.25
295.295	323.25
295.525	331.25
295.756	319.25
295.987	335.25
296.217	342.25
296.448	335.25
296.679	310.25
296.909	311.25
297.14	339.25
297.37	338.25
297.601	328.25
297.831	322.25
298.062	334.25
298.292	341.25
298.523	342.25
298.753	338.25
298.984	341.25
299.214	343.25
299.445	332.25
299.675	351.25
299.905	343.25
300.136	341.25
300.366	340.25
300.597	344.25
300.827	351.25
301.057	356.25
301.288	352.25
301.518	340.25
301.748	354.25
301.979	363.25
302.209	348.25
302.439	376.25
302.669	361.25
302.9	360.25
303.13	366.25
303.36	370.25
303.59	374.25
303.82	377.25
304.051	367.25
304.281	356.25
304.511	346.25
304.741	356.25
304.971	358.25
305.201	347.25
305.431	356.25
305.661	355.25
305.891	349.25
306.121	344.25
306.352	368.25
306.582	356.25
306.812	374.25
307.042	373.25
307.272	369.25
307.502	357.25
307.731	363.25
307.961	371.25
308.191	358.25
308.421	358.25
308.651	351.25
308.881	343.25
309.111	359.25
309.341	361.25
309.571	395.25
309.8	386.25
310.03	374.25
310.26	387.25
310.49	376.25
310.72	404.25
310.949	410.25
311.179	393.25
311.409	397.25
311.639	386.25
311.868	372.25
312.098	389.25
312.328	390.25
312.557	413.25
312.787	406.25
313.017	421.25
313.246	400.25
313.476	395.25
313.706	380.25
313.935	386.25
314.165	408.25
314.394	402.25
314.624	396.25
314.853	401.25
315.083	414.25
315.312	390.25
315.542	390.25
315.771	400.25
316.001	404.25
316.23	391.25
316.46	394.25
316.689	413.25
316.919	410.25
317.148	412.25
317.377	406.25
317.607	386.25
317.836	380.25
318.065	407.25
318.295	403.25
318.524	410.25
318.753	390.25
318.983	388.25
319.212	375.25
319.441	405.25
319.67	412.25
319.9	410.25
320.129	399.25
320.358	398.25
320.587	415.25
320.816	414.25
321.046	438.25
321.275	389.25
321.504	407.25
321.733	410.25
321.962	406.25
322.191	419.25
322.42	423.25
322.649	432.25
322.878	452.25
323.108	465.25
323.337	462.25
323.566	475.25
323.795	477.25
324.024	509.25
324.253	589.25
324.482	776.25
324.71	1133.25
324.939	1574.25
325.168	1420.25
325.397	760.25
325.626	577.25
325.855	532.25
326.084	480.25
326.313	489.25
326.542	474.25
326.77	490.25
326.999	567.25
327.228	701.25
327.457	1009.25
327.686	1234.25
327.914	871.25
328.143	616.25
328.372	585.25
328.6	537.25
328.829	511.25
329.058	504.25
329.287	547.25
329.515	490.25
329.744	495.25
329.972	512.25
330.201	507.25
330.43	509.25
330.658	537.25
330.887	575.25
331.115	554.25
331.344	521.25
331.572	518.25
331.801	506.25
332.03	483.25
332.258	481.25
332.486	499.25
332.715	488.25
332.943	504.25
333.172	506.25
333.4	496.25
333.629	507.25
333.857	510.25
334.085	533.25
334.314	535.25
334.542	540.25
334.771	541.25
334.999	523.25
335.227	487.25
335.455	503.25
335.684	486.25
335.912	494.25
336.14	482.25
336.369	495.25
336.597	473.25
336.825	490.25
337.053	490.25
337.281	473.25
337.51	463.25
337.738	479.25
337.966	454.25
338.194	463.25
338.422	459.25
338.65	459.25
338.878	482.25
339.106	456.25
339.334	469.25
339.562	460.25
339.79	446.25
340.018	438.25
340.246	446.25
340.474	458.25
340.702	445.25
340.93	439.25
341.158	436.25
341.386	461.25
341.614	458.25
341.842	467.25
342.07	457.25
342.298	448.25
342.526	424.25
342.754	436.25
342.981	426.25
343.209	432.25
343.437	454.25
343.665	467.25
343.893	466.25
344.12	499.25
344.348	487.25
344.576	480.25
344.804	477.25
345.031	475.25
345.259	486.25
345.487	445.25
345.714	438.25
345.942	420.25
346.17	426.25
346.397	431.25
346.625	439.25
346.853	436.25
347.08	439.25
347.308	438.25
347.535	430.25
347.763	437.25
347.99	444.25
348.218	444.25
348.445	418.25
348.673	418.25
348.9	440.25
349.128	424.25
349.355	430.25
349.583	438.25
349.81	415.25
350.037	424.25
350.265	436.25
350.492	424.25
350.72	432.25
350.947	415.25
351.174	417.25
351.402	444.25
351.629	424.25
351.856	440.25
352.083	438.25
352.311	424.25
352.538	438.25
352.765	446.25
352.992	435.25
353.22	420.25
353.447	442.25
353.674	408.25
353.901	406.25
354.128	404.25
354.355	403.25
354.583	399.25
354.81	398.25
355.037	389.25
355.264	390.25
355.491	401.25
355.718	406.25
355.945	403.25
356.172	416.25
356.399	404.25
356.626	418.25
356.853	403.25
357.08	409.25
357.307	386.25
357.534	395.25
357.761	400.25
357.988	417.25
358.215	414.25
358.441	412.25
358.668	411.25
358.895	431.25
359.122	410.25
359.349	396.25
359.576	447.25
359.802	431.25
360.029	434.25
360.256	445.25
360.483	464.25
360.709	459.25
360.936	450.25
361.163	412.25
361.39	432.25
361.616	424.25
361.843	407.25
362.07	438.25
362.296	441.25
362.523	430.25
362.749	412.25
362.976	399.25
363.203	413.25
363.429	420.25
363.656	418.25
363.882	412.25
364.109	421.25
364.335	416.25
364.562	406.25
364.788	415.25
365.015	423.25
365.241	400.25
365.468	432.25
365.694	424.25
365.92	402.25
366.147	420.25
366.373	407.25
366.599	392.25
366.826	405.25
367.052	404.25
367.278	401.25
367.505	401.25
367.731	422.25
367.957	392.25
368.184	400.25
368.41	424.25
368.636	416.25
368.862	434.25
369.089	422.25
369.315	412.25
369.541	412.25
369.767	405.25
369.993	415.25
370.219	421.25
370.445	417.25
370.672	451.25
370.898	423.25
371.124	431.25
371.35	423.25
371.576	409.25
371.802	422.25
372.028	409.25
372.254	426.25
372.48	422.25
372.706	432.25
372.932	436.25
373.158	443.25
373.384	423.25
373.61	430.25
373.835	444.25
374.061	404.25
374.287	423.25
374.513	412.25
374.739	421.25
374.965	444.25
375.191	466.25
375.416	452.25
375.642	419.25
375.868	423.25
376.094	425.25
376.319	434.25
376.545	441.25
376.771	411.25
376.997	405.25
377.222	410.25
377.448	432.25
377.674	445.25
377.899	412.25
378.125	433.25
378.35	420.25
378.576	410.25
378.802	418.25
379.027	420.25
379.253	428.25
379.478	409.25
379.704	414.25
379.929	430.25
380.155	400.25
380.38	431.25
380.606	431.25
380.831	407.25
381.057	442.25
381.282	430.25
381.507	429.25
381.733	441.25
381.958	397.25
382.184	448.25
382.409	440.25
382.634	437.25
382.86	441.25
383.085	456.25
383.31	436.25
383.535	451.25
383.761	446.25
383.986	453.25
384.211	460.25
384.436	464.25
384.662	454.25
384.887	456.25
385.112	471.25
385.337	492.25
385.562	467.25
385.787	466.25
386.013	509.25
386.238	488.25
386.463	466.25
386.688	477.25
386.913	488.25
387.138	470.25
387.363	467.25
387.588	469.25
387.813	463.25
388.038	476.25
388.263	472.25
388.488	486.25
388.713	500.25
388.938	484.25
389.163	470.25
389.387	474.25
389.612	457.25
389.837	486.25
390.062	467.25
390.287	478.25
390.512	458.25
390.736	476.25
390.961	498.25
391.186	462.25
391.411	458.25
391.636	519.25
391.86	502.25
392.085	510.25
392.31	491.25
392.534	498.25
392.759	498.25
392.984	513.25
393.208	490.25
393.433	486.25
393.658	488.25
393.882	466.25
394.107	476.25
394.331	471.25
394.556	494.25
394.78	496.25
395.005	490.25
395.229	518.25
395.454	503.25
395.678	484.25
395.903	522.25
396.127	517.25
396.352	546.25
396.576	519.25
396.801	467.25
397.025	495.25
397.249	493.25
397.474	510.25
397.698	516.25
397.922	541.25
398.147	538.25
398.371	573.25
398.595	536.25
398.82	567.25
399.044	578.25
399.268	594.25
399.492	632.25
399.717	702.25
399.941	736.25
400.165	728.25
400.389	706.25
400.613	638.25
400.837	602.25
401.062	555.25
401.286	556.25
401.51	576.25
401.734	547.25
401.958	566.25
402.182	554.25
402.406	587.25
402.63	593.25
402.854	572.25
403.078	563.25
403.302	590.25
403.526	589.25
403.75	616.25
403.974	598.25
404.198	601.25
404.422	611.25
404.645	614.25
404.869	618.25
405.093	599.25
405.317	637.25
405.541	676.25
405.765	641.25
405.988	598.25
406.212	644.25
406.436	628.25
406.66	644.25
406.883	627.25
407.107	636.25
407.331	722.25
407.555	762.25
407.778	757.25
408.002	700.25
408.226	648.25
408.449	662.25
408.673	662.25
408.896	638.25
409.12	688.25
409.344	656.25
409.567	588.25
409.791	597.25
410.014	588.25
410.238	567.25
410.461	586.25
410.685	592.25
410.908	617.25
411.132	618.25
411.355	647.25
411.578	616.25
411.802	568.25
412.025	568.25
412.249	589.25
412.472	605.25
412.695	616.25
412.919	606.25
413.142	589.25
413.365	584.25
413.589	585.25
413.812	575.25
414.035	553.25
414.258	543.25
414.482	552.25
414.705	540.25
414.928	547.25
415.151	559.25
415.374	552.25
415.597	580.25
415.821	546.25
416.044	558.25
416.267	544.25
416.49	540.25
416.713	548.25
416.936	526.25
417.159	548.25
417.382	538.25
417.605	541.25
417.828	550.25
418.051	562.25
418.274	563.25
418.497	550.25
418.72	548.25
418.943	546.25
419.166	590.25
419.389	608.25
419.611	597.25
419.834	590.25
420.057	583.25
420.28	578.25
420.503	580.25
420.726	583.25
420.948	582.25
421.171	608.25
421.394	646.25
421.617	581.25
421.839	574.25
422.062	583.25
422.285	566.25
422.507	621.25
422.73	691.25
422.953	668.25
423.175	615.25
423.398	603.25
423.621	595.25
423.843	617.25
424.066	628.25
424.288	595.25
424.511	616.25
424.733	635.25
424.956	713.25
425.178	709.25
425.401	695.25
425.623	703.25
425.846	629.25
426.068	598.25
426.291	590.25
426.513	591.25
426.735	581.25
426.958	607.25
427.18	660.25
427.402	777.25
427.625	836.25
427.847	729.25
428.069	676.25
428.292	607.25
428.514	551.25
428.736	531.25
428.958	532.25
429.181	543.25
429.403	539.25
429.625	538.25
429.847	568.25
430.069	621.25
430.292	630.25
430.514	552.25
430.736	550.25
430.958	546.25
431.18	530.25
431.402	537.25
431.624	502.25
431.846	485.25
432.068	514.25
432.29	502.25
432.512	515.25
432.734	542.25
432.956	514.25
433.178	534.25
433.4	554.25
433.622	530.25
433.844	519.25
434.066	526.25
434.287	503.25
434.509	522.25
434.731	540.25
434.953	566.25
435.175	552.25
435.397	580.25
435.618	585.25
435.84	615.25
436.062	666.25
436.284	738.25
436.505	620.25
436.727	570.25
436.949	564.25
437.17	540.25
437.392	520.25
437.614	518.25
437.835	577.25
438.057	656.25
438.278	722.25
438.5	724.25
438.721	793.25
438.943	796.25
439.165	631.25
439.386	586.25
439.608	582.25
439.829	575.25
440.05	583.25
440.272	624.25
440.493	587.25
440.715	592.25
440.936	583.25
441.158	559.25
441.379	558.25
441.6	575.25
441.822	580.25
442.043	623.25
442.264	669.25
442.486	703.25
442.707	635.25
442.928	606.25
443.149	614.25
443.371	635.25
443.592	647.25
443.813	723.25
444.034	770.25
444.255	694.25
444.476	633.25
444.698	614.25
444.919	610.25
445.14	684.25
445.361	674.25
445.582	627.25
445.803	675.25
446.024	750.25
446.245	731.25
446.466	691.25
446.687	638.25
446.908	589.25
447.129	552.25
447.35	522.25
447.571	532.25
447.792	523.25
448.013	516.25
448.234	540.25
448.455	574.25
448.675	680.25
448.896	771.25
449.117	660.25
449.338	623.25
449.559	717.25
449.779	778.25
450	658.25
450.221	572.25
450.442	532.25
450.662	514.25
450.883	516.25
451.104	550.25
451.324	503.25
451.545	501.25
451.766	492.25
451.986	482.25
452.207	489.25
452.428	465.25
452.648	489.25
452.869	471.25
453.089	476.25
453.31	466.25
453.53	454.25
453.751	477.25
453.971	472.25
454.192	518.25
454.412	470.25
454.633	490.25
454.853	477.25
455.073	475.25
455.294	503.25
455.514	546.25
455.734	544.25
455.955	499.25
456.175	447.25
456.395	436.25
456.616	459.25
456.836	452.25
457.056	450.25
457.276	442.25
457.497	469.25
457.717	481.25
457.937	459.25
458.157	466.25
458.377	482.25
458.598	502.25
458.818	518.25
459.038	591.25
459.258	623.25
459.478	546.25
459.698	538.25
459.918	519.25
460.138	524.25
460.358	549.25
460.578	548.25
460.798	544.25
461.018	548.25
461.238	536.25
461.458	571.25
461.678	540.25
461.898	553.25
462.118	550.25
462.338	578.25
462.558	590.25
462.777	620.25
462.997	603.25
463.217	647.25
463.437	630.25
463.657	624.25
463.876	605.25
464.096	609.25
464.316	612.25
464.536	600.25
464.755	578.25
464.975	591.25
465.195	596.25
465.414	630.25
465.634	589.25
465.854	516.25
466.073	491.25
466.293	533.25
466.512	472.25
466.732	496.25
466.951	500.25
467.171	486.25
467.391	512.25
467.61	521.25
467.829	478.25
468.049	495.25
468.268	482.25
468.488	503.25
468.707	486.25
468.927	489.25
469.146	478.25
469.365	492.25
469.585	482.25
469.804	490.25
470.023	507.25
470.243	516.25
470.462	510.25
470.681	528.25
470.901	520.25
471.12	493.25
471.339	495.25
471.558	500.25
471.777	500.25
471.997	485.25
472.216	499.25
472.435	514.25
472.654	487.25
472.873	493.25
473.092	491.25
473.311	479.25
473.53	505.25
473.749	499.25
473.968	515.25
474.187	591.25
474.406	630.25
474.625	546.25
474.844	479.25
475.063	502.25
475.282	490.25
475.501	487.25
475.72	487.25
475.939	494.25
476.158	507.25
476.377	510.25
476.596	506.25
476.814	519.25
477.033	527.25
477.252	532.25
477.471	534.25
477.69	534.25
477.908	538.25
478.127	565.25
478.346	568.25
478.564	551.25
478.783	580.25
479.002	568.25
479.22	598.25
479.439	597.25
479.658	588.25
479.876	593.25
480.095	603.25
480.313	651.25
480.532	631.25
480.751	598.25
480.969	634.25
481.188	673.25
481.406	656.25
481.624	615.25
481.843	588.25
482.061	588.25
482.28	577.25
482.498	579.25
482.717	577.25
482.935	564.25
483.153	576.25
483.372	559.25
483.59	562.25
483.808	550.25
484.027	574.25
484.245	555.25
484.463	582.25
484.681	588.25
484.9	589.25
485.118	575.25
485.336	588.25
485.554	570.25
485.772	583.25
485.99	587.25
486.209	568.25
486.427	594.25
486.645	607.25
486.863	636.25
487.081	614.25
487.299	604.25
487.517	599.25
487.735	606.25
487.953	611.25
488.171	618.25
488.389	630.25
488.607	598.25
488.825	602.25
489.043	608.25
489.261	626.25
489.479	649.25
489.696	618.25
489.914	622.25
490.132	641.25
490.35	648.25
490.568	622.25
490.786	636.25
491.003	636.25
491.221	655.25
491.439	660.25
491.657	675.25
491.874	683.25
492.092	702.25
492.31	699.25
492.527	697.25
492.745	690.25
492.963	704.25
493.18	701.25
493.398	697.25
493.615	708.25
493.833	726.25
494.05	720.25
494.268	723.25
494.485	713.25
494.703	746.25
494.92	727.25
495.138	730.25
495.355	709.25
495.573	729.25
495.79	708.25
496.008	730.25
496.225	724.25
496.442	722.25
496.66	716.25
496.877	745.25
497.094	722.25
497.312	734.25
497.529	754.25
497.746	762.25
497.963	793.25
498.181	803.25
498.398	813.25
498.615	822.25
498.832	872.25
499.049	866.25
499.267	915.25
499.484	972.25
499.701	1014.25
499.918	1066.25
500.135	1158.25
500.352	1205.25
500.569	1278.25
500.786	1263.25
501.003	1255.25
501.22	1158.25
501.437	1104.25
501.654	1036.25
