Data from 1973.PennyLincolnUp.Lamp.En5.5.200Scan.071719.P1.Changed Mount._HRD10591_15-43-45-852.txt Node
Date: Thu Jul 18 15:43:45 EDT 2019
User: cochatt
Spectrometer: HR+D1059
Trigger mode: 1
Integration Time (sec): 1.000000E-1
Scans to average: 1
Electric dark correction enabled: true
Nonlinearity correction enabled: false
Boxcar width: 0
XAxis mode: Wavelengths
Number of Pixels in Spectrum: 2048
>>>>>Begin Spectral Data<<<<<
223.165	-13.12
223.4	-13.12
223.635	-13.12
223.869	-25.12
224.104	-16.12
224.338	-20.12
224.573	-12.12
224.808	-6.12
225.042	-7.12
225.277	-0.12
225.511	7.88
225.746	3.88
225.98	1.88
226.215	0.88
226.449	1.88
226.683	20.88
226.918	35.88
227.152	26.88
227.387	20.88
227.621	44.88
227.856	36.88
228.09	46.88
228.324	53.88
228.559	64.88
228.793	67.88
229.027	93.88
229.262	98.88
229.496	105.88
229.73	116.88
229.964	114.88
230.199	123.88
230.433	108.88
230.667	115.88
230.901	115.88
231.136	115.88
231.37	100.88
231.604	109.88
231.838	109.88
232.072	120.88
232.306	122.88
232.541	114.88
232.775	129.88
233.009	110.88
233.243	115.88
233.477	120.88
233.711	118.88
233.945	110.88
234.179	111.88
234.413	108.88
234.647	121.88
234.881	112.88
235.115	106.88
235.349	113.88
235.583	127.88
235.817	114.88
236.051	126.88
236.285	130.88
236.519	120.88
236.753	123.88
236.987	129.88
237.221	149.88
237.455	190.88
237.689	163.88
237.922	132.88
238.156	136.88
238.39	109.88
238.624	129.88
238.858	120.88
239.091	132.88
239.325	123.88
239.559	125.88
239.793	112.88
240.027	125.88
240.26	133.88
240.494	140.88
240.728	140.88
240.961	148.88
241.195	135.88
241.429	129.88
241.662	150.88
241.896	132.88
242.13	137.88
242.363	136.88
242.597	140.88
242.83	134.88
243.064	137.88
243.298	135.88
243.531	129.88
243.765	119.88
243.998	132.88
244.232	132.88
244.465	139.88
244.699	131.88
244.932	144.88
245.166	137.88
245.399	140.88
245.633	140.88
245.866	132.88
246.099	140.88
246.333	151.88
246.566	146.88
246.8	118.88
247.033	139.88
247.266	146.88
247.5	169.88
247.733	168.88
247.966	166.88
248.2	160.88
248.433	160.88
248.666	150.88
248.899	156.88
249.133	187.88
249.366	176.88
249.599	173.88
249.832	176.88
250.066	176.88
250.299	183.88
250.532	191.88
250.765	201.88
250.998	199.88
251.231	204.88
251.465	200.88
251.698	180.88
251.931	189.88
252.164	190.88
252.397	177.88
252.63	193.88
252.863	203.88
253.096	209.88
253.329	207.88
253.562	202.88
253.795	205.88
254.028	188.88
254.261	219.88
254.494	201.88
254.727	210.88
254.96	247.88
255.193	217.88
255.426	214.88
255.659	207.88
255.892	209.88
256.124	211.88
256.357	210.88
256.59	196.88
256.823	199.88
257.056	214.88
257.289	204.88
257.521	204.88
257.754	219.88
257.987	200.88
258.22	197.88
258.452	194.88
258.685	206.88
258.918	206.88
259.151	205.88
259.383	207.88
259.616	207.88
259.849	221.88
260.081	220.88
260.314	234.88
260.547	232.88
260.779	231.88
261.012	220.88
261.244	201.88
261.477	216.88
261.71	192.88
261.942	198.88
262.175	206.88
262.407	223.88
262.64	206.88
262.872	201.88
263.105	202.88
263.337	218.88
263.57	219.88
263.802	209.88
264.035	224.88
264.267	216.88
264.499	237.88
264.732	229.88
264.964	209.88
265.197	216.88
265.429	228.88
265.661	209.88
265.894	199.88
266.126	220.88
266.358	241.88
266.591	207.88
266.823	225.88
267.055	231.88
267.287	229.88
267.52	218.88
267.752	217.88
267.984	224.88
268.216	234.88
268.448	240.88
268.681	215.88
268.913	241.88
269.145	255.88
269.377	263.88
269.609	251.88
269.841	250.88
270.073	266.88
270.306	279.88
270.538	285.88
270.77	278.88
271.002	279.88
271.234	267.88
271.466	279.88
271.698	285.88
271.93	291.88
272.162	285.88
272.394	289.88
272.626	294.88
272.858	248.88
273.09	266.88
273.322	271.88
273.553	261.88
273.785	274.88
274.017	253.88
274.249	264.88
274.481	257.88
274.713	249.88
274.945	254.88
275.176	267.88
275.408	259.88
275.64	254.88
275.872	263.88
276.104	261.88
276.335	267.88
276.567	268.88
276.799	278.88
277.031	284.88
277.262	302.88
277.494	303.88
277.726	277.88
277.957	286.88
278.189	261.88
278.421	267.88
278.652	272.88
278.884	282.88
279.115	279.88
279.347	277.88
279.579	272.88
279.81	251.88
280.042	289.88
280.273	286.88
280.505	269.88
280.736	258.88
280.968	277.88
281.199	286.88
281.431	261.88
281.662	258.88
281.894	260.88
282.125	280.88
282.356	292.88
282.588	300.88
282.819	263.88
283.051	263.88
283.282	268.88
283.513	273.88
283.745	265.88
283.976	291.88
284.207	299.88
284.439	281.88
284.67	287.88
284.901	294.88
285.132	284.88
285.364	277.88
285.595	279.88
285.826	296.88
286.057	294.88
286.288	288.88
286.52	289.88
286.751	278.88
286.982	293.88
287.213	277.88
287.444	293.88
287.675	296.88
287.906	307.88
288.138	313.88
288.369	307.88
288.6	303.88
288.831	314.88
289.062	291.88
289.293	285.88
289.524	295.88
289.755	303.88
289.986	295.88
290.217	289.88
290.448	286.88
290.679	297.88
290.91	292.88
291.141	294.88
291.371	310.88
291.602	314.88
291.833	294.88
292.064	307.88
292.295	300.88
292.526	309.88
292.757	299.88
292.987	297.88
293.218	294.88
293.449	306.88
293.68	311.88
293.91	299.88
294.141	301.88
294.372	306.88
294.603	309.88
294.833	307.88
295.064	318.88
295.295	298.88
295.525	310.88
295.756	303.88
295.987	325.88
296.217	321.88
296.448	306.88
296.679	326.88
296.909	323.88
297.14	313.88
297.37	308.88
297.601	307.88
297.831	297.88
298.062	309.88
298.292	326.88
298.523	300.88
298.753	323.88
298.984	332.88
299.214	332.88
299.445	310.88
299.675	327.88
299.905	319.88
300.136	340.88
300.366	331.88
300.597	333.88
300.827	317.88
301.057	328.88
301.288	326.88
301.518	335.88
301.748	321.88
301.979	334.88
302.209	338.88
302.439	314.88
302.669	340.88
302.9	341.88
303.13	340.88
303.36	332.88
303.59	314.88
303.82	341.88
304.051	338.88
304.281	323.88
304.511	323.88
304.741	331.88
304.971	322.88
305.201	347.88
305.431	338.88
305.661	343.88
305.891	321.88
306.121	317.88
306.352	349.88
306.582	346.88
306.812	330.88
307.042	346.88
307.272	338.88
307.502	315.88
307.731	341.88
307.961	324.88
308.191	332.88
308.421	355.88
308.651	345.88
308.881	342.88
309.111	317.88
309.341	328.88
309.571	355.88
309.8	354.88
310.03	362.88
310.26	348.88
310.49	344.88
310.72	350.88
310.949	372.88
311.179	379.88
311.409	353.88
311.639	337.88
311.868	364.88
312.098	373.88
312.328	365.88
312.557	376.88
312.787	374.88
313.017	376.88
313.246	377.88
313.476	358.88
313.706	362.88
313.935	370.88
314.165	387.88
314.394	385.88
314.624	375.88
314.853	379.88
315.083	355.88
315.312	375.88
315.542	355.88
315.771	343.88
316.001	370.88
316.23	378.88
316.46	371.88
316.689	366.88
316.919	383.88
317.148	369.88
317.377	373.88
317.607	379.88
317.836	378.88
318.065	374.88
318.295	371.88
318.524	354.88
318.753	368.88
318.983	369.88
319.212	387.88
319.441	378.88
319.67	394.88
319.9	366.88
320.129	363.88
320.358	348.88
320.587	371.88
320.816	370.88
321.046	377.88
321.275	375.88
321.504	385.88
321.733	374.88
321.962	381.88
322.191	398.88
322.42	371.88
322.649	417.88
322.878	415.88
323.108	399.88
323.337	414.88
323.566	411.88
323.795	431.88
324.024	442.88
324.253	501.88
324.482	636.88
324.71	901.88
324.939	1235.88
325.168	1093.88
325.397	606.88
325.626	469.88
325.855	415.88
326.084	429.88
326.313	422.88
326.542	433.88
326.77	445.88
326.999	489.88
327.228	612.88
327.457	821.88
327.686	975.88
327.914	679.88
328.143	528.88
328.372	475.88
328.6	471.88
328.829	467.88
329.058	468.88
329.287	462.88
329.515	470.88
329.744	445.88
329.972	425.88
330.201	443.88
330.43	487.88
330.658	460.88
330.887	489.88
331.115	494.88
331.344	456.88
331.572	445.88
331.801	460.88
332.03	428.88
332.258	419.88
332.486	446.88
332.715	424.88
332.943	463.88
333.172	449.88
333.4	464.88
333.629	485.88
333.857	467.88
334.085	471.88
334.314	489.88
334.542	503.88
334.771	498.88
334.999	481.88
335.227	457.88
335.455	458.88
335.684	462.88
335.912	463.88
336.14	464.88
336.369	441.88
336.597	460.88
336.825	458.88
337.053	431.88
337.281	438.88
337.51	424.88
337.738	426.88
337.966	451.88
338.194	439.88
338.422	424.88
338.65	397.88
338.878	426.88
339.106	428.88
339.334	423.88
339.562	421.88
339.79	412.88
340.018	412.88
340.246	439.88
340.474	407.88
340.702	416.88
340.93	410.88
341.158	406.88
341.386	402.88
341.614	410.88
341.842	411.88
342.07	409.88
342.298	422.88
342.526	403.88
342.754	410.88
342.981	389.88
343.209	406.88
343.437	427.88
343.665	389.88
343.893	442.88
344.12	439.88
344.348	428.88
344.576	419.88
344.804	447.88
345.031	427.88
345.259	412.88
345.487	431.88
345.714	422.88
345.942	424.88
346.17	398.88
346.397	409.88
346.625	397.88
346.853	400.88
347.08	393.88
347.308	390.88
347.535	410.88
347.763	397.88
347.99	410.88
348.218	420.88
348.445	420.88
348.673	380.88
348.9	422.88
349.128	398.88
349.355	397.88
349.583	395.88
349.81	378.88
350.037	387.88
350.265	389.88
350.492	380.88
350.72	389.88
350.947	399.88
351.174	391.88
351.402	408.88
351.629	394.88
351.856	382.88
352.083	380.88
352.311	378.88
352.538	392.88
352.765	408.88
352.992	398.88
353.22	388.88
353.447	396.88
353.674	390.88
353.901	392.88
354.128	377.88
354.355	369.88
354.583	378.88
354.81	363.88
355.037	369.88
355.264	370.88
355.491	374.88
355.718	370.88
355.945	384.88
356.172	353.88
356.399	371.88
356.626	365.88
356.853	377.88
357.08	375.88
357.307	380.88
357.534	374.88
357.761	372.88
357.988	366.88
358.215	381.88
358.441	369.88
358.668	391.88
358.895	378.88
359.122	396.88
359.349	385.88
359.576	403.88
359.802	397.88
360.029	423.88
360.256	433.88
360.483	427.88
360.709	399.88
360.936	403.88
361.163	393.88
361.39	394.88
361.616	403.88
361.843	379.88
362.07	387.88
362.296	391.88
362.523	385.88
362.749	386.88
362.976	399.88
363.203	401.88
363.429	379.88
363.656	371.88
363.882	387.88
364.109	391.88
364.335	405.88
364.562	377.88
364.788	375.88
365.015	403.88
365.241	377.88
365.468	370.88
365.694	393.88
365.92	379.88
366.147	389.88
366.373	372.88
366.599	385.88
366.826	373.88
367.052	391.88
367.278	388.88
367.505	374.88
367.731	389.88
367.957	361.88
368.184	381.88
368.41	393.88
368.636	386.88
368.862	390.88
369.089	398.88
369.315	374.88
369.541	382.88
369.767	429.88
369.993	379.88
370.219	388.88
370.445	382.88
370.672	383.88
370.898	400.88
371.124	379.88
371.35	388.88
371.576	412.88
371.802	393.88
372.028	409.88
372.254	400.88
372.48	400.88
372.706	391.88
372.932	407.88
373.158	416.88
373.384	402.88
373.61	389.88
373.835	409.88
374.061	379.88
374.287	403.88
374.513	397.88
374.739	395.88
374.965	418.88
375.191	428.88
375.416	417.88
375.642	426.88
375.868	438.88
376.094	401.88
376.319	380.88
376.545	403.88
376.771	397.88
376.997	407.88
377.222	405.88
377.448	410.88
377.674	409.88
377.899	386.88
378.125	426.88
378.35	389.88
378.576	388.88
378.802	366.88
379.027	382.88
379.253	403.88
379.478	389.88
379.704	381.88
379.929	399.88
380.155	403.88
380.38	416.88
380.606	383.88
380.831	393.88
381.057	408.88
381.282	395.88
381.507	412.88
381.733	394.88
381.958	416.88
382.184	402.88
382.409	398.88
382.634	401.88
382.86	397.88
383.085	410.88
383.31	408.88
383.535	414.88
383.761	421.88
383.986	422.88
384.211	416.88
384.436	434.88
384.662	445.88
384.887	441.88
385.112	454.88
385.337	463.88
385.562	452.88
385.787	438.88
386.013	463.88
386.238	454.88
386.463	431.88
386.688	452.88
386.913	454.88
387.138	434.88
387.363	454.88
387.588	440.88
387.813	451.88
388.038	437.88
388.263	443.88
388.488	449.88
388.713	451.88
388.938	454.88
389.163	447.88
389.387	433.88
389.612	447.88
389.837	433.88
390.062	445.88
390.287	434.88
390.512	428.88
390.736	440.88
390.961	455.88
391.186	434.88
391.411	438.88
391.636	484.88
391.86	450.88
392.085	446.88
392.31	478.88
392.534	461.88
392.759	474.88
392.984	444.88
393.208	463.88
393.433	466.88
393.658	452.88
393.882	455.88
394.107	431.88
394.331	443.88
394.556	447.88
394.78	456.88
395.005	462.88
395.229	452.88
395.454	471.88
395.678	469.88
395.903	482.88
396.127	503.88
396.352	490.88
396.576	458.88
396.801	445.88
397.025	460.88
397.249	480.88
397.474	453.88
397.698	493.88
397.922	477.88
398.147	501.88
398.371	500.88
398.595	509.88
398.82	530.88
399.044	517.88
399.268	592.88
399.492	621.88
399.717	661.88
399.941	680.88
400.165	662.88
400.389	686.88
400.613	609.88
400.837	539.88
401.062	538.88
401.286	519.88
401.51	515.88
401.734	519.88
401.958	508.88
402.182	529.88
402.406	524.88
402.63	530.88
402.854	536.88
403.078	541.88
403.302	566.88
403.526	551.88
403.75	562.88
403.974	558.88
404.198	573.88
404.422	566.88
404.645	549.88
404.869	545.88
405.093	579.88
405.317	618.88
405.541	630.88
405.765	579.88
405.988	582.88
406.212	573.88
406.436	573.88
406.66	575.88
406.883	585.88
407.107	595.88
407.331	636.88
407.555	725.88
407.778	712.88
408.002	639.88
408.226	617.88
408.449	598.88
408.673	595.88
408.896	614.88
409.12	619.88
409.344	606.88
409.567	565.88
409.791	569.88
410.014	556.88
410.238	541.88
410.461	546.88
410.685	568.88
410.908	561.88
411.132	590.88
411.355	610.88
411.578	570.88
411.802	550.88
412.025	533.88
412.249	552.88
412.472	561.88
412.695	575.88
412.919	554.88
413.142	553.88
413.365	536.88
413.589	546.88
413.812	509.88
414.035	536.88
414.258	527.88
414.482	514.88
414.705	525.88
414.928	525.88
415.151	503.88
415.374	509.88
415.597	524.88
415.821	515.88
416.044	515.88
416.267	507.88
416.49	518.88
416.713	481.88
416.936	505.88
417.159	529.88
417.382	501.88
417.605	514.88
417.828	535.88
418.051	533.88
418.274	511.88
418.497	536.88
418.72	517.88
418.943	485.88
419.166	536.88
419.389	571.88
419.611	571.88
419.834	536.88
420.057	559.88
420.28	547.88
420.503	541.88
420.726	528.88
420.948	533.88
421.171	558.88
421.394	564.88
421.617	524.88
421.839	511.88
422.062	511.88
422.285	522.88
422.507	572.88
422.73	595.88
422.953	609.88
423.175	553.88
423.398	561.88
423.621	547.88
423.843	570.88
424.066	565.88
424.288	541.88
424.511	582.88
424.733	589.88
424.956	644.88
425.178	647.88
425.401	643.88
425.623	659.88
425.846	577.88
426.068	555.88
426.291	527.88
426.513	535.88
426.735	545.88
426.958	574.88
427.18	610.88
427.402	730.88
427.625	818.88
427.847	673.88
428.069	597.88
428.292	559.88
428.514	502.88
428.736	508.88
428.958	502.88
429.181	493.88
429.403	479.88
429.625	492.88
429.847	510.88
430.069	582.88
430.292	563.88
430.514	518.88
430.736	484.88
430.958	479.88
431.18	494.88
431.402	473.88
431.624	461.88
431.846	482.88
432.068	470.88
432.29	478.88
432.512	481.88
432.734	482.88
432.956	471.88
433.178	494.88
433.4	500.88
433.622	488.88
433.844	505.88
434.066	486.88
434.287	487.88
434.509	489.88
434.731	495.88
434.953	534.88
435.175	533.88
435.397	546.88
435.618	528.88
435.84	548.88
436.062	633.88
436.284	663.88
436.505	569.88
436.727	531.88
436.949	495.88
437.17	504.88
437.392	484.88
437.614	491.88
437.835	508.88
438.057	585.88
438.278	672.88
438.5	652.88
438.721	723.88
438.943	702.88
439.165	563.88
439.386	542.88
439.608	525.88
439.829	528.88
440.05	529.88
440.272	565.88
440.493	550.88
440.715	501.88
440.936	509.88
441.158	513.88
441.379	521.88
441.6	548.88
441.822	519.88
442.043	565.88
442.264	613.88
442.486	661.88
442.707	595.88
442.928	542.88
443.149	554.88
443.371	561.88
443.592	598.88
443.813	669.88
444.034	707.88
444.255	615.88
444.476	593.88
444.698	588.88
444.919	582.88
445.14	654.88
445.361	606.88
445.582	582.88
445.803	575.88
446.024	666.88
446.245	687.88
446.466	622.88
446.687	550.88
446.908	508.88
447.129	505.88
447.35	486.88
447.571	476.88
447.792	494.88
448.013	490.88
448.234	495.88
448.455	517.88
448.675	617.88
448.896	714.88
449.117	594.88
449.338	569.88
449.559	631.88
449.779	733.88
450	618.88
450.221	505.88
450.442	494.88
450.662	443.88
450.883	463.88
451.104	479.88
451.324	454.88
451.545	466.88
451.766	454.88
451.986	433.88
452.207	450.88
452.428	426.88
452.648	424.88
452.869	423.88
453.089	412.88
453.31	449.88
453.53	442.88
453.751	426.88
453.971	440.88
454.192	450.88
454.412	427.88
454.633	425.88
454.853	437.88
455.073	425.88
455.294	451.88
455.514	478.88
455.734	492.88
455.955	445.88
456.175	406.88
456.395	414.88
456.616	419.88
456.836	421.88
457.056	414.88
457.276	416.88
457.497	422.88
457.717	418.88
457.937	424.88
458.157	435.88
458.377	427.88
458.598	447.88
458.818	493.88
459.038	539.88
459.258	541.88
459.478	515.88
459.698	493.88
459.918	468.88
460.138	485.88
460.358	515.88
460.578	528.88
460.798	516.88
461.018	517.88
461.238	513.88
461.458	511.88
461.678	519.88
461.898	524.88
462.118	528.88
462.338	530.88
462.558	538.88
462.777	534.88
462.997	587.88
463.217	621.88
463.437	595.88
463.657	581.88
463.876	558.88
464.096	562.88
464.316	558.88
464.536	567.88
464.755	557.88
464.975	530.88
465.195	540.88
465.414	557.88
465.634	535.88
465.854	505.88
466.073	476.88
466.293	475.88
466.512	471.88
466.732	484.88
466.951	467.88
467.171	446.88
467.391	447.88
467.61	460.88
467.829	464.88
468.049	444.88
468.268	460.88
468.488	455.88
468.707	463.88
468.927	454.88
469.146	471.88
469.365	445.88
469.585	450.88
469.804	476.88
470.023	469.88
470.243	490.88
470.462	465.88
470.681	469.88
470.901	474.88
471.12	474.88
471.339	463.88
471.558	461.88
471.777	455.88
471.997	459.88
472.216	463.88
472.435	477.88
472.654	463.88
472.873	447.88
473.092	450.88
473.311	455.88
473.53	462.88
473.749	470.88
473.968	500.88
474.187	541.88
474.406	558.88
474.625	486.88
474.844	462.88
475.063	461.88
475.282	471.88
475.501	483.88
475.72	484.88
475.939	479.88
476.158	457.88
476.377	453.88
476.596	458.88
476.814	492.88
477.033	469.88
477.252	510.88
477.471	492.88
477.69	489.88
477.908	505.88
478.127	510.88
478.346	499.88
478.564	526.88
478.783	510.88
479.002	522.88
479.22	533.88
479.439	551.88
479.658	546.88
479.876	541.88
480.095	573.88
480.313	570.88
480.532	567.88
480.751	564.88
480.969	561.88
481.188	579.88
481.406	595.88
481.624	579.88
481.843	557.88
482.061	535.88
482.28	553.88
482.498	555.88
482.717	527.88
482.935	514.88
483.153	526.88
483.372	532.88
483.59	535.88
483.808	529.88
484.027	521.88
484.245	516.88
484.463	526.88
484.681	548.88
484.9	541.88
485.118	554.88
485.336	539.88
485.554	548.88
485.772	556.88
485.99	547.88
486.209	574.88
486.427	587.88
486.645	581.88
486.863	571.88
487.081	575.88
487.299	562.88
487.517	562.88
487.735	555.88
487.953	585.88
488.171	568.88
488.389	553.88
488.607	564.88
488.825	561.88
489.043	559.88
489.261	565.88
489.479	565.88
489.696	582.88
489.914	573.88
490.132	581.88
490.35	589.88
490.568	576.88
490.786	616.88
491.003	582.88
491.221	613.88
491.439	617.88
491.657	613.88
491.874	637.88
492.092	645.88
492.31	645.88
492.527	641.88
492.745	643.88
492.963	650.88
493.18	633.88
493.398	645.88
493.615	678.88
493.833	637.88
494.05	656.88
494.268	678.88
494.485	659.88
494.703	645.88
494.92	647.88
495.138	627.88
495.355	651.88
495.573	660.88
495.79	671.88
496.008	666.88
496.225	636.88
496.442	678.88
496.66	680.88
496.877	647.88
497.094	662.88
497.312	651.88
497.529	711.88
497.746	686.88
497.963	718.88
498.181	742.88
498.398	740.88
498.615	770.88
498.832	793.88
499.049	812.88
499.267	858.88
499.484	893.88
499.701	959.88
499.918	1012.88
500.135	1086.88
500.352	1125.88
500.569	1187.88
500.786	1169.88
501.003	1139.88
501.22	1091.88
501.437	1028.88
501.654	955.88
