Data from 1973.PennyLincolnUp.Lamp.En5.5.200Scan.071719.P1.Changed Mount._HRD10591_15-45-43-853.txt Node
Date: Thu Jul 18 15:45:43 EDT 2019
User: cochatt
Spectrometer: HR+D1059
Trigger mode: 1
Integration Time (sec): 1.000000E-1
Scans to average: 1
Electric dark correction enabled: true
Nonlinearity correction enabled: false
Boxcar width: 0
XAxis mode: Wavelengths
Number of Pixels in Spectrum: 2048
>>>>>Begin Spectral Data<<<<<
223.165	-17.31
223.4	-17.31
223.635	-17.31
223.869	-10.31
224.104	-8.31
224.338	-12.31
224.573	-11.31
224.808	-12.31
225.042	-11.31
225.277	-7.31
225.511	-5.31
225.746	1.69
225.98	3.69
226.215	9.69
226.449	4.69
226.683	25.69
226.918	21.69
227.152	28.69
227.387	27.69
227.621	38.69
227.856	48.69
228.09	45.69
228.324	60.69
228.559	58.69
228.793	65.69
229.027	98.69
229.262	103.69
229.496	118.69
229.73	129.69
229.964	153.69
230.199	129.69
230.433	110.69
230.667	121.69
230.901	108.69
231.136	123.69
231.37	105.69
231.604	94.69
231.838	107.69
232.072	122.69
232.306	110.69
232.541	134.69
232.775	117.69
233.009	115.69
233.243	125.69
233.477	114.69
233.711	117.69
233.945	116.69
234.179	114.69
234.413	99.69
234.647	116.69
234.881	119.69
235.115	123.69
235.349	122.69
235.583	121.69
235.817	113.69
236.051	135.69
236.285	127.69
236.519	131.69
236.753	140.69
236.987	149.69
237.221	166.69
237.455	207.69
237.689	178.69
237.922	136.69
238.156	116.69
238.39	126.69
238.624	129.69
238.858	137.69
239.091	128.69
239.325	125.69
239.559	123.69
239.793	137.69
240.027	137.69
240.26	131.69
240.494	159.69
240.728	155.69
240.961	150.69
241.195	135.69
241.429	152.69
241.662	143.69
241.896	133.69
242.13	134.69
242.363	132.69
242.597	153.69
242.83	147.69
243.064	143.69
243.298	144.69
243.531	145.69
243.765	145.69
243.998	157.69
244.232	153.69
244.465	133.69
244.699	168.69
244.932	157.69
245.166	149.69
245.399	145.69
245.633	141.69
245.866	140.69
246.099	162.69
246.333	139.69
246.566	154.69
246.8	149.69
247.033	157.69
247.266	158.69
247.5	159.69
247.733	154.69
247.966	168.69
248.2	167.69
248.433	180.69
248.666	178.69
248.899	186.69
249.133	201.69
249.366	209.69
249.599	213.69
249.832	195.69
250.066	185.69
250.299	187.69
250.532	195.69
250.765	197.69
250.998	225.69
251.231	232.69
251.465	225.69
251.698	205.69
251.931	216.69
252.164	188.69
252.397	193.69
252.63	198.69
252.863	226.69
253.096	196.69
253.329	219.69
253.562	208.69
253.795	220.69
254.028	229.69
254.261	226.69
254.494	234.69
254.727	250.69
254.96	255.69
255.193	267.69
255.426	242.69
255.659	223.69
255.892	225.69
256.124	239.69
256.357	247.69
256.59	236.69
256.823	234.69
257.056	215.69
257.289	203.69
257.521	213.69
257.754	215.69
257.987	222.69
258.22	210.69
258.452	222.69
258.685	200.69
258.918	222.69
259.151	239.69
259.383	245.69
259.616	237.69
259.849	217.69
260.081	241.69
260.314	257.69
260.547	265.69
260.779	247.69
261.012	258.69
261.244	229.69
261.477	228.69
261.71	236.69
261.942	240.69
262.175	230.69
262.407	225.69
262.64	231.69
262.872	234.69
263.105	233.69
263.337	230.69
263.57	224.69
263.802	216.69
264.035	223.69
264.267	238.69
264.499	224.69
264.732	230.69
264.964	220.69
265.197	203.69
265.429	236.69
265.661	241.69
265.894	244.69
266.126	236.69
266.358	213.69
266.591	234.69
266.823	229.69
267.055	243.69
267.287	249.69
267.52	231.69
267.752	239.69
267.984	261.69
268.216	246.69
268.448	249.69
268.681	252.69
268.913	259.69
269.145	266.69
269.377	306.69
269.609	284.69
269.841	289.69
270.073	295.69
270.306	297.69
270.538	293.69
270.77	313.69
271.002	337.69
271.234	293.69
271.466	312.69
271.698	311.69
271.93	317.69
272.162	315.69
272.394	324.69
272.626	295.69
272.858	302.69
273.09	302.69
273.322	280.69
273.553	269.69
273.785	277.69
274.017	291.69
274.249	272.69
274.481	293.69
274.713	283.69
274.945	270.69
275.176	283.69
275.408	299.69
275.64	284.69
275.872	280.69
276.104	285.69
276.335	298.69
276.567	291.69
276.799	338.69
277.031	342.69
277.262	321.69
277.494	329.69
277.726	326.69
277.957	307.69
278.189	292.69
278.421	297.69
278.652	293.69
278.884	306.69
279.115	297.69
279.347	291.69
279.579	285.69
279.81	299.69
280.042	277.69
280.273	290.69
280.505	281.69
280.736	310.69
280.968	312.69
281.199	283.69
281.431	294.69
281.662	303.69
281.894	289.69
282.125	315.69
282.356	309.69
282.588	322.69
282.819	318.69
283.051	305.69
283.282	303.69
283.513	312.69
283.745	301.69
283.976	294.69
284.207	317.69
284.439	311.69
284.67	323.69
284.901	310.69
285.132	305.69
285.364	327.69
285.595	297.69
285.826	322.69
286.057	329.69
286.288	310.69
286.52	317.69
286.751	319.69
286.982	315.69
287.213	298.69
287.444	345.69
287.675	321.69
287.906	327.69
288.138	345.69
288.369	338.69
288.6	335.69
288.831	342.69
289.062	324.69
289.293	333.69
289.524	311.69
289.755	327.69
289.986	338.69
290.217	321.69
290.448	327.69
290.679	319.69
290.91	333.69
291.141	332.69
291.371	317.69
291.602	342.69
291.833	340.69
292.064	340.69
292.295	328.69
292.526	345.69
292.757	320.69
292.987	320.69
293.218	315.69
293.449	346.69
293.68	336.69
293.91	342.69
294.141	326.69
294.372	322.69
294.603	332.69
294.833	343.69
295.064	327.69
295.295	329.69
295.525	334.69
295.756	339.69
295.987	335.69
296.217	363.69
296.448	341.69
296.679	355.69
296.909	346.69
297.14	323.69
297.37	358.69
297.601	360.69
297.831	340.69
298.062	358.69
298.292	325.69
298.523	347.69
298.753	340.69
298.984	369.69
299.214	357.69
299.445	362.69
299.675	336.69
299.905	338.69
300.136	354.69
300.366	335.69
300.597	349.69
300.827	357.69
301.057	364.69
301.288	345.69
301.518	357.69
301.748	354.69
301.979	356.69
302.209	353.69
302.439	381.69
302.669	373.69
302.9	378.69
303.13	354.69
303.36	391.69
303.59	364.69
303.82	400.69
304.051	390.69
304.281	353.69
304.511	373.69
304.741	372.69
304.971	357.69
305.201	379.69
305.431	369.69
305.661	355.69
305.891	359.69
306.121	370.69
306.352	369.69
306.582	358.69
306.812	358.69
307.042	365.69
307.272	374.69
307.502	377.69
307.731	350.69
307.961	355.69
308.191	379.69
308.421	381.69
308.651	376.69
308.881	346.69
309.111	355.69
309.341	366.69
309.571	386.69
309.8	391.69
310.03	393.69
310.26	391.69
310.49	408.69
310.72	428.69
310.949	401.69
311.179	407.69
311.409	400.69
311.639	383.69
311.868	417.69
312.098	411.69
312.328	420.69
312.557	433.69
312.787	435.69
313.017	452.69
313.246	422.69
313.476	393.69
313.706	403.69
313.935	411.69
314.165	387.69
314.394	419.69
314.624	426.69
314.853	407.69
315.083	415.69
315.312	410.69
315.542	396.69
315.771	393.69
316.001	406.69
316.23	409.69
316.46	400.69
316.689	407.69
316.919	405.69
317.148	411.69
317.377	412.69
317.607	427.69
317.836	433.69
318.065	405.69
318.295	398.69
318.524	404.69
318.753	412.69
318.983	401.69
319.212	436.69
319.441	405.69
319.67	429.69
319.9	394.69
320.129	400.69
320.358	417.69
320.587	404.69
320.816	411.69
321.046	399.69
321.275	420.69
321.504	400.69
321.733	441.69
321.962	421.69
322.191	426.69
322.42	424.69
322.649	449.69
322.878	457.69
323.108	459.69
323.337	459.69
323.566	475.69
323.795	487.69
324.024	527.69
324.253	599.69
324.482	783.69
324.71	1100.69
324.939	1581.69
325.168	1411.69
325.397	743.69
325.626	580.69
325.855	520.69
326.084	499.69
326.313	480.69
326.542	475.69
326.77	522.69
326.999	582.69
327.228	747.69
327.457	1037.69
327.686	1223.69
327.914	862.69
328.143	621.69
328.372	579.69
328.6	527.69
328.829	540.69
329.058	521.69
329.287	540.69
329.515	540.69
329.744	482.69
329.972	504.69
330.201	529.69
330.43	536.69
330.658	546.69
330.887	574.69
331.115	537.69
331.344	515.69
331.572	478.69
331.801	523.69
332.03	515.69
332.258	494.69
332.486	494.69
332.715	488.69
332.943	498.69
333.172	488.69
333.4	525.69
333.629	526.69
333.857	542.69
334.085	559.69
334.314	560.69
334.542	589.69
334.771	571.69
334.999	553.69
335.227	499.69
335.455	518.69
335.684	501.69
335.912	502.69
336.14	517.69
336.369	503.69
336.597	487.69
336.825	501.69
337.053	488.69
337.281	479.69
337.51	485.69
337.738	479.69
337.966	486.69
338.194	466.69
338.422	481.69
338.65	486.69
338.878	470.69
339.106	474.69
339.334	472.69
339.562	455.69
339.79	462.69
340.018	480.69
340.246	474.69
340.474	481.69
340.702	465.69
340.93	446.69
341.158	447.69
341.386	456.69
341.614	479.69
341.842	444.69
342.07	449.69
342.298	434.69
342.526	466.69
342.754	456.69
342.981	473.69
343.209	438.69
343.437	458.69
343.665	485.69
343.893	494.69
344.12	504.69
344.348	500.69
344.576	485.69
344.804	462.69
345.031	491.69
345.259	477.69
345.487	462.69
345.714	450.69
345.942	470.69
346.17	450.69
346.397	457.69
346.625	447.69
346.853	445.69
347.08	442.69
347.308	466.69
347.535	446.69
347.763	468.69
347.99	429.69
348.218	426.69
348.445	442.69
348.673	445.69
348.9	453.69
349.128	443.69
349.355	439.69
349.583	427.69
349.81	429.69
350.037	445.69
350.265	438.69
350.492	419.69
350.72	420.69
350.947	438.69
351.174	426.69
351.402	439.69
351.629	444.69
351.856	425.69
352.083	451.69
352.311	427.69
352.538	458.69
352.765	454.69
352.992	453.69
353.22	416.69
353.447	418.69
353.674	451.69
353.901	417.69
354.128	421.69
354.355	418.69
354.583	412.69
354.81	444.69
355.037	421.69
355.264	407.69
355.491	420.69
355.718	418.69
355.945	427.69
356.172	425.69
356.399	410.69
356.626	396.69
356.853	417.69
357.08	423.69
357.307	414.69
357.534	429.69
357.761	409.69
357.988	427.69
358.215	411.69
358.441	403.69
358.668	445.69
358.895	411.69
359.122	428.69
359.349	443.69
359.576	418.69
359.802	444.69
360.029	439.69
360.256	471.69
360.483	464.69
360.709	449.69
360.936	425.69
361.163	427.69
361.39	457.69
361.616	439.69
361.843	441.69
362.07	446.69
362.296	454.69
362.523	435.69
362.749	417.69
362.976	445.69
363.203	406.69
363.429	401.69
363.656	413.69
363.882	441.69
364.109	435.69
364.335	421.69
364.562	402.69
364.788	426.69
365.015	435.69
365.241	419.69
365.468	422.69
365.694	434.69
365.92	441.69
366.147	432.69
366.373	422.69
366.599	401.69
366.826	427.69
367.052	391.69
367.278	428.69
367.505	409.69
367.731	435.69
367.957	428.69
368.184	418.69
368.41	427.69
368.636	432.69
368.862	441.69
369.089	434.69
369.315	418.69
369.541	409.69
369.767	451.69
369.993	433.69
370.219	429.69
370.445	439.69
370.672	430.69
370.898	421.69
371.124	435.69
371.35	436.69
371.576	421.69
371.802	452.69
372.028	420.69
372.254	436.69
372.48	428.69
372.706	450.69
372.932	447.69
373.158	442.69
373.384	451.69
373.61	430.69
373.835	421.69
374.061	438.69
374.287	453.69
374.513	443.69
374.739	448.69
374.965	443.69
375.191	451.69
375.416	469.69
375.642	444.69
375.868	457.69
376.094	441.69
376.319	428.69
376.545	437.69
376.771	423.69
376.997	447.69
377.222	430.69
377.448	454.69
377.674	437.69
377.899	435.69
378.125	426.69
378.35	418.69
378.576	423.69
378.802	419.69
379.027	444.69
379.253	421.69
379.478	425.69
379.704	428.69
379.929	445.69
380.155	449.69
380.38	440.69
380.606	451.69
380.831	428.69
381.057	441.69
381.282	443.69
381.507	438.69
381.733	419.69
381.958	454.69
382.184	427.69
382.409	446.69
382.634	423.69
382.86	452.69
383.085	442.69
383.31	469.69
383.535	453.69
383.761	451.69
383.986	450.69
384.211	459.69
384.436	466.69
384.662	481.69
384.887	471.69
385.112	476.69
385.337	484.69
385.562	482.69
385.787	490.69
386.013	497.69
386.238	496.69
386.463	508.69
386.688	514.69
386.913	483.69
387.138	503.69
387.363	481.69
387.588	500.69
387.813	486.69
388.038	506.69
388.263	479.69
388.488	498.69
388.713	491.69
388.938	479.69
389.163	467.69
389.387	479.69
389.612	466.69
389.837	467.69
390.062	508.69
390.287	496.69
390.512	479.69
390.736	492.69
390.961	507.69
391.186	501.69
391.411	493.69
391.636	514.69
391.86	515.69
392.085	514.69
392.31	502.69
392.534	499.69
392.759	533.69
392.984	505.69
393.208	502.69
393.433	510.69
393.658	482.69
393.882	479.69
394.107	510.69
394.331	486.69
394.556	500.69
394.78	483.69
395.005	492.69
395.229	519.69
395.454	505.69
395.678	520.69
395.903	514.69
396.127	544.69
396.352	552.69
396.576	515.69
396.801	521.69
397.025	515.69
397.249	525.69
397.474	549.69
397.698	520.69
397.922	528.69
398.147	548.69
398.371	562.69
398.595	565.69
398.82	578.69
399.044	595.69
399.268	611.69
399.492	682.69
399.717	731.69
399.941	750.69
400.165	717.69
400.389	725.69
400.613	664.69
400.837	608.69
401.062	598.69
401.286	597.69
401.51	568.69
401.734	582.69
401.958	577.69
402.182	581.69
402.406	587.69
402.63	603.69
402.854	586.69
403.078	586.69
403.302	628.69
403.526	605.69
403.75	599.69
403.974	603.69
404.198	621.69
404.422	596.69
404.645	606.69
404.869	630.69
405.093	653.69
405.317	677.69
405.541	732.69
405.765	664.69
405.988	625.69
406.212	632.69
406.436	649.69
406.66	681.69
406.883	654.69
407.107	683.69
407.331	710.69
407.555	779.69
407.778	789.69
408.002	711.69
408.226	673.69
408.449	634.69
408.673	663.69
408.896	653.69
409.12	743.69
409.344	659.69
409.567	633.69
409.791	635.69
410.014	614.69
410.238	598.69
410.461	603.69
410.685	603.69
410.908	626.69
411.132	616.69
411.355	679.69
411.578	625.69
411.802	619.69
412.025	608.69
412.249	616.69
412.472	622.69
412.695	637.69
412.919	627.69
413.142	628.69
413.365	591.69
413.589	574.69
413.812	587.69
414.035	565.69
414.258	564.69
414.482	580.69
414.705	551.69
414.928	570.69
415.151	539.69
415.374	553.69
415.597	555.69
415.821	563.69
416.044	567.69
416.267	586.69
416.49	570.69
416.713	538.69
416.936	557.69
417.159	537.69
417.382	547.69
417.605	545.69
417.828	579.69
418.051	573.69
418.274	575.69
418.497	601.69
418.72	567.69
418.943	576.69
419.166	604.69
419.389	625.69
419.611	627.69
419.834	629.69
420.057	596.69
420.28	604.69
420.503	583.69
420.726	594.69
420.948	599.69
421.171	626.69
421.394	640.69
421.617	606.69
421.839	580.69
422.062	575.69
422.285	580.69
422.507	628.69
422.73	729.69
422.953	691.69
423.175	634.69
423.398	617.69
423.621	614.69
423.843	628.69
424.066	635.69
424.288	637.69
424.511	632.69
424.733	693.69
424.956	738.69
425.178	724.69
425.401	716.69
425.623	714.69
425.846	646.69
426.068	609.69
426.291	625.69
426.513	595.69
426.735	573.69
426.958	638.69
427.18	703.69
427.402	811.69
427.625	892.69
427.847	748.69
428.069	676.69
428.292	617.69
428.514	574.69
428.736	550.69
428.958	549.69
429.181	538.69
429.403	528.69
429.625	554.69
429.847	586.69
430.069	602.69
430.292	638.69
430.514	568.69
430.736	527.69
430.958	551.69
431.18	523.69
431.402	533.69
431.624	534.69
431.846	541.69
432.068	527.69
432.29	517.69
432.512	542.69
432.734	536.69
432.956	538.69
433.178	551.69
433.4	542.69
433.622	519.69
433.844	567.69
434.066	545.69
434.287	543.69
434.509	523.69
434.731	542.69
434.953	565.69
435.175	585.69
435.397	604.69
435.618	582.69
435.84	618.69
436.062	702.69
436.284	760.69
436.505	667.69
436.727	587.69
436.949	550.69
437.17	567.69
437.392	558.69
437.614	567.69
437.835	592.69
438.057	643.69
438.278	715.69
438.5	726.69
438.721	809.69
438.943	807.69
439.165	656.69
439.386	596.69
439.608	591.69
439.829	603.69
440.05	614.69
440.272	613.69
440.493	593.69
440.715	582.69
440.936	571.69
441.158	572.69
441.379	565.69
441.6	613.69
441.822	595.69
442.043	626.69
442.264	689.69
442.486	726.69
442.707	621.69
442.928	607.69
443.149	644.69
443.371	635.69
443.592	661.69
443.813	758.69
444.034	813.69
444.255	709.69
444.476	641.69
444.698	617.69
444.919	626.69
445.14	725.69
445.361	698.69
445.582	653.69
445.803	693.69
446.024	751.69
446.245	765.69
446.466	711.69
446.687	633.69
446.908	589.69
447.129	572.69
447.35	566.69
447.571	533.69
447.792	535.69
448.013	543.69
448.234	541.69
448.455	580.69
448.675	680.69
448.896	787.69
449.117	701.69
449.338	653.69
449.559	721.69
449.779	827.69
450	692.69
450.221	579.69
450.442	520.69
450.662	532.69
450.883	537.69
451.104	542.69
451.324	524.69
451.545	505.69
451.766	486.69
451.986	513.69
452.207	483.69
452.428	487.69
452.648	494.69
452.869	477.69
453.089	501.69
453.31	508.69
453.53	501.69
453.751	486.69
453.971	477.69
454.192	486.69
454.412	477.69
454.633	485.69
454.853	472.69
455.073	469.69
455.294	471.69
455.514	548.69
455.734	525.69
455.955	498.69
456.175	462.69
456.395	476.69
456.616	455.69
456.836	460.69
457.056	476.69
457.276	456.69
457.497	446.69
457.717	458.69
457.937	477.69
458.157	478.69
458.377	493.69
458.598	514.69
458.818	533.69
459.038	601.69
459.258	629.69
459.478	566.69
459.698	547.69
459.918	553.69
460.138	550.69
460.358	553.69
460.578	575.69
460.798	589.69
461.018	583.69
461.238	554.69
461.458	551.69
461.678	582.69
461.898	563.69
462.118	576.69
462.338	577.69
462.558	594.69
462.777	594.69
462.997	646.69
463.217	673.69
463.437	695.69
463.657	656.69
463.876	650.69
464.096	632.69
464.316	605.69
464.536	625.69
464.755	645.69
464.975	618.69
465.195	634.69
465.414	637.69
465.634	595.69
465.854	513.69
466.073	531.69
466.293	527.69
466.512	502.69
466.732	508.69
466.951	539.69
467.171	521.69
467.391	528.69
467.61	516.69
467.829	517.69
468.049	489.69
468.268	497.69
468.488	515.69
468.707	488.69
468.927	510.69
469.146	483.69
469.365	511.69
469.585	506.69
469.804	507.69
470.023	519.69
470.243	531.69
470.462	516.69
470.681	563.69
470.901	513.69
471.12	522.69
471.339	521.69
471.558	531.69
471.777	513.69
471.997	488.69
472.216	519.69
472.435	503.69
472.654	516.69
472.873	513.69
473.092	487.69
473.311	503.69
473.53	495.69
473.749	511.69
473.968	556.69
474.187	620.69
474.406	632.69
474.625	559.69
474.844	535.69
475.063	500.69
475.282	509.69
475.501	510.69
475.72	520.69
475.939	507.69
476.158	523.69
476.377	532.69
476.596	537.69
476.814	550.69
477.033	536.69
477.252	557.69
477.471	559.69
477.69	580.69
477.908	551.69
478.127	577.69
478.346	581.69
478.564	580.69
478.783	594.69
479.002	602.69
479.22	637.69
479.439	611.69
479.658	635.69
479.876	613.69
480.095	620.69
480.313	666.69
480.532	669.69
480.751	655.69
480.969	652.69
481.188	673.69
481.406	680.69
481.624	616.69
481.843	606.69
482.061	583.69
482.28	613.69
482.498	586.69
482.717	595.69
482.935	575.69
483.153	586.69
483.372	620.69
483.59	614.69
483.808	588.69
484.027	575.69
484.245	584.69
484.463	583.69
484.681	599.69
484.9	589.69
485.118	611.69
485.336	595.69
485.554	601.69
485.772	637.69
485.99	594.69
486.209	608.69
486.427	601.69
486.645	625.69
486.863	628.69
487.081	625.69
487.299	643.69
487.517	637.69
487.735	624.69
487.953	653.69
488.171	630.69
488.389	605.69
488.607	635.69
488.825	625.69
489.043	633.69
489.261	662.69
489.479	638.69
489.696	642.69
489.914	636.69
490.132	652.69
490.35	633.69
490.568	652.69
490.786	684.69
491.003	681.69
491.221	693.69
491.439	692.69
491.657	680.69
491.874	719.69
492.092	713.69
492.31	722.69
492.527	715.69
492.745	730.69
492.963	719.69
493.18	727.69
493.398	725.69
493.615	745.69
493.833	748.69
494.05	745.69
494.268	731.69
494.485	743.69
494.703	744.69
494.92	765.69
495.138	743.69
495.355	747.69
495.573	766.69
495.79	715.69
496.008	764.69
496.225	735.69
496.442	738.69
496.66	729.69
496.877	736.69
497.094	773.69
497.312	751.69
497.529	773.69
497.746	773.69
497.963	783.69
498.181	824.69
498.398	836.69
498.615	869.69
498.832	878.69
499.049	906.69
499.267	952.69
499.484	1007.69
499.701	1047.69
499.918	1088.69
500.135	1201.69
500.352	1313.69
500.569	1313.69
500.786	1300.69
501.003	1281.69
501.22	1196.69
501.437	1134.69
501.654	1099.69
