Data from 1973.PennyLincolnUp.Lamp.En5.5.200Scan.071719.P1.Changed Mount._HRD10591_15-44-02-852.txt Node
Date: Thu Jul 18 15:44:02 EDT 2019
User: cochatt
Spectrometer: HR+D1059
Trigger mode: 1
Integration Time (sec): 1.000000E-1
Scans to average: 1
Electric dark correction enabled: true
Nonlinearity correction enabled: false
Boxcar width: 0
XAxis mode: Wavelengths
Number of Pixels in Spectrum: 2048
>>>>>Begin Spectral Data<<<<<
223.165	-19.5
223.4	-19.5
223.635	-19.5
223.869	-13.5
224.104	-12.5
224.338	-21.5
224.573	-23.5
224.808	-19.5
225.042	-4.5
225.277	2.5
225.511	-4.5
225.746	4.5
225.98	9.5
226.215	12.5
226.449	19.5
226.683	27.5
226.918	24.5
227.152	18.5
227.387	22.5
227.621	24.5
227.856	33.5
228.09	36.5
228.324	45.5
228.559	58.5
228.793	73.5
229.027	85.5
229.262	91.5
229.496	100.5
229.73	116.5
229.964	120.5
230.199	123.5
230.433	101.5
230.667	105.5
230.901	109.5
231.136	116.5
231.37	101.5
231.604	116.5
231.838	106.5
232.072	109.5
232.306	117.5
232.541	108.5
232.775	115.5
233.009	96.5
233.243	114.5
233.477	116.5
233.711	114.5
233.945	99.5
234.179	115.5
234.413	114.5
234.647	109.5
234.881	112.5
235.115	106.5
235.349	101.5
235.583	125.5
235.817	117.5
236.051	124.5
236.285	127.5
236.519	108.5
236.753	120.5
236.987	128.5
237.221	160.5
237.455	210.5
237.689	165.5
237.922	126.5
238.156	134.5
238.39	128.5
238.624	116.5
238.858	122.5
239.091	132.5
239.325	128.5
239.559	120.5
239.793	116.5
240.027	121.5
240.26	135.5
240.494	126.5
240.728	151.5
240.961	126.5
241.195	137.5
241.429	130.5
241.662	128.5
241.896	138.5
242.13	135.5
242.363	126.5
242.597	132.5
242.83	124.5
243.064	147.5
243.298	136.5
243.531	131.5
243.765	153.5
243.998	143.5
244.232	151.5
244.465	140.5
244.699	131.5
244.932	138.5
245.166	142.5
245.399	134.5
245.633	147.5
245.866	153.5
246.099	153.5
246.333	155.5
246.566	150.5
246.8	144.5
247.033	148.5
247.266	156.5
247.5	146.5
247.733	153.5
247.966	165.5
248.2	172.5
248.433	162.5
248.666	163.5
248.899	168.5
249.133	183.5
249.366	199.5
249.599	186.5
249.832	171.5
250.066	182.5
250.299	166.5
250.532	198.5
250.765	180.5
250.998	205.5
251.231	200.5
251.465	205.5
251.698	191.5
251.931	174.5
252.164	187.5
252.397	197.5
252.63	193.5
252.863	189.5
253.096	209.5
253.329	212.5
253.562	202.5
253.795	223.5
254.028	201.5
254.261	205.5
254.494	209.5
254.727	240.5
254.96	256.5
255.193	236.5
255.426	242.5
255.659	226.5
255.892	202.5
256.124	213.5
256.357	220.5
256.59	219.5
256.823	199.5
257.056	209.5
257.289	201.5
257.521	201.5
257.754	209.5
257.987	193.5
258.22	190.5
258.452	203.5
258.685	205.5
258.918	199.5
259.151	212.5
259.383	218.5
259.616	223.5
259.849	217.5
260.081	228.5
260.314	235.5
260.547	245.5
260.779	218.5
261.012	223.5
261.244	220.5
261.477	211.5
261.71	221.5
261.942	218.5
262.175	228.5
262.407	211.5
262.64	212.5
262.872	215.5
263.105	214.5
263.337	221.5
263.57	210.5
263.802	203.5
264.035	221.5
264.267	214.5
264.499	206.5
264.732	193.5
264.964	217.5
265.197	225.5
265.429	221.5
265.661	219.5
265.894	210.5
266.126	217.5
266.358	216.5
266.591	222.5
266.823	228.5
267.055	215.5
267.287	231.5
267.52	228.5
267.752	235.5
267.984	223.5
268.216	223.5
268.448	229.5
268.681	216.5
268.913	244.5
269.145	267.5
269.377	276.5
269.609	276.5
269.841	275.5
270.073	245.5
270.306	278.5
270.538	297.5
270.77	296.5
271.002	285.5
271.234	260.5
271.466	271.5
271.698	269.5
271.93	304.5
272.162	302.5
272.394	294.5
272.626	288.5
272.858	263.5
273.09	274.5
273.322	274.5
273.553	261.5
273.785	266.5
274.017	272.5
274.249	268.5
274.481	264.5
274.713	247.5
274.945	266.5
275.176	252.5
275.408	257.5
275.64	276.5
275.872	271.5
276.104	281.5
276.335	248.5
276.567	269.5
276.799	281.5
277.031	295.5
277.262	286.5
277.494	317.5
277.726	290.5
277.957	279.5
278.189	280.5
278.421	287.5
278.652	290.5
278.884	265.5
279.115	278.5
279.347	256.5
279.579	290.5
279.81	263.5
280.042	274.5
280.273	270.5
280.505	262.5
280.736	279.5
280.968	270.5
281.199	270.5
281.431	284.5
281.662	267.5
281.894	269.5
282.125	288.5
282.356	291.5
282.588	297.5
282.819	286.5
283.051	282.5
283.282	270.5
283.513	304.5
283.745	290.5
283.976	289.5
284.207	295.5
284.439	300.5
284.67	282.5
284.901	312.5
285.132	282.5
285.364	288.5
285.595	277.5
285.826	276.5
286.057	312.5
286.288	296.5
286.52	304.5
286.751	288.5
286.982	298.5
287.213	293.5
287.444	298.5
287.675	296.5
287.906	304.5
288.138	316.5
288.369	314.5
288.6	304.5
288.831	308.5
289.062	294.5
289.293	316.5
289.524	304.5
289.755	313.5
289.986	289.5
290.217	312.5
290.448	306.5
290.679	299.5
290.91	302.5
291.141	294.5
291.371	307.5
291.602	304.5
291.833	302.5
292.064	300.5
292.295	321.5
292.526	298.5
292.757	311.5
292.987	317.5
293.218	320.5
293.449	313.5
293.68	318.5
293.91	306.5
294.141	312.5
294.372	327.5
294.603	316.5
294.833	325.5
295.064	293.5
295.295	307.5
295.525	310.5
295.756	301.5
295.987	315.5
296.217	320.5
296.448	335.5
296.679	322.5
296.909	336.5
297.14	291.5
297.37	348.5
297.601	314.5
297.831	328.5
298.062	327.5
298.292	314.5
298.523	302.5
298.753	319.5
298.984	325.5
299.214	323.5
299.445	313.5
299.675	324.5
299.905	336.5
300.136	330.5
300.366	304.5
300.597	316.5
300.827	326.5
301.057	325.5
301.288	338.5
301.518	343.5
301.748	340.5
301.979	339.5
302.209	332.5
302.439	330.5
302.669	340.5
302.9	339.5
303.13	338.5
303.36	320.5
303.59	351.5
303.82	348.5
304.051	335.5
304.281	361.5
304.511	331.5
304.741	338.5
304.971	345.5
305.201	348.5
305.431	347.5
305.661	338.5
305.891	342.5
306.121	342.5
306.352	341.5
306.582	357.5
306.812	340.5
307.042	342.5
307.272	343.5
307.502	337.5
307.731	349.5
307.961	353.5
308.191	333.5
308.421	344.5
308.651	342.5
308.881	340.5
309.111	350.5
309.341	353.5
309.571	361.5
309.8	359.5
310.03	355.5
310.26	347.5
310.49	359.5
310.72	375.5
310.949	396.5
311.179	368.5
311.409	375.5
311.639	382.5
311.868	377.5
312.098	367.5
312.328	364.5
312.557	392.5
312.787	375.5
313.017	391.5
313.246	376.5
313.476	396.5
313.706	373.5
313.935	369.5
314.165	388.5
314.394	383.5
314.624	388.5
314.853	380.5
315.083	390.5
315.312	385.5
315.542	386.5
315.771	386.5
316.001	380.5
316.23	373.5
316.46	369.5
316.689	362.5
316.919	392.5
317.148	381.5
317.377	380.5
317.607	378.5
317.836	382.5
318.065	383.5
318.295	390.5
318.524	390.5
318.753	372.5
318.983	380.5
319.212	381.5
319.441	379.5
319.67	401.5
319.9	376.5
320.129	366.5
320.358	369.5
320.587	399.5
320.816	365.5
321.046	388.5
321.275	386.5
321.504	370.5
321.733	390.5
321.962	413.5
322.191	394.5
322.42	404.5
322.649	404.5
322.878	427.5
323.108	436.5
323.337	422.5
323.566	433.5
323.795	432.5
324.024	471.5
324.253	537.5
324.482	680.5
324.71	961.5
324.939	1376.5
325.168	1223.5
325.397	663.5
325.626	514.5
325.855	468.5
326.084	455.5
326.313	440.5
326.542	434.5
326.77	492.5
326.999	524.5
327.228	661.5
327.457	900.5
327.686	1064.5
327.914	746.5
328.143	564.5
328.372	502.5
328.6	489.5
328.829	459.5
329.058	488.5
329.287	503.5
329.515	465.5
329.744	490.5
329.972	445.5
330.201	464.5
330.43	476.5
330.658	505.5
330.887	512.5
331.115	514.5
331.344	473.5
331.572	446.5
331.801	460.5
332.03	463.5
332.258	462.5
332.486	445.5
332.715	452.5
332.943	462.5
333.172	475.5
333.4	503.5
333.629	492.5
333.857	519.5
334.085	497.5
334.314	493.5
334.542	535.5
334.771	517.5
334.999	510.5
335.227	493.5
335.455	467.5
335.684	460.5
335.912	462.5
336.14	448.5
336.369	453.5
336.597	461.5
336.825	451.5
337.053	444.5
337.281	442.5
337.51	427.5
337.738	426.5
337.966	440.5
338.194	436.5
338.422	435.5
338.65	429.5
338.878	425.5
339.106	437.5
339.334	438.5
339.562	414.5
339.79	444.5
340.018	434.5
340.246	409.5
340.474	438.5
340.702	425.5
340.93	428.5
341.158	414.5
341.386	407.5
341.614	412.5
341.842	404.5
342.07	413.5
342.298	425.5
342.526	406.5
342.754	418.5
342.981	426.5
343.209	428.5
343.437	451.5
343.665	429.5
343.893	448.5
344.12	473.5
344.348	454.5
344.576	444.5
344.804	454.5
345.031	442.5
345.259	442.5
345.487	433.5
345.714	443.5
345.942	417.5
346.17	404.5
346.397	417.5
346.625	416.5
346.853	403.5
347.08	383.5
347.308	407.5
347.535	433.5
347.763	432.5
347.99	419.5
348.218	402.5
348.445	409.5
348.673	405.5
348.9	412.5
349.128	401.5
349.355	396.5
349.583	395.5
349.81	409.5
350.037	417.5
350.265	396.5
350.492	382.5
350.72	386.5
350.947	390.5
351.174	404.5
351.402	420.5
351.629	420.5
351.856	423.5
352.083	402.5
352.311	386.5
352.538	409.5
352.765	400.5
352.992	395.5
353.22	407.5
353.447	398.5
353.674	404.5
353.901	391.5
354.128	395.5
354.355	380.5
354.583	395.5
354.81	383.5
355.037	381.5
355.264	385.5
355.491	391.5
355.718	398.5
355.945	398.5
356.172	402.5
356.399	398.5
356.626	375.5
356.853	384.5
357.08	370.5
357.307	369.5
357.534	389.5
357.761	382.5
357.988	390.5
358.215	402.5
358.441	403.5
358.668	400.5
358.895	406.5
359.122	388.5
359.349	386.5
359.576	377.5
359.802	410.5
360.029	436.5
360.256	429.5
360.483	418.5
360.709	417.5
360.936	393.5
361.163	398.5
361.39	393.5
361.616	404.5
361.843	393.5
362.07	413.5
362.296	401.5
362.523	398.5
362.749	401.5
362.976	392.5
363.203	408.5
363.429	391.5
363.656	375.5
363.882	410.5
364.109	406.5
364.335	407.5
364.562	380.5
364.788	396.5
365.015	408.5
365.241	411.5
365.468	400.5
365.694	394.5
365.92	406.5
366.147	390.5
366.373	400.5
366.599	394.5
366.826	391.5
367.052	390.5
367.278	375.5
367.505	388.5
367.731	382.5
367.957	406.5
368.184	387.5
368.41	390.5
368.636	395.5
368.862	428.5
369.089	399.5
369.315	404.5
369.541	398.5
369.767	402.5
369.993	394.5
370.219	393.5
370.445	413.5
370.672	403.5
370.898	385.5
371.124	404.5
371.35	412.5
371.576	394.5
371.802	398.5
372.028	402.5
372.254	428.5
372.48	376.5
372.706	405.5
372.932	398.5
373.158	407.5
373.384	404.5
373.61	404.5
373.835	413.5
374.061	409.5
374.287	396.5
374.513	408.5
374.739	436.5
374.965	425.5
375.191	406.5
375.416	448.5
375.642	425.5
375.868	407.5
376.094	404.5
376.319	404.5
376.545	385.5
376.771	417.5
376.997	390.5
377.222	407.5
377.448	420.5
377.674	403.5
377.899	408.5
378.125	407.5
378.35	411.5
378.576	380.5
378.802	392.5
379.027	407.5
379.253	420.5
379.478	392.5
379.704	404.5
379.929	404.5
380.155	414.5
380.38	406.5
380.606	424.5
380.831	412.5
381.057	401.5
381.282	410.5
381.507	408.5
381.733	402.5
381.958	430.5
382.184	378.5
382.409	413.5
382.634	434.5
382.86	428.5
383.085	414.5
383.31	435.5
383.535	444.5
383.761	445.5
383.986	440.5
384.211	415.5
384.436	447.5
384.662	455.5
384.887	448.5
385.112	442.5
385.337	482.5
385.562	453.5
385.787	453.5
386.013	459.5
386.238	467.5
386.463	462.5
386.688	453.5
386.913	452.5
387.138	464.5
387.363	464.5
387.588	440.5
387.813	445.5
388.038	435.5
388.263	469.5
388.488	466.5
388.713	457.5
388.938	449.5
389.163	451.5
389.387	456.5
389.612	450.5
389.837	461.5
390.062	458.5
390.287	456.5
390.512	445.5
390.736	460.5
390.961	463.5
391.186	466.5
391.411	460.5
391.636	467.5
391.86	461.5
392.085	481.5
392.31	474.5
392.534	482.5
392.759	458.5
392.984	474.5
393.208	461.5
393.433	445.5
393.658	451.5
393.882	455.5
394.107	460.5
394.331	469.5
394.556	468.5
394.78	458.5
395.005	478.5
395.229	478.5
395.454	476.5
395.678	506.5
395.903	494.5
396.127	521.5
396.352	506.5
396.576	466.5
396.801	461.5
397.025	476.5
397.249	485.5
397.474	486.5
397.698	481.5
397.922	498.5
398.147	496.5
398.371	517.5
398.595	511.5
398.82	536.5
399.044	558.5
399.268	588.5
399.492	618.5
399.717	661.5
399.941	700.5
400.165	673.5
400.389	665.5
400.613	614.5
400.837	580.5
401.062	569.5
401.286	546.5
401.51	540.5
401.734	547.5
401.958	537.5
402.182	539.5
402.406	554.5
402.63	572.5
402.854	552.5
403.078	570.5
403.302	570.5
403.526	558.5
403.75	579.5
403.974	582.5
404.198	548.5
404.422	584.5
404.645	588.5
404.869	577.5
405.093	605.5
405.317	621.5
405.541	651.5
405.765	601.5
405.988	591.5
406.212	590.5
406.436	590.5
406.66	605.5
406.883	602.5
407.107	636.5
407.331	650.5
407.555	700.5
407.778	712.5
408.002	681.5
408.226	618.5
408.449	624.5
408.673	594.5
408.896	612.5
409.12	656.5
409.344	646.5
409.567	580.5
409.791	562.5
410.014	584.5
410.238	555.5
410.461	555.5
410.685	534.5
410.908	566.5
411.132	608.5
411.355	627.5
411.578	601.5
411.802	571.5
412.025	570.5
412.249	576.5
412.472	578.5
412.695	588.5
412.919	589.5
413.142	579.5
413.365	532.5
413.589	556.5
413.812	541.5
414.035	515.5
414.258	536.5
414.482	524.5
414.705	517.5
414.928	542.5
415.151	518.5
415.374	513.5
415.597	531.5
415.821	534.5
416.044	519.5
416.267	517.5
416.49	554.5
416.713	478.5
416.936	528.5
417.159	517.5
417.382	528.5
417.605	528.5
417.828	542.5
418.051	546.5
418.274	540.5
418.497	525.5
418.72	528.5
418.943	514.5
419.166	568.5
419.389	605.5
419.611	596.5
419.834	556.5
420.057	578.5
420.28	551.5
420.503	541.5
420.726	536.5
420.948	566.5
421.171	593.5
421.394	626.5
421.617	532.5
421.839	551.5
422.062	544.5
422.285	572.5
422.507	574.5
422.73	649.5
422.953	642.5
423.175	588.5
423.398	557.5
423.621	545.5
423.843	574.5
424.066	555.5
424.288	577.5
424.511	582.5
424.733	630.5
424.956	680.5
425.178	655.5
425.401	665.5
425.623	683.5
425.846	597.5
426.068	571.5
426.291	554.5
426.513	533.5
426.735	557.5
426.958	595.5
427.18	636.5
427.402	738.5
427.625	796.5
427.847	716.5
428.069	639.5
428.292	572.5
428.514	534.5
428.736	515.5
428.958	516.5
429.181	522.5
429.403	518.5
429.625	521.5
429.847	538.5
430.069	598.5
430.292	601.5
430.514	530.5
430.736	517.5
430.958	504.5
431.18	490.5
431.402	516.5
431.624	491.5
431.846	509.5
432.068	500.5
432.29	506.5
432.512	518.5
432.734	527.5
432.956	502.5
433.178	518.5
433.4	518.5
433.622	499.5
433.844	498.5
434.066	497.5
434.287	506.5
434.509	502.5
434.731	505.5
434.953	501.5
435.175	531.5
435.397	554.5
435.618	550.5
435.84	576.5
436.062	666.5
436.284	693.5
436.505	613.5
436.727	556.5
436.949	529.5
437.17	492.5
437.392	523.5
437.614	528.5
437.835	535.5
438.057	588.5
438.278	677.5
438.5	678.5
438.721	748.5
438.943	724.5
439.165	582.5
439.386	546.5
439.608	531.5
439.829	531.5
440.05	536.5
440.272	591.5
440.493	555.5
440.715	513.5
440.936	519.5
441.158	520.5
441.379	532.5
441.6	537.5
441.822	564.5
442.043	593.5
442.264	638.5
442.486	692.5
442.707	614.5
442.928	562.5
443.149	597.5
443.371	574.5
443.592	637.5
443.813	718.5
444.034	755.5
444.255	623.5
444.476	605.5
444.698	594.5
444.919	610.5
445.14	670.5
445.361	646.5
445.582	598.5
445.803	611.5
446.024	712.5
446.245	719.5
446.466	664.5
446.687	563.5
446.908	534.5
447.129	513.5
447.35	521.5
447.571	503.5
447.792	473.5
448.013	485.5
448.234	510.5
448.455	553.5
448.675	636.5
448.896	742.5
449.117	642.5
449.338	588.5
449.559	664.5
449.779	767.5
450	640.5
450.221	542.5
450.442	490.5
450.662	495.5
450.883	461.5
451.104	488.5
451.324	465.5
451.545	449.5
451.766	467.5
451.986	450.5
452.207	449.5
452.428	432.5
452.648	458.5
452.869	461.5
453.089	452.5
453.31	484.5
453.53	459.5
453.751	418.5
453.971	460.5
454.192	444.5
454.412	466.5
454.633	445.5
454.853	450.5
455.073	447.5
455.294	470.5
455.514	524.5
455.734	489.5
455.955	445.5
456.175	446.5
456.395	438.5
456.616	422.5
456.836	428.5
457.056	435.5
457.276	432.5
457.497	435.5
457.717	428.5
457.937	443.5
458.157	463.5
458.377	444.5
458.598	438.5
458.818	497.5
459.038	574.5
459.258	572.5
459.478	523.5
459.698	503.5
459.918	499.5
460.138	504.5
460.358	520.5
460.578	531.5
460.798	534.5
461.018	531.5
461.238	519.5
461.458	533.5
461.678	523.5
461.898	523.5
462.118	542.5
462.338	557.5
462.558	556.5
462.777	583.5
462.997	591.5
463.217	606.5
463.437	622.5
463.657	588.5
463.876	597.5
464.096	582.5
464.316	591.5
464.536	567.5
464.755	569.5
464.975	540.5
465.195	572.5
465.414	619.5
465.634	536.5
465.854	510.5
466.073	505.5
466.293	500.5
466.512	486.5
466.732	480.5
466.951	477.5
467.171	460.5
467.391	471.5
467.61	468.5
467.829	490.5
468.049	493.5
468.268	480.5
468.488	467.5
468.707	457.5
468.927	458.5
469.146	470.5
469.365	459.5
469.585	453.5
469.804	457.5
470.023	478.5
470.243	498.5
470.462	471.5
470.681	493.5
470.901	487.5
471.12	489.5
471.339	484.5
471.558	477.5
471.777	477.5
471.997	476.5
472.216	452.5
472.435	474.5
472.654	481.5
472.873	458.5
473.092	461.5
473.311	474.5
473.53	458.5
473.749	479.5
473.968	484.5
474.187	546.5
474.406	594.5
474.625	500.5
474.844	474.5
475.063	489.5
475.282	466.5
475.501	470.5
475.72	488.5
475.939	477.5
476.158	492.5
476.377	514.5
476.596	477.5
476.814	513.5
477.033	501.5
477.252	514.5
477.471	522.5
477.69	515.5
477.908	531.5
478.127	522.5
478.346	541.5
478.564	556.5
478.783	555.5
479.002	539.5
479.22	580.5
479.439	574.5
479.658	555.5
479.876	556.5
480.095	586.5
480.313	602.5
480.532	620.5
480.751	588.5
480.969	589.5
481.188	611.5
481.406	602.5
481.624	604.5
481.843	591.5
482.061	574.5
482.28	552.5
482.498	532.5
482.717	562.5
482.935	529.5
483.153	556.5
483.372	550.5
483.59	548.5
483.808	550.5
484.027	540.5
484.245	537.5
484.463	564.5
484.681	543.5
484.9	532.5
485.118	562.5
485.336	572.5
485.554	569.5
485.772	554.5
485.99	574.5
486.209	572.5
486.427	563.5
486.645	599.5
486.863	589.5
487.081	590.5
487.299	549.5
487.517	579.5
487.735	576.5
487.953	601.5
488.171	612.5
488.389	573.5
488.607	592.5
488.825	614.5
489.043	591.5
489.261	598.5
489.479	597.5
489.696	587.5
489.914	594.5
490.132	589.5
490.35	594.5
490.568	595.5
490.786	621.5
491.003	636.5
491.221	654.5
491.439	649.5
491.657	628.5
491.874	639.5
492.092	669.5
492.31	669.5
492.527	666.5
492.745	654.5
492.963	675.5
493.18	682.5
493.398	677.5
493.615	696.5
493.833	676.5
494.05	677.5
494.268	668.5
494.485	679.5
494.703	644.5
494.92	653.5
495.138	663.5
495.355	684.5
495.573	677.5
495.79	685.5
496.008	681.5
496.225	678.5
496.442	680.5
496.66	680.5
496.877	683.5
497.094	693.5
497.312	714.5
497.529	700.5
497.746	720.5
497.963	746.5
498.181	768.5
498.398	755.5
498.615	811.5
498.832	860.5
499.049	828.5
499.267	886.5
499.484	937.5
499.701	976.5
499.918	1028.5
500.135	1113.5
500.352	1172.5
500.569	1227.5
500.786	1204.5
501.003	1198.5
501.22	1120.5
501.437	1046.5
501.654	993.5
501.871	956.5
502.088	896.5
502.305	877.5
502.522	830.5
502.739	827.5
502.956	772.5
503.172	738.5
503.389	731.5
503.606	721.5
503.823	705.5
504.04	733.5
504.256	706.5
504.473	712.5
504.69	743.5
504.907	682.5
505.123	677.5
505.34	665.5
505.557	675.5
505.773	669.5
505.99	650.5
506.207	628.5
506.423	631.5
506.64	621.5
506.856	619.5
507.073	611.5
507.289	635.5
507.506	615.5
507.722	617.5
507.939	619.5
508.155	596.5
508.372	585.5
508.588	594.5
508.805	566.5
509.021	596.5
509.238	616.5
509.454	597.5
509.67	627.5
509.887	582.5
510.103	581.5
510.319	585.5
510.536	646.5
510.752	827.5
510.968	714.5
511.184	580.5
511.401	572.5
511.617	571.5
511.833	546.5
512.049	557.5
512.265	564.5
512.481	575.5
512.698	548.5
512.914	572.5
513.13	561.5
513.346	565.5
513.562	558.5
513.778	564.5
513.994	565.5
514.21	557.5
514.426	576.5
514.642	606.5
514.858	601.5
515.074	606.5
515.29	670.5
515.506	874.5
515.721	744.5
515.937	618.5
516.153	592.5
516.369	569.5
516.585	575.5
516.801	609.5
517.016	600.5
517.232	632.5
517.448	650.5
517.664	655.5
517.879	646.5
518.095	625.5
518.311	642.5
518.527	625.5
518.742	610.5
518.958	610.5
519.173	593.5
519.389	582.5
519.605	550.5
