Data from 1973.PennyLincolnUp.Lamp.En5.5.200Scan.071719.P1.Changed Mount._HRD10591_15-44-19-852.txt Node
Date: Thu Jul 18 15:44:19 EDT 2019
User: cochatt
Spectrometer: HR+D1059
Trigger mode: 1
Integration Time (sec): 1.000000E-1
Scans to average: 1
Electric dark correction enabled: true
Nonlinearity correction enabled: false
Boxcar width: 0
XAxis mode: Wavelengths
Number of Pixels in Spectrum: 2048
>>>>>Begin Spectral Data<<<<<
223.165	-34.75
223.4	-34.75
223.635	-34.75
223.869	-20.75
224.104	-22.75
224.338	-28.75
224.573	-8.75
224.808	-10.75
225.042	-6.75
225.277	-6.75
225.511	0.25
225.746	14.25
225.98	5.25
226.215	16.25
226.449	14.25
226.683	22.25
226.918	27.25
227.152	40.25
227.387	38.25
227.621	32.25
227.856	39.25
228.09	43.25
228.324	58.25
228.559	63.25
228.793	62.25
229.027	103.25
229.262	101.25
229.496	98.25
229.73	124.25
229.964	141.25
230.199	111.25
230.433	122.25
230.667	117.25
230.901	109.25
231.136	106.25
231.37	107.25
231.604	100.25
231.838	106.25
232.072	115.25
232.306	110.25
232.541	109.25
232.775	114.25
233.009	93.25
233.243	115.25
233.477	125.25
233.711	114.25
233.945	123.25
234.179	109.25
234.413	118.25
234.647	125.25
234.881	114.25
235.115	109.25
235.349	123.25
235.583	121.25
235.817	119.25
236.051	123.25
236.285	118.25
236.519	138.25
236.753	117.25
236.987	137.25
237.221	150.25
237.455	197.25
237.689	159.25
237.922	127.25
238.156	120.25
238.39	132.25
238.624	122.25
238.858	122.25
239.091	124.25
239.325	115.25
239.559	119.25
239.793	135.25
240.027	134.25
240.26	128.25
240.494	145.25
240.728	134.25
240.961	135.25
241.195	141.25
241.429	129.25
241.662	148.25
241.896	131.25
242.13	135.25
242.363	132.25
242.597	144.25
242.83	150.25
243.064	142.25
243.298	139.25
243.531	144.25
243.765	137.25
243.998	131.25
244.232	147.25
244.465	149.25
244.699	145.25
244.932	138.25
245.166	149.25
245.399	153.25
245.633	166.25
245.866	165.25
246.099	137.25
246.333	149.25
246.566	161.25
246.8	165.25
247.033	149.25
247.266	150.25
247.5	159.25
247.733	174.25
247.966	166.25
248.2	162.25
248.433	171.25
248.666	167.25
248.899	171.25
249.133	196.25
249.366	195.25
249.599	182.25
249.832	184.25
250.066	180.25
250.299	185.25
250.532	178.25
250.765	196.25
250.998	212.25
251.231	212.25
251.465	199.25
251.698	201.25
251.931	182.25
252.164	198.25
252.397	206.25
252.63	196.25
252.863	206.25
253.096	220.25
253.329	213.25
253.562	222.25
253.795	216.25
254.028	213.25
254.261	190.25
254.494	206.25
254.727	238.25
254.96	254.25
255.193	257.25
255.426	251.25
255.659	225.25
255.892	230.25
256.124	227.25
256.357	225.25
256.59	219.25
256.823	211.25
257.056	216.25
257.289	211.25
257.521	216.25
257.754	195.25
257.987	203.25
258.22	198.25
258.452	205.25
258.685	193.25
258.918	199.25
259.151	220.25
259.383	234.25
259.616	217.25
259.849	211.25
260.081	221.25
260.314	245.25
260.547	257.25
260.779	239.25
261.012	231.25
261.244	226.25
261.477	228.25
261.71	230.25
261.942	217.25
262.175	214.25
262.407	220.25
262.64	201.25
262.872	222.25
263.105	203.25
263.337	224.25
263.57	215.25
263.802	204.25
264.035	201.25
264.267	219.25
264.499	215.25
264.732	211.25
264.964	210.25
265.197	206.25
265.429	234.25
265.661	217.25
265.894	213.25
266.126	208.25
266.358	229.25
266.591	209.25
266.823	227.25
267.055	239.25
267.287	218.25
267.52	227.25
267.752	240.25
267.984	237.25
268.216	213.25
268.448	235.25
268.681	265.25
268.913	272.25
269.145	249.25
269.377	265.25
269.609	249.25
269.841	268.25
270.073	277.25
270.306	291.25
270.538	308.25
270.77	315.25
271.002	287.25
271.234	291.25
271.466	299.25
271.698	308.25
271.93	303.25
272.162	309.25
272.394	334.25
272.626	295.25
272.858	282.25
273.09	287.25
273.322	257.25
273.553	267.25
273.785	269.25
274.017	265.25
274.249	276.25
274.481	259.25
274.713	268.25
274.945	285.25
275.176	275.25
275.408	269.25
275.64	280.25
275.872	256.25
276.104	285.25
276.335	279.25
276.567	289.25
276.799	279.25
277.031	314.25
277.262	310.25
277.494	316.25
277.726	293.25
277.957	295.25
278.189	284.25
278.421	273.25
278.652	293.25
278.884	280.25
279.115	280.25
279.347	297.25
279.579	271.25
279.81	275.25
280.042	277.25
280.273	267.25
280.505	273.25
280.736	285.25
280.968	285.25
281.199	287.25
281.431	289.25
281.662	280.25
281.894	284.25
282.125	305.25
282.356	305.25
282.588	293.25
282.819	315.25
283.051	291.25
283.282	293.25
283.513	310.25
283.745	279.25
283.976	298.25
284.207	314.25
284.439	285.25
284.67	296.25
284.901	315.25
285.132	312.25
285.364	292.25
285.595	295.25
285.826	294.25
286.057	286.25
286.288	299.25
286.52	307.25
286.751	306.25
286.982	307.25
287.213	301.25
287.444	298.25
287.675	309.25
287.906	317.25
288.138	325.25
288.369	314.25
288.6	334.25
288.831	333.25
289.062	312.25
289.293	307.25
289.524	325.25
289.755	309.25
289.986	307.25
290.217	305.25
290.448	316.25
290.679	315.25
290.91	307.25
291.141	314.25
291.371	312.25
291.602	313.25
291.833	307.25
292.064	311.25
292.295	315.25
292.526	314.25
292.757	312.25
292.987	298.25
293.218	314.25
293.449	315.25
293.68	321.25
293.91	318.25
294.141	315.25
294.372	297.25
294.603	307.25
294.833	319.25
295.064	322.25
295.295	321.25
295.525	315.25
295.756	304.25
295.987	325.25
296.217	340.25
296.448	347.25
296.679	342.25
296.909	320.25
297.14	325.25
297.37	324.25
297.601	316.25
297.831	303.25
298.062	332.25
298.292	320.25
298.523	338.25
298.753	345.25
298.984	335.25
299.214	318.25
299.445	328.25
299.675	327.25
299.905	358.25
300.136	325.25
300.366	340.25
300.597	328.25
300.827	337.25
301.057	341.25
301.288	353.25
301.518	359.25
301.748	358.25
301.979	361.25
302.209	366.25
302.439	351.25
302.669	358.25
302.9	354.25
303.13	345.25
303.36	347.25
303.59	342.25
303.82	346.25
304.051	366.25
304.281	354.25
304.511	351.25
304.741	342.25
304.971	338.25
305.201	350.25
305.431	348.25
305.661	362.25
305.891	336.25
306.121	347.25
306.352	369.25
306.582	357.25
306.812	351.25
307.042	345.25
307.272	358.25
307.502	360.25
307.731	361.25
307.961	363.25
308.191	365.25
308.421	357.25
308.651	363.25
308.881	342.25
309.111	358.25
309.341	381.25
309.571	371.25
309.8	381.25
310.03	381.25
310.26	389.25
310.49	375.25
310.72	389.25
310.949	391.25
311.179	383.25
311.409	378.25
311.639	388.25
311.868	388.25
312.098	377.25
312.328	374.25
312.557	402.25
312.787	394.25
313.017	408.25
313.246	382.25
313.476	387.25
313.706	387.25
313.935	397.25
314.165	402.25
314.394	405.25
314.624	388.25
314.853	375.25
315.083	414.25
315.312	392.25
315.542	367.25
315.771	385.25
316.001	389.25
316.23	379.25
316.46	383.25
316.689	398.25
316.919	383.25
317.148	419.25
317.377	421.25
317.607	404.25
317.836	405.25
318.065	388.25
318.295	381.25
318.524	395.25
318.753	386.25
318.983	400.25
319.212	410.25
319.441	395.25
319.67	409.25
319.9	400.25
320.129	389.25
320.358	383.25
320.587	377.25
320.816	413.25
321.046	409.25
321.275	415.25
321.504	404.25
321.733	407.25
321.962	403.25
322.191	418.25
322.42	422.25
322.649	410.25
322.878	437.25
323.108	419.25
323.337	451.25
323.566	449.25
323.795	464.25
324.024	476.25
324.253	527.25
324.482	725.25
324.71	1017.25
324.939	1419.25
325.168	1265.25
325.397	723.25
325.626	548.25
325.855	505.25
326.084	453.25
326.313	482.25
326.542	454.25
326.77	491.25
326.999	523.25
327.228	661.25
327.457	948.25
327.686	1116.25
327.914	789.25
328.143	577.25
328.372	519.25
328.6	512.25
328.829	486.25
329.058	483.25
329.287	494.25
329.515	478.25
329.744	467.25
329.972	469.25
330.201	485.25
330.43	538.25
330.658	531.25
330.887	551.25
331.115	526.25
331.344	495.25
331.572	463.25
331.801	487.25
332.03	471.25
332.258	467.25
332.486	473.25
332.715	465.25
332.943	496.25
333.172	507.25
333.4	500.25
333.629	508.25
333.857	501.25
334.085	521.25
334.314	533.25
334.542	567.25
334.771	545.25
334.999	506.25
335.227	498.25
335.455	498.25
335.684	484.25
335.912	479.25
336.14	469.25
336.369	485.25
336.597	484.25
336.825	472.25
337.053	457.25
337.281	471.25
337.51	473.25
337.738	466.25
337.966	455.25
338.194	450.25
338.422	460.25
338.65	455.25
338.878	460.25
339.106	449.25
339.334	460.25
339.562	461.25
339.79	442.25
340.018	457.25
340.246	440.25
340.474	459.25
340.702	456.25
340.93	435.25
341.158	449.25
341.386	449.25
341.614	445.25
341.842	455.25
342.07	456.25
342.298	419.25
342.526	405.25
342.754	427.25
342.981	428.25
343.209	425.25
343.437	443.25
343.665	461.25
343.893	484.25
344.12	499.25
344.348	501.25
344.576	478.25
344.804	457.25
345.031	461.25
345.259	451.25
345.487	441.25
345.714	439.25
345.942	436.25
346.17	438.25
346.397	432.25
346.625	426.25
346.853	402.25
347.08	404.25
347.308	411.25
347.535	431.25
347.763	416.25
347.99	444.25
348.218	437.25
348.445	448.25
348.673	416.25
348.9	426.25
349.128	409.25
349.355	426.25
349.583	411.25
349.81	432.25
350.037	393.25
350.265	410.25
350.492	395.25
350.72	395.25
350.947	408.25
351.174	435.25
351.402	429.25
351.629	428.25
351.856	408.25
352.083	442.25
352.311	409.25
352.538	409.25
352.765	426.25
352.992	419.25
353.22	435.25
353.447	413.25
353.674	403.25
353.901	398.25
354.128	387.25
354.355	408.25
354.583	385.25
354.81	410.25
355.037	406.25
355.264	400.25
355.491	421.25
355.718	403.25
355.945	410.25
356.172	398.25
356.399	405.25
356.626	408.25
356.853	423.25
357.08	398.25
357.307	402.25
357.534	405.25
357.761	396.25
357.988	414.25
358.215	415.25
358.441	402.25
358.668	392.25
358.895	400.25
359.122	415.25
359.349	418.25
359.576	426.25
359.802	422.25
360.029	449.25
360.256	426.25
360.483	441.25
360.709	410.25
360.936	396.25
361.163	417.25
361.39	398.25
361.616	435.25
361.843	401.25
362.07	425.25
362.296	413.25
362.523	406.25
362.749	421.25
362.976	409.25
363.203	397.25
363.429	398.25
363.656	407.25
363.882	394.25
364.109	395.25
364.335	428.25
364.562	420.25
364.788	434.25
365.015	395.25
365.241	386.25
365.468	405.25
365.694	401.25
365.92	417.25
366.147	391.25
366.373	409.25
366.599	414.25
366.826	412.25
367.052	403.25
367.278	409.25
367.505	399.25
367.731	421.25
367.957	402.25
368.184	379.25
368.41	402.25
368.636	405.25
368.862	407.25
369.089	405.25
369.315	399.25
369.541	391.25
369.767	399.25
369.993	409.25
370.219	405.25
370.445	409.25
370.672	404.25
370.898	420.25
371.124	422.25
371.35	409.25
371.576	408.25
371.802	404.25
372.028	413.25
372.254	414.25
372.48	421.25
372.706	436.25
372.932	411.25
373.158	414.25
373.384	447.25
373.61	434.25
373.835	432.25
374.061	428.25
374.287	412.25
374.513	423.25
374.739	436.25
374.965	430.25
375.191	427.25
375.416	414.25
375.642	421.25
375.868	430.25
376.094	453.25
376.319	420.25
376.545	401.25
376.771	402.25
376.997	415.25
377.222	428.25
377.448	405.25
377.674	426.25
377.899	428.25
378.125	425.25
378.35	406.25
378.576	431.25
378.802	405.25
379.027	405.25
379.253	403.25
379.478	409.25
379.704	391.25
379.929	400.25
380.155	419.25
380.38	396.25
380.606	421.25
380.831	413.25
381.057	423.25
381.282	414.25
381.507	429.25
381.733	429.25
381.958	419.25
382.184	409.25
382.409	426.25
382.634	425.25
382.86	425.25
383.085	423.25
383.31	443.25
383.535	439.25
383.761	457.25
383.986	443.25
384.211	452.25
384.436	467.25
384.662	439.25
384.887	467.25
385.112	467.25
385.337	482.25
385.562	471.25
385.787	490.25
386.013	484.25
386.238	493.25
386.463	491.25
386.688	472.25
386.913	485.25
387.138	470.25
387.363	478.25
387.588	454.25
387.813	466.25
388.038	473.25
388.263	475.25
388.488	454.25
388.713	463.25
388.938	477.25
389.163	470.25
389.387	465.25
389.612	465.25
389.837	452.25
390.062	459.25
390.287	445.25
390.512	463.25
390.736	470.25
390.961	463.25
391.186	466.25
391.411	475.25
391.636	489.25
391.86	495.25
392.085	510.25
392.31	506.25
392.534	487.25
392.759	475.25
392.984	493.25
393.208	482.25
393.433	507.25
393.658	461.25
393.882	475.25
394.107	485.25
394.331	486.25
394.556	487.25
394.78	491.25
395.005	483.25
395.229	480.25
395.454	492.25
395.678	475.25
395.903	505.25
396.127	499.25
396.352	547.25
396.576	484.25
396.801	509.25
397.025	494.25
397.249	478.25
397.474	511.25
397.698	501.25
397.922	521.25
398.147	525.25
398.371	536.25
398.595	554.25
398.82	537.25
399.044	563.25
399.268	597.25
399.492	651.25
399.717	693.25
399.941	731.25
400.165	700.25
400.389	687.25
400.613	636.25
400.837	593.25
401.062	574.25
401.286	557.25
401.51	549.25
401.734	559.25
401.958	554.25
402.182	546.25
402.406	565.25
402.63	577.25
402.854	571.25
403.078	565.25
403.302	586.25
403.526	581.25
403.75	581.25
403.974	588.25
404.198	566.25
404.422	580.25
404.645	596.25
404.869	608.25
405.093	625.25
405.317	630.25
405.541	661.25
405.765	633.25
405.988	580.25
406.212	597.25
406.436	604.25
406.66	629.25
406.883	609.25
407.107	636.25
407.331	697.25
407.555	735.25
407.778	723.25
408.002	678.25
408.226	632.25
408.449	635.25
408.673	639.25
408.896	659.25
409.12	676.25
409.344	650.25
409.567	597.25
409.791	611.25
410.014	609.25
410.238	601.25
410.461	589.25
410.685	573.25
410.908	589.25
411.132	630.25
411.355	616.25
411.578	603.25
411.802	585.25
412.025	588.25
412.249	588.25
412.472	594.25
412.695	635.25
412.919	601.25
413.142	558.25
413.365	558.25
413.589	582.25
413.812	548.25
414.035	523.25
414.258	520.25
414.482	549.25
414.705	541.25
414.928	562.25
415.151	538.25
415.374	554.25
415.597	541.25
415.821	517.25
416.044	569.25
416.267	531.25
416.49	535.25
416.713	549.25
416.936	539.25
417.159	528.25
417.382	530.25
417.605	548.25
417.828	539.25
418.051	552.25
418.274	567.25
418.497	534.25
418.72	561.25
418.943	537.25
419.166	559.25
419.389	590.25
419.611	609.25
419.834	576.25
420.057	564.25
420.28	577.25
420.503	545.25
420.726	557.25
420.948	574.25
421.171	576.25
421.394	630.25
421.617	584.25
421.839	563.25
422.062	553.25
422.285	590.25
422.507	629.25
422.73	683.25
422.953	630.25
423.175	603.25
423.398	586.25
423.621	603.25
423.843	588.25
424.066	584.25
424.288	593.25
424.511	574.25
424.733	633.25
424.956	683.25
425.178	676.25
425.401	659.25
425.623	700.25
425.846	631.25
426.068	579.25
426.291	577.25
426.513	584.25
426.735	580.25
426.958	617.25
427.18	654.25
427.402	771.25
427.625	826.25
427.847	720.25
428.069	633.25
428.292	580.25
428.514	579.25
428.736	566.25
428.958	539.25
429.181	506.25
429.403	510.25
429.625	515.25
429.847	580.25
430.069	620.25
430.292	607.25
430.514	527.25
430.736	542.25
430.958	538.25
431.18	527.25
431.402	499.25
431.624	484.25
431.846	509.25
432.068	505.25
432.29	527.25
432.512	501.25
432.734	514.25
432.956	497.25
433.178	519.25
433.4	509.25
433.622	504.25
433.844	535.25
434.066	495.25
434.287	499.25
434.509	543.25
434.731	535.25
434.953	556.25
435.175	553.25
435.397	568.25
435.618	595.25
435.84	597.25
436.062	654.25
436.284	737.25
436.505	614.25
436.727	579.25
436.949	530.25
437.17	540.25
437.392	503.25
437.614	547.25
437.835	538.25
438.057	630.25
438.278	728.25
438.5	722.25
438.721	779.25
438.943	757.25
439.165	583.25
439.386	561.25
439.608	558.25
439.829	540.25
440.05	554.25
440.272	617.25
440.493	585.25
440.715	564.25
440.936	547.25
441.158	550.25
441.379	531.25
441.6	551.25
441.822	563.25
442.043	610.25
442.264	661.25
442.486	703.25
442.707	603.25
442.928	591.25
443.149	578.25
443.371	603.25
443.592	650.25
443.813	723.25
444.034	758.25
444.255	691.25
444.476	642.25
444.698	626.25
444.919	609.25
445.14	705.25
445.361	644.25
445.582	628.25
445.803	644.25
446.024	719.25
446.245	727.25
446.466	681.25
446.687	580.25
446.908	562.25
447.129	545.25
447.35	526.25
447.571	522.25
447.792	481.25
448.013	508.25
448.234	499.25
448.455	534.25
448.675	655.25
448.896	737.25
449.117	652.25
449.338	619.25
449.559	691.25
449.779	804.25
450	612.25
450.221	543.25
450.442	522.25
450.662	504.25
450.883	492.25
451.104	503.25
451.324	486.25
451.545	481.25
451.766	494.25
451.986	448.25
452.207	454.25
452.428	455.25
452.648	459.25
452.869	485.25
453.089	460.25
453.31	469.25
453.53	462.25
453.751	479.25
453.971	459.25
454.192	463.25
454.412	455.25
454.633	455.25
454.853	443.25
455.073	434.25
455.294	475.25
455.514	534.25
455.734	494.25
455.955	444.25
456.175	448.25
456.395	435.25
456.616	433.25
456.836	458.25
457.056	467.25
457.276	428.25
457.497	454.25
457.717	442.25
457.937	459.25
458.157	458.25
458.377	472.25
458.598	457.25
458.818	491.25
459.038	569.25
459.258	605.25
459.478	552.25
459.698	515.25
459.918	501.25
460.138	510.25
460.358	546.25
460.578	533.25
460.798	537.25
461.018	534.25
461.238	550.25
461.458	511.25
461.678	533.25
461.898	548.25
462.118	563.25
462.338	581.25
462.558	567.25
462.777	581.25
462.997	601.25
463.217	619.25
463.437	648.25
463.657	625.25
463.876	590.25
464.096	587.25
464.316	589.25
464.536	598.25
464.755	614.25
464.975	598.25
465.195	558.25
465.414	625.25
465.634	562.25
465.854	529.25
466.073	518.25
466.293	484.25
466.512	493.25
466.732	488.25
466.951	498.25
467.171	493.25
467.391	492.25
467.61	509.25
467.829	499.25
468.049	505.25
468.268	489.25
468.488	476.25
468.707	463.25
468.927	464.25
469.146	477.25
469.365	468.25
469.585	464.25
469.804	478.25
470.023	498.25
470.243	488.25
470.462	489.25
470.681	502.25
470.901	507.25
471.12	483.25
471.339	492.25
471.558	488.25
471.777	510.25
471.997	494.25
472.216	495.25
472.435	504.25
472.654	478.25
472.873	462.25
473.092	471.25
473.311	490.25
473.53	469.25
473.749	487.25
473.968	524.25
474.187	609.25
474.406	582.25
474.625	535.25
474.844	499.25
475.063	474.25
475.282	510.25
475.501	494.25
475.72	486.25
475.939	493.25
476.158	500.25
476.377	510.25
476.596	498.25
476.814	507.25
477.033	505.25
477.252	519.25
477.471	517.25
477.69	535.25
477.908	533.25
478.127	553.25
478.346	521.25
478.564	561.25
478.783	573.25
479.002	587.25
479.22	573.25
479.439	588.25
479.658	586.25
479.876	576.25
480.095	587.25
480.313	614.25
480.532	627.25
480.751	619.25
480.969	619.25
481.188	658.25
481.406	653.25
481.624	597.25
481.843	595.25
482.061	567.25
482.28	563.25
482.498	540.25
482.717	552.25
482.935	544.25
483.153	579.25
483.372	556.25
483.59	555.25
483.808	571.25
484.027	550.25
484.245	571.25
484.463	565.25
484.681	585.25
484.9	573.25
485.118	594.25
485.336	572.25
485.554	584.25
485.772	570.25
485.99	572.25
486.209	586.25
486.427	547.25
486.645	579.25
486.863	576.25
487.081	617.25
487.299	604.25
487.517	621.25
487.735	584.25
487.953	591.25
488.171	597.25
488.389	592.25
488.607	620.25
488.825	598.25
489.043	612.25
489.261	607.25
489.479	626.25
489.696	611.25
489.914	598.25
490.132	601.25
490.35	625.25
490.568	619.25
490.786	643.25
491.003	629.25
491.221	637.25
491.439	692.25
491.657	627.25
491.874	652.25
492.092	654.25
492.31	682.25
492.527	664.25
492.745	681.25
492.963	692.25
493.18	697.25
493.398	698.25
493.615	700.25
493.833	694.25
494.05	687.25
494.268	673.25
494.485	703.25
494.703	674.25
494.92	717.25
495.138	713.25
495.355	698.25
495.573	685.25
495.79	718.25
496.008	713.25
496.225	702.25
496.442	703.25
496.66	703.25
496.877	722.25
497.094	724.25
497.312	716.25
497.529	723.25
497.746	769.25
497.963	759.25
498.181	796.25
498.398	799.25
498.615	830.25
498.832	888.25
499.049	875.25
499.267	908.25
499.484	931.25
499.701	993.25
499.918	1027.25
500.135	1142.25
500.352	1225.25
500.569	1228.25
500.786	1234.25
501.003	1223.25
501.22	1134.25
501.437	1089.25
501.654	1028.25
