Data from 1973.PennyLincolnUp.Lamp.En5.5.200Scan.071719.P1.Changed Mount._HRD10591_15-46-02-853.txt Node
Date: Thu Jul 18 15:46:02 EDT 2019
User: cochatt
Spectrometer: HR+D1059
Trigger mode: 1
Integration Time (sec): 1.000000E-1
Scans to average: 1
Electric dark correction enabled: true
Nonlinearity correction enabled: false
Boxcar width: 0
XAxis mode: Wavelengths
Number of Pixels in Spectrum: 2048
>>>>>Begin Spectral Data<<<<<
223.165	-0.12
223.4	-0.12
223.635	-0.12
223.869	-30.12
224.104	-26.12
224.338	-29.12
224.573	-14.12
224.808	-11.12
225.042	-14.12
225.277	4.88
225.511	-10.12
225.746	5.88
225.98	7.88
226.215	13.88
226.449	8.88
226.683	25.88
226.918	30.88
227.152	36.88
227.387	27.88
227.621	20.88
227.856	47.88
228.09	38.88
228.324	52.88
228.559	53.88
228.793	78.88
229.027	97.88
229.262	96.88
229.496	105.88
229.73	133.88
229.964	134.88
230.199	130.88
230.433	114.88
230.667	105.88
230.901	99.88
231.136	108.88
231.37	106.88
231.604	108.88
231.838	107.88
232.072	116.88
232.306	107.88
232.541	107.88
232.775	125.88
233.009	117.88
233.243	101.88
233.477	109.88
233.711	122.88
233.945	107.88
234.179	115.88
234.413	106.88
234.647	129.88
234.881	113.88
235.115	120.88
235.349	122.88
235.583	113.88
235.817	125.88
236.051	128.88
236.285	116.88
236.519	118.88
236.753	133.88
236.987	139.88
237.221	157.88
237.455	223.88
237.689	177.88
237.922	149.88
238.156	146.88
238.39	137.88
238.624	131.88
238.858	120.88
239.091	121.88
239.325	133.88
239.559	121.88
239.793	130.88
240.027	126.88
240.26	136.88
240.494	153.88
240.728	155.88
240.961	139.88
241.195	144.88
241.429	134.88
241.662	141.88
241.896	142.88
242.13	131.88
242.363	151.88
242.597	146.88
242.83	130.88
243.064	125.88
243.298	146.88
243.531	133.88
243.765	132.88
243.998	139.88
244.232	130.88
244.465	145.88
244.699	147.88
244.932	153.88
245.166	156.88
245.399	152.88
245.633	148.88
245.866	153.88
246.099	160.88
246.333	151.88
246.566	141.88
246.8	149.88
247.033	160.88
247.266	170.88
247.5	151.88
247.733	171.88
247.966	162.88
248.2	161.88
248.433	171.88
248.666	174.88
248.899	175.88
249.133	182.88
249.366	211.88
249.599	211.88
249.832	195.88
250.066	186.88
250.299	193.88
250.532	212.88
250.765	197.88
250.998	211.88
251.231	234.88
251.465	201.88
251.698	199.88
251.931	207.88
252.164	197.88
252.397	196.88
252.63	204.88
252.863	204.88
253.096	206.88
253.329	222.88
253.562	220.88
253.795	222.88
254.028	207.88
254.261	224.88
254.494	223.88
254.727	246.88
254.96	277.88
255.193	269.88
255.426	241.88
255.659	222.88
255.892	234.88
256.124	226.88
256.357	239.88
256.59	229.88
256.823	202.88
257.056	216.88
257.289	223.88
257.521	216.88
257.754	205.88
257.987	214.88
258.22	217.88
258.452	220.88
258.685	209.88
258.918	204.88
259.151	202.88
259.383	231.88
259.616	228.88
259.849	221.88
260.081	259.88
260.314	246.88
260.547	268.88
260.779	263.88
261.012	231.88
261.244	230.88
261.477	232.88
261.71	215.88
261.942	220.88
262.175	229.88
262.407	245.88
262.64	218.88
262.872	232.88
263.105	225.88
263.337	230.88
263.57	221.88
263.802	228.88
264.035	215.88
264.267	209.88
264.499	227.88
264.732	238.88
264.964	236.88
265.197	234.88
265.429	234.88
265.661	233.88
265.894	245.88
266.126	236.88
266.358	230.88
266.591	236.88
266.823	234.88
267.055	235.88
267.287	237.88
267.52	229.88
267.752	246.88
267.984	240.88
268.216	240.88
268.448	254.88
268.681	244.88
268.913	261.88
269.145	276.88
269.377	297.88
269.609	278.88
269.841	283.88
270.073	289.88
270.306	298.88
270.538	321.88
270.77	301.88
271.002	301.88
271.234	298.88
271.466	301.88
271.698	302.88
271.93	324.88
272.162	301.88
272.394	315.88
272.626	321.88
272.858	285.88
273.09	285.88
273.322	290.88
273.553	278.88
273.785	291.88
274.017	277.88
274.249	286.88
274.481	287.88
274.713	272.88
274.945	297.88
275.176	282.88
275.408	279.88
275.64	289.88
275.872	285.88
276.104	261.88
276.335	273.88
276.567	279.88
276.799	294.88
277.031	302.88
277.262	334.88
277.494	333.88
277.726	314.88
277.957	313.88
278.189	304.88
278.421	296.88
278.652	273.88
278.884	284.88
279.115	275.88
279.347	275.88
279.579	293.88
279.81	302.88
280.042	297.88
280.273	282.88
280.505	298.88
280.736	294.88
280.968	290.88
281.199	283.88
281.431	301.88
281.662	299.88
281.894	315.88
282.125	309.88
282.356	297.88
282.588	341.88
282.819	313.88
283.051	311.88
283.282	315.88
283.513	319.88
283.745	310.88
283.976	310.88
284.207	299.88
284.439	309.88
284.67	319.88
284.901	307.88
285.132	309.88
285.364	301.88
285.595	323.88
285.826	298.88
286.057	313.88
286.288	309.88
286.52	322.88
286.751	317.88
286.982	313.88
287.213	310.88
287.444	328.88
287.675	305.88
287.906	327.88
288.138	335.88
288.369	327.88
288.6	333.88
288.831	315.88
289.062	324.88
289.293	330.88
289.524	315.88
289.755	328.88
289.986	349.88
290.217	323.88
290.448	321.88
290.679	319.88
290.91	316.88
291.141	313.88
291.371	346.88
291.602	338.88
291.833	312.88
292.064	319.88
292.295	319.88
292.526	340.88
292.757	329.88
292.987	319.88
293.218	325.88
293.449	335.88
293.68	334.88
293.91	337.88
294.141	336.88
294.372	325.88
294.603	313.88
294.833	326.88
295.064	327.88
295.295	315.88
295.525	319.88
295.756	339.88
295.987	331.88
296.217	359.88
296.448	365.88
296.679	342.88
296.909	341.88
297.14	346.88
297.37	315.88
297.601	335.88
297.831	346.88
298.062	337.88
298.292	338.88
298.523	347.88
298.753	331.88
298.984	339.88
299.214	317.88
299.445	348.88
299.675	364.88
299.905	355.88
300.136	349.88
300.366	348.88
300.597	349.88
300.827	371.88
301.057	371.88
301.288	376.88
301.518	355.88
301.748	364.88
301.979	369.88
302.209	366.88
302.439	372.88
302.669	357.88
302.9	371.88
303.13	373.88
303.36	370.88
303.59	374.88
303.82	381.88
304.051	374.88
304.281	366.88
304.511	378.88
304.741	375.88
304.971	355.88
305.201	370.88
305.431	350.88
305.661	370.88
305.891	367.88
306.121	361.88
306.352	373.88
306.582	370.88
306.812	375.88
307.042	380.88
307.272	354.88
307.502	369.88
307.731	362.88
307.961	351.88
308.191	361.88
308.421	379.88
308.651	356.88
308.881	350.88
309.111	369.88
309.341	375.88
309.571	380.88
309.8	381.88
310.03	406.88
310.26	407.88
310.49	396.88
310.72	387.88
310.949	409.88
311.179	417.88
311.409	406.88
311.639	389.88
311.868	390.88
312.098	414.88
312.328	409.88
312.557	419.88
312.787	403.88
313.017	412.88
313.246	423.88
313.476	400.88
313.706	390.88
313.935	425.88
314.165	429.88
314.394	425.88
314.624	403.88
314.853	419.88
315.083	414.88
315.312	413.88
315.542	402.88
315.771	385.88
316.001	408.88
316.23	421.88
316.46	429.88
316.689	411.88
316.919	413.88
317.148	419.88
317.377	419.88
317.607	394.88
317.836	391.88
318.065	402.88
318.295	411.88
318.524	412.88
318.753	417.88
318.983	413.88
319.212	417.88
319.441	406.88
319.67	410.88
319.9	386.88
320.129	408.88
320.358	419.88
320.587	399.88
320.816	427.88
321.046	426.88
321.275	422.88
321.504	440.88
321.733	435.88
321.962	432.88
322.191	441.88
322.42	442.88
322.649	460.88
322.878	437.88
323.108	473.88
323.337	451.88
323.566	482.88
323.795	501.88
324.024	537.88
324.253	602.88
324.482	781.88
324.71	1114.88
324.939	1578.88
325.168	1400.88
325.397	759.88
325.626	587.88
325.855	518.88
326.084	485.88
326.313	480.88
326.542	485.88
326.77	517.88
326.999	581.88
327.228	721.88
327.457	1005.88
327.686	1233.88
327.914	854.88
328.143	621.88
328.372	550.88
328.6	542.88
328.829	539.88
329.058	527.88
329.287	536.88
329.515	514.88
329.744	517.88
329.972	503.88
330.201	526.88
330.43	534.88
330.658	569.88
330.887	573.88
331.115	575.88
331.344	520.88
331.572	505.88
331.801	489.88
332.03	515.88
332.258	489.88
332.486	473.88
332.715	503.88
332.943	525.88
333.172	516.88
333.4	498.88
333.629	517.88
333.857	558.88
334.085	542.88
334.314	553.88
334.542	567.88
334.771	567.88
334.999	558.88
335.227	525.88
335.455	480.88
335.684	494.88
335.912	481.88
336.14	484.88
336.369	497.88
336.597	491.88
336.825	494.88
337.053	482.88
337.281	489.88
337.51	483.88
337.738	483.88
337.966	469.88
338.194	471.88
338.422	462.88
338.65	459.88
338.878	459.88
339.106	459.88
339.334	461.88
339.562	476.88
339.79	476.88
340.018	454.88
340.246	449.88
340.474	477.88
340.702	468.88
340.93	461.88
341.158	446.88
341.386	466.88
341.614	470.88
341.842	451.88
342.07	448.88
342.298	452.88
342.526	453.88
342.754	430.88
342.981	445.88
343.209	450.88
343.437	455.88
343.665	477.88
343.893	507.88
344.12	510.88
344.348	502.88
344.576	488.88
344.804	475.88
345.031	477.88
345.259	485.88
345.487	467.88
345.714	451.88
345.942	452.88
346.17	435.88
346.397	441.88
346.625	444.88
346.853	459.88
347.08	440.88
347.308	435.88
347.535	443.88
347.763	461.88
347.99	444.88
348.218	445.88
348.445	450.88
348.673	448.88
348.9	428.88
349.128	439.88
349.355	439.88
349.583	445.88
349.81	422.88
350.037	422.88
350.265	416.88
350.492	431.88
350.72	441.88
350.947	443.88
351.174	426.88
351.402	439.88
351.629	429.88
351.856	411.88
352.083	441.88
352.311	461.88
352.538	455.88
352.765	453.88
352.992	451.88
353.22	433.88
353.447	447.88
353.674	442.88
353.901	447.88
354.128	431.88
354.355	426.88
354.583	422.88
354.81	415.88
355.037	418.88
355.264	407.88
355.491	421.88
355.718	411.88
355.945	430.88
356.172	430.88
356.399	417.88
356.626	421.88
356.853	458.88
357.08	430.88
357.307	398.88
357.534	421.88
357.761	422.88
357.988	422.88
358.215	432.88
358.441	426.88
358.668	425.88
358.895	430.88
359.122	419.88
359.349	417.88
359.576	430.88
359.802	457.88
360.029	475.88
360.256	481.88
360.483	436.88
360.709	420.88
360.936	433.88
361.163	443.88
361.39	453.88
361.616	443.88
361.843	436.88
362.07	443.88
362.296	435.88
362.523	430.88
362.749	439.88
362.976	433.88
363.203	427.88
363.429	434.88
363.656	428.88
363.882	439.88
364.109	425.88
364.335	423.88
364.562	440.88
364.788	422.88
365.015	436.88
365.241	431.88
365.468	401.88
365.694	429.88
365.92	419.88
366.147	427.88
366.373	437.88
366.599	422.88
366.826	425.88
367.052	409.88
367.278	429.88
367.505	422.88
367.731	403.88
367.957	414.88
368.184	417.88
368.41	437.88
368.636	427.88
368.862	427.88
369.089	445.88
369.315	420.88
369.541	416.88
369.767	430.88
369.993	416.88
370.219	429.88
370.445	420.88
370.672	411.88
370.898	423.88
371.124	404.88
371.35	441.88
371.576	419.88
371.802	405.88
372.028	425.88
372.254	414.88
372.48	431.88
372.706	425.88
372.932	460.88
373.158	449.88
373.384	454.88
373.61	434.88
373.835	434.88
374.061	432.88
374.287	439.88
374.513	444.88
374.739	422.88
374.965	456.88
375.191	445.88
375.416	467.88
375.642	439.88
375.868	438.88
376.094	421.88
376.319	443.88
376.545	430.88
376.771	426.88
376.997	428.88
377.222	429.88
377.448	415.88
377.674	439.88
377.899	440.88
378.125	406.88
378.35	429.88
378.576	409.88
378.802	419.88
379.027	434.88
379.253	429.88
379.478	439.88
379.704	443.88
379.929	425.88
380.155	445.88
380.38	430.88
380.606	417.88
380.831	424.88
381.057	450.88
381.282	430.88
381.507	404.88
381.733	443.88
381.958	411.88
382.184	425.88
382.409	422.88
382.634	438.88
382.86	465.88
383.085	462.88
383.31	489.88
383.535	467.88
383.761	470.88
383.986	502.88
384.211	468.88
384.436	466.88
384.662	467.88
384.887	501.88
385.112	480.88
385.337	507.88
385.562	504.88
385.787	477.88
386.013	487.88
386.238	505.88
386.463	501.88
386.688	482.88
386.913	483.88
387.138	472.88
387.363	467.88
387.588	483.88
387.813	497.88
388.038	480.88
388.263	485.88
388.488	474.88
388.713	489.88
388.938	518.88
389.163	502.88
389.387	485.88
389.612	473.88
389.837	492.88
390.062	484.88
390.287	477.88
390.512	473.88
390.736	492.88
390.961	492.88
391.186	521.88
391.411	487.88
391.636	521.88
391.86	513.88
392.085	520.88
392.31	509.88
392.534	531.88
392.759	494.88
392.984	497.88
393.208	491.88
393.433	463.88
393.658	478.88
393.882	518.88
394.107	481.88
394.331	489.88
394.556	496.88
394.78	490.88
395.005	518.88
395.229	510.88
395.454	522.88
395.678	535.88
395.903	537.88
396.127	531.88
396.352	532.88
396.576	531.88
396.801	487.88
397.025	518.88
397.249	521.88
397.474	529.88
397.698	542.88
397.922	543.88
398.147	535.88
398.371	571.88
398.595	550.88
398.82	570.88
399.044	580.88
399.268	617.88
399.492	653.88
399.717	727.88
399.941	731.88
400.165	727.88
400.389	711.88
400.613	651.88
400.837	628.88
401.062	585.88
401.286	595.88
401.51	588.88
401.734	563.88
401.958	579.88
402.182	567.88
402.406	602.88
402.63	595.88
402.854	585.88
403.078	589.88
403.302	602.88
403.526	614.88
403.75	598.88
403.974	627.88
404.198	629.88
404.422	622.88
404.645	631.88
404.869	607.88
405.093	647.88
405.317	693.88
405.541	695.88
405.765	642.88
405.988	633.88
406.212	635.88
406.436	615.88
406.66	666.88
406.883	639.88
407.107	669.88
407.331	698.88
407.555	757.88
407.778	765.88
408.002	698.88
408.226	675.88
408.449	643.88
408.673	669.88
408.896	665.88
409.12	699.88
409.344	685.88
409.567	626.88
409.791	618.88
410.014	612.88
410.238	567.88
410.461	581.88
410.685	597.88
410.908	606.88
411.132	630.88
411.355	659.88
411.578	626.88
411.802	583.88
412.025	603.88
412.249	599.88
412.472	598.88
412.695	656.88
412.919	635.88
413.142	591.88
413.365	579.88
413.589	566.88
413.812	574.88
414.035	582.88
414.258	571.88
414.482	571.88
414.705	567.88
414.928	553.88
415.151	579.88
415.374	561.88
415.597	571.88
415.821	545.88
416.044	546.88
416.267	537.88
416.49	561.88
416.713	558.88
416.936	570.88
417.159	584.88
417.382	558.88
417.605	575.88
417.828	581.88
418.051	585.88
418.274	595.88
418.497	561.88
418.72	578.88
418.943	577.88
419.166	584.88
419.389	637.88
419.611	634.88
419.834	609.88
420.057	598.88
420.28	597.88
420.503	567.88
420.726	596.88
420.948	585.88
421.171	600.88
421.394	629.88
421.617	612.88
421.839	556.88
422.062	571.88
422.285	605.88
422.507	652.88
422.73	705.88
422.953	701.88
423.175	634.88
423.398	638.88
423.621	579.88
423.843	632.88
424.066	637.88
424.288	638.88
424.511	644.88
424.733	680.88
424.956	730.88
425.178	708.88
425.401	705.88
425.623	709.88
425.846	646.88
426.068	597.88
426.291	592.88
426.513	582.88
426.735	612.88
426.958	631.88
427.18	699.88
427.402	791.88
427.625	874.88
427.847	744.88
428.069	669.88
428.292	611.88
428.514	586.88
428.736	555.88
428.958	581.88
429.181	555.88
429.403	535.88
429.625	540.88
429.847	575.88
430.069	631.88
430.292	635.88
430.514	552.88
430.736	554.88
430.958	548.88
431.18	516.88
431.402	540.88
431.624	509.88
431.846	511.88
432.068	541.88
432.29	539.88
432.512	539.88
432.734	534.88
432.956	545.88
433.178	538.88
433.4	539.88
433.622	534.88
433.844	526.88
434.066	533.88
434.287	543.88
434.509	541.88
434.731	567.88
434.953	587.88
435.175	620.88
435.397	605.88
435.618	614.88
435.84	623.88
436.062	716.88
436.284	766.88
436.505	633.88
436.727	597.88
436.949	571.88
437.17	562.88
437.392	551.88
437.614	559.88
437.835	577.88
438.057	633.88
438.278	725.88
438.5	729.88
438.721	771.88
438.943	769.88
439.165	632.88
439.386	603.88
439.608	582.88
439.829	605.88
440.05	614.88
440.272	640.88
440.493	619.88
440.715	568.88
440.936	573.88
441.158	584.88
441.379	543.88
441.6	582.88
441.822	593.88
442.043	616.88
442.264	690.88
442.486	716.88
442.707	621.88
442.928	632.88
443.149	606.88
443.371	645.88
443.592	675.88
443.813	760.88
444.034	777.88
444.255	681.88
444.476	652.88
444.698	632.88
444.919	630.88
445.14	738.88
445.361	661.88
445.582	665.88
445.803	678.88
446.024	753.88
446.245	737.88
446.466	702.88
446.687	625.88
446.908	593.88
447.129	571.88
447.35	571.88
447.571	562.88
447.792	524.88
448.013	531.88
448.234	542.88
448.455	599.88
448.675	653.88
448.896	787.88
449.117	677.88
449.338	659.88
449.559	739.88
449.779	819.88
450	669.88
450.221	567.88
450.442	524.88
450.662	525.88
450.883	535.88
451.104	550.88
451.324	527.88
451.545	507.88
451.766	503.88
451.986	477.88
452.207	481.88
452.428	483.88
452.648	485.88
452.869	470.88
453.089	478.88
453.31	514.88
453.53	486.88
453.751	494.88
453.971	487.88
454.192	500.88
454.412	494.88
454.633	477.88
454.853	467.88
455.073	466.88
455.294	519.88
455.514	534.88
455.734	530.88
455.955	487.88
456.175	470.88
456.395	478.88
456.616	465.88
456.836	473.88
457.056	461.88
457.276	468.88
457.497	460.88
457.717	469.88
457.937	467.88
458.157	476.88
458.377	489.88
458.598	491.88
458.818	513.88
459.038	573.88
459.258	624.88
459.478	533.88
459.698	526.88
459.918	526.88
460.138	529.88
460.358	543.88
460.578	566.88
460.798	571.88
461.018	583.88
461.238	563.88
461.458	566.88
461.678	545.88
461.898	565.88
462.118	569.88
462.338	565.88
462.558	616.88
462.777	594.88
462.997	641.88
463.217	670.88
463.437	639.88
463.657	633.88
463.876	609.88
464.096	616.88
464.316	630.88
464.536	645.88
464.755	625.88
464.975	625.88
465.195	605.88
465.414	629.88
465.634	585.88
465.854	559.88
466.073	539.88
466.293	523.88
466.512	507.88
466.732	521.88
466.951	520.88
467.171	509.88
467.391	511.88
467.61	503.88
467.829	509.88
468.049	508.88
468.268	502.88
468.488	509.88
468.707	498.88
468.927	490.88
469.146	485.88
469.365	497.88
469.585	509.88
469.804	493.88
470.023	511.88
470.243	517.88
470.462	533.88
470.681	523.88
470.901	542.88
471.12	529.88
471.339	525.88
471.558	507.88
471.777	522.88
471.997	512.88
472.216	487.88
472.435	540.88
472.654	518.88
472.873	498.88
473.092	498.88
473.311	492.88
473.53	513.88
473.749	507.88
473.968	528.88
474.187	614.88
474.406	643.88
474.625	558.88
474.844	531.88
475.063	508.88
475.282	526.88
475.501	518.88
475.72	507.88
475.939	505.88
476.158	545.88
476.377	507.88
476.596	528.88
476.814	517.88
477.033	550.88
477.252	530.88
477.471	526.88
477.69	545.88
477.908	577.88
478.127	575.88
478.346	547.88
478.564	552.88
478.783	578.88
479.002	600.88
479.22	619.88
479.439	605.88
479.658	613.88
479.876	610.88
480.095	635.88
480.313	663.88
480.532	638.88
480.751	649.88
480.969	647.88
481.188	668.88
481.406	675.88
481.624	627.88
481.843	597.88
482.061	590.88
482.28	593.88
482.498	592.88
482.717	577.88
482.935	570.88
483.153	568.88
483.372	584.88
483.59	570.88
483.808	596.88
484.027	599.88
484.245	572.88
484.463	589.88
484.681	577.88
484.9	611.88
485.118	626.88
485.336	605.88
485.554	584.88
485.772	603.88
485.99	610.88
486.209	604.88
486.427	622.88
486.645	636.88
486.863	627.88
487.081	614.88
487.299	621.88
487.517	635.88
487.735	626.88
487.953	608.88
488.171	611.88
488.389	639.88
488.607	623.88
488.825	621.88
489.043	635.88
489.261	614.88
489.479	629.88
489.696	645.88
489.914	628.88
490.132	604.88
490.35	685.88
490.568	649.88
490.786	653.88
491.003	671.88
491.221	666.88
491.439	690.88
491.657	685.88
491.874	678.88
492.092	720.88
492.31	694.88
492.527	722.88
492.745	710.88
492.963	718.88
493.18	724.88
493.398	734.88
493.615	752.88
493.833	716.88
494.05	723.88
494.268	755.88
494.485	731.88
494.703	712.88
494.92	718.88
495.138	710.88
495.355	738.88
495.573	752.88
495.79	713.88
496.008	719.88
496.225	757.88
496.442	723.88
496.66	749.88
496.877	734.88
497.094	763.88
497.312	781.88
497.529	796.88
497.746	812.88
497.963	797.88
498.181	832.88
498.398	867.88
498.615	869.88
498.832	873.88
499.049	938.88
499.267	929.88
499.484	1009.88
499.701	1064.88
499.918	1108.88
500.135	1193.88
500.352	1273.88
500.569	1342.88
500.786	1305.88
501.003	1321.88
501.22	1178.88
501.437	1146.88
501.654	1074.88
