Data from 1973.PennyLincolnUp.Lamp.En5.5.200Scan.071719.P1.Changed Mount._HRD10591_15-45-19-853.txt Node
Date: Thu Jul 18 15:45:19 EDT 2019
User: cochatt
Spectrometer: HR+D1059
Trigger mode: 1
Integration Time (sec): 1.000000E-1
Scans to average: 1
Electric dark correction enabled: true
Nonlinearity correction enabled: false
Boxcar width: 0
XAxis mode: Wavelengths
Number of Pixels in Spectrum: 2048
>>>>>Begin Spectral Data<<<<<
223.165	-12.44
223.4	-12.44
223.635	-12.44
223.869	-15.44
224.104	-30.44
224.338	-20.44
224.573	-20.44
224.808	-22.44
225.042	2.56
225.277	-11.44
225.511	-8.44
225.746	5.56
225.98	5.56
226.215	9.56
226.449	14.56
226.683	41.56
226.918	29.56
227.152	32.56
227.387	28.56
227.621	45.56
227.856	55.56
228.09	45.56
228.324	55.56
228.559	58.56
228.793	56.56
229.027	98.56
229.262	104.56
229.496	115.56
229.73	131.56
229.964	150.56
230.199	122.56
230.433	111.56
230.667	103.56
230.901	110.56
231.136	122.56
231.37	115.56
231.604	115.56
231.838	101.56
232.072	106.56
232.306	123.56
232.541	107.56
232.775	124.56
233.009	135.56
233.243	114.56
233.477	107.56
233.711	113.56
233.945	124.56
234.179	121.56
234.413	117.56
234.647	115.56
234.881	125.56
235.115	109.56
235.349	116.56
235.583	119.56
235.817	119.56
236.051	135.56
236.285	118.56
236.519	130.56
236.753	123.56
236.987	156.56
237.221	158.56
237.455	224.56
237.689	177.56
237.922	136.56
238.156	139.56
238.39	131.56
238.624	126.56
238.858	147.56
239.091	127.56
239.325	134.56
239.559	139.56
239.793	126.56
240.027	141.56
240.26	147.56
240.494	160.56
240.728	152.56
240.961	165.56
241.195	135.56
241.429	147.56
241.662	131.56
241.896	134.56
242.13	149.56
242.363	129.56
242.597	136.56
242.83	139.56
243.064	143.56
243.298	131.56
243.531	141.56
243.765	151.56
243.998	146.56
244.232	147.56
244.465	150.56
244.699	150.56
244.932	165.56
245.166	161.56
245.399	144.56
245.633	164.56
245.866	139.56
246.099	161.56
246.333	157.56
246.566	146.56
246.8	153.56
247.033	161.56
247.266	153.56
247.5	178.56
247.733	179.56
247.966	184.56
248.2	179.56
248.433	181.56
248.666	177.56
248.899	190.56
249.133	202.56
249.366	226.56
249.599	203.56
249.832	189.56
250.066	163.56
250.299	195.56
250.532	160.56
250.765	185.56
250.998	223.56
251.231	226.56
251.465	208.56
251.698	214.56
251.931	199.56
252.164	185.56
252.397	203.56
252.63	207.56
252.863	216.56
253.096	197.56
253.329	223.56
253.562	227.56
253.795	222.56
254.028	219.56
254.261	220.56
254.494	212.56
254.727	246.56
254.96	284.56
255.193	246.56
255.426	249.56
255.659	233.56
255.892	243.56
256.124	233.56
256.357	232.56
256.59	218.56
256.823	227.56
257.056	222.56
257.289	205.56
257.521	223.56
257.754	212.56
257.987	221.56
258.22	215.56
258.452	227.56
258.685	202.56
258.918	225.56
259.151	218.56
259.383	226.56
259.616	231.56
259.849	226.56
260.081	237.56
260.314	241.56
260.547	250.56
260.779	265.56
261.012	238.56
261.244	233.56
261.477	227.56
261.71	241.56
261.942	217.56
262.175	231.56
262.407	230.56
262.64	246.56
262.872	227.56
263.105	239.56
263.337	229.56
263.57	238.56
263.802	234.56
264.035	239.56
264.267	222.56
264.499	227.56
264.732	240.56
264.964	217.56
265.197	243.56
265.429	238.56
265.661	221.56
265.894	232.56
266.126	225.56
266.358	237.56
266.591	235.56
266.823	242.56
267.055	243.56
267.287	233.56
267.52	243.56
267.752	247.56
267.984	244.56
268.216	247.56
268.448	258.56
268.681	255.56
268.913	257.56
269.145	264.56
269.377	295.56
269.609	312.56
269.841	272.56
270.073	285.56
270.306	309.56
270.538	336.56
270.77	323.56
271.002	308.56
271.234	313.56
271.466	297.56
271.698	326.56
271.93	328.56
272.162	329.56
272.394	321.56
272.626	322.56
272.858	327.56
273.09	306.56
273.322	298.56
273.553	293.56
273.785	286.56
274.017	289.56
274.249	279.56
274.481	291.56
274.713	281.56
274.945	279.56
275.176	305.56
275.408	277.56
275.64	295.56
275.872	260.56
276.104	275.56
276.335	285.56
276.567	286.56
276.799	288.56
277.031	320.56
277.262	335.56
277.494	325.56
277.726	329.56
277.957	316.56
278.189	318.56
278.421	306.56
278.652	298.56
278.884	306.56
279.115	282.56
279.347	303.56
279.579	283.56
279.81	306.56
280.042	301.56
280.273	303.56
280.505	305.56
280.736	297.56
280.968	307.56
281.199	300.56
281.431	299.56
281.662	291.56
281.894	297.56
282.125	300.56
282.356	326.56
282.588	326.56
282.819	320.56
283.051	303.56
283.282	319.56
283.513	320.56
283.745	301.56
283.976	294.56
284.207	303.56
284.439	318.56
284.67	301.56
284.901	332.56
285.132	322.56
285.364	303.56
285.595	322.56
285.826	299.56
286.057	328.56
286.288	327.56
286.52	310.56
286.751	321.56
286.982	310.56
287.213	309.56
287.444	325.56
287.675	321.56
287.906	317.56
288.138	333.56
288.369	345.56
288.6	341.56
288.831	342.56
289.062	331.56
289.293	337.56
289.524	334.56
289.755	318.56
289.986	342.56
290.217	330.56
290.448	314.56
290.679	327.56
290.91	310.56
291.141	329.56
291.371	330.56
291.602	353.56
291.833	337.56
292.064	360.56
292.295	315.56
292.526	335.56
292.757	333.56
292.987	317.56
293.218	322.56
293.449	334.56
293.68	334.56
293.91	330.56
294.141	330.56
294.372	321.56
294.603	305.56
294.833	324.56
295.064	336.56
295.295	337.56
295.525	323.56
295.756	319.56
295.987	342.56
296.217	357.56
296.448	340.56
296.679	362.56
296.909	346.56
297.14	352.56
297.37	355.56
297.601	337.56
297.831	330.56
298.062	342.56
298.292	346.56
298.523	339.56
298.753	338.56
298.984	354.56
299.214	345.56
299.445	356.56
299.675	354.56
299.905	358.56
300.136	364.56
300.366	381.56
300.597	364.56
300.827	368.56
301.057	359.56
301.288	364.56
301.518	379.56
301.748	379.56
301.979	375.56
302.209	371.56
302.439	374.56
302.669	371.56
302.9	362.56
303.13	391.56
303.36	372.56
303.59	390.56
303.82	383.56
304.051	391.56
304.281	365.56
304.511	361.56
304.741	358.56
304.971	385.56
305.201	383.56
305.431	345.56
305.661	361.56
305.891	365.56
306.121	359.56
306.352	365.56
306.582	380.56
306.812	375.56
307.042	372.56
307.272	351.56
307.502	375.56
307.731	358.56
307.961	361.56
308.191	379.56
308.421	381.56
308.651	362.56
308.881	399.56
309.111	389.56
309.341	380.56
309.571	386.56
309.8	393.56
310.03	385.56
310.26	399.56
310.49	393.56
310.72	399.56
310.949	384.56
311.179	411.56
311.409	422.56
311.639	424.56
311.868	417.56
312.098	409.56
312.328	403.56
312.557	417.56
312.787	403.56
313.017	405.56
313.246	397.56
313.476	421.56
313.706	423.56
313.935	389.56
314.165	426.56
314.394	434.56
314.624	420.56
314.853	416.56
315.083	397.56
315.312	416.56
315.542	403.56
315.771	419.56
316.001	426.56
316.23	408.56
316.46	392.56
316.689	428.56
316.919	402.56
317.148	412.56
317.377	429.56
317.607	394.56
317.836	422.56
318.065	407.56
318.295	407.56
318.524	398.56
318.753	388.56
318.983	392.56
319.212	404.56
319.441	410.56
319.67	426.56
319.9	422.56
320.129	426.56
320.358	425.56
320.587	397.56
320.816	432.56
321.046	439.56
321.275	426.56
321.504	425.56
321.733	424.56
321.962	440.56
322.191	434.56
322.42	436.56
322.649	460.56
322.878	441.56
323.108	459.56
323.337	474.56
323.566	482.56
323.795	505.56
324.024	509.56
324.253	607.56
324.482	776.56
324.71	1141.56
324.939	1621.56
325.168	1400.56
325.397	793.56
325.626	602.56
325.855	511.56
326.084	504.56
326.313	491.56
326.542	493.56
326.77	532.56
326.999	579.56
327.228	739.56
327.457	1045.56
327.686	1254.56
327.914	860.56
328.143	626.56
328.372	592.56
328.6	543.56
328.829	543.56
329.058	557.56
329.287	558.56
329.515	520.56
329.744	517.56
329.972	512.56
330.201	507.56
330.43	559.56
330.658	564.56
330.887	578.56
331.115	571.56
331.344	524.56
331.572	495.56
331.801	515.56
332.03	521.56
332.258	492.56
332.486	524.56
332.715	494.56
332.943	497.56
333.172	503.56
333.4	516.56
333.629	520.56
333.857	542.56
334.085	538.56
334.314	563.56
334.542	558.56
334.771	564.56
334.999	552.56
335.227	535.56
335.455	520.56
335.684	499.56
335.912	504.56
336.14	489.56
336.369	489.56
336.597	503.56
336.825	485.56
337.053	490.56
337.281	492.56
337.51	499.56
337.738	489.56
337.966	484.56
338.194	498.56
338.422	477.56
338.65	479.56
338.878	459.56
339.106	489.56
339.334	477.56
339.562	471.56
339.79	454.56
340.018	455.56
340.246	461.56
340.474	466.56
340.702	455.56
340.93	466.56
341.158	463.56
341.386	471.56
341.614	478.56
341.842	486.56
342.07	465.56
342.298	441.56
342.526	441.56
342.754	456.56
342.981	462.56
343.209	458.56
343.437	466.56
343.665	472.56
343.893	485.56
344.12	488.56
344.348	509.56
344.576	480.56
344.804	490.56
345.031	479.56
345.259	486.56
345.487	468.56
345.714	465.56
345.942	441.56
346.17	474.56
346.397	451.56
346.625	451.56
346.853	435.56
347.08	438.56
347.308	441.56
347.535	429.56
347.763	453.56
347.99	467.56
348.218	469.56
348.445	454.56
348.673	434.56
348.9	433.56
349.128	445.56
349.355	429.56
349.583	440.56
349.81	425.56
350.037	437.56
350.265	428.56
350.492	429.56
350.72	461.56
350.947	446.56
351.174	457.56
351.402	445.56
351.629	422.56
351.856	439.56
352.083	453.56
352.311	461.56
352.538	437.56
352.765	437.56
352.992	451.56
353.22	455.56
353.447	434.56
353.674	445.56
353.901	439.56
354.128	438.56
354.355	402.56
354.583	421.56
354.81	424.56
355.037	410.56
355.264	423.56
355.491	417.56
355.718	399.56
355.945	428.56
356.172	419.56
356.399	409.56
356.626	429.56
356.853	421.56
357.08	414.56
357.307	410.56
357.534	408.56
357.761	429.56
357.988	412.56
358.215	395.56
358.441	412.56
358.668	429.56
358.895	431.56
359.122	419.56
359.349	426.56
359.576	428.56
359.802	433.56
360.029	445.56
360.256	452.56
360.483	451.56
360.709	445.56
360.936	444.56
361.163	446.56
361.39	442.56
361.616	437.56
361.843	438.56
362.07	421.56
362.296	449.56
362.523	439.56
362.749	436.56
362.976	435.56
363.203	453.56
363.429	403.56
363.656	434.56
363.882	446.56
364.109	426.56
364.335	417.56
364.562	418.56
364.788	429.56
365.015	428.56
365.241	428.56
365.468	431.56
365.694	447.56
365.92	408.56
366.147	421.56
366.373	417.56
366.599	427.56
366.826	415.56
367.052	413.56
367.278	399.56
367.505	439.56
367.731	412.56
367.957	411.56
368.184	433.56
368.41	426.56
368.636	424.56
368.862	436.56
369.089	424.56
369.315	430.56
369.541	435.56
369.767	438.56
369.993	421.56
370.219	439.56
370.445	445.56
370.672	425.56
370.898	415.56
371.124	413.56
371.35	434.56
371.576	447.56
371.802	452.56
372.028	429.56
372.254	438.56
372.48	442.56
372.706	424.56
372.932	431.56
373.158	430.56
373.384	439.56
373.61	433.56
373.835	431.56
374.061	438.56
374.287	435.56
374.513	436.56
374.739	451.56
374.965	451.56
375.191	478.56
375.416	457.56
375.642	447.56
375.868	446.56
376.094	451.56
376.319	411.56
376.545	453.56
376.771	453.56
376.997	450.56
377.222	435.56
377.448	461.56
377.674	438.56
377.899	417.56
378.125	435.56
378.35	438.56
378.576	429.56
378.802	430.56
379.027	443.56
379.253	451.56
379.478	427.56
379.704	406.56
379.929	435.56
380.155	427.56
380.38	435.56
380.606	441.56
380.831	436.56
381.057	435.56
381.282	426.56
381.507	447.56
381.733	440.56
381.958	444.56
382.184	430.56
382.409	424.56
382.634	443.56
382.86	439.56
383.085	454.56
383.31	456.56
383.535	475.56
383.761	456.56
383.986	461.56
384.211	451.56
384.436	490.56
384.662	476.56
384.887	478.56
385.112	486.56
385.337	471.56
385.562	482.56
385.787	467.56
386.013	503.56
386.238	489.56
386.463	498.56
386.688	504.56
386.913	490.56
387.138	498.56
387.363	499.56
387.588	506.56
387.813	507.56
388.038	492.56
388.263	491.56
388.488	470.56
388.713	482.56
388.938	488.56
389.163	486.56
389.387	502.56
389.612	503.56
389.837	484.56
390.062	485.56
390.287	492.56
390.512	468.56
390.736	485.56
390.961	507.56
391.186	507.56
391.411	498.56
391.636	519.56
391.86	540.56
392.085	505.56
392.31	502.56
392.534	524.56
392.759	511.56
392.984	503.56
393.208	498.56
393.433	517.56
393.658	490.56
393.882	518.56
394.107	499.56
394.331	491.56
394.556	502.56
394.78	489.56
395.005	489.56
395.229	515.56
395.454	525.56
395.678	511.56
395.903	524.56
396.127	568.56
396.352	543.56
396.576	527.56
396.801	508.56
397.025	518.56
397.249	532.56
397.474	533.56
397.698	517.56
397.922	546.56
398.147	557.56
398.371	567.56
398.595	568.56
398.82	570.56
399.044	601.56
399.268	631.56
399.492	693.56
399.717	710.56
399.941	746.56
400.165	734.56
400.389	715.56
400.613	682.56
400.837	615.56
401.062	596.56
401.286	592.56
401.51	572.56
401.734	566.56
401.958	583.56
402.182	587.56
402.406	598.56
402.63	587.56
402.854	596.56
403.078	593.56
403.302	609.56
403.526	612.56
403.75	636.56
403.974	620.56
404.198	613.56
404.422	626.56
404.645	613.56
404.869	620.56
405.093	645.56
405.317	667.56
405.541	715.56
405.765	680.56
405.988	614.56
406.212	647.56
406.436	653.56
406.66	664.56
406.883	637.56
407.107	684.56
407.331	735.56
407.555	791.56
407.778	774.56
408.002	704.56
408.226	674.56
408.449	662.56
408.673	665.56
408.896	668.56
409.12	698.56
409.344	664.56
409.567	634.56
409.791	605.56
410.014	604.56
410.238	615.56
410.461	606.56
410.685	623.56
410.908	626.56
411.132	633.56
411.355	667.56
411.578	649.56
411.802	604.56
412.025	594.56
412.249	596.56
412.472	609.56
412.695	669.56
412.919	656.56
413.142	603.56
413.365	590.56
413.589	591.56
413.812	574.56
414.035	579.56
414.258	559.56
414.482	546.56
414.705	579.56
414.928	572.56
415.151	566.56
415.374	558.56
415.597	564.56
415.821	563.56
416.044	571.56
416.267	556.56
416.49	569.56
416.713	580.56
416.936	563.56
417.159	571.56
417.382	562.56
417.605	569.56
417.828	563.56
418.051	561.56
418.274	575.56
418.497	570.56
418.72	586.56
418.943	590.56
419.166	607.56
419.389	622.56
419.611	587.56
419.834	598.56
420.057	618.56
420.28	592.56
420.503	586.56
420.726	568.56
420.948	608.56
421.171	616.56
421.394	664.56
421.617	609.56
421.839	580.56
422.062	601.56
422.285	596.56
422.507	619.56
422.73	713.56
422.953	710.56
423.175	641.56
423.398	614.56
423.621	619.56
423.843	642.56
424.066	636.56
424.288	635.56
424.511	649.56
424.733	687.56
424.956	738.56
425.178	726.56
425.401	724.56
425.623	747.56
425.846	656.56
426.068	613.56
426.291	606.56
426.513	586.56
426.735	614.56
426.958	647.56
427.18	712.56
427.402	825.56
427.625	920.56
427.847	770.56
428.069	682.56
428.292	618.56
428.514	590.56
428.736	573.56
428.958	569.56
429.181	569.56
429.403	549.56
429.625	556.56
429.847	599.56
430.069	639.56
430.292	649.56
430.514	567.56
430.736	572.56
430.958	561.56
431.18	556.56
431.402	542.56
431.624	516.56
431.846	525.56
432.068	539.56
432.29	548.56
432.512	538.56
432.734	547.56
432.956	534.56
433.178	551.56
433.4	542.56
433.622	532.56
433.844	548.56
434.066	548.56
434.287	536.56
434.509	557.56
434.731	570.56
434.953	579.56
435.175	565.56
435.397	598.56
435.618	619.56
435.84	636.56
436.062	687.56
436.284	755.56
436.505	648.56
436.727	617.56
436.949	582.56
437.17	555.56
437.392	567.56
437.614	582.56
437.835	586.56
438.057	662.56
438.278	734.56
438.5	765.56
438.721	806.56
438.943	791.56
439.165	634.56
439.386	607.56
439.608	589.56
439.829	596.56
440.05	619.56
440.272	641.56
440.493	603.56
440.715	593.56
440.936	584.56
441.158	575.56
441.379	572.56
441.6	585.56
441.822	624.56
442.043	642.56
442.264	691.56
442.486	721.56
442.707	653.56
442.928	634.56
443.149	632.56
443.371	636.56
443.592	656.56
443.813	742.56
444.034	790.56
444.255	705.56
444.476	657.56
444.698	641.56
444.919	654.56
445.14	701.56
445.361	677.56
445.582	631.56
445.803	678.56
446.024	757.56
446.245	760.56
446.466	734.56
446.687	637.56
446.908	599.56
447.129	574.56
447.35	554.56
447.571	545.56
447.792	522.56
448.013	549.56
448.234	558.56
448.455	617.56
448.675	676.56
448.896	783.56
449.117	686.56
449.338	657.56
449.559	727.56
449.779	803.56
450	675.56
450.221	591.56
450.442	565.56
450.662	544.56
450.883	522.56
451.104	523.56
451.324	524.56
451.545	526.56
451.766	498.56
451.986	483.56
452.207	469.56
452.428	495.56
452.648	488.56
452.869	498.56
453.089	499.56
453.31	510.56
453.53	509.56
453.751	515.56
453.971	489.56
454.192	504.56
454.412	493.56
454.633	474.56
454.853	490.56
455.073	463.56
455.294	489.56
455.514	541.56
455.734	550.56
455.955	493.56
456.175	450.56
456.395	465.56
456.616	449.56
456.836	475.56
457.056	468.56
457.276	462.56
457.497	468.56
457.717	466.56
457.937	462.56
458.157	476.56
458.377	481.56
458.598	497.56
458.818	564.56
459.038	593.56
459.258	645.56
459.478	553.56
459.698	553.56
459.918	535.56
460.138	552.56
460.358	559.56
460.578	563.56
460.798	579.56
461.018	554.56
461.238	581.56
461.458	562.56
461.678	562.56
461.898	550.56
462.118	571.56
462.338	574.56
462.558	620.56
462.777	605.56
462.997	631.56
463.217	669.56
463.437	652.56
463.657	661.56
463.876	625.56
464.096	638.56
464.316	641.56
464.536	621.56
464.755	614.56
464.975	610.56
465.195	634.56
465.414	653.56
465.634	593.56
465.854	579.56
466.073	540.56
466.293	534.56
466.512	517.56
466.732	526.56
466.951	509.56
467.171	510.56
467.391	539.56
467.61	510.56
467.829	527.56
468.049	525.56
468.268	502.56
468.488	508.56
468.707	489.56
468.927	523.56
469.146	503.56
469.365	499.56
469.585	485.56
469.804	502.56
470.023	498.56
470.243	509.56
470.462	521.56
470.681	521.56
470.901	547.56
471.12	503.56
471.339	525.56
471.558	497.56
471.777	524.56
471.997	502.56
472.216	520.56
472.435	537.56
472.654	501.56
472.873	497.56
473.092	512.56
473.311	515.56
473.53	489.56
473.749	522.56
473.968	545.56
474.187	635.56
474.406	648.56
474.625	559.56
474.844	506.56
475.063	523.56
475.282	514.56
475.501	501.56
475.72	518.56
475.939	506.56
476.158	532.56
476.377	550.56
476.596	505.56
476.814	535.56
477.033	521.56
477.252	533.56
477.471	541.56
477.69	565.56
477.908	558.56
478.127	555.56
478.346	573.56
478.564	590.56
478.783	589.56
479.002	592.56
479.22	613.56
479.439	614.56
479.658	618.56
479.876	616.56
480.095	638.56
480.313	647.56
480.532	662.56
480.751	651.56
480.969	636.56
481.188	669.56
481.406	683.56
481.624	630.56
481.843	612.56
482.061	602.56
482.28	566.56
482.498	600.56
482.717	580.56
482.935	582.56
483.153	586.56
483.372	587.56
483.59	569.56
483.808	574.56
484.027	585.56
484.245	607.56
484.463	580.56
484.681	619.56
484.9	612.56
485.118	607.56
485.336	595.56
485.554	609.56
485.772	619.56
485.99	612.56
486.209	635.56
486.427	617.56
486.645	619.56
486.863	634.56
487.081	639.56
487.299	611.56
487.517	629.56
487.735	625.56
487.953	629.56
488.171	634.56
488.389	634.56
488.607	618.56
488.825	613.56
489.043	643.56
489.261	629.56
489.479	623.56
489.696	635.56
489.914	657.56
490.132	654.56
490.35	649.56
490.568	687.56
490.786	681.56
491.003	706.56
491.221	685.56
491.439	695.56
491.657	698.56
491.874	706.56
492.092	701.56
492.31	741.56
492.527	729.56
492.745	709.56
492.963	727.56
493.18	718.56
493.398	743.56
493.615	748.56
493.833	719.56
494.05	717.56
494.268	744.56
494.485	722.56
494.703	724.56
494.92	739.56
495.138	743.56
495.355	748.56
495.573	736.56
495.79	714.56
496.008	726.56
496.225	738.56
496.442	763.56
496.66	747.56
496.877	766.56
497.094	760.56
497.312	766.56
497.529	795.56
497.746	797.56
497.963	805.56
498.181	852.56
498.398	841.56
498.615	866.56
498.832	890.56
499.049	918.56
499.267	969.56
499.484	1020.56
499.701	1059.56
499.918	1112.56
500.135	1201.56
500.352	1276.56
500.569	1315.56
500.786	1295.56
501.003	1269.56
501.22	1229.56
501.437	1146.56
501.654	1103.56
