Data from 1973.PennyLincolnUp.Lamp.En5.5.200Scan.071719.P1.Changed Mount._HRD10591_15-43-57-852.txt Node
Date: Thu Jul 18 15:43:57 EDT 2019
User: cochatt
Spectrometer: HR+D1059
Trigger mode: 1
Integration Time (sec): 1.000000E-1
Scans to average: 1
Electric dark correction enabled: true
Nonlinearity correction enabled: false
Boxcar width: 0
XAxis mode: Wavelengths
Number of Pixels in Spectrum: 2048
>>>>>Begin Spectral Data<<<<<
223.165	-16.75
223.4	-16.75
223.635	-16.75
223.869	-11.75
224.104	-23.75
224.338	-19.75
224.573	-4.75
224.808	-5.75
225.042	-17.75
225.277	-2.75
225.511	-0.75
225.746	3.25
225.98	17.25
226.215	7.25
226.449	-2.75
226.683	23.25
226.918	22.25
227.152	33.25
227.387	28.25
227.621	22.25
227.856	51.25
228.09	44.25
228.324	59.25
228.559	54.25
228.793	63.25
229.027	95.25
229.262	93.25
229.496	112.25
229.73	131.25
229.964	135.25
230.199	123.25
230.433	102.25
230.667	105.25
230.901	102.25
231.136	114.25
231.37	112.25
231.604	119.25
231.838	118.25
232.072	104.25
232.306	112.25
232.541	108.25
232.775	109.25
233.009	115.25
233.243	104.25
233.477	111.25
233.711	123.25
233.945	135.25
234.179	127.25
234.413	93.25
234.647	119.25
234.881	120.25
235.115	132.25
235.349	125.25
235.583	124.25
235.817	117.25
236.051	127.25
236.285	117.25
236.519	111.25
236.753	131.25
236.987	134.25
237.221	152.25
237.455	208.25
237.689	151.25
237.922	122.25
238.156	119.25
238.39	136.25
238.624	129.25
238.858	107.25
239.091	117.25
239.325	125.25
239.559	112.25
239.793	129.25
240.027	126.25
240.26	140.25
240.494	141.25
240.728	155.25
240.961	133.25
241.195	129.25
241.429	148.25
241.662	136.25
241.896	126.25
242.13	151.25
242.363	145.25
242.597	123.25
242.83	141.25
243.064	134.25
243.298	146.25
243.531	145.25
243.765	145.25
243.998	139.25
244.232	143.25
244.465	135.25
244.699	145.25
244.932	150.25
245.166	147.25
245.399	150.25
245.633	155.25
245.866	133.25
246.099	152.25
246.333	155.25
246.566	159.25
246.8	155.25
247.033	170.25
247.266	149.25
247.5	160.25
247.733	166.25
247.966	165.25
248.2	172.25
248.433	168.25
248.666	157.25
248.899	174.25
249.133	187.25
249.366	203.25
249.599	189.25
249.832	183.25
250.066	175.25
250.299	177.25
250.532	181.25
250.765	192.25
250.998	210.25
251.231	212.25
251.465	190.25
251.698	209.25
251.931	195.25
252.164	189.25
252.397	187.25
252.63	202.25
252.863	187.25
253.096	202.25
253.329	205.25
253.562	201.25
253.795	201.25
254.028	205.25
254.261	213.25
254.494	216.25
254.727	227.25
254.96	253.25
255.193	236.25
255.426	234.25
255.659	221.25
255.892	221.25
256.124	229.25
256.357	219.25
256.59	195.25
256.823	208.25
257.056	203.25
257.289	209.25
257.521	224.25
257.754	226.25
257.987	201.25
258.22	220.25
258.452	188.25
258.685	189.25
258.918	200.25
259.151	212.25
259.383	218.25
259.616	225.25
259.849	220.25
260.081	232.25
260.314	246.25
260.547	232.25
260.779	218.25
261.012	239.25
261.244	218.25
261.477	228.25
261.71	221.25
261.942	230.25
262.175	228.25
262.407	223.25
262.64	221.25
262.872	219.25
263.105	215.25
263.337	214.25
263.57	201.25
263.802	219.25
264.035	224.25
264.267	210.25
264.499	202.25
264.732	209.25
264.964	230.25
265.197	221.25
265.429	220.25
265.661	223.25
265.894	212.25
266.126	236.25
266.358	218.25
266.591	214.25
266.823	233.25
267.055	234.25
267.287	230.25
267.52	215.25
267.752	227.25
267.984	237.25
268.216	256.25
268.448	239.25
268.681	239.25
268.913	252.25
269.145	273.25
269.377	266.25
269.609	270.25
269.841	262.25
270.073	260.25
270.306	289.25
270.538	311.25
270.77	315.25
271.002	294.25
271.234	283.25
271.466	289.25
271.698	309.25
271.93	289.25
272.162	309.25
272.394	304.25
272.626	302.25
272.858	283.25
273.09	290.25
273.322	254.25
273.553	280.25
273.785	273.25
274.017	251.25
274.249	275.25
274.481	283.25
274.713	258.25
274.945	255.25
275.176	248.25
275.408	265.25
275.64	279.25
275.872	265.25
276.104	291.25
276.335	273.25
276.567	271.25
276.799	264.25
277.031	306.25
277.262	315.25
277.494	329.25
277.726	299.25
277.957	289.25
278.189	290.25
278.421	278.25
278.652	264.25
278.884	260.25
279.115	281.25
279.347	278.25
279.579	262.25
279.81	293.25
280.042	288.25
280.273	306.25
280.505	287.25
280.736	284.25
280.968	300.25
281.199	291.25
281.431	272.25
281.662	293.25
281.894	280.25
282.125	286.25
282.356	290.25
282.588	305.25
282.819	292.25
283.051	294.25
283.282	297.25
283.513	297.25
283.745	299.25
283.976	302.25
284.207	303.25
284.439	313.25
284.67	294.25
284.901	295.25
285.132	292.25
285.364	316.25
285.595	321.25
285.826	297.25
286.057	300.25
286.288	297.25
286.52	316.25
286.751	303.25
286.982	294.25
287.213	305.25
287.444	301.25
287.675	308.25
287.906	314.25
288.138	310.25
288.369	314.25
288.6	322.25
288.831	337.25
289.062	327.25
289.293	301.25
289.524	324.25
289.755	302.25
289.986	307.25
290.217	293.25
290.448	314.25
290.679	307.25
290.91	313.25
291.141	308.25
291.371	307.25
291.602	290.25
291.833	306.25
292.064	308.25
292.295	311.25
292.526	300.25
292.757	325.25
292.987	312.25
293.218	304.25
293.449	319.25
293.68	308.25
293.91	313.25
294.141	315.25
294.372	300.25
294.603	319.25
294.833	323.25
295.064	329.25
295.295	325.25
295.525	315.25
295.756	315.25
295.987	325.25
296.217	339.25
296.448	335.25
296.679	326.25
296.909	330.25
297.14	329.25
297.37	327.25
297.601	320.25
297.831	328.25
298.062	325.25
298.292	343.25
298.523	330.25
298.753	321.25
298.984	339.25
299.214	351.25
299.445	332.25
299.675	322.25
299.905	334.25
300.136	329.25
300.366	324.25
300.597	331.25
300.827	367.25
301.057	341.25
301.288	359.25
301.518	368.25
301.748	334.25
301.979	348.25
302.209	360.25
302.439	344.25
302.669	343.25
302.9	353.25
303.13	362.25
303.36	354.25
303.59	345.25
303.82	339.25
304.051	368.25
304.281	357.25
304.511	353.25
304.741	353.25
304.971	322.25
305.201	368.25
305.431	345.25
305.661	340.25
305.891	357.25
306.121	346.25
306.352	363.25
306.582	351.25
306.812	350.25
307.042	330.25
307.272	337.25
307.502	347.25
307.731	339.25
307.961	352.25
308.191	364.25
308.421	333.25
308.651	376.25
308.881	337.25
309.111	353.25
309.341	367.25
309.571	372.25
309.8	354.25
310.03	367.25
310.26	377.25
310.49	379.25
310.72	371.25
310.949	376.25
311.179	399.25
311.409	387.25
311.639	372.25
311.868	379.25
312.098	397.25
312.328	379.25
312.557	383.25
312.787	386.25
313.017	393.25
313.246	379.25
313.476	372.25
313.706	370.25
313.935	394.25
314.165	392.25
314.394	399.25
314.624	417.25
314.853	414.25
315.083	379.25
315.312	390.25
315.542	387.25
315.771	401.25
316.001	387.25
316.23	390.25
316.46	388.25
316.689	387.25
316.919	394.25
317.148	391.25
317.377	402.25
317.607	387.25
317.836	375.25
318.065	379.25
318.295	381.25
318.524	392.25
318.753	396.25
318.983	396.25
319.212	388.25
319.441	391.25
319.67	384.25
319.9	395.25
320.129	391.25
320.358	374.25
320.587	381.25
320.816	392.25
321.046	393.25
321.275	390.25
321.504	417.25
321.733	385.25
321.962	380.25
322.191	403.25
322.42	423.25
322.649	427.25
322.878	431.25
323.108	420.25
323.337	425.25
323.566	436.25
323.795	445.25
324.024	488.25
324.253	553.25
324.482	717.25
324.71	1044.25
324.939	1437.25
325.168	1267.25
325.397	691.25
325.626	531.25
325.855	489.25
326.084	459.25
326.313	425.25
326.542	450.25
326.77	467.25
326.999	550.25
327.228	677.25
327.457	943.25
327.686	1131.25
327.914	804.25
328.143	561.25
328.372	544.25
328.6	525.25
328.829	491.25
329.058	487.25
329.287	520.25
329.515	463.25
329.744	455.25
329.972	477.25
330.201	485.25
330.43	482.25
330.658	507.25
330.887	517.25
331.115	539.25
331.344	456.25
331.572	487.25
331.801	499.25
332.03	465.25
332.258	440.25
332.486	451.25
332.715	435.25
332.943	448.25
333.172	475.25
333.4	495.25
333.629	515.25
333.857	522.25
334.085	509.25
334.314	520.25
334.542	525.25
334.771	514.25
334.999	509.25
335.227	500.25
335.455	475.25
335.684	479.25
335.912	450.25
336.14	476.25
336.369	466.25
336.597	469.25
336.825	467.25
337.053	459.25
337.281	467.25
337.51	442.25
337.738	432.25
337.966	448.25
338.194	459.25
338.422	443.25
338.65	442.25
338.878	432.25
339.106	433.25
339.334	449.25
339.562	452.25
339.79	427.25
340.018	442.25
340.246	428.25
340.474	452.25
340.702	410.25
340.93	417.25
341.158	440.25
341.386	440.25
341.614	443.25
341.842	449.25
342.07	427.25
342.298	447.25
342.526	452.25
342.754	437.25
342.981	418.25
343.209	411.25
343.437	426.25
343.665	462.25
343.893	474.25
344.12	487.25
344.348	472.25
344.576	458.25
344.804	459.25
345.031	457.25
345.259	439.25
345.487	447.25
345.714	429.25
345.942	426.25
346.17	440.25
346.397	423.25
346.625	398.25
346.853	415.25
347.08	418.25
347.308	407.25
347.535	438.25
347.763	422.25
347.99	421.25
348.218	429.25
348.445	427.25
348.673	450.25
348.9	425.25
349.128	404.25
349.355	401.25
349.583	394.25
349.81	401.25
350.037	400.25
350.265	402.25
350.492	410.25
350.72	406.25
350.947	406.25
351.174	400.25
351.402	402.25
351.629	420.25
351.856	404.25
352.083	397.25
352.311	423.25
352.538	416.25
352.765	402.25
352.992	404.25
353.22	405.25
353.447	415.25
353.674	394.25
353.901	404.25
354.128	396.25
354.355	400.25
354.583	381.25
354.81	385.25
355.037	413.25
355.264	413.25
355.491	398.25
355.718	383.25
355.945	397.25
356.172	400.25
356.399	403.25
356.626	400.25
356.853	400.25
357.08	397.25
357.307	397.25
357.534	396.25
357.761	392.25
357.988	393.25
358.215	403.25
358.441	405.25
358.668	394.25
358.895	396.25
359.122	397.25
359.349	409.25
359.576	423.25
359.802	420.25
360.029	443.25
360.256	459.25
360.483	448.25
360.709	400.25
360.936	397.25
361.163	404.25
361.39	409.25
361.616	395.25
361.843	408.25
362.07	417.25
362.296	404.25
362.523	402.25
362.749	401.25
362.976	407.25
363.203	421.25
363.429	379.25
363.656	397.25
363.882	397.25
364.109	384.25
364.335	378.25
364.562	409.25
364.788	387.25
365.015	414.25
365.241	383.25
365.468	410.25
365.694	395.25
365.92	381.25
366.147	415.25
366.373	403.25
366.599	423.25
366.826	409.25
367.052	386.25
367.278	380.25
367.505	392.25
367.731	397.25
367.957	401.25
368.184	407.25
368.41	399.25
368.636	389.25
368.862	413.25
369.089	405.25
369.315	390.25
369.541	416.25
369.767	422.25
369.993	380.25
370.219	404.25
370.445	400.25
370.672	393.25
370.898	409.25
371.124	412.25
371.35	407.25
371.576	408.25
371.802	424.25
372.028	406.25
372.254	424.25
372.48	430.25
372.706	431.25
372.932	403.25
373.158	392.25
373.384	409.25
373.61	424.25
373.835	405.25
374.061	417.25
374.287	415.25
374.513	425.25
374.739	409.25
374.965	426.25
375.191	434.25
375.416	405.25
375.642	441.25
375.868	435.25
376.094	423.25
376.319	406.25
376.545	389.25
376.771	409.25
376.997	397.25
377.222	412.25
377.448	419.25
377.674	409.25
377.899	401.25
378.125	411.25
378.35	401.25
378.576	410.25
378.802	403.25
379.027	398.25
379.253	409.25
379.478	393.25
379.704	418.25
379.929	391.25
380.155	392.25
380.38	410.25
380.606	406.25
380.831	395.25
381.057	421.25
381.282	409.25
381.507	415.25
381.733	410.25
381.958	420.25
382.184	406.25
382.409	415.25
382.634	433.25
382.86	421.25
383.085	408.25
383.31	429.25
383.535	442.25
383.761	412.25
383.986	424.25
384.211	422.25
384.436	449.25
384.662	446.25
384.887	433.25
385.112	459.25
385.337	465.25
385.562	453.25
385.787	449.25
386.013	461.25
386.238	470.25
386.463	473.25
386.688	473.25
386.913	454.25
387.138	476.25
387.363	438.25
387.588	453.25
387.813	460.25
388.038	472.25
388.263	444.25
388.488	447.25
388.713	467.25
388.938	472.25
389.163	457.25
389.387	476.25
389.612	454.25
389.837	442.25
390.062	458.25
390.287	447.25
390.512	445.25
390.736	455.25
390.961	473.25
391.186	447.25
391.411	459.25
391.636	482.25
391.86	490.25
392.085	477.25
392.31	467.25
392.534	478.25
392.759	468.25
392.984	484.25
393.208	466.25
393.433	443.25
393.658	467.25
393.882	480.25
394.107	456.25
394.331	493.25
394.556	439.25
394.78	471.25
395.005	469.25
395.229	492.25
395.454	476.25
395.678	483.25
395.903	479.25
396.127	511.25
396.352	532.25
396.576	497.25
396.801	461.25
397.025	494.25
397.249	487.25
397.474	496.25
397.698	515.25
397.922	507.25
398.147	522.25
398.371	513.25
398.595	537.25
398.82	529.25
399.044	546.25
399.268	572.25
399.492	612.25
399.717	652.25
399.941	691.25
400.165	684.25
400.389	669.25
400.613	583.25
400.837	573.25
401.062	535.25
401.286	541.25
401.51	537.25
401.734	547.25
401.958	547.25
402.182	553.25
402.406	555.25
402.63	554.25
402.854	535.25
403.078	536.25
403.302	566.25
403.526	589.25
403.75	591.25
403.974	571.25
404.198	590.25
404.422	580.25
404.645	591.25
404.869	592.25
405.093	592.25
405.317	626.25
405.541	647.25
405.765	615.25
405.988	575.25
406.212	583.25
406.436	618.25
406.66	627.25
406.883	608.25
407.107	649.25
407.331	679.25
407.555	736.25
407.778	722.25
408.002	666.25
408.226	645.25
408.449	612.25
408.673	606.25
408.896	608.25
409.12	653.25
409.344	659.25
409.567	572.25
409.791	545.25
410.014	555.25
410.238	556.25
410.461	562.25
410.685	552.25
410.908	579.25
411.132	608.25
411.355	632.25
411.578	592.25
411.802	551.25
412.025	575.25
412.249	559.25
412.472	580.25
412.695	596.25
412.919	603.25
413.142	547.25
413.365	557.25
413.589	552.25
413.812	493.25
414.035	534.25
414.258	531.25
414.482	516.25
414.705	525.25
414.928	540.25
415.151	534.25
415.374	516.25
415.597	540.25
415.821	508.25
416.044	522.25
416.267	536.25
416.49	504.25
416.713	524.25
416.936	521.25
417.159	498.25
417.382	509.25
417.605	501.25
417.828	516.25
418.051	534.25
418.274	559.25
418.497	539.25
418.72	533.25
418.943	520.25
419.166	569.25
419.389	585.25
419.611	584.25
419.834	545.25
420.057	553.25
420.28	553.25
420.503	531.25
420.726	537.25
420.948	548.25
421.171	613.25
421.394	628.25
421.617	552.25
421.839	561.25
422.062	533.25
422.285	552.25
422.507	572.25
422.73	657.25
422.953	636.25
423.175	568.25
423.398	563.25
423.621	570.25
423.843	581.25
424.066	587.25
424.288	582.25
424.511	592.25
424.733	628.25
424.956	685.25
425.178	680.25
425.401	660.25
425.623	696.25
425.846	613.25
426.068	598.25
426.291	564.25
426.513	569.25
426.735	550.25
426.958	604.25
427.18	640.25
427.402	732.25
427.625	828.25
427.847	717.25
428.069	620.25
428.292	575.25
428.514	519.25
428.736	531.25
428.958	520.25
429.181	531.25
429.403	512.25
429.625	530.25
429.847	546.25
430.069	582.25
430.292	589.25
430.514	537.25
430.736	506.25
430.958	518.25
431.18	496.25
431.402	520.25
431.624	490.25
431.846	484.25
432.068	496.25
432.29	488.25
432.512	510.25
432.734	513.25
432.956	486.25
433.178	485.25
433.4	505.25
433.622	531.25
433.844	525.25
434.066	501.25
434.287	489.25
434.509	515.25
434.731	525.25
434.953	534.25
435.175	555.25
435.397	547.25
435.618	550.25
435.84	580.25
436.062	637.25
436.284	699.25
436.505	617.25
436.727	547.25
436.949	524.25
437.17	536.25
437.392	523.25
437.614	500.25
437.835	533.25
438.057	604.25
438.278	693.25
438.5	682.25
438.721	755.25
438.943	711.25
439.165	576.25
439.386	536.25
439.608	565.25
439.829	563.25
440.05	558.25
440.272	601.25
440.493	580.25
440.715	528.25
440.936	510.25
441.158	527.25
441.379	531.25
441.6	532.25
441.822	569.25
442.043	585.25
442.264	659.25
442.486	681.25
442.707	615.25
442.928	575.25
443.149	564.25
443.371	580.25
443.592	635.25
443.813	727.25
444.034	748.25
444.255	665.25
444.476	613.25
444.698	587.25
444.919	583.25
445.14	689.25
445.361	643.25
445.582	592.25
445.803	634.25
446.024	713.25
446.245	732.25
446.466	661.25
446.687	593.25
446.908	559.25
447.129	511.25
447.35	505.25
447.571	509.25
447.792	506.25
448.013	519.25
448.234	515.25
448.455	559.25
448.675	642.25
448.896	744.25
449.117	614.25
449.338	614.25
449.559	676.25
449.779	789.25
450	637.25
450.221	540.25
450.442	517.25
450.662	504.25
450.883	474.25
451.104	505.25
451.324	499.25
451.545	466.25
451.766	462.25
451.986	445.25
452.207	424.25
452.428	442.25
452.648	459.25
452.869	458.25
453.089	471.25
453.31	466.25
453.53	456.25
453.751	452.25
453.971	466.25
454.192	459.25
454.412	440.25
454.633	444.25
454.853	447.25
455.073	439.25
455.294	467.25
455.514	507.25
455.734	509.25
455.955	447.25
456.175	455.25
456.395	438.25
456.616	434.25
456.836	441.25
457.056	432.25
457.276	425.25
457.497	445.25
457.717	454.25
457.937	449.25
458.157	464.25
458.377	454.25
458.598	476.25
458.818	498.25
459.038	561.25
459.258	583.25
459.478	539.25
459.698	502.25
459.918	498.25
460.138	488.25
460.358	517.25
460.578	515.25
460.798	530.25
461.018	536.25
461.238	534.25
461.458	530.25
461.678	515.25
461.898	529.25
462.118	536.25
462.338	532.25
462.558	543.25
462.777	567.25
462.997	591.25
463.217	619.25
463.437	637.25
463.657	627.25
463.876	601.25
464.096	579.25
464.316	588.25
464.536	586.25
464.755	582.25
464.975	596.25
465.195	568.25
465.414	596.25
465.634	548.25
465.854	522.25
466.073	519.25
466.293	503.25
466.512	480.25
466.732	483.25
466.951	483.25
467.171	470.25
467.391	501.25
467.61	484.25
467.829	472.25
468.049	504.25
468.268	483.25
468.488	450.25
468.707	455.25
468.927	468.25
469.146	460.25
469.365	477.25
469.585	469.25
469.804	454.25
470.023	484.25
470.243	495.25
470.462	487.25
470.681	508.25
470.901	494.25
471.12	484.25
471.339	475.25
471.558	483.25
471.777	484.25
471.997	442.25
472.216	472.25
472.435	511.25
472.654	499.25
472.873	480.25
473.092	489.25
473.311	475.25
473.53	496.25
473.749	475.25
473.968	505.25
474.187	580.25
474.406	595.25
474.625	504.25
474.844	457.25
475.063	492.25
475.282	473.25
475.501	486.25
475.72	497.25
475.939	484.25
476.158	479.25
476.377	500.25
476.596	475.25
476.814	493.25
477.033	505.25
477.252	523.25
477.471	531.25
477.69	496.25
477.908	525.25
478.127	529.25
478.346	529.25
478.564	525.25
478.783	543.25
479.002	566.25
479.22	573.25
479.439	571.25
479.658	567.25
479.876	544.25
480.095	580.25
480.313	609.25
480.532	606.25
480.751	613.25
480.969	595.25
481.188	629.25
481.406	612.25
481.624	579.25
481.843	589.25
482.061	546.25
482.28	540.25
482.498	565.25
482.717	539.25
482.935	531.25
483.153	546.25
483.372	544.25
483.59	537.25
483.808	562.25
484.027	556.25
484.245	550.25
484.463	573.25
484.681	570.25
484.9	566.25
485.118	561.25
485.336	538.25
485.554	596.25
485.772	569.25
485.99	567.25
486.209	548.25
486.427	573.25
486.645	594.25
486.863	584.25
487.081	609.25
487.299	603.25
487.517	586.25
487.735	576.25
487.953	570.25
488.171	583.25
488.389	587.25
488.607	600.25
488.825	565.25
489.043	594.25
489.261	599.25
489.479	595.25
489.696	572.25
489.914	600.25
490.132	615.25
490.35	596.25
490.568	608.25
490.786	608.25
491.003	616.25
491.221	648.25
491.439	634.25
491.657	629.25
491.874	653.25
492.092	667.25
492.31	658.25
492.527	685.25
492.745	654.25
492.963	648.25
493.18	671.25
493.398	672.25
493.615	681.25
493.833	677.25
494.05	665.25
494.268	680.25
494.485	656.25
494.703	663.25
494.92	694.25
495.138	693.25
495.355	674.25
495.573	694.25
495.79	697.25
496.008	675.25
496.225	691.25
496.442	690.25
496.66	705.25
496.877	694.25
497.094	687.25
497.312	702.25
497.529	707.25
497.746	713.25
497.963	731.25
498.181	749.25
498.398	761.25
498.615	820.25
498.832	821.25
499.049	859.25
499.267	893.25
499.484	907.25
499.701	984.25
499.918	1075.25
500.135	1155.25
500.352	1187.25
500.569	1202.25
500.786	1224.25
501.003	1192.25
501.22	1142.25
501.437	1051.25
501.654	1009.25
