Data from 1973.PennyLincolnUp.Lamp.En5.5.200Scan.071719.P1.Changed Mount._HRD10591_15-44-13-852.txt Node
Date: Thu Jul 18 15:44:13 EDT 2019
User: cochatt
Spectrometer: HR+D1059
Trigger mode: 1
Integration Time (sec): 1.000000E-1
Scans to average: 1
Electric dark correction enabled: true
Nonlinearity correction enabled: false
Boxcar width: 0
XAxis mode: Wavelengths
Number of Pixels in Spectrum: 2048
>>>>>Begin Spectral Data<<<<<
223.165	-14.62
223.4	-14.62
223.635	-14.62
223.869	-20.62
224.104	-14.62
224.338	-14.62
224.573	-24.62
224.808	-7.62
225.042	-6.62
225.277	-13.62
225.511	-7.62
225.746	1.38
225.98	7.38
226.215	14.38
226.449	26.38
226.683	35.38
226.918	22.38
227.152	17.38
227.387	25.38
227.621	32.38
227.856	41.38
228.09	41.38
228.324	37.38
228.559	48.38
228.793	68.38
229.027	76.38
229.262	84.38
229.496	101.38
229.73	106.38
229.964	142.38
230.199	123.38
230.433	96.38
230.667	107.38
230.901	116.38
231.136	107.38
231.37	105.38
231.604	112.38
231.838	117.38
232.072	102.38
232.306	123.38
232.541	103.38
232.775	110.38
233.009	111.38
233.243	104.38
233.477	104.38
233.711	113.38
233.945	129.38
234.179	110.38
234.413	128.38
234.647	121.38
234.881	121.38
235.115	117.38
235.349	115.38
235.583	123.38
235.817	104.38
236.051	123.38
236.285	114.38
236.519	99.38
236.753	133.38
236.987	135.38
237.221	157.38
237.455	216.38
237.689	160.38
237.922	128.38
238.156	121.38
238.39	153.38
238.624	116.38
238.858	113.38
239.091	119.38
239.325	127.38
239.559	120.38
239.793	127.38
240.027	134.38
240.26	137.38
240.494	159.38
240.728	134.38
240.961	157.38
241.195	129.38
241.429	131.38
241.662	130.38
241.896	135.38
242.13	129.38
242.363	132.38
242.597	157.38
242.83	137.38
243.064	147.38
243.298	142.38
243.531	143.38
243.765	145.38
243.998	134.38
244.232	143.38
244.465	127.38
244.699	157.38
244.932	144.38
245.166	153.38
245.399	163.38
245.633	153.38
245.866	135.38
246.099	137.38
246.333	148.38
246.566	153.38
246.8	151.38
247.033	163.38
247.266	153.38
247.5	164.38
247.733	150.38
247.966	177.38
248.2	175.38
248.433	148.38
248.666	162.38
248.899	173.38
249.133	167.38
249.366	192.38
249.599	200.38
249.832	179.38
250.066	186.38
250.299	191.38
250.532	185.38
250.765	198.38
250.998	219.38
251.231	211.38
251.465	202.38
251.698	188.38
251.931	191.38
252.164	198.38
252.397	195.38
252.63	199.38
252.863	218.38
253.096	215.38
253.329	210.38
253.562	216.38
253.795	206.38
254.028	216.38
254.261	206.38
254.494	216.38
254.727	232.38
254.96	264.38
255.193	246.38
255.426	241.38
255.659	209.38
255.892	212.38
256.124	243.38
256.357	223.38
256.59	196.38
256.823	202.38
257.056	205.38
257.289	200.38
257.521	203.38
257.754	212.38
257.987	206.38
258.22	214.38
258.452	201.38
258.685	208.38
258.918	199.38
259.151	218.38
259.383	223.38
259.616	232.38
259.849	239.38
260.081	221.38
260.314	250.38
260.547	222.38
260.779	234.38
261.012	237.38
261.244	223.38
261.477	232.38
261.71	223.38
261.942	199.38
262.175	231.38
262.407	225.38
262.64	230.38
262.872	209.38
263.105	226.38
263.337	217.38
263.57	211.38
263.802	206.38
264.035	216.38
264.267	216.38
264.499	214.38
264.732	216.38
264.964	230.38
265.197	225.38
265.429	202.38
265.661	223.38
265.894	203.38
266.126	218.38
266.358	216.38
266.591	224.38
266.823	219.38
267.055	231.38
267.287	219.38
267.52	219.38
267.752	232.38
267.984	227.38
268.216	230.38
268.448	229.38
268.681	258.38
268.913	261.38
269.145	255.38
269.377	276.38
269.609	285.38
269.841	252.38
270.073	241.38
270.306	285.38
270.538	321.38
270.77	286.38
271.002	293.38
271.234	307.38
271.466	297.38
271.698	295.38
271.93	294.38
272.162	291.38
272.394	297.38
272.626	318.38
272.858	279.38
273.09	285.38
273.322	265.38
273.553	275.38
273.785	259.38
274.017	252.38
274.249	271.38
274.481	273.38
274.713	266.38
274.945	271.38
275.176	261.38
275.408	240.38
275.64	269.38
275.872	259.38
276.104	273.38
276.335	266.38
276.567	279.38
276.799	270.38
277.031	281.38
277.262	307.38
277.494	325.38
277.726	307.38
277.957	282.38
278.189	297.38
278.421	297.38
278.652	285.38
278.884	273.38
279.115	294.38
279.347	267.38
279.579	275.38
279.81	271.38
280.042	277.38
280.273	289.38
280.505	270.38
280.736	299.38
280.968	280.38
281.199	278.38
281.431	286.38
281.662	276.38
281.894	283.38
282.125	268.38
282.356	314.38
282.588	301.38
282.819	310.38
283.051	286.38
283.282	284.38
283.513	303.38
283.745	295.38
283.976	289.38
284.207	289.38
284.439	298.38
284.67	298.38
284.901	281.38
285.132	287.38
285.364	296.38
285.595	297.38
285.826	282.38
286.057	290.38
286.288	271.38
286.52	291.38
286.751	306.38
286.982	317.38
287.213	307.38
287.444	307.38
287.675	318.38
287.906	310.38
288.138	316.38
288.369	323.38
288.6	323.38
288.831	324.38
289.062	309.38
289.293	304.38
289.524	308.38
289.755	310.38
289.986	308.38
290.217	299.38
290.448	309.38
290.679	311.38
290.91	323.38
291.141	323.38
291.371	313.38
291.602	330.38
291.833	301.38
292.064	325.38
292.295	326.38
292.526	299.38
292.757	305.38
292.987	293.38
293.218	303.38
293.449	313.38
293.68	322.38
293.91	316.38
294.141	311.38
294.372	310.38
294.603	309.38
294.833	326.38
295.064	324.38
295.295	315.38
295.525	301.38
295.756	325.38
295.987	306.38
296.217	344.38
296.448	344.38
296.679	333.38
296.909	317.38
297.14	327.38
297.37	313.38
297.601	326.38
297.831	311.38
298.062	334.38
298.292	306.38
298.523	334.38
298.753	327.38
298.984	340.38
299.214	333.38
299.445	315.38
299.675	314.38
299.905	331.38
300.136	329.38
300.366	341.38
300.597	322.38
300.827	337.38
301.057	357.38
301.288	353.38
301.518	321.38
301.748	346.38
301.979	339.38
302.209	337.38
302.439	357.38
302.669	345.38
302.9	373.38
303.13	347.38
303.36	352.38
303.59	344.38
303.82	352.38
304.051	351.38
304.281	350.38
304.511	343.38
304.741	351.38
304.971	358.38
305.201	355.38
305.431	358.38
305.661	346.38
305.891	354.38
306.121	336.38
306.352	354.38
306.582	346.38
306.812	355.38
307.042	342.38
307.272	345.38
307.502	356.38
307.731	345.38
307.961	344.38
308.191	365.38
308.421	365.38
308.651	359.38
308.881	356.38
309.111	342.38
309.341	357.38
309.571	348.38
309.8	353.38
310.03	366.38
310.26	373.38
310.49	375.38
310.72	369.38
310.949	387.38
311.179	385.38
311.409	374.38
311.639	393.38
311.868	358.38
312.098	350.38
312.328	383.38
312.557	392.38
312.787	392.38
313.017	409.38
313.246	400.38
313.476	381.38
313.706	386.38
313.935	381.38
314.165	405.38
314.394	398.38
314.624	383.38
314.853	399.38
315.083	403.38
315.312	372.38
315.542	384.38
315.771	385.38
316.001	384.38
316.23	394.38
316.46	386.38
316.689	394.38
316.919	365.38
317.148	376.38
317.377	393.38
317.607	397.38
317.836	385.38
318.065	393.38
318.295	410.38
318.524	383.38
318.753	383.38
318.983	379.38
319.212	383.38
319.441	406.38
319.67	375.38
319.9	382.38
320.129	389.38
320.358	366.38
320.587	390.38
320.816	419.38
321.046	407.38
321.275	395.38
321.504	382.38
321.733	391.38
321.962	411.38
322.191	409.38
322.42	426.38
322.649	423.38
322.878	431.38
323.108	421.38
323.337	440.38
323.566	439.38
323.795	461.38
324.024	472.38
324.253	510.38
324.482	727.38
324.71	1014.38
324.939	1457.38
325.168	1292.38
325.397	671.38
325.626	534.38
325.855	483.38
326.084	455.38
326.313	453.38
326.542	464.38
326.77	493.38
326.999	542.38
327.228	669.38
327.457	957.38
327.686	1154.38
327.914	796.38
328.143	582.38
328.372	552.38
328.6	501.38
328.829	496.38
329.058	495.38
329.287	521.38
329.515	482.38
329.744	463.38
329.972	452.38
330.201	467.38
330.43	519.38
330.658	532.38
330.887	541.38
331.115	519.38
331.344	493.38
331.572	476.38
331.801	463.38
332.03	474.38
332.258	471.38
332.486	473.38
332.715	477.38
332.943	464.38
333.172	492.38
333.4	510.38
333.629	514.38
333.857	507.38
334.085	507.38
334.314	523.38
334.542	542.38
334.771	534.38
334.999	519.38
335.227	491.38
335.455	513.38
335.684	491.38
335.912	455.38
336.14	453.38
336.369	469.38
336.597	470.38
336.825	470.38
337.053	457.38
337.281	427.38
337.51	444.38
337.738	450.38
337.966	446.38
338.194	454.38
338.422	469.38
338.65	452.38
338.878	446.38
339.106	443.38
339.334	446.38
339.562	443.38
339.79	435.38
340.018	442.38
340.246	441.38
340.474	436.38
340.702	446.38
340.93	434.38
341.158	424.38
341.386	440.38
341.614	433.38
341.842	423.38
342.07	435.38
342.298	426.38
342.526	426.38
342.754	440.38
342.981	426.38
343.209	406.38
343.437	453.38
343.665	458.38
343.893	475.38
344.12	496.38
344.348	474.38
344.576	471.38
344.804	468.38
345.031	456.38
345.259	463.38
345.487	442.38
345.714	437.38
345.942	440.38
346.17	432.38
346.397	424.38
346.625	406.38
346.853	434.38
347.08	416.38
347.308	417.38
347.535	431.38
347.763	405.38
347.99	419.38
348.218	427.38
348.445	418.38
348.673	422.38
348.9	403.38
349.128	407.38
349.355	380.38
349.583	403.38
349.81	411.38
350.037	413.38
350.265	396.38
350.492	420.38
350.72	408.38
350.947	408.38
351.174	419.38
351.402	434.38
351.629	433.38
351.856	422.38
352.083	417.38
352.311	429.38
352.538	399.38
352.765	425.38
352.992	406.38
353.22	405.38
353.447	408.38
353.674	422.38
353.901	396.38
354.128	409.38
354.355	402.38
354.583	398.38
354.81	385.38
355.037	362.38
355.264	405.38
355.491	386.38
355.718	385.38
355.945	409.38
356.172	393.38
356.399	393.38
356.626	407.38
356.853	394.38
357.08	401.38
357.307	382.38
357.534	395.38
357.761	378.38
357.988	398.38
358.215	413.38
358.441	401.38
358.668	397.38
358.895	408.38
359.122	410.38
359.349	418.38
359.576	422.38
359.802	423.38
360.029	418.38
360.256	437.38
360.483	423.38
360.709	397.38
360.936	396.38
361.163	409.38
361.39	433.38
361.616	418.38
361.843	430.38
362.07	406.38
362.296	398.38
362.523	423.38
362.749	400.38
362.976	422.38
363.203	432.38
363.429	406.38
363.656	399.38
363.882	401.38
364.109	413.38
364.335	391.38
364.562	395.38
364.788	407.38
365.015	389.38
365.241	398.38
365.468	395.38
365.694	426.38
365.92	399.38
366.147	385.38
366.373	408.38
366.599	418.38
366.826	414.38
367.052	397.38
367.278	393.38
367.505	390.38
367.731	396.38
367.957	412.38
368.184	406.38
368.41	410.38
368.636	408.38
368.862	407.38
369.089	396.38
369.315	407.38
369.541	413.38
369.767	400.38
369.993	409.38
370.219	402.38
370.445	383.38
370.672	417.38
370.898	418.38
371.124	402.38
371.35	421.38
371.576	399.38
371.802	410.38
372.028	415.38
372.254	407.38
372.48	417.38
372.706	396.38
372.932	418.38
373.158	433.38
373.384	430.38
373.61	420.38
373.835	425.38
374.061	407.38
374.287	433.38
374.513	398.38
374.739	436.38
374.965	436.38
375.191	430.38
375.416	442.38
375.642	427.38
375.868	433.38
376.094	414.38
376.319	416.38
376.545	402.38
376.771	405.38
376.997	403.38
377.222	401.38
377.448	402.38
377.674	402.38
377.899	391.38
378.125	401.38
378.35	423.38
378.576	407.38
378.802	417.38
379.027	409.38
379.253	403.38
379.478	423.38
379.704	398.38
379.929	410.38
380.155	388.38
380.38	400.38
380.606	416.38
380.831	399.38
381.057	413.38
381.282	429.38
381.507	427.38
381.733	405.38
381.958	401.38
382.184	423.38
382.409	437.38
382.634	417.38
382.86	423.38
383.085	419.38
383.31	433.38
383.535	435.38
383.761	453.38
383.986	456.38
384.211	431.38
384.436	450.38
384.662	455.38
384.887	446.38
385.112	473.38
385.337	479.38
385.562	464.38
385.787	466.38
386.013	486.38
386.238	465.38
386.463	459.38
386.688	463.38
386.913	450.38
387.138	461.38
387.363	472.38
387.588	469.38
387.813	462.38
388.038	464.38
388.263	449.38
388.488	459.38
388.713	441.38
388.938	465.38
389.163	447.38
389.387	466.38
389.612	465.38
389.837	466.38
390.062	446.38
390.287	473.38
390.512	466.38
390.736	477.38
390.961	490.38
391.186	456.38
391.411	444.38
391.636	474.38
391.86	478.38
392.085	503.38
392.31	489.38
392.534	477.38
392.759	476.38
392.984	473.38
393.208	483.38
393.433	474.38
393.658	467.38
393.882	476.38
394.107	471.38
394.331	466.38
394.556	484.38
394.78	452.38
395.005	481.38
395.229	465.38
395.454	472.38
395.678	496.38
395.903	516.38
396.127	503.38
396.352	505.38
396.576	486.38
396.801	484.38
397.025	482.38
397.249	486.38
397.474	506.38
397.698	509.38
397.922	525.38
398.147	526.38
398.371	520.38
398.595	536.38
398.82	561.38
399.044	569.38
399.268	590.38
399.492	646.38
399.717	695.38
399.941	702.38
400.165	714.38
400.389	687.38
400.613	598.38
400.837	580.38
401.062	578.38
401.286	563.38
401.51	551.38
401.734	535.38
401.958	551.38
402.182	544.38
402.406	542.38
402.63	534.38
402.854	566.38
403.078	589.38
403.302	586.38
403.526	575.38
403.75	577.38
403.974	619.38
404.198	578.38
404.422	608.38
404.645	580.38
404.869	582.38
405.093	616.38
405.317	632.38
405.541	663.38
405.765	608.38
405.988	593.38
406.212	588.38
406.436	595.38
406.66	622.38
406.883	612.38
407.107	642.38
407.331	681.38
407.555	725.38
407.778	726.38
408.002	687.38
408.226	672.38
408.449	639.38
408.673	603.38
408.896	632.38
409.12	650.38
409.344	630.38
409.567	617.38
409.791	570.38
410.014	586.38
410.238	578.38
410.461	590.38
410.685	582.38
410.908	585.38
411.132	607.38
411.355	619.38
411.578	613.38
411.802	567.38
412.025	562.38
412.249	558.38
412.472	582.38
412.695	616.38
412.919	621.38
413.142	572.38
413.365	552.38
413.589	545.38
413.812	533.38
414.035	538.38
414.258	539.38
414.482	542.38
414.705	509.38
414.928	554.38
415.151	540.38
415.374	543.38
415.597	548.38
415.821	531.38
416.044	526.38
416.267	518.38
416.49	490.38
416.713	515.38
416.936	512.38
417.159	529.38
417.382	546.38
417.605	566.38
417.828	552.38
418.051	552.38
418.274	545.38
418.497	523.38
418.72	536.38
418.943	531.38
419.166	550.38
419.389	579.38
419.611	567.38
419.834	559.38
420.057	578.38
420.28	548.38
420.503	550.38
420.726	558.38
420.948	567.38
421.171	597.38
421.394	620.38
421.617	559.38
421.839	534.38
422.062	548.38
422.285	563.38
422.507	621.38
422.73	649.38
422.953	641.38
423.175	588.38
423.398	569.38
423.621	564.38
423.843	571.38
424.066	623.38
424.288	601.38
424.511	589.38
424.733	628.38
424.956	704.38
425.178	687.38
425.401	678.38
425.623	706.38
425.846	598.38
426.068	596.38
426.291	582.38
426.513	558.38
426.735	557.38
426.958	610.38
427.18	689.38
427.402	796.38
427.625	857.38
427.847	703.38
428.069	655.38
428.292	589.38
428.514	543.38
428.736	525.38
428.958	516.38
429.181	508.38
429.403	514.38
429.625	513.38
429.847	543.38
430.069	625.38
430.292	603.38
430.514	522.38
430.736	498.38
430.958	498.38
431.18	489.38
431.402	527.38
431.624	496.38
431.846	473.38
432.068	524.38
432.29	487.38
432.512	515.38
432.734	513.38
432.956	480.38
433.178	495.38
433.4	507.38
433.622	512.38
433.844	507.38
434.066	501.38
434.287	514.38
434.509	498.38
434.731	538.38
434.953	534.38
435.175	547.38
435.397	570.38
435.618	561.38
435.84	586.38
436.062	661.38
436.284	723.38
436.505	600.38
436.727	569.38
436.949	527.38
437.17	545.38
437.392	532.38
437.614	538.38
437.835	560.38
438.057	621.38
438.278	705.38
438.5	706.38
438.721	790.38
438.943	745.38
439.165	612.38
439.386	554.38
439.608	540.38
439.829	539.38
440.05	550.38
440.272	584.38
440.493	571.38
440.715	532.38
440.936	533.38
441.158	529.38
441.379	531.38
441.6	550.38
441.822	543.38
442.043	598.38
442.264	667.38
442.486	685.38
442.707	605.38
442.928	603.38
443.149	607.38
443.371	601.38
443.592	639.38
443.813	712.38
444.034	767.38
444.255	669.38
444.476	632.38
444.698	617.38
444.919	621.38
445.14	677.38
445.361	641.38
445.582	603.38
445.803	671.38
446.024	733.38
446.245	711.38
446.466	657.38
446.687	593.38
446.908	552.38
447.129	512.38
447.35	507.38
447.571	516.38
447.792	511.38
448.013	508.38
448.234	513.38
448.455	578.38
448.675	670.38
448.896	754.38
449.117	643.38
449.338	610.38
449.559	694.38
449.779	793.38
450	667.38
450.221	557.38
450.442	505.38
450.662	490.38
450.883	509.38
451.104	478.38
451.324	505.38
451.545	490.38
451.766	486.38
451.986	487.38
452.207	461.38
452.428	462.38
452.648	445.38
452.869	459.38
453.089	473.38
453.31	493.38
453.53	462.38
453.751	448.38
453.971	451.38
454.192	448.38
454.412	456.38
454.633	451.38
454.853	455.38
455.073	439.38
455.294	471.38
455.514	522.38
455.734	518.38
455.955	451.38
456.175	429.38
456.395	436.38
456.616	461.38
456.836	444.38
457.056	433.38
457.276	413.38
457.497	416.38
457.717	441.38
457.937	434.38
458.157	433.38
458.377	457.38
458.598	471.38
458.818	510.38
459.038	529.38
459.258	582.38
459.478	541.38
459.698	506.38
459.918	521.38
460.138	517.38
460.358	549.38
460.578	531.38
460.798	534.38
461.018	546.38
461.238	529.38
461.458	522.38
461.678	545.38
461.898	529.38
462.118	528.38
462.338	549.38
462.558	559.38
462.777	569.38
462.997	591.38
463.217	631.38
463.437	643.38
463.657	610.38
463.876	593.38
464.096	561.38
464.316	565.38
464.536	587.38
464.755	594.38
464.975	578.38
465.195	596.38
465.414	585.38
465.634	536.38
465.854	516.38
466.073	509.38
466.293	493.38
466.512	499.38
466.732	467.38
466.951	465.38
467.171	477.38
467.391	481.38
467.61	490.38
467.829	478.38
468.049	486.38
468.268	478.38
468.488	497.38
468.707	447.38
468.927	456.38
469.146	458.38
469.365	463.38
469.585	475.38
469.804	481.38
470.023	505.38
470.243	500.38
470.462	519.38
470.681	511.38
470.901	509.38
471.12	495.38
471.339	482.38
471.558	507.38
471.777	489.38
471.997	482.38
472.216	486.38
472.435	485.38
472.654	491.38
472.873	462.38
473.092	480.38
473.311	462.38
473.53	473.38
473.749	469.38
473.968	528.38
474.187	578.38
474.406	598.38
474.625	518.38
474.844	483.38
475.063	482.38
475.282	477.38
475.501	486.38
475.72	485.38
475.939	495.38
476.158	489.38
476.377	490.38
476.596	488.38
476.814	515.38
477.033	513.38
477.252	510.38
477.471	514.38
477.69	535.38
477.908	517.38
478.127	535.38
478.346	542.38
478.564	542.38
478.783	552.38
479.002	562.38
479.22	550.38
479.439	579.38
479.658	562.38
479.876	582.38
480.095	586.38
480.313	605.38
480.532	610.38
480.751	613.38
480.969	608.38
481.188	660.38
481.406	648.38
481.624	581.38
481.843	586.38
482.061	549.38
482.28	568.38
482.498	546.38
482.717	557.38
482.935	553.38
483.153	549.38
483.372	548.38
483.59	564.38
483.808	553.38
484.027	541.38
484.245	531.38
484.463	544.38
484.681	579.38
484.9	574.38
485.118	574.38
485.336	562.38
485.554	565.38
485.772	586.38
485.99	570.38
486.209	567.38
486.427	584.38
486.645	585.38
486.863	590.38
487.081	589.38
487.299	600.38
487.517	571.38
487.735	606.38
487.953	593.38
488.171	599.38
488.389	586.38
488.607	604.38
488.825	594.38
489.043	591.38
489.261	592.38
489.479	616.38
489.696	570.38
489.914	623.38
490.132	619.38
490.35	614.38
490.568	623.38
490.786	650.38
491.003	599.38
491.221	633.38
491.439	639.38
491.657	662.38
491.874	671.38
492.092	674.38
492.31	676.38
492.527	665.38
492.745	674.38
492.963	693.38
493.18	681.38
493.398	669.38
493.615	701.38
493.833	699.38
494.05	685.38
494.268	687.38
494.485	665.38
494.703	678.38
494.92	685.38
495.138	693.38
495.355	693.38
495.573	681.38
495.79	675.38
496.008	710.38
496.225	723.38
496.442	685.38
496.66	703.38
496.877	689.38
497.094	720.38
497.312	733.38
497.529	743.38
497.746	782.38
497.963	739.38
498.181	786.38
498.398	800.38
498.615	821.38
498.832	841.38
499.049	881.38
499.267	912.38
499.484	945.38
499.701	1005.38
499.918	1071.38
500.135	1121.38
500.352	1204.38
500.569	1222.38
500.786	1222.38
501.003	1206.38
501.22	1145.38
501.437	1064.38
501.654	1017.38
