Data from 1973.PennyLincolnUp.Lamp.En5.5.200Scan.071719.P1.Changed Mount._HRD10591_15-43-58-852.txt Node
Date: Thu Jul 18 15:43:58 EDT 2019
User: cochatt
Spectrometer: HR+D1059
Trigger mode: 1
Integration Time (sec): 1.000000E-1
Scans to average: 1
Electric dark correction enabled: true
Nonlinearity correction enabled: false
Boxcar width: 0
XAxis mode: Wavelengths
Number of Pixels in Spectrum: 2048
>>>>>Begin Spectral Data<<<<<
223.165	-20.5
223.4	-20.5
223.635	-20.5
223.869	-16.5
224.104	-13.5
224.338	-12.5
224.573	-4.5
224.808	-17.5
225.042	-3.5
225.277	-6.5
225.511	-2.5
225.746	-7.5
225.98	7.5
226.215	8.5
226.449	1.5
226.683	29.5
226.918	38.5
227.152	19.5
227.387	25.5
227.621	42.5
227.856	55.5
228.09	36.5
228.324	47.5
228.559	59.5
228.793	76.5
229.027	96.5
229.262	101.5
229.496	119.5
229.73	115.5
229.964	128.5
230.199	116.5
230.433	107.5
230.667	103.5
230.901	104.5
231.136	102.5
231.37	107.5
231.604	121.5
231.838	104.5
232.072	102.5
232.306	120.5
232.541	117.5
232.775	118.5
233.009	109.5
233.243	97.5
233.477	120.5
233.711	120.5
233.945	119.5
234.179	118.5
234.413	103.5
234.647	116.5
234.881	124.5
235.115	120.5
235.349	128.5
235.583	114.5
235.817	116.5
236.051	116.5
236.285	125.5
236.519	134.5
236.753	133.5
236.987	128.5
237.221	162.5
237.455	205.5
237.689	170.5
237.922	124.5
238.156	136.5
238.39	131.5
238.624	133.5
238.858	136.5
239.091	119.5
239.325	122.5
239.559	122.5
239.793	130.5
240.027	118.5
240.26	138.5
240.494	152.5
240.728	134.5
240.961	143.5
241.195	150.5
241.429	159.5
241.662	128.5
241.896	117.5
242.13	126.5
242.363	124.5
242.597	126.5
242.83	157.5
243.064	133.5
243.298	149.5
243.531	151.5
243.765	150.5
243.998	146.5
244.232	154.5
244.465	142.5
244.699	141.5
244.932	141.5
245.166	155.5
245.399	129.5
245.633	150.5
245.866	153.5
246.099	146.5
246.333	151.5
246.566	164.5
246.8	154.5
247.033	155.5
247.266	151.5
247.5	166.5
247.733	154.5
247.966	157.5
248.2	169.5
248.433	167.5
248.666	174.5
248.899	182.5
249.133	188.5
249.366	187.5
249.599	185.5
249.832	162.5
250.066	184.5
250.299	202.5
250.532	173.5
250.765	197.5
250.998	218.5
251.231	211.5
251.465	186.5
251.698	178.5
251.931	189.5
252.164	180.5
252.397	190.5
252.63	187.5
252.863	196.5
253.096	203.5
253.329	220.5
253.562	203.5
253.795	196.5
254.028	206.5
254.261	210.5
254.494	218.5
254.727	227.5
254.96	238.5
255.193	240.5
255.426	232.5
255.659	215.5
255.892	213.5
256.124	230.5
256.357	211.5
256.59	200.5
256.823	189.5
257.056	205.5
257.289	211.5
257.521	207.5
257.754	197.5
257.987	200.5
258.22	208.5
258.452	202.5
258.685	188.5
258.918	212.5
259.151	207.5
259.383	207.5
259.616	204.5
259.849	246.5
260.081	224.5
260.314	227.5
260.547	259.5
260.779	224.5
261.012	222.5
261.244	213.5
261.477	210.5
261.71	224.5
261.942	222.5
262.175	224.5
262.407	213.5
262.64	192.5
262.872	220.5
263.105	199.5
263.337	187.5
263.57	223.5
263.802	207.5
264.035	212.5
264.267	230.5
264.499	202.5
264.732	216.5
264.964	216.5
265.197	211.5
265.429	224.5
265.661	227.5
265.894	206.5
266.126	228.5
266.358	215.5
266.591	221.5
266.823	206.5
267.055	222.5
267.287	231.5
267.52	226.5
267.752	219.5
267.984	218.5
268.216	241.5
268.448	245.5
268.681	242.5
268.913	248.5
269.145	257.5
269.377	276.5
269.609	280.5
269.841	266.5
270.073	285.5
270.306	278.5
270.538	312.5
270.77	306.5
271.002	299.5
271.234	278.5
271.466	282.5
271.698	275.5
271.93	315.5
272.162	290.5
272.394	306.5
272.626	286.5
272.858	282.5
273.09	282.5
273.322	265.5
273.553	264.5
273.785	260.5
274.017	268.5
274.249	273.5
274.481	269.5
274.713	245.5
274.945	259.5
275.176	270.5
275.408	263.5
275.64	276.5
275.872	267.5
276.104	251.5
276.335	249.5
276.567	269.5
276.799	293.5
277.031	303.5
277.262	321.5
277.494	297.5
277.726	296.5
277.957	295.5
278.189	278.5
278.421	287.5
278.652	266.5
278.884	274.5
279.115	271.5
279.347	281.5
279.579	282.5
279.81	291.5
280.042	274.5
280.273	285.5
280.505	287.5
280.736	283.5
280.968	271.5
281.199	278.5
281.431	276.5
281.662	265.5
281.894	271.5
282.125	276.5
282.356	294.5
282.588	299.5
282.819	298.5
283.051	275.5
283.282	293.5
283.513	290.5
283.745	276.5
283.976	283.5
284.207	282.5
284.439	272.5
284.67	290.5
284.901	280.5
285.132	280.5
285.364	278.5
285.595	299.5
285.826	300.5
286.057	273.5
286.288	304.5
286.52	304.5
286.751	281.5
286.982	290.5
287.213	312.5
287.444	295.5
287.675	306.5
287.906	313.5
288.138	336.5
288.369	306.5
288.6	332.5
288.831	297.5
289.062	322.5
289.293	302.5
289.524	286.5
289.755	300.5
289.986	327.5
290.217	315.5
290.448	293.5
290.679	304.5
290.91	322.5
291.141	299.5
291.371	309.5
291.602	298.5
291.833	321.5
292.064	325.5
292.295	288.5
292.526	299.5
292.757	312.5
292.987	315.5
293.218	310.5
293.449	301.5
293.68	304.5
293.91	300.5
294.141	288.5
294.372	314.5
294.603	315.5
294.833	306.5
295.064	340.5
295.295	301.5
295.525	330.5
295.756	316.5
295.987	312.5
296.217	325.5
296.448	352.5
296.679	335.5
296.909	315.5
297.14	322.5
297.37	318.5
297.601	319.5
297.831	316.5
298.062	314.5
298.292	306.5
298.523	327.5
298.753	322.5
298.984	326.5
299.214	327.5
299.445	322.5
299.675	327.5
299.905	314.5
300.136	325.5
300.366	332.5
300.597	303.5
300.827	332.5
301.057	359.5
301.288	351.5
301.518	342.5
301.748	327.5
301.979	347.5
302.209	340.5
302.439	347.5
302.669	332.5
302.9	312.5
303.13	348.5
303.36	324.5
303.59	350.5
303.82	344.5
304.051	347.5
304.281	332.5
304.511	333.5
304.741	336.5
304.971	329.5
305.201	357.5
305.431	331.5
305.661	340.5
305.891	338.5
306.121	336.5
306.352	354.5
306.582	335.5
306.812	336.5
307.042	335.5
307.272	343.5
307.502	350.5
307.731	344.5
307.961	336.5
308.191	338.5
308.421	340.5
308.651	348.5
308.881	341.5
309.111	348.5
309.341	347.5
309.571	361.5
309.8	349.5
310.03	372.5
310.26	357.5
310.49	378.5
310.72	374.5
310.949	386.5
311.179	388.5
311.409	355.5
311.639	363.5
311.868	371.5
312.098	377.5
312.328	374.5
312.557	390.5
312.787	380.5
313.017	365.5
313.246	366.5
313.476	367.5
313.706	360.5
313.935	368.5
314.165	384.5
314.394	386.5
314.624	392.5
314.853	405.5
315.083	380.5
315.312	396.5
315.542	381.5
315.771	355.5
316.001	372.5
316.23	378.5
316.46	372.5
316.689	379.5
316.919	379.5
317.148	381.5
317.377	399.5
317.607	377.5
317.836	364.5
318.065	365.5
318.295	376.5
318.524	380.5
318.753	382.5
318.983	404.5
319.212	365.5
319.441	394.5
319.67	386.5
319.9	365.5
320.129	372.5
320.358	390.5
320.587	408.5
320.816	389.5
321.046	386.5
321.275	411.5
321.504	382.5
321.733	390.5
321.962	412.5
322.191	392.5
322.42	396.5
322.649	388.5
322.878	416.5
323.108	419.5
323.337	436.5
323.566	456.5
323.795	456.5
324.024	458.5
324.253	525.5
324.482	675.5
324.71	962.5
324.939	1334.5
325.168	1198.5
325.397	666.5
325.626	518.5
325.855	470.5
326.084	456.5
326.313	444.5
326.542	417.5
326.77	460.5
326.999	503.5
327.228	641.5
327.457	896.5
327.686	1054.5
327.914	736.5
328.143	539.5
328.372	502.5
328.6	491.5
328.829	473.5
329.058	480.5
329.287	469.5
329.515	474.5
329.744	464.5
329.972	439.5
330.201	461.5
330.43	474.5
330.658	493.5
330.887	519.5
331.115	534.5
331.344	466.5
331.572	453.5
331.801	456.5
332.03	464.5
332.258	447.5
332.486	477.5
332.715	438.5
332.943	463.5
333.172	474.5
333.4	470.5
333.629	467.5
333.857	494.5
334.085	502.5
334.314	514.5
334.542	511.5
334.771	493.5
334.999	518.5
335.227	460.5
335.455	458.5
335.684	468.5
335.912	447.5
336.14	438.5
336.369	452.5
336.597	468.5
336.825	454.5
337.053	462.5
337.281	452.5
337.51	427.5
337.738	452.5
337.966	451.5
338.194	443.5
338.422	418.5
338.65	431.5
338.878	426.5
339.106	431.5
339.334	435.5
339.562	427.5
339.79	421.5
340.018	431.5
340.246	427.5
340.474	427.5
340.702	427.5
340.93	418.5
341.158	424.5
341.386	423.5
341.614	439.5
341.842	414.5
342.07	402.5
342.298	429.5
342.526	419.5
342.754	431.5
342.981	436.5
343.209	430.5
343.437	444.5
343.665	450.5
343.893	461.5
344.12	464.5
344.348	471.5
344.576	449.5
344.804	438.5
345.031	432.5
345.259	427.5
345.487	405.5
345.714	420.5
345.942	426.5
346.17	422.5
346.397	395.5
346.625	410.5
346.853	424.5
347.08	404.5
347.308	404.5
347.535	396.5
347.763	422.5
347.99	392.5
348.218	424.5
348.445	404.5
348.673	410.5
348.9	404.5
349.128	407.5
349.355	392.5
349.583	393.5
349.81	381.5
350.037	393.5
350.265	415.5
350.492	394.5
350.72	408.5
350.947	401.5
351.174	388.5
351.402	414.5
351.629	405.5
351.856	396.5
352.083	417.5
352.311	401.5
352.538	402.5
352.765	417.5
352.992	395.5
353.22	392.5
353.447	395.5
353.674	404.5
353.901	396.5
354.128	382.5
354.355	382.5
354.583	404.5
354.81	383.5
355.037	366.5
355.264	382.5
355.491	404.5
355.718	384.5
355.945	385.5
356.172	379.5
356.399	394.5
356.626	393.5
356.853	384.5
357.08	381.5
357.307	382.5
357.534	388.5
357.761	378.5
357.988	396.5
358.215	398.5
358.441	398.5
358.668	387.5
358.895	355.5
359.122	398.5
359.349	390.5
359.576	426.5
359.802	404.5
360.029	417.5
360.256	422.5
360.483	425.5
360.709	391.5
360.936	400.5
361.163	400.5
361.39	414.5
361.616	407.5
361.843	414.5
362.07	406.5
362.296	407.5
362.523	403.5
362.749	409.5
362.976	382.5
363.203	399.5
363.429	366.5
363.656	395.5
363.882	390.5
364.109	390.5
364.335	376.5
364.562	404.5
364.788	392.5
365.015	403.5
365.241	408.5
365.468	386.5
365.694	389.5
365.92	394.5
366.147	370.5
366.373	388.5
366.599	387.5
366.826	392.5
367.052	401.5
367.278	384.5
367.505	382.5
367.731	381.5
367.957	400.5
368.184	395.5
368.41	412.5
368.636	401.5
368.862	380.5
369.089	376.5
369.315	359.5
369.541	394.5
369.767	397.5
369.993	396.5
370.219	394.5
370.445	389.5
370.672	388.5
370.898	390.5
371.124	393.5
371.35	411.5
371.576	404.5
371.802	404.5
372.028	391.5
372.254	413.5
372.48	398.5
372.706	386.5
372.932	399.5
373.158	397.5
373.384	426.5
373.61	390.5
373.835	398.5
374.061	440.5
374.287	408.5
374.513	386.5
374.739	430.5
374.965	418.5
375.191	411.5
375.416	427.5
375.642	413.5
375.868	399.5
376.094	419.5
376.319	410.5
376.545	404.5
376.771	408.5
376.997	423.5
377.222	409.5
377.448	408.5
377.674	419.5
377.899	399.5
378.125	384.5
378.35	406.5
378.576	414.5
378.802	420.5
379.027	396.5
379.253	405.5
379.478	406.5
379.704	417.5
379.929	414.5
380.155	386.5
380.38	395.5
380.606	392.5
380.831	402.5
381.057	403.5
381.282	384.5
381.507	406.5
381.733	406.5
381.958	402.5
382.184	413.5
382.409	422.5
382.634	420.5
382.86	414.5
383.085	428.5
383.31	418.5
383.535	444.5
383.761	409.5
383.986	425.5
384.211	440.5
384.436	436.5
384.662	452.5
384.887	430.5
385.112	439.5
385.337	458.5
385.562	459.5
385.787	436.5
386.013	429.5
386.238	472.5
386.463	450.5
386.688	460.5
386.913	456.5
387.138	458.5
387.363	448.5
387.588	467.5
387.813	448.5
388.038	459.5
388.263	438.5
388.488	455.5
388.713	445.5
388.938	446.5
389.163	452.5
389.387	455.5
389.612	448.5
389.837	450.5
390.062	440.5
390.287	440.5
390.512	437.5
390.736	454.5
390.961	455.5
391.186	471.5
391.411	463.5
391.636	459.5
391.86	472.5
392.085	489.5
392.31	480.5
392.534	474.5
392.759	462.5
392.984	467.5
393.208	473.5
393.433	472.5
393.658	466.5
393.882	457.5
394.107	466.5
394.331	458.5
394.556	463.5
394.78	471.5
395.005	463.5
395.229	460.5
395.454	447.5
395.678	480.5
395.903	499.5
396.127	510.5
396.352	528.5
396.576	472.5
396.801	483.5
397.025	471.5
397.249	464.5
397.474	506.5
397.698	475.5
397.922	504.5
398.147	536.5
398.371	536.5
398.595	519.5
398.82	533.5
399.044	539.5
399.268	571.5
399.492	615.5
399.717	661.5
399.941	694.5
400.165	665.5
400.389	652.5
400.613	598.5
400.837	576.5
401.062	554.5
401.286	544.5
401.51	532.5
401.734	510.5
401.958	540.5
402.182	536.5
402.406	523.5
402.63	551.5
402.854	540.5
403.078	547.5
403.302	539.5
403.526	578.5
403.75	564.5
403.974	565.5
404.198	557.5
404.422	558.5
404.645	576.5
404.869	566.5
405.093	588.5
405.317	637.5
405.541	659.5
405.765	600.5
405.988	588.5
406.212	590.5
406.436	588.5
406.66	605.5
406.883	581.5
407.107	630.5
407.331	646.5
407.555	708.5
407.778	721.5
408.002	678.5
408.226	604.5
408.449	585.5
408.673	585.5
408.896	623.5
409.12	638.5
409.344	601.5
409.567	584.5
409.791	582.5
410.014	578.5
410.238	563.5
410.461	551.5
410.685	565.5
410.908	559.5
411.132	582.5
411.355	623.5
411.578	606.5
411.802	566.5
412.025	559.5
412.249	562.5
412.472	588.5
412.695	613.5
412.919	580.5
413.142	564.5
413.365	521.5
413.589	523.5
413.812	507.5
414.035	533.5
414.258	533.5
414.482	494.5
414.705	504.5
414.928	523.5
415.151	523.5
415.374	520.5
415.597	511.5
415.821	498.5
416.044	488.5
416.267	504.5
416.49	506.5
416.713	518.5
416.936	532.5
417.159	510.5
417.382	513.5
417.605	526.5
417.828	506.5
418.051	557.5
418.274	502.5
418.497	545.5
418.72	548.5
418.943	546.5
419.166	556.5
419.389	581.5
419.611	560.5
419.834	552.5
420.057	550.5
420.28	570.5
420.503	549.5
420.726	518.5
420.948	550.5
421.171	573.5
421.394	587.5
421.617	561.5
421.839	530.5
422.062	525.5
422.285	540.5
422.507	605.5
422.73	663.5
422.953	644.5
423.175	575.5
423.398	548.5
423.621	562.5
423.843	572.5
424.066	574.5
424.288	579.5
424.511	581.5
424.733	634.5
424.956	674.5
425.178	658.5
425.401	668.5
425.623	659.5
425.846	583.5
426.068	546.5
426.291	547.5
426.513	556.5
426.735	589.5
426.958	584.5
427.18	627.5
427.402	723.5
427.625	794.5
427.847	701.5
428.069	614.5
428.292	578.5
428.514	529.5
428.736	526.5
428.958	526.5
429.181	507.5
429.403	510.5
429.625	520.5
429.847	527.5
430.069	574.5
430.292	592.5
430.514	527.5
430.736	510.5
430.958	500.5
431.18	494.5
431.402	505.5
431.624	482.5
431.846	486.5
432.068	489.5
432.29	472.5
432.512	494.5
432.734	509.5
432.956	498.5
433.178	507.5
433.4	495.5
433.622	508.5
433.844	495.5
434.066	510.5
434.287	518.5
434.509	491.5
434.731	534.5
434.953	504.5
435.175	545.5
435.397	574.5
435.618	556.5
435.84	575.5
436.062	646.5
436.284	706.5
436.505	593.5
436.727	523.5
436.949	484.5
437.17	512.5
437.392	507.5
437.614	517.5
437.835	520.5
438.057	602.5
438.278	667.5
438.5	659.5
438.721	753.5
438.943	718.5
439.165	582.5
439.386	537.5
439.608	550.5
439.829	543.5
440.05	562.5
440.272	582.5
440.493	565.5
440.715	537.5
440.936	520.5
441.158	526.5
441.379	506.5
441.6	515.5
441.822	547.5
442.043	584.5
442.264	666.5
442.486	683.5
442.707	605.5
442.928	556.5
443.149	571.5
443.371	570.5
443.592	617.5
443.813	687.5
444.034	743.5
444.255	663.5
444.476	598.5
444.698	584.5
444.919	583.5
445.14	659.5
445.361	635.5
445.582	600.5
445.803	627.5
446.024	692.5
446.245	703.5
446.466	628.5
446.687	552.5
446.908	546.5
447.129	518.5
447.35	498.5
447.571	491.5
447.792	492.5
448.013	498.5
448.234	503.5
448.455	581.5
448.675	632.5
448.896	710.5
449.117	630.5
449.338	602.5
449.559	679.5
449.779	790.5
450	630.5
450.221	529.5
450.442	495.5
450.662	474.5
450.883	477.5
451.104	503.5
451.324	472.5
451.545	465.5
451.766	448.5
451.986	450.5
452.207	431.5
452.428	444.5
452.648	444.5
452.869	421.5
453.089	449.5
453.31	468.5
453.53	439.5
453.751	452.5
453.971	418.5
454.192	438.5
454.412	456.5
454.633	436.5
454.853	455.5
455.073	438.5
455.294	443.5
455.514	502.5
455.734	516.5
455.955	448.5
456.175	439.5
456.395	405.5
456.616	422.5
456.836	428.5
457.056	435.5
457.276	419.5
457.497	437.5
457.717	425.5
457.937	438.5
458.157	434.5
458.377	442.5
458.598	460.5
458.818	498.5
459.038	547.5
459.258	568.5
459.478	515.5
459.698	498.5
459.918	493.5
460.138	498.5
460.358	500.5
460.578	528.5
460.798	520.5
461.018	516.5
461.238	521.5
461.458	526.5
461.678	519.5
461.898	529.5
462.118	516.5
462.338	562.5
462.558	545.5
462.777	570.5
462.997	578.5
463.217	612.5
463.437	603.5
463.657	575.5
463.876	554.5
464.096	567.5
464.316	590.5
464.536	572.5
464.755	566.5
464.975	584.5
465.195	573.5
465.414	582.5
465.634	542.5
465.854	511.5
466.073	487.5
466.293	483.5
466.512	490.5
466.732	457.5
466.951	465.5
467.171	450.5
467.391	474.5
467.61	469.5
467.829	480.5
468.049	496.5
468.268	468.5
468.488	487.5
468.707	430.5
468.927	462.5
469.146	454.5
469.365	466.5
469.585	456.5
469.804	461.5
470.023	471.5
470.243	474.5
470.462	478.5
470.681	484.5
470.901	496.5
471.12	475.5
471.339	467.5
471.558	466.5
471.777	465.5
471.997	473.5
472.216	468.5
472.435	475.5
472.654	483.5
472.873	457.5
473.092	465.5
473.311	443.5
473.53	456.5
473.749	454.5
473.968	493.5
474.187	552.5
474.406	571.5
474.625	504.5
474.844	462.5
475.063	470.5
475.282	459.5
475.501	475.5
475.72	483.5
475.939	464.5
476.158	477.5
476.377	458.5
476.596	479.5
476.814	500.5
477.033	502.5
477.252	495.5
477.471	491.5
477.69	495.5
477.908	492.5
478.127	513.5
478.346	530.5
478.564	543.5
478.783	531.5
479.002	536.5
479.22	574.5
479.439	556.5
479.658	557.5
479.876	581.5
480.095	576.5
480.313	598.5
480.532	594.5
480.751	607.5
480.969	588.5
481.188	594.5
481.406	605.5
481.624	591.5
481.843	572.5
482.061	528.5
482.28	553.5
482.498	523.5
482.717	542.5
482.935	520.5
483.153	522.5
483.372	528.5
483.59	535.5
483.808	544.5
484.027	532.5
484.245	548.5
484.463	559.5
484.681	562.5
484.9	577.5
485.118	573.5
485.336	542.5
485.554	563.5
485.772	535.5
485.99	536.5
486.209	557.5
486.427	553.5
486.645	564.5
486.863	559.5
487.081	574.5
487.299	570.5
487.517	595.5
487.735	570.5
487.953	583.5
488.171	581.5
488.389	579.5
488.607	593.5
488.825	578.5
489.043	562.5
489.261	573.5
489.479	604.5
489.696	586.5
489.914	583.5
490.132	596.5
490.35	586.5
490.568	608.5
490.786	620.5
491.003	624.5
491.221	635.5
491.439	623.5
491.657	622.5
491.874	636.5
492.092	630.5
492.31	668.5
492.527	646.5
492.745	633.5
492.963	628.5
493.18	682.5
493.398	661.5
493.615	669.5
493.833	656.5
494.05	661.5
494.268	680.5
494.485	673.5
494.703	680.5
494.92	661.5
495.138	694.5
495.355	663.5
495.573	659.5
495.79	680.5
496.008	687.5
496.225	680.5
496.442	686.5
496.66	675.5
496.877	681.5
497.094	709.5
497.312	703.5
497.529	712.5
497.746	709.5
497.963	730.5
498.181	739.5
498.398	763.5
498.615	781.5
498.832	798.5
499.049	844.5
499.267	857.5
499.484	903.5
499.701	962.5
499.918	1031.5
500.135	1073.5
500.352	1163.5
500.569	1180.5
500.786	1195.5
501.003	1155.5
501.22	1083.5
501.437	1031.5
501.654	997.5
501.871	942.5
502.088	857.5
502.305	852.5
502.522	822.5
502.739	802.5
502.956	766.5
503.172	735.5
503.389	726.5
503.606	715.5
503.823	708.5
504.04	694.5
504.256	713.5
504.473	692.5
504.69	716.5
504.907	705.5
505.123	668.5
505.34	664.5
505.557	648.5
505.773	641.5
505.99	609.5
506.207	640.5
506.423	619.5
506.64	631.5
506.856	621.5
507.073	599.5
507.289	608.5
507.506	612.5
507.722	613.5
507.939	616.5
508.155	615.5
508.372	582.5
508.588	593.5
508.805	575.5
509.021	586.5
509.238	565.5
509.454	591.5
509.67	587.5
509.887	593.5
510.103	590.5
510.319	587.5
510.536	624.5
510.752	832.5
510.968	696.5
511.184	573.5
511.401	573.5
511.617	571.5
511.833	555.5
512.049	557.5
512.265	545.5
512.481	552.5
512.698	543.5
512.914	549.5
513.13	572.5
513.346	554.5
513.562	532.5
513.778	553.5
513.994	553.5
514.21	543.5
514.426	558.5
514.642	574.5
514.858	597.5
515.074	622.5
515.29	652.5
515.506	848.5
515.721	770.5
515.937	603.5
516.153	540.5
516.369	586.5
516.585	591.5
516.801	585.5
517.016	618.5
517.232	636.5
517.448	626.5
517.664	619.5
517.879	632.5
518.095	637.5
518.311	637.5
518.527	612.5
518.742	594.5
518.958	588.5
519.173	601.5
519.389	592.5
519.605	556.5
