Data from 1973.PennyLincolnUp.Lamp.En5.5.200Scan.071719.P1.Changed Mount._HRD10591_15-45-46-853.txt Node
Date: Thu Jul 18 15:45:46 EDT 2019
User: cochatt
Spectrometer: HR+D1059
Trigger mode: 1
Integration Time (sec): 1.000000E-1
Scans to average: 1
Electric dark correction enabled: true
Nonlinearity correction enabled: false
Boxcar width: 0
XAxis mode: Wavelengths
Number of Pixels in Spectrum: 2048
>>>>>Begin Spectral Data<<<<<
223.165	-6.62
223.4	-6.62
223.635	-6.62
223.869	-17.62
224.104	-20.62
224.338	-17.62
224.573	-13.62
224.808	-5.62
225.042	-8.62
225.277	-4.62
225.511	11.38
225.746	-4.62
225.98	4.38
226.215	8.38
226.449	6.38
226.683	22.38
226.918	21.38
227.152	25.38
227.387	20.38
227.621	34.38
227.856	39.38
228.09	35.38
228.324	49.38
228.559	47.38
228.793	53.38
229.027	99.38
229.262	82.38
229.496	111.38
229.73	125.38
229.964	131.38
230.199	118.38
230.433	104.38
230.667	100.38
230.901	109.38
231.136	92.38
231.37	95.38
231.604	93.38
231.838	117.38
232.072	98.38
232.306	113.38
232.541	110.38
232.775	108.38
233.009	98.38
233.243	105.38
233.477	121.38
233.711	112.38
233.945	115.38
234.179	116.38
234.413	131.38
234.647	114.38
234.881	116.38
235.115	106.38
235.349	111.38
235.583	111.38
235.817	116.38
236.051	103.38
236.285	132.38
236.519	119.38
236.753	117.38
236.987	141.38
237.221	161.38
237.455	202.38
237.689	153.38
237.922	137.38
238.156	144.38
238.39	133.38
238.624	131.38
238.858	118.38
239.091	123.38
239.325	131.38
239.559	117.38
239.793	123.38
240.027	118.38
240.26	142.38
240.494	147.38
240.728	147.38
240.961	148.38
241.195	144.38
241.429	124.38
241.662	127.38
241.896	135.38
242.13	122.38
242.363	128.38
242.597	130.38
242.83	132.38
243.064	135.38
243.298	135.38
243.531	143.38
243.765	149.38
243.998	132.38
244.232	145.38
244.465	137.38
244.699	156.38
244.932	147.38
245.166	144.38
245.399	141.38
245.633	156.38
245.866	156.38
246.099	140.38
246.333	155.38
246.566	145.38
246.8	162.38
247.033	152.38
247.266	171.38
247.5	153.38
247.733	177.38
247.966	159.38
248.2	158.38
248.433	180.38
248.666	172.38
248.899	182.38
249.133	181.38
249.366	189.38
249.599	200.38
249.832	201.38
250.066	169.38
250.299	178.38
250.532	188.38
250.765	205.38
250.998	203.38
251.231	213.38
251.465	197.38
251.698	206.38
251.931	191.38
252.164	201.38
252.397	201.38
252.63	211.38
252.863	214.38
253.096	212.38
253.329	214.38
253.562	233.38
253.795	202.38
254.028	207.38
254.261	213.38
254.494	234.38
254.727	236.38
254.96	273.38
255.193	257.38
255.426	236.38
255.659	212.38
255.892	216.38
256.124	231.38
256.357	226.38
256.59	226.38
256.823	202.38
257.056	193.38
257.289	212.38
257.521	202.38
257.754	217.38
257.987	194.38
258.22	225.38
258.452	191.38
258.685	205.38
258.918	204.38
259.151	217.38
259.383	222.38
259.616	224.38
259.849	216.38
260.081	224.38
260.314	245.38
260.547	256.38
260.779	244.38
261.012	233.38
261.244	230.38
261.477	222.38
261.71	241.38
261.942	230.38
262.175	219.38
262.407	230.38
262.64	211.38
262.872	232.38
263.105	233.38
263.337	224.38
263.57	215.38
263.802	228.38
264.035	216.38
264.267	220.38
264.499	226.38
264.732	228.38
264.964	242.38
265.197	215.38
265.429	215.38
265.661	231.38
265.894	236.38
266.126	224.38
266.358	225.38
266.591	224.38
266.823	232.38
267.055	249.38
267.287	251.38
267.52	237.38
267.752	241.38
267.984	223.38
268.216	249.38
268.448	242.38
268.681	253.38
268.913	262.38
269.145	260.38
269.377	287.38
269.609	277.38
269.841	247.38
270.073	280.38
270.306	297.38
270.538	332.38
270.77	307.38
271.002	305.38
271.234	297.38
271.466	290.38
271.698	318.38
271.93	306.38
272.162	323.38
272.394	309.38
272.626	322.38
272.858	283.38
273.09	286.38
273.322	267.38
273.553	260.38
273.785	275.38
274.017	285.38
274.249	279.38
274.481	266.38
274.713	265.38
274.945	283.38
275.176	286.38
275.408	284.38
275.64	275.38
275.872	283.38
276.104	285.38
276.335	279.38
276.567	287.38
276.799	289.38
277.031	309.38
277.262	311.38
277.494	351.38
277.726	318.38
277.957	300.38
278.189	297.38
278.421	319.38
278.652	271.38
278.884	296.38
279.115	295.38
279.347	290.38
279.579	287.38
279.81	280.38
280.042	288.38
280.273	291.38
280.505	290.38
280.736	292.38
280.968	293.38
281.199	289.38
281.431	288.38
281.662	285.38
281.894	287.38
282.125	304.38
282.356	316.38
282.588	320.38
282.819	307.38
283.051	301.38
283.282	294.38
283.513	306.38
283.745	308.38
283.976	301.38
284.207	307.38
284.439	327.38
284.67	308.38
284.901	326.38
285.132	296.38
285.364	293.38
285.595	300.38
285.826	301.38
286.057	304.38
286.288	312.38
286.52	289.38
286.751	317.38
286.982	308.38
287.213	322.38
287.444	308.38
287.675	326.38
287.906	307.38
288.138	332.38
288.369	320.38
288.6	318.38
288.831	319.38
289.062	321.38
289.293	324.38
289.524	325.38
289.755	326.38
289.986	322.38
290.217	326.38
290.448	321.38
290.679	313.38
290.91	328.38
291.141	321.38
291.371	318.38
291.602	326.38
291.833	336.38
292.064	309.38
292.295	320.38
292.526	311.38
292.757	319.38
292.987	332.38
293.218	299.38
293.449	330.38
293.68	342.38
293.91	326.38
294.141	329.38
294.372	333.38
294.603	321.38
294.833	308.38
295.064	343.38
295.295	317.38
295.525	312.38
295.756	331.38
295.987	325.38
296.217	341.38
296.448	344.38
296.679	340.38
296.909	332.38
297.14	327.38
297.37	324.38
297.601	348.38
297.831	323.38
298.062	332.38
298.292	352.38
298.523	352.38
298.753	332.38
298.984	342.38
299.214	335.38
299.445	341.38
299.675	336.38
299.905	321.38
300.136	333.38
300.366	347.38
300.597	345.38
300.827	327.38
301.057	368.38
301.288	368.38
301.518	363.38
301.748	358.38
301.979	353.38
302.209	359.38
302.439	367.38
302.669	364.38
302.9	360.38
303.13	372.38
303.36	361.38
303.59	362.38
303.82	371.38
304.051	366.38
304.281	365.38
304.511	357.38
304.741	373.38
304.971	352.38
305.201	356.38
305.431	351.38
305.661	347.38
305.891	360.38
306.121	382.38
306.352	363.38
306.582	372.38
306.812	357.38
307.042	369.38
307.272	385.38
307.502	358.38
307.731	379.38
307.961	363.38
308.191	367.38
308.421	345.38
308.651	362.38
308.881	369.38
309.111	383.38
309.341	375.38
309.571	381.38
309.8	393.38
310.03	390.38
310.26	376.38
310.49	373.38
310.72	386.38
310.949	396.38
311.179	402.38
311.409	389.38
311.639	399.38
311.868	383.38
312.098	387.38
312.328	394.38
312.557	411.38
312.787	417.38
313.017	410.38
313.246	403.38
313.476	386.38
313.706	378.38
313.935	401.38
314.165	401.38
314.394	429.38
314.624	429.38
314.853	403.38
315.083	382.38
315.312	392.38
315.542	388.38
315.771	397.38
316.001	399.38
316.23	385.38
316.46	390.38
316.689	400.38
316.919	385.38
317.148	389.38
317.377	420.38
317.607	398.38
317.836	389.38
318.065	408.38
318.295	390.38
318.524	385.38
318.753	400.38
318.983	404.38
319.212	405.38
319.441	397.38
319.67	409.38
319.9	382.38
320.129	420.38
320.358	407.38
320.587	409.38
320.816	426.38
321.046	407.38
321.275	421.38
321.504	407.38
321.733	418.38
321.962	421.38
322.191	414.38
322.42	441.38
322.649	438.38
322.878	443.38
323.108	445.38
323.337	467.38
323.566	484.38
323.795	488.38
324.024	529.38
324.253	583.38
324.482	788.38
324.71	1137.38
324.939	1577.38
325.168	1380.38
325.397	796.38
325.626	581.38
325.855	483.38
326.084	496.38
326.313	496.38
326.542	478.38
326.77	510.38
326.999	556.38
327.228	727.38
327.457	1013.38
327.686	1211.38
327.914	861.38
328.143	619.38
328.372	565.38
328.6	526.38
328.829	531.38
329.058	532.38
329.287	589.38
329.515	512.38
329.744	506.38
329.972	509.38
330.201	518.38
330.43	569.38
330.658	544.38
330.887	546.38
331.115	550.38
331.344	486.38
331.572	512.38
331.801	506.38
332.03	504.38
332.258	511.38
332.486	501.38
332.715	493.38
332.943	501.38
333.172	516.38
333.4	512.38
333.629	518.38
333.857	539.38
334.085	536.38
334.314	568.38
334.542	560.38
334.771	569.38
334.999	543.38
335.227	520.38
335.455	502.38
335.684	476.38
335.912	488.38
336.14	504.38
336.369	460.38
336.597	508.38
336.825	498.38
337.053	474.38
337.281	486.38
337.51	473.38
337.738	499.38
337.966	479.38
338.194	478.38
338.422	468.38
338.65	467.38
338.878	489.38
339.106	479.38
339.334	459.38
339.562	479.38
339.79	456.38
340.018	443.38
340.246	449.38
340.474	460.38
340.702	453.38
340.93	456.38
341.158	471.38
341.386	461.38
341.614	469.38
341.842	449.38
342.07	464.38
342.298	465.38
342.526	421.38
342.754	438.38
342.981	471.38
343.209	454.38
343.437	456.38
343.665	464.38
343.893	485.38
344.12	480.38
344.348	488.38
344.576	475.38
344.804	475.38
345.031	477.38
345.259	468.38
345.487	452.38
345.714	475.38
345.942	439.38
346.17	447.38
346.397	445.38
346.625	441.38
346.853	433.38
347.08	451.38
347.308	431.38
347.535	438.38
347.763	437.38
347.99	446.38
348.218	439.38
348.445	435.38
348.673	424.38
348.9	440.38
349.128	436.38
349.355	422.38
349.583	437.38
349.81	396.38
350.037	441.38
350.265	437.38
350.492	423.38
350.72	421.38
350.947	433.38
351.174	416.38
351.402	429.38
351.629	442.38
351.856	420.38
352.083	438.38
352.311	427.38
352.538	434.38
352.765	441.38
352.992	448.38
353.22	433.38
353.447	436.38
353.674	434.38
353.901	418.38
354.128	420.38
354.355	420.38
354.583	422.38
354.81	412.38
355.037	421.38
355.264	406.38
355.491	402.38
355.718	401.38
355.945	405.38
356.172	407.38
356.399	408.38
356.626	402.38
356.853	413.38
357.08	428.38
357.307	416.38
357.534	411.38
357.761	427.38
357.988	419.38
358.215	411.38
358.441	405.38
358.668	421.38
358.895	439.38
359.122	419.38
359.349	410.38
359.576	402.38
359.802	448.38
360.029	433.38
360.256	451.38
360.483	463.38
360.709	414.38
360.936	439.38
361.163	426.38
361.39	447.38
361.616	444.38
361.843	437.38
362.07	429.38
362.296	434.38
362.523	415.38
362.749	440.38
362.976	419.38
363.203	416.38
363.429	441.38
363.656	416.38
363.882	419.38
364.109	419.38
364.335	418.38
364.562	423.38
364.788	421.38
365.015	414.38
365.241	420.38
365.468	421.38
365.694	420.38
365.92	426.38
366.147	418.38
366.373	395.38
366.599	399.38
366.826	414.38
367.052	421.38
367.278	416.38
367.505	418.38
367.731	423.38
367.957	401.38
368.184	410.38
368.41	429.38
368.636	431.38
368.862	434.38
369.089	416.38
369.315	421.38
369.541	406.38
369.767	424.38
369.993	433.38
370.219	426.38
370.445	423.38
370.672	420.38
370.898	430.38
371.124	420.38
371.35	412.38
371.576	425.38
371.802	431.38
372.028	413.38
372.254	446.38
372.48	419.38
372.706	443.38
372.932	441.38
373.158	439.38
373.384	428.38
373.61	425.38
373.835	450.38
374.061	431.38
374.287	424.38
374.513	428.38
374.739	456.38
374.965	461.38
375.191	458.38
375.416	444.38
375.642	438.38
375.868	433.38
376.094	447.38
376.319	407.38
376.545	422.38
376.771	447.38
376.997	427.38
377.222	432.38
377.448	424.38
377.674	407.38
377.899	414.38
378.125	420.38
378.35	415.38
378.576	412.38
378.802	408.38
379.027	429.38
379.253	412.38
379.478	411.38
379.704	394.38
379.929	411.38
380.155	424.38
380.38	409.38
380.606	432.38
380.831	418.38
381.057	445.38
381.282	422.38
381.507	430.38
381.733	435.38
381.958	431.38
382.184	433.38
382.409	411.38
382.634	430.38
382.86	445.38
383.085	448.38
383.31	456.38
383.535	448.38
383.761	439.38
383.986	461.38
384.211	464.38
384.436	474.38
384.662	466.38
384.887	477.38
385.112	469.38
385.337	487.38
385.562	462.38
385.787	471.38
386.013	479.38
386.238	487.38
386.463	483.38
386.688	479.38
386.913	471.38
387.138	477.38
387.363	494.38
387.588	487.38
387.813	464.38
388.038	475.38
388.263	482.38
388.488	475.38
388.713	481.38
388.938	468.38
389.163	478.38
389.387	459.38
389.612	463.38
389.837	484.38
390.062	483.38
390.287	471.38
390.512	460.38
390.736	482.38
390.961	486.38
391.186	484.38
391.411	504.38
391.636	483.38
391.86	503.38
392.085	512.38
392.31	506.38
392.534	507.38
392.759	491.38
392.984	495.38
393.208	498.38
393.433	496.38
393.658	479.38
393.882	511.38
394.107	485.38
394.331	485.38
394.556	491.38
394.78	511.38
395.005	500.38
395.229	483.38
395.454	497.38
395.678	516.38
395.903	515.38
396.127	522.38
396.352	520.38
396.576	509.38
396.801	499.38
397.025	513.38
397.249	508.38
397.474	518.38
397.698	520.38
397.922	535.38
398.147	549.38
398.371	545.38
398.595	539.38
398.82	573.38
399.044	581.38
399.268	628.38
399.492	672.38
399.717	733.38
399.941	760.38
400.165	724.38
400.389	717.38
400.613	658.38
400.837	620.38
401.062	592.38
401.286	580.38
401.51	582.38
401.734	575.38
401.958	560.38
402.182	598.38
402.406	588.38
402.63	593.38
402.854	591.38
403.078	600.38
403.302	590.38
403.526	605.38
403.75	631.38
403.974	623.38
404.198	600.38
404.422	608.38
404.645	615.38
404.869	609.38
405.093	623.38
405.317	671.38
405.541	675.38
405.765	629.38
405.988	616.38
406.212	635.38
406.436	645.38
406.66	625.38
406.883	631.38
407.107	673.38
407.331	693.38
407.555	769.38
407.778	776.38
408.002	715.38
408.226	667.38
408.449	651.38
408.673	648.38
408.896	664.38
409.12	688.38
409.344	674.38
409.567	615.38
409.791	615.38
410.014	585.38
410.238	607.38
410.461	572.38
410.685	577.38
410.908	606.38
411.132	607.38
411.355	656.38
411.578	635.38
411.802	582.38
412.025	587.38
412.249	615.38
412.472	609.38
412.695	624.38
412.919	634.38
413.142	580.38
413.365	566.38
413.589	561.38
413.812	542.38
414.035	568.38
414.258	567.38
414.482	550.38
414.705	576.38
414.928	567.38
415.151	557.38
415.374	548.38
415.597	557.38
415.821	545.38
416.044	565.38
416.267	561.38
416.49	553.38
416.713	541.38
416.936	552.38
417.159	559.38
417.382	531.38
417.605	573.38
417.828	560.38
418.051	566.38
418.274	584.38
418.497	573.38
418.72	561.38
418.943	563.38
419.166	607.38
419.389	638.38
419.611	610.38
419.834	607.38
420.057	595.38
420.28	580.38
420.503	593.38
420.726	567.38
420.948	579.38
421.171	604.38
421.394	644.38
421.617	592.38
421.839	565.38
422.062	565.38
422.285	589.38
422.507	628.38
422.73	712.38
422.953	684.38
423.175	631.38
423.398	607.38
423.621	597.38
423.843	635.38
424.066	623.38
424.288	611.38
424.511	631.38
424.733	693.38
424.956	732.38
425.178	702.38
425.401	692.38
425.623	718.38
425.846	630.38
426.068	605.38
426.291	593.38
426.513	588.38
426.735	607.38
426.958	632.38
427.18	685.38
427.402	811.38
427.625	877.38
427.847	723.38
428.069	654.38
428.292	629.38
428.514	587.38
428.736	565.38
428.958	553.38
429.181	522.38
429.403	539.38
429.625	565.38
429.847	580.38
430.069	643.38
430.292	604.38
430.514	559.38
430.736	551.38
430.958	533.38
431.18	523.38
431.402	508.38
431.624	513.38
431.846	529.38
432.068	495.38
432.29	518.38
432.512	519.38
432.734	547.38
432.956	532.38
433.178	522.38
433.4	557.38
433.622	543.38
433.844	529.38
434.066	500.38
434.287	519.38
434.509	552.38
434.731	550.38
434.953	561.38
435.175	612.38
435.397	602.38
435.618	592.38
435.84	608.38
436.062	689.38
436.284	752.38
436.505	649.38
436.727	582.38
436.949	560.38
437.17	551.38
437.392	556.38
437.614	561.38
437.835	571.38
438.057	635.38
438.278	743.38
438.5	716.38
438.721	766.38
438.943	770.38
439.165	648.38
439.386	600.38
439.608	601.38
439.829	589.38
440.05	597.38
440.272	648.38
440.493	591.38
440.715	590.38
440.936	572.38
441.158	547.38
441.379	555.38
441.6	585.38
441.822	593.38
442.043	628.38
442.264	689.38
442.486	735.38
442.707	638.38
442.928	621.38
443.149	623.38
443.371	616.38
443.592	659.38
443.813	749.38
444.034	827.38
444.255	683.38
444.476	637.38
444.698	646.38
444.919	645.38
445.14	722.38
445.361	678.38
445.582	645.38
445.803	683.38
446.024	727.38
446.245	794.38
446.466	707.38
446.687	633.38
446.908	561.38
447.129	565.38
447.35	543.38
447.571	546.38
447.792	523.38
448.013	540.38
448.234	541.38
448.455	583.38
448.675	664.38
448.896	774.38
449.117	683.38
449.338	614.38
449.559	722.38
449.779	797.38
450	663.38
450.221	580.38
450.442	548.38
450.662	529.38
450.883	525.38
451.104	520.38
451.324	502.38
451.545	515.38
451.766	497.38
451.986	472.38
452.207	493.38
452.428	469.38
452.648	475.38
452.869	478.38
453.089	503.38
453.31	506.38
453.53	492.38
453.751	503.38
453.971	466.38
454.192	478.38
454.412	483.38
454.633	476.38
454.853	467.38
455.073	443.38
455.294	483.38
455.514	557.38
455.734	540.38
455.955	488.38
456.175	463.38
456.395	450.38
456.616	452.38
456.836	464.38
457.056	466.38
457.276	442.38
457.497	456.38
457.717	475.38
457.937	460.38
458.157	478.38
458.377	488.38
458.598	504.38
458.818	531.38
459.038	579.38
459.258	613.38
459.478	561.38
459.698	548.38
459.918	527.38
460.138	537.38
460.358	537.38
460.578	541.38
460.798	548.38
461.018	561.38
461.238	565.38
461.458	558.38
461.678	569.38
461.898	559.38
462.118	579.38
462.338	593.38
462.558	563.38
462.777	589.38
462.997	612.38
463.217	637.38
463.437	663.38
463.657	627.38
463.876	605.38
464.096	620.38
464.316	604.38
464.536	607.38
464.755	579.38
464.975	604.38
465.195	594.38
465.414	637.38
465.634	571.38
465.854	535.38
466.073	521.38
466.293	504.38
466.512	505.38
466.732	491.38
466.951	504.38
467.171	501.38
467.391	508.38
467.61	520.38
467.829	508.38
468.049	508.38
468.268	520.38
468.488	478.38
468.707	486.38
468.927	472.38
469.146	484.38
469.365	480.38
469.585	495.38
469.804	507.38
470.023	511.38
470.243	503.38
470.462	528.38
470.681	522.38
470.901	548.38
471.12	531.38
471.339	491.38
471.558	495.38
471.777	513.38
471.997	512.38
472.216	509.38
472.435	521.38
472.654	501.38
472.873	502.38
473.092	531.38
473.311	503.38
473.53	494.38
473.749	512.38
473.968	543.38
474.187	610.38
474.406	630.38
474.625	531.38
474.844	523.38
475.063	497.38
475.282	487.38
475.501	509.38
475.72	511.38
475.939	523.38
476.158	511.38
476.377	526.38
476.596	516.38
476.814	505.38
477.033	525.38
477.252	517.38
477.471	550.38
477.69	535.38
477.908	589.38
478.127	559.38
478.346	562.38
478.564	547.38
478.783	568.38
479.002	589.38
479.22	587.38
479.439	606.38
479.658	609.38
479.876	611.38
480.095	619.38
480.313	641.38
480.532	602.38
480.751	652.38
480.969	641.38
481.188	670.38
481.406	659.38
481.624	608.38
481.843	612.38
482.061	619.38
482.28	581.38
482.498	569.38
482.717	555.38
482.935	582.38
483.153	581.38
483.372	579.38
483.59	559.38
483.808	571.38
484.027	576.38
484.245	582.38
484.463	596.38
484.681	592.38
484.9	582.38
485.118	574.38
485.336	572.38
485.554	599.38
485.772	598.38
485.99	596.38
486.209	608.38
486.427	589.38
486.645	630.38
486.863	608.38
487.081	629.38
487.299	639.38
487.517	633.38
487.735	607.38
487.953	602.38
488.171	632.38
488.389	617.38
488.607	625.38
488.825	637.38
489.043	588.38
489.261	616.38
489.479	646.38
489.696	651.38
489.914	617.38
490.132	640.38
490.35	653.38
490.568	651.38
490.786	623.38
491.003	658.38
491.221	689.38
491.439	694.38
491.657	681.38
491.874	707.38
492.092	709.38
492.31	704.38
492.527	693.38
492.745	712.38
492.963	734.38
493.18	698.38
493.398	738.38
493.615	724.38
493.833	714.38
494.05	728.38
494.268	700.38
494.485	724.38
494.703	714.38
494.92	728.38
495.138	732.38
495.355	728.38
495.573	703.38
495.79	746.38
496.008	731.38
496.225	724.38
496.442	743.38
496.66	726.38
496.877	739.38
497.094	751.38
497.312	750.38
497.529	753.38
497.746	791.38
497.963	786.38
498.181	820.38
498.398	849.38
498.615	867.38
498.832	910.38
499.049	899.38
499.267	925.38
499.484	986.38
499.701	1042.38
499.918	1115.38
500.135	1208.38
500.352	1279.38
500.569	1277.38
500.786	1303.38
501.003	1282.38
501.22	1186.38
501.437	1128.38
501.654	1073.38
