Data from 1973.PennyLincolnUp.Lamp.En5.5.200Scan.071719.P1.Changed Mount._HRD10591_15-43-49-852.txt Node
Date: Thu Jul 18 15:43:49 EDT 2019
User: cochatt
Spectrometer: HR+D1059
Trigger mode: 1
Integration Time (sec): 1.000000E-1
Scans to average: 1
Electric dark correction enabled: true
Nonlinearity correction enabled: false
Boxcar width: 0
XAxis mode: Wavelengths
Number of Pixels in Spectrum: 2048
>>>>>Begin Spectral Data<<<<<
223.165	-11.81
223.4	-11.81
223.635	-11.81
223.869	-11.81
224.104	-30.81
224.338	-16.81
224.573	3.19
224.808	-19.81
225.042	-11.81
225.277	-9.81
225.511	-2.81
225.746	13.19
225.98	7.19
226.215	13.19
226.449	5.19
226.683	22.19
226.918	23.19
227.152	28.19
227.387	24.19
227.621	45.19
227.856	41.19
228.09	45.19
228.324	62.19
228.559	64.19
228.793	68.19
229.027	75.19
229.262	93.19
229.496	100.19
229.73	113.19
229.964	138.19
230.199	116.19
230.433	109.19
230.667	109.19
230.901	102.19
231.136	119.19
231.37	106.19
231.604	100.19
231.838	110.19
232.072	110.19
232.306	106.19
232.541	118.19
232.775	110.19
233.009	106.19
233.243	116.19
233.477	113.19
233.711	108.19
233.945	113.19
234.179	121.19
234.413	119.19
234.647	123.19
234.881	119.19
235.115	132.19
235.349	123.19
235.583	122.19
235.817	116.19
236.051	118.19
236.285	113.19
236.519	125.19
236.753	116.19
236.987	127.19
237.221	153.19
237.455	191.19
237.689	165.19
237.922	131.19
238.156	121.19
238.39	127.19
238.624	129.19
238.858	129.19
239.091	129.19
239.325	114.19
239.559	117.19
239.793	132.19
240.027	116.19
240.26	126.19
240.494	139.19
240.728	145.19
240.961	153.19
241.195	130.19
241.429	125.19
241.662	128.19
241.896	143.19
242.13	130.19
242.363	127.19
242.597	142.19
242.83	147.19
243.064	136.19
243.298	151.19
243.531	135.19
243.765	129.19
243.998	147.19
244.232	142.19
244.465	145.19
244.699	160.19
244.932	155.19
245.166	158.19
245.399	156.19
245.633	149.19
245.866	149.19
246.099	140.19
246.333	140.19
246.566	150.19
246.8	151.19
247.033	142.19
247.266	141.19
247.5	147.19
247.733	144.19
247.966	163.19
248.2	167.19
248.433	171.19
248.666	173.19
248.899	185.19
249.133	187.19
249.366	181.19
249.599	161.19
249.832	169.19
250.066	186.19
250.299	181.19
250.532	187.19
250.765	188.19
250.998	187.19
251.231	200.19
251.465	190.19
251.698	175.19
251.931	188.19
252.164	165.19
252.397	194.19
252.63	185.19
252.863	175.19
253.096	199.19
253.329	216.19
253.562	214.19
253.795	193.19
254.028	211.19
254.261	203.19
254.494	211.19
254.727	230.19
254.96	244.19
255.193	230.19
255.426	230.19
255.659	205.19
255.892	218.19
256.124	223.19
256.357	223.19
256.59	204.19
256.823	202.19
257.056	198.19
257.289	210.19
257.521	215.19
257.754	186.19
257.987	213.19
258.22	191.19
258.452	195.19
258.685	204.19
258.918	210.19
259.151	201.19
259.383	219.19
259.616	203.19
259.849	237.19
260.081	227.19
260.314	245.19
260.547	229.19
260.779	245.19
261.012	216.19
261.244	214.19
261.477	215.19
261.71	217.19
261.942	218.19
262.175	230.19
262.407	221.19
262.64	206.19
262.872	207.19
263.105	215.19
263.337	201.19
263.57	203.19
263.802	218.19
264.035	221.19
264.267	216.19
264.499	218.19
264.732	204.19
264.964	227.19
265.197	215.19
265.429	224.19
265.661	216.19
265.894	217.19
266.126	216.19
266.358	225.19
266.591	241.19
266.823	217.19
267.055	204.19
267.287	215.19
267.52	219.19
267.752	218.19
267.984	253.19
268.216	232.19
268.448	237.19
268.681	229.19
268.913	236.19
269.145	242.19
269.377	269.19
269.609	257.19
269.841	262.19
270.073	260.19
270.306	256.19
270.538	277.19
270.77	273.19
271.002	282.19
271.234	281.19
271.466	278.19
271.698	295.19
271.93	287.19
272.162	289.19
272.394	288.19
272.626	279.19
272.858	269.19
273.09	264.19
273.322	262.19
273.553	263.19
273.785	275.19
274.017	275.19
274.249	262.19
274.481	271.19
274.713	250.19
274.945	251.19
275.176	253.19
275.408	263.19
275.64	244.19
275.872	253.19
276.104	270.19
276.335	245.19
276.567	263.19
276.799	285.19
277.031	280.19
277.262	308.19
277.494	303.19
277.726	289.19
277.957	266.19
278.189	269.19
278.421	274.19
278.652	289.19
278.884	285.19
279.115	283.19
279.347	282.19
279.579	270.19
279.81	277.19
280.042	259.19
280.273	271.19
280.505	269.19
280.736	272.19
280.968	281.19
281.199	279.19
281.431	282.19
281.662	281.19
281.894	266.19
282.125	281.19
282.356	282.19
282.588	298.19
282.819	289.19
283.051	284.19
283.282	277.19
283.513	305.19
283.745	276.19
283.976	291.19
284.207	289.19
284.439	272.19
284.67	286.19
284.901	285.19
285.132	286.19
285.364	284.19
285.595	271.19
285.826	283.19
286.057	300.19
286.288	286.19
286.52	291.19
286.751	286.19
286.982	279.19
287.213	311.19
287.444	285.19
287.675	289.19
287.906	323.19
288.138	306.19
288.369	299.19
288.6	313.19
288.831	305.19
289.062	304.19
289.293	286.19
289.524	302.19
289.755	307.19
289.986	289.19
290.217	298.19
290.448	296.19
290.679	295.19
290.91	294.19
291.141	318.19
291.371	289.19
291.602	301.19
291.833	308.19
292.064	299.19
292.295	307.19
292.526	287.19
292.757	307.19
292.987	295.19
293.218	303.19
293.449	298.19
293.68	300.19
293.91	300.19
294.141	317.19
294.372	294.19
294.603	302.19
294.833	306.19
295.064	310.19
295.295	290.19
295.525	290.19
295.756	323.19
295.987	322.19
296.217	312.19
296.448	322.19
296.679	311.19
296.909	305.19
297.14	321.19
297.37	317.19
297.601	323.19
297.831	327.19
298.062	300.19
298.292	338.19
298.523	339.19
298.753	291.19
298.984	315.19
299.214	342.19
299.445	339.19
299.675	322.19
299.905	314.19
300.136	330.19
300.366	312.19
300.597	308.19
300.827	342.19
301.057	323.19
301.288	331.19
301.518	322.19
301.748	342.19
301.979	332.19
302.209	327.19
302.439	345.19
302.669	331.19
302.9	356.19
303.13	340.19
303.36	348.19
303.59	340.19
303.82	356.19
304.051	350.19
304.281	344.19
304.511	333.19
304.741	333.19
304.971	322.19
305.201	332.19
305.431	330.19
305.661	336.19
305.891	332.19
306.121	342.19
306.352	332.19
306.582	328.19
306.812	331.19
307.042	339.19
307.272	341.19
307.502	341.19
307.731	336.19
307.961	337.19
308.191	337.19
308.421	323.19
308.651	334.19
308.881	346.19
309.111	332.19
309.341	346.19
309.571	359.19
309.8	359.19
310.03	350.19
310.26	366.19
310.49	357.19
310.72	395.19
310.949	377.19
311.179	370.19
311.409	355.19
311.639	361.19
311.868	368.19
312.098	364.19
312.328	379.19
312.557	373.19
312.787	385.19
313.017	381.19
313.246	375.19
313.476	362.19
313.706	370.19
313.935	363.19
314.165	381.19
314.394	364.19
314.624	373.19
314.853	377.19
315.083	368.19
315.312	369.19
315.542	342.19
315.771	363.19
316.001	362.19
316.23	380.19
316.46	377.19
316.689	382.19
316.919	375.19
317.148	362.19
317.377	391.19
317.607	377.19
317.836	379.19
318.065	378.19
318.295	351.19
318.524	363.19
318.753	366.19
318.983	379.19
319.212	363.19
319.441	387.19
319.67	378.19
319.9	367.19
320.129	370.19
320.358	361.19
320.587	366.19
320.816	388.19
321.046	375.19
321.275	361.19
321.504	389.19
321.733	383.19
321.962	385.19
322.191	388.19
322.42	388.19
322.649	405.19
322.878	406.19
323.108	408.19
323.337	433.19
323.566	418.19
323.795	447.19
324.024	471.19
324.253	518.19
324.482	680.19
324.71	962.19
324.939	1315.19
325.168	1129.19
325.397	648.19
325.626	499.19
325.855	453.19
326.084	425.19
326.313	425.19
326.542	451.19
326.77	463.19
326.999	521.19
327.228	638.19
327.457	893.19
327.686	1021.19
327.914	754.19
328.143	565.19
328.372	471.19
328.6	488.19
328.829	455.19
329.058	477.19
329.287	466.19
329.515	459.19
329.744	449.19
329.972	446.19
330.201	468.19
330.43	480.19
330.658	495.19
330.887	499.19
331.115	517.19
331.344	472.19
331.572	441.19
331.801	461.19
332.03	460.19
332.258	437.19
332.486	437.19
332.715	458.19
332.943	473.19
333.172	452.19
333.4	481.19
333.629	486.19
333.857	486.19
334.085	487.19
334.314	498.19
334.542	520.19
334.771	507.19
334.999	482.19
335.227	480.19
335.455	463.19
335.684	477.19
335.912	431.19
336.14	457.19
336.369	454.19
336.597	433.19
336.825	431.19
337.053	462.19
337.281	453.19
337.51	437.19
337.738	446.19
337.966	434.19
338.194	431.19
338.422	452.19
338.65	419.19
338.878	418.19
339.106	426.19
339.334	426.19
339.562	420.19
339.79	418.19
340.018	425.19
340.246	415.19
340.474	428.19
340.702	425.19
340.93	401.19
341.158	409.19
341.386	404.19
341.614	430.19
341.842	433.19
342.07	400.19
342.298	398.19
342.526	396.19
342.754	428.19
342.981	413.19
343.209	428.19
343.437	421.19
343.665	425.19
343.893	446.19
344.12	464.19
344.348	441.19
344.576	446.19
344.804	441.19
345.031	449.19
345.259	430.19
345.487	422.19
345.714	425.19
345.942	421.19
346.17	416.19
346.397	420.19
346.625	395.19
346.853	420.19
347.08	390.19
347.308	401.19
347.535	402.19
347.763	408.19
347.99	408.19
348.218	403.19
348.445	399.19
348.673	423.19
348.9	410.19
349.128	409.19
349.355	411.19
349.583	374.19
349.81	377.19
350.037	378.19
350.265	400.19
350.492	397.19
350.72	388.19
350.947	389.19
351.174	397.19
351.402	399.19
351.629	414.19
351.856	408.19
352.083	400.19
352.311	410.19
352.538	404.19
352.765	394.19
352.992	396.19
353.22	397.19
353.447	395.19
353.674	392.19
353.901	378.19
354.128	387.19
354.355	407.19
354.583	365.19
354.81	380.19
355.037	373.19
355.264	379.19
355.491	381.19
355.718	382.19
355.945	382.19
356.172	384.19
356.399	385.19
356.626	381.19
356.853	403.19
357.08	384.19
357.307	377.19
357.534	377.19
357.761	372.19
357.988	372.19
358.215	384.19
358.441	397.19
358.668	391.19
358.895	392.19
359.122	367.19
359.349	375.19
359.576	397.19
359.802	394.19
360.029	428.19
360.256	424.19
360.483	402.19
360.709	405.19
360.936	397.19
361.163	404.19
361.39	392.19
361.616	390.19
361.843	391.19
362.07	394.19
362.296	402.19
362.523	411.19
362.749	398.19
362.976	406.19
363.203	391.19
363.429	377.19
363.656	374.19
363.882	391.19
364.109	376.19
364.335	380.19
364.562	371.19
364.788	374.19
365.015	377.19
365.241	381.19
365.468	387.19
365.694	393.19
365.92	373.19
366.147	398.19
366.373	383.19
366.599	375.19
366.826	375.19
367.052	383.19
367.278	398.19
367.505	361.19
367.731	382.19
367.957	381.19
368.184	366.19
368.41	379.19
368.636	383.19
368.862	394.19
369.089	385.19
369.315	412.19
369.541	389.19
369.767	378.19
369.993	387.19
370.219	409.19
370.445	392.19
370.672	389.19
370.898	382.19
371.124	384.19
371.35	410.19
371.576	387.19
371.802	416.19
372.028	389.19
372.254	398.19
372.48	409.19
372.706	390.19
372.932	423.19
373.158	395.19
373.384	404.19
373.61	400.19
373.835	401.19
374.061	399.19
374.287	406.19
374.513	405.19
374.739	397.19
374.965	433.19
375.191	419.19
375.416	413.19
375.642	419.19
375.868	400.19
376.094	387.19
376.319	388.19
376.545	399.19
376.771	391.19
376.997	405.19
377.222	405.19
377.448	395.19
377.674	391.19
377.899	403.19
378.125	395.19
378.35	396.19
378.576	390.19
378.802	419.19
379.027	400.19
379.253	393.19
379.478	395.19
379.704	399.19
379.929	385.19
380.155	404.19
380.38	413.19
380.606	412.19
380.831	395.19
381.057	388.19
381.282	389.19
381.507	389.19
381.733	402.19
381.958	387.19
382.184	391.19
382.409	400.19
382.634	432.19
382.86	391.19
383.085	408.19
383.31	411.19
383.535	416.19
383.761	415.19
383.986	428.19
384.211	426.19
384.436	437.19
384.662	435.19
384.887	434.19
385.112	440.19
385.337	433.19
385.562	423.19
385.787	441.19
386.013	453.19
386.238	455.19
386.463	454.19
386.688	469.19
386.913	431.19
387.138	424.19
387.363	467.19
387.588	427.19
387.813	444.19
388.038	440.19
388.263	454.19
388.488	445.19
388.713	453.19
388.938	445.19
389.163	449.19
389.387	451.19
389.612	422.19
389.837	453.19
390.062	441.19
390.287	444.19
390.512	443.19
390.736	441.19
390.961	437.19
391.186	457.19
391.411	471.19
391.636	467.19
391.86	460.19
392.085	451.19
392.31	469.19
392.534	489.19
392.759	462.19
392.984	453.19
393.208	469.19
393.433	453.19
393.658	461.19
393.882	447.19
394.107	452.19
394.331	449.19
394.556	460.19
394.78	456.19
395.005	433.19
395.229	477.19
395.454	469.19
395.678	473.19
395.903	467.19
396.127	494.19
396.352	486.19
396.576	468.19
396.801	449.19
397.025	433.19
397.249	476.19
397.474	490.19
397.698	483.19
397.922	476.19
398.147	476.19
398.371	489.19
398.595	519.19
398.82	511.19
399.044	526.19
399.268	540.19
399.492	621.19
399.717	645.19
399.941	667.19
400.165	684.19
400.389	659.19
400.613	583.19
400.837	571.19
401.062	556.19
401.286	505.19
401.51	549.19
401.734	517.19
401.958	523.19
402.182	534.19
402.406	556.19
402.63	533.19
402.854	539.19
403.078	534.19
403.302	533.19
403.526	554.19
403.75	561.19
403.974	567.19
404.198	555.19
404.422	521.19
404.645	558.19
404.869	573.19
405.093	578.19
405.317	619.19
405.541	629.19
405.765	577.19
405.988	563.19
406.212	565.19
406.436	586.19
406.66	590.19
406.883	585.19
407.107	604.19
407.331	671.19
407.555	714.19
407.778	673.19
408.002	651.19
408.226	591.19
408.449	588.19
408.673	599.19
408.896	589.19
409.12	622.19
409.344	592.19
409.567	586.19
409.791	566.19
410.014	535.19
410.238	551.19
410.461	550.19
410.685	566.19
410.908	531.19
411.132	580.19
411.355	609.19
411.578	582.19
411.802	555.19
412.025	543.19
412.249	524.19
412.472	567.19
412.695	591.19
412.919	566.19
413.142	541.19
413.365	542.19
413.589	505.19
413.812	513.19
414.035	522.19
414.258	508.19
414.482	506.19
414.705	518.19
414.928	526.19
415.151	521.19
415.374	523.19
415.597	523.19
415.821	499.19
416.044	501.19
416.267	512.19
416.49	500.19
416.713	495.19
416.936	502.19
417.159	493.19
417.382	512.19
417.605	499.19
417.828	515.19
418.051	525.19
418.274	498.19
418.497	502.19
418.72	517.19
418.943	505.19
419.166	543.19
419.389	559.19
419.611	553.19
419.834	556.19
420.057	551.19
420.28	536.19
420.503	527.19
420.726	531.19
420.948	552.19
421.171	526.19
421.394	600.19
421.617	546.19
421.839	520.19
422.062	509.19
422.285	554.19
422.507	569.19
422.73	627.19
422.953	608.19
423.175	545.19
423.398	555.19
423.621	565.19
423.843	573.19
424.066	572.19
424.288	566.19
424.511	553.19
424.733	600.19
424.956	657.19
425.178	647.19
425.401	641.19
425.623	649.19
425.846	554.19
426.068	541.19
426.291	545.19
426.513	551.19
426.735	557.19
426.958	591.19
427.18	638.19
427.402	755.19
427.625	805.19
427.847	669.19
428.069	607.19
428.292	547.19
428.514	548.19
428.736	508.19
428.958	494.19
429.181	502.19
429.403	487.19
429.625	495.19
429.847	519.19
430.069	579.19
430.292	568.19
430.514	511.19
430.736	492.19
430.958	491.19
431.18	482.19
431.402	467.19
431.624	485.19
431.846	467.19
432.068	497.19
432.29	505.19
432.512	494.19
432.734	470.19
432.956	475.19
433.178	462.19
433.4	487.19
433.622	453.19
433.844	485.19
434.066	482.19
434.287	496.19
434.509	501.19
434.731	512.19
434.953	522.19
435.175	505.19
435.397	552.19
435.618	522.19
435.84	557.19
436.062	617.19
436.284	666.19
436.505	579.19
436.727	516.19
436.949	515.19
437.17	478.19
437.392	504.19
437.614	495.19
437.835	543.19
438.057	559.19
438.278	655.19
438.5	665.19
438.721	730.19
438.943	686.19
439.165	587.19
439.386	536.19
439.608	541.19
439.829	513.19
440.05	561.19
440.272	562.19
440.493	534.19
440.715	527.19
440.936	516.19
441.158	521.19
441.379	492.19
441.6	525.19
441.822	542.19
442.043	559.19
442.264	613.19
442.486	655.19
442.707	595.19
442.928	544.19
443.149	565.19
443.371	570.19
443.592	583.19
443.813	673.19
444.034	729.19
444.255	616.19
444.476	577.19
444.698	562.19
444.919	579.19
445.14	635.19
445.361	585.19
445.582	566.19
445.803	596.19
446.024	695.19
446.245	703.19
446.466	626.19
446.687	558.19
446.908	519.19
447.129	492.19
447.35	488.19
447.571	495.19
447.792	498.19
448.013	485.19
448.234	483.19
448.455	546.19
448.675	621.19
448.896	699.19
449.117	628.19
449.338	573.19
449.559	658.19
449.779	761.19
450	611.19
450.221	505.19
450.442	491.19
450.662	480.19
450.883	481.19
451.104	483.19
451.324	466.19
451.545	449.19
451.766	459.19
451.986	453.19
452.207	447.19
452.428	458.19
452.648	457.19
452.869	443.19
453.089	452.19
453.31	463.19
453.53	418.19
453.751	428.19
453.971	429.19
454.192	428.19
454.412	453.19
454.633	427.19
454.853	428.19
455.073	428.19
455.294	450.19
455.514	489.19
455.734	491.19
455.955	422.19
456.175	423.19
456.395	414.19
456.616	414.19
456.836	431.19
457.056	423.19
457.276	426.19
457.497	451.19
457.717	418.19
457.937	438.19
458.157	425.19
458.377	441.19
458.598	441.19
458.818	498.19
459.038	543.19
459.258	533.19
459.478	503.19
459.698	481.19
459.918	471.19
460.138	502.19
460.358	505.19
460.578	518.19
460.798	529.19
461.018	524.19
461.238	527.19
461.458	506.19
461.678	500.19
461.898	526.19
462.118	513.19
462.338	537.19
462.558	517.19
462.777	554.19
462.997	571.19
463.217	607.19
463.437	619.19
463.657	563.19
463.876	569.19
464.096	566.19
464.316	570.19
464.536	577.19
464.755	577.19
464.975	546.19
465.195	547.19
465.414	558.19
465.634	539.19
465.854	523.19
466.073	512.19
466.293	487.19
466.512	453.19
466.732	458.19
466.951	461.19
467.171	451.19
467.391	460.19
467.61	462.19
467.829	473.19
468.049	450.19
468.268	427.19
468.488	455.19
468.707	450.19
468.927	452.19
469.146	431.19
469.365	442.19
469.585	439.19
469.804	458.19
470.023	481.19
470.243	460.19
470.462	475.19
470.681	461.19
470.901	481.19
471.12	461.19
471.339	447.19
471.558	470.19
471.777	462.19
471.997	466.19
472.216	475.19
472.435	494.19
472.654	481.19
472.873	461.19
473.092	445.19
473.311	450.19
473.53	473.19
473.749	467.19
473.968	498.19
474.187	550.19
474.406	600.19
474.625	498.19
474.844	462.19
475.063	451.19
475.282	442.19
475.501	460.19
475.72	459.19
475.939	472.19
476.158	469.19
476.377	467.19
476.596	474.19
476.814	472.19
477.033	482.19
477.252	485.19
477.471	494.19
477.69	497.19
477.908	515.19
478.127	485.19
478.346	519.19
478.564	520.19
478.783	551.19
479.002	526.19
479.22	551.19
479.439	551.19
479.658	550.19
479.876	556.19
480.095	537.19
480.313	590.19
480.532	600.19
480.751	602.19
480.969	584.19
481.188	613.19
481.406	601.19
481.624	585.19
481.843	531.19
482.061	525.19
482.28	526.19
482.498	565.19
482.717	538.19
482.935	521.19
483.153	530.19
483.372	538.19
483.59	524.19
483.808	527.19
484.027	509.19
484.245	522.19
484.463	517.19
484.681	548.19
484.9	545.19
485.118	527.19
485.336	522.19
485.554	536.19
485.772	548.19
485.99	552.19
486.209	558.19
486.427	541.19
486.645	565.19
486.863	570.19
487.081	545.19
487.299	577.19
487.517	564.19
487.735	559.19
487.953	561.19
488.171	581.19
488.389	571.19
488.607	583.19
488.825	588.19
489.043	563.19
489.261	565.19
489.479	577.19
489.696	578.19
489.914	599.19
490.132	596.19
490.35	591.19
490.568	594.19
490.786	600.19
491.003	609.19
491.221	617.19
491.439	612.19
491.657	631.19
491.874	635.19
492.092	634.19
492.31	631.19
492.527	641.19
492.745	635.19
492.963	636.19
493.18	628.19
493.398	647.19
493.615	649.19
493.833	653.19
494.05	674.19
494.268	673.19
494.485	638.19
494.703	641.19
494.92	634.19
495.138	647.19
495.355	664.19
495.573	666.19
495.79	662.19
496.008	661.19
496.225	661.19
496.442	661.19
496.66	674.19
496.877	677.19
497.094	692.19
497.312	667.19
497.529	687.19
497.746	706.19
497.963	721.19
498.181	745.19
498.398	758.19
498.615	771.19
498.832	780.19
499.049	809.19
499.267	819.19
499.484	882.19
499.701	939.19
499.918	1009.19
500.135	1044.19
500.352	1131.19
500.569	1185.19
500.786	1157.19
501.003	1132.19
501.22	1076.19
501.437	1025.19
501.654	982.19
