Data from 1973.PennyLincolnUp.Lamp.En5.5.200Scan.071719.P1.Changed Mount._HRD10591_15-43-29-852.txt Node
Date: Thu Jul 18 15:43:29 EDT 2019
User: cochatt
Spectrometer: HR+D1059
Trigger mode: 1
Integration Time (sec): 1.000000E-1
Scans to average: 1
Electric dark correction enabled: true
Nonlinearity correction enabled: false
Boxcar width: 0
XAxis mode: Wavelengths
Number of Pixels in Spectrum: 2048
>>>>>Begin Spectral Data<<<<<
223.165	-17.81
223.4	-17.81
223.635	-17.81
223.869	-20.81
224.104	-21.81
224.338	-17.81
224.573	-8.81
224.808	-11.81
225.042	-7.81
225.277	2.19
225.511	-4.81
225.746	1.19
225.98	-5.81
226.215	8.19
226.449	28.19
226.683	23.19
226.918	26.19
227.152	28.19
227.387	39.19
227.621	44.19
227.856	36.19
228.09	57.19
228.324	58.19
228.559	48.19
228.793	68.19
229.027	94.19
229.262	101.19
229.496	110.19
229.73	126.19
229.964	143.19
230.199	124.19
230.433	107.19
230.667	106.19
230.901	106.19
231.136	104.19
231.37	115.19
231.604	113.19
231.838	119.19
232.072	120.19
232.306	124.19
232.541	120.19
232.775	126.19
233.009	125.19
233.243	116.19
233.477	137.19
233.711	128.19
233.945	123.19
234.179	139.19
234.413	119.19
234.647	118.19
234.881	129.19
235.115	115.19
235.349	137.19
235.583	119.19
235.817	129.19
236.051	139.19
236.285	129.19
236.519	123.19
236.753	125.19
236.987	142.19
237.221	171.19
237.455	228.19
237.689	172.19
237.922	158.19
238.156	145.19
238.39	131.19
238.624	126.19
238.858	141.19
239.091	133.19
239.325	127.19
239.559	142.19
239.793	128.19
240.027	153.19
240.26	152.19
240.494	159.19
240.728	154.19
240.961	156.19
241.195	153.19
241.429	145.19
241.662	146.19
241.896	131.19
242.13	135.19
242.363	144.19
242.597	135.19
242.83	154.19
243.064	150.19
243.298	151.19
243.531	144.19
243.765	155.19
243.998	156.19
244.232	143.19
244.465	142.19
244.699	166.19
244.932	153.19
245.166	161.19
245.399	159.19
245.633	153.19
245.866	162.19
246.099	161.19
246.333	159.19
246.566	154.19
246.8	158.19
247.033	181.19
247.266	184.19
247.5	167.19
247.733	181.19
247.966	181.19
248.2	185.19
248.433	177.19
248.666	186.19
248.899	191.19
249.133	211.19
249.366	197.19
249.599	195.19
249.832	194.19
250.066	197.19
250.299	185.19
250.532	193.19
250.765	202.19
250.998	221.19
251.231	225.19
251.465	212.19
251.698	196.19
251.931	204.19
252.164	198.19
252.397	202.19
252.63	212.19
252.863	206.19
253.096	248.19
253.329	223.19
253.562	222.19
253.795	220.19
254.028	214.19
254.261	212.19
254.494	239.19
254.727	259.19
254.96	266.19
255.193	280.19
255.426	246.19
255.659	229.19
255.892	223.19
256.124	223.19
256.357	231.19
256.59	236.19
256.823	215.19
257.056	212.19
257.289	222.19
257.521	218.19
257.754	203.19
257.987	214.19
258.22	239.19
258.452	231.19
258.685	234.19
258.918	221.19
259.151	238.19
259.383	226.19
259.616	234.19
259.849	234.19
260.081	246.19
260.314	286.19
260.547	268.19
260.779	256.19
261.012	234.19
261.244	237.19
261.477	243.19
261.71	228.19
261.942	242.19
262.175	242.19
262.407	248.19
262.64	217.19
262.872	239.19
263.105	225.19
263.337	233.19
263.57	226.19
263.802	234.19
264.035	227.19
264.267	242.19
264.499	239.19
264.732	224.19
264.964	223.19
265.197	218.19
265.429	248.19
265.661	229.19
265.894	241.19
266.126	259.19
266.358	257.19
266.591	221.19
266.823	238.19
267.055	254.19
267.287	238.19
267.52	241.19
267.752	239.19
267.984	240.19
268.216	261.19
268.448	269.19
268.681	258.19
268.913	250.19
269.145	270.19
269.377	282.19
269.609	270.19
269.841	277.19
270.073	294.19
270.306	292.19
270.538	310.19
270.77	307.19
271.002	313.19
271.234	272.19
271.466	302.19
271.698	319.19
271.93	314.19
272.162	328.19
272.394	329.19
272.626	300.19
272.858	297.19
273.09	285.19
273.322	294.19
273.553	285.19
273.785	286.19
274.017	278.19
274.249	275.19
274.481	300.19
274.713	307.19
274.945	306.19
275.176	311.19
275.408	303.19
275.64	305.19
275.872	279.19
276.104	287.19
276.335	284.19
276.567	285.19
276.799	288.19
277.031	319.19
277.262	322.19
277.494	333.19
277.726	326.19
277.957	306.19
278.189	307.19
278.421	296.19
278.652	288.19
278.884	300.19
279.115	311.19
279.347	283.19
279.579	311.19
279.81	310.19
280.042	312.19
280.273	311.19
280.505	305.19
280.736	309.19
280.968	301.19
281.199	295.19
281.431	311.19
281.662	321.19
281.894	287.19
282.125	323.19
282.356	303.19
282.588	315.19
282.819	324.19
283.051	312.19
283.282	315.19
283.513	301.19
283.745	324.19
283.976	330.19
284.207	321.19
284.439	332.19
284.67	352.19
284.901	331.19
285.132	323.19
285.364	314.19
285.595	329.19
285.826	320.19
286.057	335.19
286.288	312.19
286.52	317.19
286.751	326.19
286.982	335.19
287.213	319.19
287.444	320.19
287.675	332.19
287.906	333.19
288.138	354.19
288.369	345.19
288.6	339.19
288.831	331.19
289.062	340.19
289.293	327.19
289.524	327.19
289.755	340.19
289.986	334.19
290.217	335.19
290.448	334.19
290.679	334.19
290.91	349.19
291.141	333.19
291.371	349.19
291.602	338.19
291.833	336.19
292.064	357.19
292.295	336.19
292.526	357.19
292.757	341.19
292.987	335.19
293.218	345.19
293.449	341.19
293.68	332.19
293.91	340.19
294.141	355.19
294.372	361.19
294.603	362.19
294.833	327.19
295.064	345.19
295.295	345.19
295.525	358.19
295.756	338.19
295.987	348.19
296.217	342.19
296.448	363.19
296.679	342.19
296.909	359.19
297.14	345.19
297.37	353.19
297.601	347.19
297.831	357.19
298.062	358.19
298.292	365.19
298.523	364.19
298.753	361.19
298.984	350.19
299.214	380.19
299.445	361.19
299.675	357.19
299.905	370.19
300.136	339.19
300.366	373.19
300.597	374.19
300.827	371.19
301.057	369.19
301.288	386.19
301.518	366.19
301.748	391.19
301.979	397.19
302.209	372.19
302.439	373.19
302.669	387.19
302.9	389.19
303.13	354.19
303.36	375.19
303.59	394.19
303.82	400.19
304.051	398.19
304.281	381.19
304.511	381.19
304.741	384.19
304.971	385.19
305.201	389.19
305.431	385.19
305.661	378.19
305.891	385.19
306.121	373.19
306.352	389.19
306.582	387.19
306.812	410.19
307.042	378.19
307.272	382.19
307.502	377.19
307.731	386.19
307.961	373.19
308.191	371.19
308.421	376.19
308.651	372.19
308.881	396.19
309.111	389.19
309.341	410.19
309.571	398.19
309.8	409.19
310.03	415.19
310.26	408.19
310.49	400.19
310.72	417.19
310.949	415.19
311.179	411.19
311.409	415.19
311.639	405.19
311.868	407.19
312.098	428.19
312.328	421.19
312.557	423.19
312.787	423.19
313.017	454.19
313.246	433.19
313.476	428.19
313.706	411.19
313.935	437.19
314.165	435.19
314.394	442.19
314.624	439.19
314.853	426.19
315.083	410.19
315.312	424.19
315.542	426.19
315.771	429.19
316.001	441.19
316.23	427.19
316.46	416.19
316.689	437.19
316.919	439.19
317.148	424.19
317.377	439.19
317.607	440.19
317.836	405.19
318.065	441.19
318.295	435.19
318.524	416.19
318.753	418.19
318.983	447.19
319.212	431.19
319.441	424.19
319.67	437.19
319.9	429.19
320.129	437.19
320.358	453.19
320.587	413.19
320.816	432.19
321.046	446.19
321.275	415.19
321.504	411.19
321.733	429.19
321.962	434.19
322.191	445.19
322.42	455.19
322.649	469.19
322.878	462.19
323.108	465.19
323.337	487.19
323.566	485.19
323.795	478.19
324.024	519.19
324.253	588.19
324.482	770.19
324.71	1111.19
324.939	1592.19
325.168	1374.19
325.397	762.19
325.626	575.19
325.855	511.19
326.084	515.19
326.313	490.19
326.542	482.19
326.77	510.19
326.999	593.19
327.228	720.19
327.457	1011.19
327.686	1241.19
327.914	853.19
328.143	607.19
328.372	554.19
328.6	534.19
328.829	519.19
329.058	558.19
329.287	552.19
329.515	524.19
329.744	525.19
329.972	509.19
330.201	520.19
330.43	533.19
330.658	554.19
330.887	572.19
331.115	573.19
331.344	519.19
331.572	502.19
331.801	520.19
332.03	524.19
332.258	529.19
332.486	517.19
332.715	525.19
332.943	532.19
333.172	522.19
333.4	550.19
333.629	557.19
333.857	535.19
334.085	554.19
334.314	564.19
334.542	569.19
334.771	573.19
334.999	585.19
335.227	556.19
335.455	555.19
335.684	543.19
335.912	510.19
336.14	518.19
336.369	540.19
336.597	522.19
336.825	521.19
337.053	517.19
337.281	515.19
337.51	517.19
337.738	523.19
337.966	513.19
338.194	533.19
338.422	510.19
338.65	489.19
338.878	513.19
339.106	490.19
339.334	520.19
339.562	513.19
339.79	493.19
340.018	477.19
340.246	511.19
340.474	500.19
340.702	511.19
340.93	488.19
341.158	491.19
341.386	482.19
341.614	513.19
341.842	491.19
342.07	457.19
342.298	488.19
342.526	488.19
342.754	479.19
342.981	480.19
343.209	470.19
343.437	510.19
343.665	507.19
343.893	543.19
344.12	556.19
344.348	533.19
344.576	534.19
344.804	531.19
345.031	502.19
345.259	491.19
345.487	489.19
345.714	491.19
345.942	482.19
346.17	486.19
346.397	483.19
346.625	470.19
346.853	452.19
347.08	472.19
347.308	482.19
347.535	479.19
347.763	492.19
347.99	469.19
348.218	477.19
348.445	487.19
348.673	474.19
348.9	477.19
349.128	479.19
349.355	487.19
349.583	470.19
349.81	477.19
350.037	452.19
350.265	467.19
350.492	476.19
350.72	445.19
350.947	477.19
351.174	468.19
351.402	474.19
351.629	469.19
351.856	465.19
352.083	498.19
352.311	500.19
352.538	470.19
352.765	499.19
352.992	482.19
353.22	449.19
353.447	463.19
353.674	468.19
353.901	458.19
354.128	476.19
354.355	438.19
354.583	452.19
354.81	461.19
355.037	461.19
355.264	452.19
355.491	466.19
355.718	458.19
355.945	456.19
356.172	468.19
356.399	476.19
356.626	451.19
356.853	454.19
357.08	461.19
357.307	454.19
357.534	470.19
357.761	464.19
357.988	466.19
358.215	477.19
358.441	485.19
358.668	454.19
358.895	471.19
359.122	465.19
359.349	468.19
359.576	493.19
359.802	492.19
360.029	522.19
360.256	504.19
360.483	511.19
360.709	466.19
360.936	467.19
361.163	454.19
361.39	491.19
361.616	453.19
361.843	465.19
362.07	481.19
362.296	468.19
362.523	478.19
362.749	472.19
362.976	485.19
363.203	485.19
363.429	454.19
363.656	479.19
363.882	468.19
364.109	465.19
364.335	468.19
364.562	441.19
364.788	483.19
365.015	468.19
365.241	460.19
365.468	455.19
365.694	473.19
365.92	473.19
366.147	489.19
366.373	477.19
366.599	461.19
366.826	478.19
367.052	445.19
367.278	467.19
367.505	458.19
367.731	494.19
367.957	498.19
368.184	470.19
368.41	484.19
368.636	488.19
368.862	494.19
369.089	469.19
369.315	490.19
369.541	464.19
369.767	486.19
369.993	468.19
370.219	481.19
370.445	487.19
370.672	491.19
370.898	486.19
371.124	469.19
371.35	499.19
371.576	501.19
371.802	468.19
372.028	481.19
372.254	489.19
372.48	510.19
372.706	501.19
372.932	497.19
373.158	492.19
373.384	509.19
373.61	513.19
373.835	490.19
374.061	506.19
374.287	508.19
374.513	499.19
374.739	519.19
374.965	535.19
375.191	519.19
375.416	534.19
375.642	506.19
375.868	519.19
376.094	505.19
376.319	484.19
376.545	501.19
376.771	486.19
376.997	492.19
377.222	492.19
377.448	521.19
377.674	514.19
377.899	480.19
378.125	478.19
378.35	486.19
378.576	482.19
378.802	501.19
379.027	494.19
379.253	510.19
379.478	504.19
379.704	505.19
379.929	498.19
380.155	489.19
380.38	497.19
380.606	492.19
380.831	494.19
381.057	503.19
381.282	486.19
381.507	504.19
381.733	509.19
381.958	514.19
382.184	500.19
382.409	513.19
382.634	505.19
382.86	520.19
383.085	511.19
383.31	533.19
383.535	548.19
383.761	551.19
383.986	536.19
384.211	541.19
384.436	549.19
384.662	571.19
384.887	571.19
385.112	573.19
385.337	579.19
385.562	565.19
385.787	583.19
386.013	563.19
386.238	588.19
386.463	581.19
386.688	575.19
386.913	567.19
387.138	598.19
387.363	582.19
387.588	576.19
387.813	567.19
388.038	554.19
388.263	583.19
388.488	593.19
388.713	577.19
388.938	547.19
389.163	563.19
389.387	577.19
389.612	566.19
389.837	558.19
390.062	566.19
390.287	565.19
390.512	554.19
390.736	565.19
390.961	559.19
391.186	563.19
391.411	571.19
391.636	570.19
391.86	616.19
392.085	621.19
392.31	589.19
392.534	612.19
392.759	588.19
392.984	583.19
393.208	585.19
393.433	617.19
393.658	630.19
393.882	591.19
394.107	567.19
394.331	589.19
394.556	584.19
394.78	594.19
395.005	570.19
395.229	598.19
395.454	591.19
395.678	599.19
395.903	593.19
396.127	634.19
396.352	609.19
396.576	592.19
396.801	606.19
397.025	630.19
397.249	635.19
397.474	609.19
397.698	616.19
397.922	621.19
398.147	612.19
398.371	662.19
398.595	643.19
398.82	650.19
399.044	693.19
399.268	737.19
399.492	802.19
399.717	845.19
399.941	862.19
400.165	839.19
400.389	813.19
400.613	738.19
400.837	703.19
401.062	678.19
401.286	674.19
401.51	674.19
401.734	663.19
401.958	654.19
402.182	659.19
402.406	689.19
402.63	684.19
402.854	709.19
403.078	686.19
403.302	695.19
403.526	717.19
403.75	689.19
403.974	705.19
404.198	685.19
404.422	720.19
404.645	717.19
404.869	714.19
405.093	726.19
405.317	737.19
405.541	789.19
405.765	743.19
405.988	722.19
406.212	713.19
406.436	716.19
406.66	774.19
406.883	746.19
407.107	767.19
407.331	832.19
407.555	919.19
407.778	876.19
408.002	825.19
408.226	787.19
408.449	745.19
408.673	759.19
408.896	785.19
409.12	777.19
409.344	773.19
409.567	725.19
409.791	725.19
410.014	715.19
410.238	719.19
410.461	691.19
410.685	723.19
410.908	690.19
411.132	715.19
411.355	761.19
411.578	732.19
411.802	708.19
412.025	685.19
412.249	691.19
412.472	728.19
412.695	738.19
412.919	710.19
413.142	670.19
413.365	654.19
413.589	682.19
413.812	662.19
414.035	651.19
414.258	650.19
414.482	653.19
414.705	649.19
414.928	664.19
415.151	666.19
415.374	678.19
415.597	651.19
415.821	654.19
416.044	647.19
416.267	684.19
416.49	662.19
416.713	640.19
416.936	647.19
417.159	629.19
417.382	664.19
417.605	644.19
417.828	659.19
418.051	662.19
418.274	681.19
418.497	645.19
418.72	655.19
418.943	675.19
419.166	692.19
419.389	767.19
419.611	725.19
419.834	691.19
420.057	699.19
420.28	654.19
420.503	661.19
420.726	701.19
420.948	689.19
421.171	693.19
421.394	747.19
421.617	697.19
421.839	681.19
422.062	645.19
422.285	673.19
422.507	705.19
422.73	795.19
422.953	788.19
423.175	709.19
423.398	696.19
423.621	696.19
423.843	690.19
424.066	713.19
424.288	698.19
424.511	730.19
424.733	789.19
424.956	848.19
425.178	813.19
425.401	814.19
425.623	822.19
425.846	718.19
426.068	703.19
426.291	693.19
426.513	694.19
426.735	696.19
426.958	710.19
427.18	798.19
427.402	929.19
427.625	1001.19
427.847	838.19
428.069	749.19
428.292	717.19
428.514	655.19
428.736	626.19
428.958	630.19
429.181	625.19
429.403	618.19
429.625	626.19
429.847	652.19
430.069	743.19
430.292	721.19
430.514	643.19
430.736	647.19
430.958	630.19
431.18	617.19
431.402	617.19
431.624	610.19
431.846	614.19
432.068	621.19
432.29	623.19
432.512	635.19
432.734	641.19
432.956	646.19
433.178	651.19
433.4	620.19
433.622	637.19
433.844	613.19
434.066	627.19
434.287	627.19
434.509	650.19
434.731	655.19
434.953	658.19
435.175	679.19
435.397	715.19
435.618	680.19
435.84	710.19
436.062	799.19
436.284	872.19
436.505	727.19
436.727	678.19
436.949	661.19
437.17	627.19
437.392	635.19
437.614	628.19
437.835	653.19
438.057	729.19
438.278	842.19
438.5	841.19
438.721	909.19
438.943	878.19
439.165	704.19
439.386	658.19
439.608	667.19
439.829	653.19
440.05	711.19
440.272	754.19
440.493	705.19
440.715	695.19
440.936	661.19
441.158	662.19
441.379	670.19
441.6	696.19
441.822	685.19
442.043	720.19
442.264	778.19
442.486	852.19
442.707	767.19
442.928	722.19
443.149	706.19
443.371	724.19
443.592	766.19
443.813	854.19
444.034	909.19
444.255	799.19
444.476	736.19
444.698	734.19
444.919	753.19
445.14	833.19
445.361	796.19
445.582	732.19
445.803	768.19
446.024	843.19
446.245	870.19
446.466	819.19
446.687	703.19
446.908	662.19
447.129	649.19
447.35	635.19
447.571	617.19
447.792	597.19
448.013	621.19
448.234	654.19
448.455	673.19
448.675	769.19
448.896	876.19
449.117	770.19
449.338	746.19
449.559	821.19
449.779	925.19
450	758.19
450.221	641.19
450.442	621.19
450.662	610.19
450.883	591.19
451.104	614.19
451.324	592.19
451.545	584.19
451.766	582.19
451.986	552.19
452.207	574.19
452.428	562.19
452.648	573.19
452.869	566.19
453.089	569.19
453.31	583.19
453.53	563.19
453.751	538.19
453.971	557.19
454.192	556.19
454.412	552.19
454.633	535.19
454.853	541.19
455.073	546.19
455.294	559.19
455.514	613.19
455.734	635.19
455.955	549.19
456.175	553.19
456.395	536.19
456.616	527.19
456.836	529.19
457.056	529.19
457.276	518.19
457.497	541.19
457.717	556.19
457.937	553.19
458.157	561.19
458.377	574.19
458.598	573.19
458.818	618.19
459.038	693.19
459.258	721.19
459.478	662.19
459.698	628.19
459.918	631.19
460.138	654.19
460.358	669.19
460.578	671.19
460.798	685.19
461.018	689.19
461.238	662.19
461.458	669.19
461.678	678.19
461.898	675.19
462.118	685.19
462.338	696.19
462.558	713.19
462.777	743.19
462.997	759.19
463.217	817.19
463.437	809.19
463.657	784.19
463.876	757.19
464.096	760.19
464.316	754.19
464.536	738.19
464.755	726.19
464.975	721.19
465.195	735.19
465.414	750.19
465.634	711.19
465.854	668.19
466.073	639.19
466.293	605.19
466.512	607.19
466.732	617.19
466.951	577.19
467.171	597.19
467.391	594.19
467.61	584.19
467.829	620.19
468.049	601.19
468.268	602.19
468.488	574.19
468.707	587.19
468.927	600.19
469.146	591.19
469.365	614.19
469.585	605.19
469.804	616.19
470.023	597.19
470.243	611.19
470.462	618.19
470.681	614.19
470.901	615.19
471.12	621.19
471.339	616.19
471.558	628.19
471.777	596.19
471.997	605.19
472.216	606.19
472.435	645.19
472.654	606.19
472.873	597.19
473.092	597.19
473.311	588.19
473.53	601.19
473.749	611.19
473.968	619.19
474.187	717.19
474.406	735.19
474.625	639.19
474.844	627.19
475.063	604.19
475.282	588.19
475.501	600.19
475.72	586.19
475.939	613.19
476.158	610.19
476.377	615.19
476.596	636.19
476.814	617.19
477.033	633.19
477.252	660.19
477.471	637.19
477.69	655.19
477.908	662.19
478.127	707.19
478.346	680.19
478.564	698.19
478.783	689.19
479.002	711.19
479.22	719.19
479.439	726.19
479.658	743.19
479.876	746.19
480.095	761.19
480.313	810.19
480.532	768.19
480.751	771.19
480.969	748.19
481.188	776.19
481.406	771.19
481.624	755.19
481.843	728.19
482.061	711.19
482.28	702.19
482.498	694.19
482.717	719.19
482.935	704.19
483.153	699.19
483.372	707.19
483.59	703.19
483.808	715.19
484.027	709.19
484.245	705.19
484.463	689.19
484.681	734.19
484.9	743.19
485.118	720.19
485.336	709.19
485.554	753.19
485.772	747.19
485.99	725.19
486.209	737.19
486.427	757.19
486.645	748.19
486.863	758.19
487.081	777.19
487.299	711.19
487.517	729.19
487.735	746.19
487.953	769.19
488.171	769.19
488.389	760.19
488.607	740.19
488.825	763.19
489.043	761.19
489.261	750.19
489.479	781.19
489.696	762.19
489.914	790.19
490.132	791.19
490.35	795.19
490.568	760.19
490.786	804.19
491.003	818.19
491.221	821.19
491.439	827.19
491.657	821.19
491.874	830.19
492.092	821.19
492.31	837.19
492.527	852.19
492.745	864.19
492.963	859.19
493.18	861.19
493.398	843.19
493.615	858.19
493.833	854.19
494.05	854.19
494.268	874.19
494.485	862.19
494.703	871.19
494.92	875.19
495.138	865.19
495.355	885.19
495.573	864.19
495.79	888.19
496.008	905.19
496.225	911.19
496.442	895.19
496.66	906.19
496.877	903.19
497.094	922.19
497.312	929.19
497.529	928.19
497.746	965.19
497.963	951.19
498.181	992.19
498.398	991.19
498.615	1026.19
498.832	1082.19
499.049	1100.19
499.267	1162.19
499.484	1219.19
499.701	1304.19
499.918	1382.19
500.135	1473.19
500.352	1571.19
500.569	1624.19
500.786	1648.19
501.003	1596.19
501.22	1500.19
501.437	1377.19
501.654	1301.19
