Data from 1973.PennyLincolnUp.Lamp.En5.5.200Scan.071719.P1.Changed Mount._HRD10591_15-46-00-853.txt Node
Date: Thu Jul 18 15:46:00 EDT 2019
User: cochatt
Spectrometer: HR+D1059
Trigger mode: 1
Integration Time (sec): 1.000000E-1
Scans to average: 1
Electric dark correction enabled: true
Nonlinearity correction enabled: false
Boxcar width: 0
XAxis mode: Wavelengths
Number of Pixels in Spectrum: 2048
>>>>>Begin Spectral Data<<<<<
223.165	-17.44
223.4	-17.44
223.635	-17.44
223.869	-13.44
224.104	-11.44
224.338	-10.44
224.573	-9.44
224.808	-5.44
225.042	-14.44
225.277	-22.44
225.511	-3.44
225.746	7.56
225.98	12.56
226.215	17.56
226.449	20.56
226.683	10.56
226.918	19.56
227.152	19.56
227.387	30.56
227.621	35.56
227.856	52.56
228.09	43.56
228.324	57.56
228.559	64.56
228.793	73.56
229.027	80.56
229.262	101.56
229.496	104.56
229.73	124.56
229.964	136.56
230.199	126.56
230.433	120.56
230.667	116.56
230.901	128.56
231.136	112.56
231.37	122.56
231.604	109.56
231.838	118.56
232.072	93.56
232.306	113.56
232.541	105.56
232.775	124.56
233.009	113.56
233.243	107.56
233.477	121.56
233.711	123.56
233.945	122.56
234.179	134.56
234.413	125.56
234.647	110.56
234.881	120.56
235.115	125.56
235.349	126.56
235.583	122.56
235.817	134.56
236.051	134.56
236.285	129.56
236.519	129.56
236.753	136.56
236.987	132.56
237.221	168.56
237.455	208.56
237.689	168.56
237.922	149.56
238.156	140.56
238.39	138.56
238.624	118.56
238.858	132.56
239.091	125.56
239.325	124.56
239.559	124.56
239.793	132.56
240.027	137.56
240.26	155.56
240.494	163.56
240.728	157.56
240.961	145.56
241.195	158.56
241.429	164.56
241.662	136.56
241.896	161.56
242.13	129.56
242.363	156.56
242.597	139.56
242.83	156.56
243.064	151.56
243.298	167.56
243.531	137.56
243.765	129.56
243.998	124.56
244.232	142.56
244.465	144.56
244.699	142.56
244.932	150.56
245.166	160.56
245.399	141.56
245.633	148.56
245.866	165.56
246.099	158.56
246.333	150.56
246.566	143.56
246.8	133.56
247.033	162.56
247.266	158.56
247.5	165.56
247.733	171.56
247.966	189.56
248.2	161.56
248.433	180.56
248.666	200.56
248.899	184.56
249.133	213.56
249.366	213.56
249.599	199.56
249.832	180.56
250.066	184.56
250.299	186.56
250.532	194.56
250.765	198.56
250.998	220.56
251.231	232.56
251.465	228.56
251.698	205.56
251.931	208.56
252.164	212.56
252.397	199.56
252.63	213.56
252.863	203.56
253.096	215.56
253.329	230.56
253.562	208.56
253.795	219.56
254.028	224.56
254.261	219.56
254.494	227.56
254.727	252.56
254.96	267.56
255.193	269.56
255.426	236.56
255.659	221.56
255.892	233.56
256.124	220.56
256.357	217.56
256.59	215.56
256.823	229.56
257.056	205.56
257.289	214.56
257.521	221.56
257.754	210.56
257.987	205.56
258.22	235.56
258.452	221.56
258.685	210.56
258.918	222.56
259.151	224.56
259.383	221.56
259.616	227.56
259.849	234.56
260.081	228.56
260.314	224.56
260.547	254.56
260.779	252.56
261.012	216.56
261.244	217.56
261.477	216.56
261.71	227.56
261.942	240.56
262.175	244.56
262.407	230.56
262.64	227.56
262.872	224.56
263.105	213.56
263.337	214.56
263.57	210.56
263.802	230.56
264.035	212.56
264.267	215.56
264.499	224.56
264.732	218.56
264.964	219.56
265.197	229.56
265.429	244.56
265.661	220.56
265.894	241.56
266.126	230.56
266.358	242.56
266.591	236.56
266.823	231.56
267.055	239.56
267.287	233.56
267.52	253.56
267.752	236.56
267.984	246.56
268.216	236.56
268.448	239.56
268.681	258.56
268.913	246.56
269.145	284.56
269.377	258.56
269.609	285.56
269.841	288.56
270.073	292.56
270.306	302.56
270.538	326.56
270.77	312.56
271.002	300.56
271.234	316.56
271.466	305.56
271.698	320.56
271.93	322.56
272.162	334.56
272.394	327.56
272.626	320.56
272.858	320.56
273.09	292.56
273.322	289.56
273.553	291.56
273.785	291.56
274.017	279.56
274.249	294.56
274.481	264.56
274.713	289.56
274.945	277.56
275.176	262.56
275.408	268.56
275.64	283.56
275.872	277.56
276.104	267.56
276.335	280.56
276.567	279.56
276.799	293.56
277.031	316.56
277.262	328.56
277.494	306.56
277.726	309.56
277.957	308.56
278.189	289.56
278.421	288.56
278.652	289.56
278.884	281.56
279.115	289.56
279.347	294.56
279.579	289.56
279.81	296.56
280.042	261.56
280.273	296.56
280.505	293.56
280.736	281.56
280.968	302.56
281.199	299.56
281.431	296.56
281.662	300.56
281.894	300.56
282.125	290.56
282.356	306.56
282.588	322.56
282.819	317.56
283.051	318.56
283.282	312.56
283.513	297.56
283.745	312.56
283.976	302.56
284.207	314.56
284.439	301.56
284.67	300.56
284.901	307.56
285.132	307.56
285.364	319.56
285.595	319.56
285.826	323.56
286.057	295.56
286.288	312.56
286.52	326.56
286.751	314.56
286.982	321.56
287.213	335.56
287.444	306.56
287.675	336.56
287.906	331.56
288.138	336.56
288.369	336.56
288.6	332.56
288.831	309.56
289.062	320.56
289.293	326.56
289.524	314.56
289.755	314.56
289.986	294.56
290.217	348.56
290.448	322.56
290.679	304.56
290.91	319.56
291.141	317.56
291.371	326.56
291.602	324.56
291.833	326.56
292.064	324.56
292.295	322.56
292.526	325.56
292.757	339.56
292.987	316.56
293.218	299.56
293.449	333.56
293.68	329.56
293.91	338.56
294.141	334.56
294.372	321.56
294.603	330.56
294.833	326.56
295.064	317.56
295.295	352.56
295.525	353.56
295.756	332.56
295.987	322.56
296.217	338.56
296.448	356.56
296.679	319.56
296.909	334.56
297.14	327.56
297.37	331.56
297.601	346.56
297.831	347.56
298.062	328.56
298.292	352.56
298.523	345.56
298.753	349.56
298.984	351.56
299.214	328.56
299.445	349.56
299.675	348.56
299.905	365.56
300.136	354.56
300.366	358.56
300.597	381.56
300.827	359.56
301.057	354.56
301.288	363.56
301.518	379.56
301.748	358.56
301.979	374.56
302.209	378.56
302.439	357.56
302.669	351.56
302.9	359.56
303.13	371.56
303.36	364.56
303.59	371.56
303.82	390.56
304.051	361.56
304.281	378.56
304.511	376.56
304.741	365.56
304.971	367.56
305.201	356.56
305.431	361.56
305.661	359.56
305.891	360.56
306.121	357.56
306.352	372.56
306.582	363.56
306.812	361.56
307.042	368.56
307.272	368.56
307.502	355.56
307.731	362.56
307.961	349.56
308.191	348.56
308.421	346.56
308.651	372.56
308.881	364.56
309.111	369.56
309.341	370.56
309.571	376.56
309.8	383.56
310.03	401.56
310.26	388.56
310.49	392.56
310.72	404.56
310.949	395.56
311.179	400.56
311.409	378.56
311.639	392.56
311.868	402.56
312.098	401.56
312.328	428.56
312.557	422.56
312.787	402.56
313.017	419.56
313.246	420.56
313.476	382.56
313.706	409.56
313.935	407.56
314.165	413.56
314.394	421.56
314.624	397.56
314.853	409.56
315.083	413.56
315.312	426.56
315.542	391.56
315.771	391.56
316.001	387.56
316.23	395.56
316.46	385.56
316.689	394.56
316.919	412.56
317.148	410.56
317.377	412.56
317.607	389.56
317.836	415.56
318.065	390.56
318.295	386.56
318.524	393.56
318.753	422.56
318.983	412.56
319.212	406.56
319.441	423.56
319.67	393.56
319.9	414.56
320.129	396.56
320.358	393.56
320.587	397.56
320.816	426.56
321.046	425.56
321.275	425.56
321.504	408.56
321.733	426.56
321.962	405.56
322.191	424.56
322.42	452.56
322.649	434.56
322.878	453.56
323.108	440.56
323.337	476.56
323.566	479.56
323.795	495.56
324.024	513.56
324.253	604.56
324.482	778.56
324.71	1159.56
324.939	1596.56
325.168	1406.56
325.397	757.56
325.626	580.56
325.855	506.56
326.084	475.56
326.313	472.56
326.542	477.56
326.77	527.56
326.999	581.56
327.228	733.56
327.457	1091.56
327.686	1223.56
327.914	868.56
328.143	615.56
328.372	568.56
328.6	564.56
328.829	542.56
329.058	533.56
329.287	552.56
329.515	538.56
329.744	488.56
329.972	494.56
330.201	517.56
330.43	516.56
330.658	542.56
330.887	565.56
331.115	556.56
331.344	525.56
331.572	492.56
331.801	495.56
332.03	496.56
332.258	518.56
332.486	480.56
332.715	500.56
332.943	515.56
333.172	501.56
333.4	500.56
333.629	496.56
333.857	535.56
334.085	532.56
334.314	561.56
334.542	570.56
334.771	574.56
334.999	529.56
335.227	532.56
335.455	520.56
335.684	514.56
335.912	469.56
336.14	512.56
336.369	490.56
336.597	481.56
336.825	499.56
337.053	512.56
337.281	494.56
337.51	474.56
337.738	475.56
337.966	472.56
338.194	488.56
338.422	483.56
338.65	451.56
338.878	462.56
339.106	464.56
339.334	465.56
339.562	450.56
339.79	462.56
340.018	443.56
340.246	446.56
340.474	463.56
340.702	453.56
340.93	465.56
341.158	465.56
341.386	467.56
341.614	447.56
341.842	449.56
342.07	464.56
342.298	456.56
342.526	449.56
342.754	443.56
342.981	445.56
343.209	467.56
343.437	455.56
343.665	474.56
343.893	470.56
344.12	515.56
344.348	499.56
344.576	489.56
344.804	471.56
345.031	467.56
345.259	483.56
345.487	481.56
345.714	461.56
345.942	461.56
346.17	447.56
346.397	431.56
346.625	457.56
346.853	423.56
347.08	452.56
347.308	439.56
347.535	463.56
347.763	459.56
347.99	439.56
348.218	445.56
348.445	440.56
348.673	435.56
348.9	459.56
349.128	429.56
349.355	427.56
349.583	425.56
349.81	412.56
350.037	435.56
350.265	435.56
350.492	439.56
350.72	427.56
350.947	405.56
351.174	426.56
351.402	448.56
351.629	440.56
351.856	421.56
352.083	438.56
352.311	434.56
352.538	447.56
352.765	452.56
352.992	435.56
353.22	448.56
353.447	424.56
353.674	418.56
353.901	415.56
354.128	421.56
354.355	445.56
354.583	414.56
354.81	407.56
355.037	414.56
355.264	434.56
355.491	409.56
355.718	418.56
355.945	422.56
356.172	416.56
356.399	426.56
356.626	401.56
356.853	418.56
357.08	405.56
357.307	417.56
357.534	406.56
357.761	425.56
357.988	407.56
358.215	392.56
358.441	443.56
358.668	394.56
358.895	398.56
359.122	405.56
359.349	436.56
359.576	445.56
359.802	442.56
360.029	466.56
360.256	456.56
360.483	459.56
360.709	442.56
360.936	435.56
361.163	441.56
361.39	458.56
361.616	441.56
361.843	432.56
362.07	433.56
362.296	448.56
362.523	443.56
362.749	429.56
362.976	431.56
363.203	422.56
363.429	415.56
363.656	415.56
363.882	435.56
364.109	410.56
364.335	402.56
364.562	438.56
364.788	417.56
365.015	417.56
365.241	417.56
365.468	425.56
365.694	439.56
365.92	416.56
366.147	432.56
366.373	410.56
366.599	402.56
366.826	392.56
367.052	408.56
367.278	410.56
367.505	415.56
367.731	430.56
367.957	428.56
368.184	422.56
368.41	418.56
368.636	436.56
368.862	446.56
369.089	411.56
369.315	416.56
369.541	422.56
369.767	417.56
369.993	408.56
370.219	420.56
370.445	411.56
370.672	410.56
370.898	429.56
371.124	437.56
371.35	442.56
371.576	450.56
371.802	416.56
372.028	430.56
372.254	446.56
372.48	435.56
372.706	426.56
372.932	435.56
373.158	450.56
373.384	426.56
373.61	441.56
373.835	429.56
374.061	414.56
374.287	443.56
374.513	441.56
374.739	441.56
374.965	453.56
375.191	442.56
375.416	466.56
375.642	448.56
375.868	433.56
376.094	433.56
376.319	456.56
376.545	444.56
376.771	417.56
376.997	424.56
377.222	422.56
377.448	445.56
377.674	436.56
377.899	411.56
378.125	436.56
378.35	422.56
378.576	422.56
378.802	417.56
379.027	428.56
379.253	421.56
379.478	425.56
379.704	421.56
379.929	435.56
380.155	423.56
380.38	420.56
380.606	441.56
380.831	434.56
381.057	428.56
381.282	409.56
381.507	432.56
381.733	442.56
381.958	437.56
382.184	431.56
382.409	440.56
382.634	428.56
382.86	449.56
383.085	443.56
383.31	454.56
383.535	454.56
383.761	443.56
383.986	456.56
384.211	465.56
384.436	467.56
384.662	462.56
384.887	470.56
385.112	475.56
385.337	451.56
385.562	461.56
385.787	480.56
386.013	487.56
386.238	497.56
386.463	486.56
386.688	485.56
386.913	488.56
387.138	484.56
387.363	491.56
387.588	469.56
387.813	481.56
388.038	486.56
388.263	498.56
388.488	472.56
388.713	483.56
388.938	481.56
389.163	497.56
389.387	488.56
389.612	477.56
389.837	478.56
390.062	497.56
390.287	482.56
390.512	489.56
390.736	470.56
390.961	487.56
391.186	474.56
391.411	476.56
391.636	508.56
391.86	520.56
392.085	490.56
392.31	517.56
392.534	521.56
392.759	513.56
392.984	513.56
393.208	497.56
393.433	487.56
393.658	486.56
393.882	481.56
394.107	487.56
394.331	499.56
394.556	505.56
394.78	492.56
395.005	476.56
395.229	508.56
395.454	519.56
395.678	529.56
395.903	498.56
396.127	550.56
396.352	544.56
396.576	508.56
396.801	505.56
397.025	510.56
397.249	507.56
397.474	517.56
397.698	531.56
397.922	532.56
398.147	560.56
398.371	572.56
398.595	560.56
398.82	566.56
399.044	553.56
399.268	606.56
399.492	665.56
399.717	735.56
399.941	756.56
400.165	737.56
400.389	694.56
400.613	664.56
400.837	619.56
401.062	585.56
401.286	562.56
401.51	568.56
401.734	556.56
401.958	569.56
402.182	590.56
402.406	579.56
402.63	585.56
402.854	582.56
403.078	577.56
403.302	604.56
403.526	613.56
403.75	597.56
403.974	641.56
404.198	603.56
404.422	602.56
404.645	626.56
404.869	622.56
405.093	650.56
405.317	660.56
405.541	695.56
405.765	660.56
405.988	634.56
406.212	625.56
406.436	648.56
406.66	642.56
406.883	636.56
407.107	668.56
407.331	698.56
407.555	766.56
407.778	796.56
408.002	710.56
408.226	675.56
408.449	676.56
408.673	637.56
408.896	685.56
409.12	699.56
409.344	674.56
409.567	612.56
409.791	617.56
410.014	614.56
410.238	597.56
410.461	588.56
410.685	590.56
410.908	599.56
411.132	629.56
411.355	659.56
411.578	642.56
411.802	595.56
412.025	587.56
412.249	622.56
412.472	602.56
412.695	642.56
412.919	647.56
413.142	601.56
413.365	568.56
413.589	567.56
413.812	555.56
414.035	565.56
414.258	549.56
414.482	548.56
414.705	557.56
414.928	539.56
415.151	572.56
415.374	557.56
415.597	541.56
415.821	561.56
416.044	570.56
416.267	583.56
416.49	581.56
416.713	564.56
416.936	560.56
417.159	577.56
417.382	572.56
417.605	577.56
417.828	572.56
418.051	572.56
418.274	580.56
418.497	556.56
418.72	564.56
418.943	563.56
419.166	581.56
419.389	601.56
419.611	592.56
419.834	602.56
420.057	596.56
420.28	594.56
420.503	566.56
420.726	571.56
420.948	592.56
421.171	614.56
421.394	658.56
421.617	611.56
421.839	581.56
422.062	587.56
422.285	596.56
422.507	644.56
422.73	684.56
422.953	690.56
423.175	636.56
423.398	601.56
423.621	609.56
423.843	612.56
424.066	609.56
424.288	632.56
424.511	619.56
424.733	662.56
424.956	712.56
425.178	706.56
425.401	723.56
425.623	738.56
425.846	649.56
426.068	607.56
426.291	606.56
426.513	560.56
426.735	576.56
426.958	638.56
427.18	674.56
427.402	789.56
427.625	864.56
427.847	767.56
428.069	667.56
428.292	608.56
428.514	582.56
428.736	566.56
428.958	557.56
429.181	556.56
429.403	547.56
429.625	564.56
429.847	579.56
430.069	616.56
430.292	643.56
430.514	560.56
430.736	550.56
430.958	537.56
431.18	536.56
431.402	517.56
431.624	530.56
431.846	532.56
432.068	530.56
432.29	517.56
432.512	540.56
432.734	530.56
432.956	555.56
433.178	550.56
433.4	530.56
433.622	544.56
433.844	532.56
434.066	536.56
434.287	548.56
434.509	527.56
434.731	547.56
434.953	568.56
435.175	578.56
435.397	612.56
435.618	592.56
435.84	633.56
436.062	686.56
436.284	746.56
436.505	660.56
436.727	598.56
436.949	557.56
437.17	549.56
437.392	564.56
437.614	559.56
437.835	589.56
438.057	650.56
438.278	736.56
438.5	711.56
438.721	799.56
438.943	770.56
439.165	640.56
439.386	564.56
439.608	565.56
439.829	588.56
440.05	607.56
440.272	631.56
440.493	599.56
440.715	574.56
440.936	577.56
441.158	553.56
441.379	568.56
441.6	599.56
441.822	605.56
442.043	641.56
442.264	708.56
442.486	731.56
442.707	631.56
442.928	600.56
443.149	628.56
443.371	638.56
443.592	652.56
443.813	739.56
444.034	839.56
444.255	680.56
444.476	667.56
444.698	634.56
444.919	645.56
445.14	730.56
445.361	676.56
445.582	648.56
445.803	701.56
446.024	771.56
446.245	765.56
446.466	680.56
446.687	632.56
446.908	599.56
447.129	562.56
447.35	546.56
447.571	551.56
447.792	505.56
448.013	536.56
448.234	533.56
448.455	604.56
448.675	679.56
448.896	784.56
449.117	677.56
449.338	638.56
449.559	736.56
449.779	834.56
450	654.56
450.221	574.56
450.442	533.56
450.662	529.56
450.883	532.56
451.104	541.56
451.324	527.56
451.545	492.56
451.766	481.56
451.986	475.56
452.207	493.56
452.428	499.56
452.648	476.56
452.869	489.56
453.089	481.56
453.31	505.56
453.53	499.56
453.751	482.56
453.971	478.56
454.192	504.56
454.412	470.56
454.633	447.56
454.853	488.56
455.073	466.56
455.294	516.56
455.514	563.56
455.734	553.56
455.955	501.56
456.175	466.56
456.395	453.56
456.616	473.56
456.836	466.56
457.056	453.56
457.276	444.56
457.497	457.56
457.717	451.56
457.937	468.56
458.157	491.56
458.377	477.56
458.598	505.56
458.818	533.56
459.038	588.56
459.258	607.56
459.478	569.56
459.698	524.56
459.918	555.56
460.138	540.56
460.358	554.56
460.578	567.56
460.798	584.56
461.018	566.56
461.238	560.56
461.458	560.56
461.678	544.56
461.898	582.56
462.118	599.56
462.338	597.56
462.558	610.56
462.777	594.56
462.997	627.56
463.217	648.56
463.437	678.56
463.657	613.56
463.876	621.56
464.096	613.56
464.316	603.56
464.536	595.56
464.755	608.56
464.975	596.56
465.195	610.56
465.414	645.56
465.634	584.56
465.854	546.56
466.073	536.56
466.293	527.56
466.512	525.56
466.732	513.56
466.951	486.56
467.171	490.56
467.391	517.56
467.61	516.56
467.829	539.56
468.049	524.56
468.268	488.56
468.488	500.56
468.707	493.56
468.927	495.56
469.146	496.56
469.365	501.56
469.585	497.56
469.804	504.56
470.023	517.56
470.243	510.56
470.462	502.56
470.681	560.56
470.901	533.56
471.12	531.56
471.339	513.56
471.558	494.56
471.777	508.56
471.997	500.56
472.216	498.56
472.435	491.56
472.654	508.56
472.873	496.56
473.092	496.56
473.311	493.56
473.53	514.56
473.749	499.56
473.968	530.56
474.187	608.56
474.406	638.56
474.625	555.56
474.844	519.56
475.063	513.56
475.282	489.56
475.501	525.56
475.72	532.56
475.939	520.56
476.158	528.56
476.377	527.56
476.596	515.56
476.814	541.56
477.033	531.56
477.252	526.56
477.471	566.56
477.69	541.56
477.908	565.56
478.127	551.56
478.346	571.56
478.564	566.56
478.783	591.56
479.002	595.56
479.22	582.56
479.439	602.56
479.658	598.56
479.876	615.56
480.095	625.56
480.313	636.56
480.532	636.56
480.751	637.56
480.969	626.56
481.188	668.56
481.406	653.56
481.624	619.56
481.843	624.56
482.061	605.56
482.28	621.56
482.498	603.56
482.717	580.56
482.935	580.56
483.153	587.56
483.372	564.56
483.59	592.56
483.808	598.56
484.027	594.56
484.245	584.56
484.463	583.56
484.681	590.56
484.9	587.56
485.118	588.56
485.336	584.56
485.554	594.56
485.772	588.56
485.99	612.56
486.209	590.56
486.427	626.56
486.645	609.56
486.863	613.56
487.081	625.56
487.299	632.56
487.517	615.56
487.735	606.56
487.953	600.56
488.171	621.56
488.389	625.56
488.607	638.56
488.825	622.56
489.043	620.56
489.261	644.56
489.479	652.56
489.696	624.56
489.914	633.56
490.132	635.56
490.35	659.56
490.568	679.56
490.786	649.56
491.003	685.56
491.221	700.56
491.439	695.56
491.657	713.56
491.874	713.56
492.092	721.56
492.31	692.56
492.527	739.56
492.745	704.56
492.963	725.56
493.18	724.56
493.398	714.56
493.615	725.56
493.833	726.56
494.05	724.56
494.268	725.56
494.485	721.56
494.703	744.56
494.92	733.56
495.138	745.56
495.355	736.56
495.573	722.56
495.79	732.56
496.008	762.56
496.225	756.56
496.442	732.56
496.66	743.56
496.877	741.56
497.094	764.56
497.312	771.56
497.529	765.56
497.746	801.56
497.963	780.56
498.181	801.56
498.398	834.56
498.615	862.56
498.832	884.56
499.049	906.56
499.267	960.56
499.484	1026.56
499.701	1069.56
499.918	1115.56
500.135	1203.56
500.352	1252.56
500.569	1323.56
500.786	1299.56
501.003	1295.56
501.22	1212.56
501.437	1129.56
501.654	1073.56
