Data from 1973.PennyLincolnUp.Lamp.En5.5.200Scan.071719.P1.Changed Mount._HRD10591_15-44-46-852.txt Node
Date: Thu Jul 18 15:44:46 EDT 2019
User: cochatt
Spectrometer: HR+D1059
Trigger mode: 1
Integration Time (sec): 1.000000E-1
Scans to average: 1
Electric dark correction enabled: true
Nonlinearity correction enabled: false
Boxcar width: 0
XAxis mode: Wavelengths
Number of Pixels in Spectrum: 2048
>>>>>Begin Spectral Data<<<<<
223.165	-17.12
223.4	-17.12
223.635	-17.12
223.869	-16.12
224.104	-21.12
224.338	-13.12
224.573	-18.12
224.808	-26.12
225.042	-2.12
225.277	1.88
225.511	3.88
225.746	-0.12
225.98	12.88
226.215	13.88
226.449	8.88
226.683	23.88
226.918	25.88
227.152	22.88
227.387	41.88
227.621	17.88
227.856	49.88
228.09	50.88
228.324	59.88
228.559	62.88
228.793	66.88
229.027	103.88
229.262	98.88
229.496	126.88
229.73	131.88
229.964	130.88
230.199	114.88
230.433	106.88
230.667	108.88
230.901	103.88
231.136	112.88
231.37	114.88
231.604	120.88
231.838	114.88
232.072	105.88
232.306	117.88
232.541	125.88
232.775	128.88
233.009	111.88
233.243	113.88
233.477	111.88
233.711	117.88
233.945	117.88
234.179	125.88
234.413	123.88
234.647	133.88
234.881	118.88
235.115	116.88
235.349	132.88
235.583	131.88
235.817	123.88
236.051	126.88
236.285	122.88
236.519	134.88
236.753	139.88
236.987	150.88
237.221	185.88
237.455	201.88
237.689	171.88
237.922	153.88
238.156	129.88
238.39	115.88
238.624	130.88
238.858	128.88
239.091	126.88
239.325	116.88
239.559	129.88
239.793	131.88
240.027	131.88
240.26	135.88
240.494	159.88
240.728	163.88
240.961	151.88
241.195	136.88
241.429	136.88
241.662	131.88
241.896	133.88
242.13	132.88
242.363	138.88
242.597	133.88
242.83	126.88
243.064	143.88
243.298	145.88
243.531	157.88
243.765	141.88
243.998	138.88
244.232	125.88
244.465	137.88
244.699	149.88
244.932	147.88
245.166	154.88
245.399	155.88
245.633	145.88
245.866	145.88
246.099	167.88
246.333	145.88
246.566	138.88
246.8	173.88
247.033	172.88
247.266	157.88
247.5	172.88
247.733	168.88
247.966	172.88
248.2	196.88
248.433	171.88
248.666	188.88
248.899	186.88
249.133	202.88
249.366	194.88
249.599	197.88
249.832	185.88
250.066	188.88
250.299	198.88
250.532	187.88
250.765	193.88
250.998	206.88
251.231	230.88
251.465	220.88
251.698	214.88
251.931	192.88
252.164	200.88
252.397	187.88
252.63	202.88
252.863	217.88
253.096	202.88
253.329	222.88
253.562	224.88
253.795	213.88
254.028	219.88
254.261	201.88
254.494	222.88
254.727	240.88
254.96	272.88
255.193	282.88
255.426	247.88
255.659	233.88
255.892	248.88
256.124	246.88
256.357	257.88
256.59	220.88
256.823	200.88
257.056	216.88
257.289	201.88
257.521	216.88
257.754	222.88
257.987	228.88
258.22	219.88
258.452	211.88
258.685	210.88
258.918	227.88
259.151	202.88
259.383	205.88
259.616	226.88
259.849	222.88
260.081	241.88
260.314	260.88
260.547	273.88
260.779	254.88
261.012	238.88
261.244	240.88
261.477	238.88
261.71	235.88
261.942	232.88
262.175	237.88
262.407	232.88
262.64	225.88
262.872	218.88
263.105	213.88
263.337	251.88
263.57	229.88
263.802	220.88
264.035	226.88
264.267	233.88
264.499	235.88
264.732	233.88
264.964	219.88
265.197	218.88
265.429	222.88
265.661	232.88
265.894	239.88
266.126	234.88
266.358	239.88
266.591	222.88
266.823	254.88
267.055	230.88
267.287	249.88
267.52	253.88
267.752	252.88
267.984	243.88
268.216	240.88
268.448	231.88
268.681	257.88
268.913	265.88
269.145	294.88
269.377	301.88
269.609	282.88
269.841	276.88
270.073	278.88
270.306	324.88
270.538	321.88
270.77	318.88
271.002	309.88
271.234	302.88
271.466	313.88
271.698	325.88
271.93	326.88
272.162	320.88
272.394	306.88
272.626	293.88
272.858	299.88
273.09	284.88
273.322	281.88
273.553	277.88
273.785	269.88
274.017	282.88
274.249	295.88
274.481	282.88
274.713	276.88
274.945	270.88
275.176	291.88
275.408	271.88
275.64	282.88
275.872	285.88
276.104	293.88
276.335	305.88
276.567	292.88
276.799	287.88
277.031	313.88
277.262	336.88
277.494	338.88
277.726	303.88
277.957	312.88
278.189	281.88
278.421	287.88
278.652	279.88
278.884	292.88
279.115	281.88
279.347	291.88
279.579	277.88
279.81	274.88
280.042	302.88
280.273	308.88
280.505	308.88
280.736	311.88
280.968	289.88
281.199	307.88
281.431	304.88
281.662	307.88
281.894	321.88
282.125	294.88
282.356	305.88
282.588	305.88
282.819	322.88
283.051	297.88
283.282	286.88
283.513	305.88
283.745	311.88
283.976	309.88
284.207	308.88
284.439	313.88
284.67	324.88
284.901	305.88
285.132	301.88
285.364	328.88
285.595	308.88
285.826	316.88
286.057	319.88
286.288	308.88
286.52	312.88
286.751	328.88
286.982	321.88
287.213	327.88
287.444	318.88
287.675	325.88
287.906	327.88
288.138	338.88
288.369	359.88
288.6	356.88
288.831	335.88
289.062	327.88
289.293	332.88
289.524	333.88
289.755	325.88
289.986	329.88
290.217	339.88
290.448	323.88
290.679	329.88
290.91	335.88
291.141	313.88
291.371	305.88
291.602	326.88
291.833	329.88
292.064	333.88
292.295	324.88
292.526	331.88
292.757	326.88
292.987	341.88
293.218	333.88
293.449	354.88
293.68	321.88
293.91	317.88
294.141	314.88
294.372	318.88
294.603	335.88
294.833	330.88
295.064	351.88
295.295	323.88
295.525	310.88
295.756	326.88
295.987	333.88
296.217	365.88
296.448	351.88
296.679	345.88
296.909	336.88
297.14	326.88
297.37	343.88
297.601	352.88
297.831	350.88
298.062	372.88
298.292	329.88
298.523	333.88
298.753	339.88
298.984	345.88
299.214	346.88
299.445	342.88
299.675	345.88
299.905	356.88
300.136	355.88
300.366	345.88
300.597	355.88
300.827	341.88
301.057	362.88
301.288	353.88
301.518	347.88
301.748	351.88
301.979	403.88
302.209	374.88
302.439	357.88
302.669	379.88
302.9	359.88
303.13	353.88
303.36	367.88
303.59	373.88
303.82	366.88
304.051	354.88
304.281	391.88
304.511	380.88
304.741	366.88
304.971	394.88
305.201	381.88
305.431	356.88
305.661	360.88
305.891	357.88
306.121	344.88
306.352	375.88
306.582	377.88
306.812	359.88
307.042	392.88
307.272	375.88
307.502	373.88
307.731	369.88
307.961	378.88
308.191	369.88
308.421	366.88
308.651	375.88
308.881	361.88
309.111	372.88
309.341	387.88
309.571	374.88
309.8	383.88
310.03	385.88
310.26	371.88
310.49	385.88
310.72	439.88
310.949	402.88
311.179	421.88
311.409	396.88
311.639	409.88
311.868	387.88
312.098	401.88
312.328	411.88
312.557	415.88
312.787	397.88
313.017	425.88
313.246	410.88
313.476	393.88
313.706	406.88
313.935	423.88
314.165	423.88
314.394	442.88
314.624	393.88
314.853	406.88
315.083	401.88
315.312	411.88
315.542	408.88
315.771	401.88
316.001	405.88
316.23	405.88
316.46	400.88
316.689	403.88
316.919	417.88
317.148	402.88
317.377	395.88
317.607	416.88
317.836	410.88
318.065	416.88
318.295	405.88
318.524	391.88
318.753	410.88
318.983	398.88
319.212	419.88
319.441	400.88
319.67	394.88
319.9	421.88
320.129	414.88
320.358	392.88
320.587	403.88
320.816	424.88
321.046	426.88
321.275	421.88
321.504	415.88
321.733	428.88
321.962	426.88
322.191	434.88
322.42	435.88
322.649	429.88
322.878	424.88
323.108	444.88
323.337	461.88
323.566	482.88
323.795	492.88
324.024	515.88
324.253	590.88
324.482	800.88
324.71	1128.88
324.939	1541.88
325.168	1383.88
325.397	773.88
325.626	577.88
325.855	505.88
326.084	478.88
326.313	469.88
326.542	498.88
326.77	516.88
326.999	582.88
327.228	725.88
327.457	1013.88
327.686	1208.88
327.914	857.88
328.143	612.88
328.372	582.88
328.6	570.88
328.829	524.88
329.058	523.88
329.287	528.88
329.515	535.88
329.744	487.88
329.972	497.88
330.201	521.88
330.43	534.88
330.658	549.88
330.887	569.88
331.115	551.88
331.344	514.88
331.572	502.88
331.801	508.88
332.03	520.88
332.258	499.88
332.486	474.88
332.715	482.88
332.943	489.88
333.172	520.88
333.4	498.88
333.629	538.88
333.857	538.88
334.085	547.88
334.314	559.88
334.542	564.88
334.771	564.88
334.999	551.88
335.227	496.88
335.455	522.88
335.684	502.88
335.912	517.88
336.14	472.88
336.369	471.88
336.597	477.88
336.825	495.88
337.053	472.88
337.281	481.88
337.51	473.88
337.738	472.88
337.966	467.88
338.194	450.88
338.422	463.88
338.65	474.88
338.878	465.88
339.106	475.88
339.334	474.88
339.562	485.88
339.79	440.88
340.018	470.88
340.246	459.88
340.474	445.88
340.702	454.88
340.93	447.88
341.158	463.88
341.386	479.88
341.614	462.88
341.842	464.88
342.07	451.88
342.298	458.88
342.526	432.88
342.754	426.88
342.981	439.88
343.209	450.88
343.437	462.88
343.665	465.88
343.893	494.88
344.12	499.88
344.348	487.88
344.576	477.88
344.804	502.88
345.031	463.88
345.259	451.88
345.487	462.88
345.714	436.88
345.942	460.88
346.17	448.88
346.397	431.88
346.625	438.88
346.853	449.88
347.08	441.88
347.308	419.88
347.535	443.88
347.763	435.88
347.99	450.88
348.218	458.88
348.445	430.88
348.673	432.88
348.9	432.88
349.128	429.88
349.355	408.88
349.583	416.88
349.81	433.88
350.037	422.88
350.265	414.88
350.492	426.88
350.72	428.88
350.947	419.88
351.174	446.88
351.402	451.88
351.629	407.88
351.856	426.88
352.083	452.88
352.311	435.88
352.538	447.88
352.765	440.88
352.992	439.88
353.22	430.88
353.447	436.88
353.674	418.88
353.901	430.88
354.128	408.88
354.355	420.88
354.583	415.88
354.81	422.88
355.037	408.88
355.264	414.88
355.491	412.88
355.718	424.88
355.945	418.88
356.172	429.88
356.399	437.88
356.626	424.88
356.853	407.88
357.08	399.88
357.307	404.88
357.534	424.88
357.761	420.88
357.988	411.88
358.215	412.88
358.441	407.88
358.668	413.88
358.895	398.88
359.122	409.88
359.349	428.88
359.576	434.88
359.802	438.88
360.029	443.88
360.256	461.88
360.483	450.88
360.709	439.88
360.936	438.88
361.163	439.88
361.39	439.88
361.616	436.88
361.843	411.88
362.07	425.88
362.296	401.88
362.523	424.88
362.749	421.88
362.976	414.88
363.203	422.88
363.429	413.88
363.656	417.88
363.882	415.88
364.109	415.88
364.335	406.88
364.562	413.88
364.788	437.88
365.015	407.88
365.241	417.88
365.468	403.88
365.694	418.88
365.92	421.88
366.147	413.88
366.373	420.88
366.599	409.88
366.826	430.88
367.052	401.88
367.278	413.88
367.505	406.88
367.731	405.88
367.957	425.88
368.184	427.88
368.41	426.88
368.636	427.88
368.862	431.88
369.089	438.88
369.315	430.88
369.541	419.88
369.767	403.88
369.993	421.88
370.219	435.88
370.445	412.88
370.672	433.88
370.898	405.88
371.124	428.88
371.35	442.88
371.576	423.88
371.802	411.88
372.028	418.88
372.254	429.88
372.48	433.88
372.706	457.88
372.932	444.88
373.158	459.88
373.384	431.88
373.61	433.88
373.835	442.88
374.061	454.88
374.287	438.88
374.513	419.88
374.739	441.88
374.965	427.88
375.191	438.88
375.416	455.88
375.642	437.88
375.868	468.88
376.094	447.88
376.319	427.88
376.545	433.88
376.771	450.88
376.997	424.88
377.222	418.88
377.448	403.88
377.674	423.88
377.899	424.88
378.125	425.88
378.35	415.88
378.576	434.88
378.802	413.88
379.027	429.88
379.253	441.88
379.478	441.88
379.704	430.88
379.929	429.88
380.155	450.88
380.38	423.88
380.606	441.88
380.831	433.88
381.057	426.88
381.282	451.88
381.507	441.88
381.733	451.88
381.958	441.88
382.184	441.88
382.409	423.88
382.634	462.88
382.86	449.88
383.085	446.88
383.31	457.88
383.535	444.88
383.761	452.88
383.986	464.88
384.211	451.88
384.436	484.88
384.662	464.88
384.887	461.88
385.112	466.88
385.337	469.88
385.562	463.88
385.787	488.88
386.013	505.88
386.238	489.88
386.463	483.88
386.688	495.88
386.913	482.88
387.138	472.88
387.363	471.88
387.588	474.88
387.813	476.88
388.038	461.88
388.263	487.88
388.488	467.88
388.713	468.88
388.938	470.88
389.163	476.88
389.387	499.88
389.612	478.88
389.837	466.88
390.062	479.88
390.287	482.88
390.512	479.88
390.736	474.88
390.961	478.88
391.186	489.88
391.411	484.88
391.636	494.88
391.86	500.88
392.085	502.88
392.31	503.88
392.534	499.88
392.759	533.88
392.984	512.88
393.208	471.88
393.433	500.88
393.658	481.88
393.882	489.88
394.107	500.88
394.331	479.88
394.556	482.88
394.78	503.88
395.005	509.88
395.229	480.88
395.454	503.88
395.678	506.88
395.903	537.88
396.127	545.88
396.352	532.88
396.576	514.88
396.801	490.88
397.025	488.88
397.249	521.88
397.474	529.88
397.698	535.88
397.922	550.88
398.147	545.88
398.371	543.88
398.595	548.88
398.82	572.88
399.044	601.88
399.268	605.88
399.492	682.88
399.717	718.88
399.941	754.88
400.165	726.88
400.389	711.88
400.613	639.88
400.837	609.88
401.062	588.88
401.286	579.88
401.51	555.88
401.734	545.88
401.958	572.88
402.182	590.88
402.406	584.88
402.63	602.88
402.854	595.88
403.078	596.88
403.302	617.88
403.526	600.88
403.75	619.88
403.974	606.88
404.198	595.88
404.422	629.88
404.645	602.88
404.869	605.88
405.093	619.88
405.317	671.88
405.541	709.88
405.765	657.88
405.988	625.88
406.212	615.88
406.436	639.88
406.66	642.88
406.883	630.88
407.107	660.88
407.331	702.88
407.555	749.88
407.778	777.88
408.002	709.88
408.226	671.88
408.449	669.88
408.673	660.88
408.896	675.88
409.12	676.88
409.344	670.88
409.567	599.88
409.791	621.88
410.014	597.88
410.238	600.88
410.461	609.88
410.685	606.88
410.908	607.88
411.132	633.88
411.355	657.88
411.578	622.88
411.802	577.88
412.025	580.88
412.249	612.88
412.472	618.88
412.695	673.88
412.919	623.88
413.142	629.88
413.365	593.88
413.589	583.88
413.812	593.88
414.035	554.88
414.258	569.88
414.482	587.88
414.705	589.88
414.928	529.88
415.151	568.88
415.374	561.88
415.597	559.88
415.821	547.88
416.044	555.88
416.267	533.88
416.49	563.88
416.713	556.88
416.936	542.88
417.159	557.88
417.382	557.88
417.605	551.88
417.828	551.88
418.051	579.88
418.274	581.88
418.497	581.88
418.72	574.88
418.943	567.88
419.166	594.88
419.389	605.88
419.611	603.88
419.834	595.88
420.057	574.88
420.28	565.88
420.503	567.88
420.726	575.88
420.948	598.88
421.171	647.88
421.394	659.88
421.617	602.88
421.839	571.88
422.062	598.88
422.285	557.88
422.507	645.88
422.73	694.88
422.953	684.88
423.175	620.88
423.398	600.88
423.621	605.88
423.843	637.88
424.066	607.88
424.288	603.88
424.511	632.88
424.733	674.88
424.956	749.88
425.178	710.88
425.401	693.88
425.623	722.88
425.846	659.88
426.068	612.88
426.291	595.88
426.513	575.88
426.735	595.88
426.958	616.88
427.18	693.88
427.402	802.88
427.625	868.88
427.847	756.88
428.069	677.88
428.292	598.88
428.514	547.88
428.736	570.88
428.958	555.88
429.181	549.88
429.403	527.88
429.625	547.88
429.847	574.88
430.069	635.88
430.292	636.88
430.514	549.88
430.736	565.88
430.958	553.88
431.18	535.88
431.402	508.88
431.624	515.88
431.846	525.88
432.068	499.88
432.29	544.88
432.512	511.88
432.734	526.88
432.956	540.88
433.178	535.88
433.4	531.88
433.622	511.88
433.844	532.88
434.066	546.88
434.287	520.88
434.509	542.88
434.731	538.88
434.953	573.88
435.175	581.88
435.397	606.88
435.618	611.88
435.84	625.88
436.062	697.88
436.284	729.88
436.505	629.88
436.727	587.88
436.949	580.88
437.17	540.88
437.392	546.88
437.614	539.88
437.835	548.88
438.057	623.88
438.278	723.88
438.5	716.88
438.721	799.88
438.943	745.88
439.165	655.88
439.386	581.88
439.608	585.88
439.829	590.88
440.05	611.88
440.272	606.88
440.493	615.88
440.715	597.88
440.936	570.88
441.158	561.88
441.379	562.88
441.6	555.88
441.822	607.88
442.043	635.88
442.264	682.88
442.486	719.88
442.707	631.88
442.928	600.88
443.149	607.88
443.371	641.88
443.592	648.88
443.813	752.88
444.034	793.88
444.255	693.88
444.476	649.88
444.698	637.88
444.919	636.88
445.14	746.88
445.361	677.88
445.582	627.88
445.803	682.88
446.024	747.88
446.245	747.88
446.466	710.88
446.687	613.88
446.908	586.88
447.129	561.88
447.35	553.88
447.571	546.88
447.792	527.88
448.013	540.88
448.234	550.88
448.455	604.88
448.675	698.88
448.896	779.88
449.117	666.88
449.338	633.88
449.559	739.88
449.779	843.88
450	674.88
450.221	565.88
450.442	531.88
450.662	539.88
450.883	511.88
451.104	506.88
451.324	510.88
451.545	498.88
451.766	515.88
451.986	510.88
452.207	476.88
452.428	483.88
452.648	471.88
452.869	481.88
453.089	500.88
453.31	491.88
453.53	494.88
453.751	498.88
453.971	469.88
454.192	495.88
454.412	492.88
454.633	476.88
454.853	479.88
455.073	484.88
455.294	497.88
455.514	563.88
455.734	541.88
455.955	486.88
456.175	445.88
456.395	437.88
456.616	447.88
456.836	461.88
457.056	427.88
457.276	430.88
457.497	454.88
457.717	455.88
457.937	473.88
458.157	478.88
458.377	475.88
458.598	504.88
458.818	511.88
459.038	595.88
459.258	620.88
459.478	542.88
459.698	531.88
459.918	531.88
460.138	543.88
460.358	551.88
460.578	555.88
460.798	558.88
461.018	565.88
461.238	545.88
461.458	562.88
461.678	551.88
461.898	563.88
462.118	550.88
462.338	586.88
462.558	587.88
462.777	634.88
462.997	631.88
463.217	651.88
463.437	669.88
463.657	635.88
463.876	597.88
464.096	631.88
464.316	611.88
464.536	628.88
464.755	597.88
464.975	600.88
465.195	616.88
465.414	642.88
465.634	583.88
465.854	534.88
466.073	518.88
466.293	523.88
466.512	511.88
466.732	497.88
466.951	505.88
467.171	496.88
467.391	521.88
467.61	521.88
467.829	518.88
468.049	515.88
468.268	522.88
468.488	495.88
468.707	485.88
468.927	484.88
469.146	501.88
469.365	493.88
469.585	493.88
469.804	502.88
470.023	506.88
470.243	493.88
470.462	521.88
470.681	508.88
470.901	508.88
471.12	507.88
471.339	500.88
471.558	517.88
471.777	502.88
471.997	486.88
472.216	509.88
472.435	525.88
472.654	510.88
472.873	500.88
473.092	482.88
473.311	488.88
473.53	504.88
473.749	517.88
473.968	517.88
474.187	627.88
474.406	649.88
474.625	532.88
474.844	517.88
475.063	491.88
475.282	494.88
475.501	503.88
475.72	526.88
475.939	494.88
476.158	520.88
476.377	505.88
476.596	497.88
476.814	523.88
477.033	552.88
477.252	532.88
477.471	542.88
477.69	543.88
477.908	555.88
478.127	533.88
478.346	578.88
478.564	552.88
478.783	571.88
479.002	603.88
479.22	602.88
479.439	607.88
479.658	614.88
479.876	622.88
480.095	613.88
480.313	652.88
480.532	651.88
480.751	626.88
480.969	610.88
481.188	637.88
481.406	666.88
481.624	618.88
481.843	569.88
482.061	574.88
482.28	583.88
482.498	582.88
482.717	572.88
482.935	589.88
483.153	567.88
483.372	584.88
483.59	582.88
483.808	574.88
484.027	558.88
484.245	582.88
484.463	563.88
484.681	591.88
484.9	584.88
485.118	580.88
485.336	585.88
485.554	604.88
485.772	597.88
485.99	601.88
486.209	614.88
486.427	614.88
486.645	619.88
486.863	633.88
487.081	608.88
487.299	611.88
487.517	616.88
487.735	633.88
487.953	606.88
488.171	626.88
488.389	621.88
488.607	626.88
488.825	629.88
489.043	599.88
489.261	615.88
489.479	609.88
489.696	628.88
489.914	622.88
490.132	651.88
490.35	646.88
490.568	645.88
490.786	650.88
491.003	652.88
491.221	685.88
491.439	676.88
491.657	687.88
491.874	708.88
492.092	718.88
492.31	687.88
492.527	725.88
492.745	695.88
492.963	699.88
493.18	701.88
493.398	727.88
493.615	746.88
493.833	713.88
494.05	719.88
494.268	724.88
494.485	720.88
494.703	723.88
494.92	722.88
495.138	703.88
495.355	721.88
495.573	740.88
495.79	726.88
496.008	729.88
496.225	725.88
496.442	732.88
496.66	726.88
496.877	737.88
497.094	734.88
497.312	756.88
497.529	750.88
497.746	766.88
497.963	774.88
498.181	822.88
498.398	819.88
498.615	851.88
498.832	870.88
499.049	922.88
499.267	944.88
499.484	964.88
499.701	1035.88
499.918	1095.88
500.135	1157.88
500.352	1254.88
500.569	1295.88
500.786	1262.88
501.003	1265.88
501.22	1183.88
501.437	1109.88
501.654	1051.88
