Data from 1973.PennyLincolnUp.Lamp.En5.5.200Scan.071719.P1.Changed Mount._HRD10591_15-43-46-852.txt Node
Date: Thu Jul 18 15:43:46 EDT 2019
User: cochatt
Spectrometer: HR+D1059
Trigger mode: 1
Integration Time (sec): 1.000000E-1
Scans to average: 1
Electric dark correction enabled: true
Nonlinearity correction enabled: false
Boxcar width: 0
XAxis mode: Wavelengths
Number of Pixels in Spectrum: 2048
>>>>>Begin Spectral Data<<<<<
223.165	2.31
223.4	2.31
223.635	2.31
223.869	-26.69
224.104	-19.69
224.338	-2.69
224.573	-25.69
224.808	-14.69
225.042	-14.69
225.277	1.31
225.511	-11.69
225.746	-12.69
225.98	4.31
226.215	19.31
226.449	24.31
226.683	9.31
226.918	40.31
227.152	27.31
227.387	39.31
227.621	31.31
227.856	28.31
228.09	41.31
228.324	42.31
228.559	64.31
228.793	67.31
229.027	78.31
229.262	96.31
229.496	90.31
229.73	99.31
229.964	127.31
230.199	117.31
230.433	96.31
230.667	95.31
230.901	97.31
231.136	116.31
231.37	110.31
231.604	121.31
231.838	112.31
232.072	106.31
232.306	103.31
232.541	113.31
232.775	115.31
233.009	115.31
233.243	103.31
233.477	115.31
233.711	112.31
233.945	106.31
234.179	114.31
234.413	122.31
234.647	105.31
234.881	119.31
235.115	118.31
235.349	109.31
235.583	120.31
235.817	105.31
236.051	116.31
236.285	123.31
236.519	115.31
236.753	127.31
236.987	132.31
237.221	160.31
237.455	187.31
237.689	137.31
237.922	112.31
238.156	134.31
238.39	121.31
238.624	111.31
238.858	113.31
239.091	113.31
239.325	114.31
239.559	127.31
239.793	123.31
240.027	121.31
240.26	130.31
240.494	149.31
240.728	139.31
240.961	135.31
241.195	141.31
241.429	135.31
241.662	123.31
241.896	124.31
242.13	126.31
242.363	115.31
242.597	136.31
242.83	145.31
243.064	123.31
243.298	118.31
243.531	134.31
243.765	153.31
243.998	131.31
244.232	132.31
244.465	142.31
244.699	143.31
244.932	127.31
245.166	132.31
245.399	140.31
245.633	134.31
245.866	141.31
246.099	141.31
246.333	139.31
246.566	150.31
246.8	139.31
247.033	150.31
247.266	143.31
247.5	155.31
247.733	156.31
247.966	155.31
248.2	153.31
248.433	156.31
248.666	175.31
248.899	153.31
249.133	174.31
249.366	195.31
249.599	182.31
249.832	164.31
250.066	168.31
250.299	178.31
250.532	187.31
250.765	178.31
250.998	196.31
251.231	196.31
251.465	186.31
251.698	198.31
251.931	197.31
252.164	183.31
252.397	183.31
252.63	194.31
252.863	209.31
253.096	198.31
253.329	216.31
253.562	200.31
253.795	195.31
254.028	179.31
254.261	195.31
254.494	216.31
254.727	227.31
254.96	224.31
255.193	231.31
255.426	203.31
255.659	199.31
255.892	219.31
256.124	215.31
256.357	227.31
256.59	213.31
256.823	207.31
257.056	207.31
257.289	200.31
257.521	200.31
257.754	187.31
257.987	194.31
258.22	198.31
258.452	195.31
258.685	216.31
258.918	196.31
259.151	193.31
259.383	185.31
259.616	203.31
259.849	213.31
260.081	227.31
260.314	239.31
260.547	227.31
260.779	209.31
261.012	199.31
261.244	208.31
261.477	203.31
261.71	196.31
261.942	223.31
262.175	205.31
262.407	220.31
262.64	224.31
262.872	206.31
263.105	205.31
263.337	184.31
263.57	192.31
263.802	203.31
264.035	205.31
264.267	202.31
264.499	201.31
264.732	210.31
264.964	205.31
265.197	205.31
265.429	204.31
265.661	195.31
265.894	206.31
266.126	227.31
266.358	211.31
266.591	217.31
266.823	214.31
267.055	221.31
267.287	206.31
267.52	223.31
267.752	211.31
267.984	209.31
268.216	217.31
268.448	227.31
268.681	218.31
268.913	228.31
269.145	243.31
269.377	258.31
269.609	248.31
269.841	250.31
270.073	260.31
270.306	269.31
270.538	270.31
270.77	289.31
271.002	264.31
271.234	273.31
271.466	263.31
271.698	279.31
271.93	295.31
272.162	285.31
272.394	267.31
272.626	269.31
272.858	263.31
273.09	244.31
273.322	269.31
273.553	221.31
273.785	257.31
274.017	235.31
274.249	263.31
274.481	232.31
274.713	264.31
274.945	228.31
275.176	260.31
275.408	244.31
275.64	263.31
275.872	252.31
276.104	272.31
276.335	259.31
276.567	252.31
276.799	243.31
277.031	273.31
277.262	289.31
277.494	301.31
277.726	293.31
277.957	299.31
278.189	284.31
278.421	272.31
278.652	274.31
278.884	266.31
279.115	256.31
279.347	258.31
279.579	262.31
279.81	257.31
280.042	263.31
280.273	255.31
280.505	266.31
280.736	288.31
280.968	257.31
281.199	258.31
281.431	263.31
281.662	251.31
281.894	278.31
282.125	294.31
282.356	277.31
282.588	288.31
282.819	293.31
283.051	276.31
283.282	272.31
283.513	267.31
283.745	278.31
283.976	277.31
284.207	275.31
284.439	261.31
284.67	292.31
284.901	275.31
285.132	295.31
285.364	278.31
285.595	268.31
285.826	284.31
286.057	266.31
286.288	276.31
286.52	291.31
286.751	302.31
286.982	281.31
287.213	291.31
287.444	275.31
287.675	281.31
287.906	295.31
288.138	306.31
288.369	292.31
288.6	283.31
288.831	287.31
289.062	300.31
289.293	291.31
289.524	296.31
289.755	294.31
289.986	296.31
290.217	321.31
290.448	292.31
290.679	276.31
290.91	281.31
291.141	327.31
291.371	307.31
291.602	294.31
291.833	287.31
292.064	300.31
292.295	281.31
292.526	293.31
292.757	293.31
292.987	294.31
293.218	288.31
293.449	308.31
293.68	301.31
293.91	294.31
294.141	298.31
294.372	292.31
294.603	284.31
294.833	283.31
295.064	300.31
295.295	281.31
295.525	312.31
295.756	308.31
295.987	309.31
296.217	308.31
296.448	318.31
296.679	306.31
296.909	310.31
297.14	309.31
297.37	306.31
297.601	315.31
297.831	300.31
298.062	317.31
298.292	305.31
298.523	317.31
298.753	310.31
298.984	320.31
299.214	337.31
299.445	327.31
299.675	327.31
299.905	313.31
300.136	313.31
300.366	321.31
300.597	327.31
300.827	340.31
301.057	347.31
301.288	331.31
301.518	326.31
301.748	323.31
301.979	320.31
302.209	327.31
302.439	334.31
302.669	318.31
302.9	329.31
303.13	347.31
303.36	345.31
303.59	319.31
303.82	340.31
304.051	336.31
304.281	326.31
304.511	347.31
304.741	319.31
304.971	320.31
305.201	327.31
305.431	330.31
305.661	324.31
305.891	333.31
306.121	330.31
306.352	313.31
306.582	317.31
306.812	342.31
307.042	333.31
307.272	354.31
307.502	330.31
307.731	328.31
307.961	337.31
308.191	338.31
308.421	309.31
308.651	334.31
308.881	334.31
309.111	335.31
309.341	335.31
309.571	349.31
309.8	353.31
310.03	339.31
310.26	344.31
310.49	342.31
310.72	363.31
310.949	364.31
311.179	365.31
311.409	358.31
311.639	360.31
311.868	359.31
312.098	341.31
312.328	346.31
312.557	359.31
312.787	363.31
313.017	369.31
313.246	359.31
313.476	373.31
313.706	353.31
313.935	367.31
314.165	381.31
314.394	377.31
314.624	386.31
314.853	375.31
315.083	383.31
315.312	360.31
315.542	364.31
315.771	349.31
316.001	353.31
316.23	364.31
316.46	338.31
316.689	365.31
316.919	375.31
317.148	373.31
317.377	375.31
317.607	351.31
317.836	362.31
318.065	367.31
318.295	371.31
318.524	363.31
318.753	367.31
318.983	358.31
319.212	377.31
319.441	381.31
319.67	369.31
319.9	346.31
320.129	363.31
320.358	375.31
320.587	377.31
320.816	370.31
321.046	371.31
321.275	366.31
321.504	379.31
321.733	369.31
321.962	370.31
322.191	379.31
322.42	387.31
322.649	395.31
322.878	396.31
323.108	392.31
323.337	408.31
323.566	415.31
323.795	402.31
324.024	455.31
324.253	499.31
324.482	651.31
324.71	913.31
324.939	1213.31
325.168	1113.31
325.397	620.31
325.626	460.31
325.855	438.31
326.084	433.31
326.313	413.31
326.542	409.31
326.77	447.31
326.999	474.31
327.228	605.31
327.457	825.31
327.686	970.31
327.914	681.31
328.143	525.31
328.372	454.31
328.6	453.31
328.829	431.31
329.058	453.31
329.287	455.31
329.515	442.31
329.744	433.31
329.972	431.31
330.201	441.31
330.43	456.31
330.658	477.31
330.887	478.31
331.115	472.31
331.344	442.31
331.572	450.31
331.801	443.31
332.03	461.31
332.258	424.31
332.486	433.31
332.715	432.31
332.943	437.31
333.172	484.31
333.4	453.31
333.629	465.31
333.857	487.31
334.085	485.31
334.314	481.31
334.542	509.31
334.771	499.31
334.999	461.31
335.227	475.31
335.455	445.31
335.684	451.31
335.912	440.31
336.14	448.31
336.369	428.31
336.597	459.31
336.825	452.31
337.053	426.31
337.281	435.31
337.51	422.31
337.738	433.31
337.966	426.31
338.194	423.31
338.422	444.31
338.65	422.31
338.878	451.31
339.106	415.31
339.334	416.31
339.562	417.31
339.79	402.31
340.018	396.31
340.246	417.31
340.474	426.31
340.702	411.31
340.93	418.31
341.158	416.31
341.386	419.31
341.614	412.31
341.842	396.31
342.07	406.31
342.298	403.31
342.526	378.31
342.754	410.31
342.981	410.31
343.209	410.31
343.437	419.31
343.665	415.31
343.893	440.31
344.12	447.31
344.348	440.31
344.576	434.31
344.804	443.31
345.031	422.31
345.259	444.31
345.487	411.31
345.714	408.31
345.942	404.31
346.17	404.31
346.397	386.31
346.625	397.31
346.853	385.31
347.08	392.31
347.308	406.31
347.535	395.31
347.763	391.31
347.99	411.31
348.218	389.31
348.445	412.31
348.673	388.31
348.9	389.31
349.128	397.31
349.355	394.31
349.583	376.31
349.81	403.31
350.037	396.31
350.265	378.31
350.492	388.31
350.72	381.31
350.947	384.31
351.174	369.31
351.402	385.31
351.629	373.31
351.856	392.31
352.083	397.31
352.311	394.31
352.538	388.31
352.765	387.31
352.992	380.31
353.22	377.31
353.447	385.31
353.674	391.31
353.901	383.31
354.128	365.31
354.355	389.31
354.583	377.31
354.81	356.31
355.037	370.31
355.264	377.31
355.491	375.31
355.718	376.31
355.945	375.31
356.172	381.31
356.399	375.31
356.626	376.31
356.853	373.31
357.08	369.31
357.307	379.31
357.534	374.31
357.761	361.31
357.988	375.31
358.215	381.31
358.441	362.31
358.668	362.31
358.895	384.31
359.122	379.31
359.349	383.31
359.576	391.31
359.802	389.31
360.029	415.31
360.256	395.31
360.483	385.31
360.709	391.31
360.936	389.31
361.163	390.31
361.39	391.31
361.616	391.31
361.843	391.31
362.07	378.31
362.296	386.31
362.523	380.31
362.749	388.31
362.976	401.31
363.203	400.31
363.429	392.31
363.656	377.31
363.882	362.31
364.109	373.31
364.335	387.31
364.562	374.31
364.788	377.31
365.015	394.31
365.241	369.31
365.468	378.31
365.694	364.31
365.92	368.31
366.147	379.31
366.373	376.31
366.599	381.31
366.826	388.31
367.052	379.31
367.278	401.31
367.505	373.31
367.731	354.31
367.957	377.31
368.184	379.31
368.41	375.31
368.636	389.31
368.862	387.31
369.089	391.31
369.315	384.31
369.541	385.31
369.767	400.31
369.993	389.31
370.219	387.31
370.445	367.31
370.672	387.31
370.898	375.31
371.124	382.31
371.35	381.31
371.576	411.31
371.802	401.31
372.028	408.31
372.254	383.31
372.48	393.31
372.706	400.31
372.932	385.31
373.158	405.31
373.384	393.31
373.61	376.31
373.835	397.31
374.061	374.31
374.287	410.31
374.513	396.31
374.739	409.31
374.965	408.31
375.191	418.31
375.416	421.31
375.642	402.31
375.868	387.31
376.094	413.31
376.319	413.31
376.545	390.31
376.771	393.31
376.997	393.31
377.222	406.31
377.448	389.31
377.674	381.31
377.899	405.31
378.125	382.31
378.35	377.31
378.576	379.31
378.802	374.31
379.027	381.31
379.253	385.31
379.478	396.31
379.704	380.31
379.929	390.31
380.155	391.31
380.38	394.31
380.606	390.31
380.831	400.31
381.057	399.31
381.282	385.31
381.507	418.31
381.733	398.31
381.958	397.31
382.184	402.31
382.409	399.31
382.634	393.31
382.86	409.31
383.085	406.31
383.31	407.31
383.535	423.31
383.761	404.31
383.986	431.31
384.211	421.31
384.436	428.31
384.662	415.31
384.887	437.31
385.112	431.31
385.337	419.31
385.562	441.31
385.787	439.31
386.013	434.31
386.238	437.31
386.463	445.31
386.688	443.31
386.913	443.31
387.138	448.31
387.363	454.31
387.588	446.31
387.813	450.31
388.038	460.31
388.263	456.31
388.488	445.31
388.713	451.31
388.938	445.31
389.163	437.31
389.387	439.31
389.612	408.31
389.837	437.31
390.062	441.31
390.287	436.31
390.512	451.31
390.736	450.31
390.961	447.31
391.186	440.31
391.411	442.31
391.636	436.31
391.86	471.31
392.085	476.31
392.31	480.31
392.534	465.31
392.759	467.31
392.984	466.31
393.208	442.31
393.433	463.31
393.658	439.31
393.882	442.31
394.107	433.31
394.331	451.31
394.556	463.31
394.78	461.31
395.005	449.31
395.229	454.31
395.454	450.31
395.678	468.31
395.903	487.31
396.127	474.31
396.352	502.31
396.576	475.31
396.801	464.31
397.025	469.31
397.249	484.31
397.474	484.31
397.698	494.31
397.922	501.31
398.147	479.31
398.371	499.31
398.595	519.31
398.82	517.31
399.044	534.31
399.268	565.31
399.492	589.31
399.717	668.31
399.941	633.31
400.165	679.31
400.389	634.31
400.613	593.31
400.837	561.31
401.062	521.31
401.286	524.31
401.51	531.31
401.734	526.31
401.958	511.31
402.182	506.31
402.406	533.31
402.63	549.31
402.854	528.31
403.078	541.31
403.302	565.31
403.526	549.31
403.75	554.31
403.974	544.31
404.198	545.31
404.422	561.31
404.645	563.31
404.869	568.31
405.093	574.31
405.317	571.31
405.541	620.31
405.765	572.31
405.988	555.31
406.212	572.31
406.436	567.31
406.66	588.31
406.883	563.31
407.107	599.31
407.331	649.31
407.555	685.31
407.778	674.31
408.002	643.31
408.226	609.31
408.449	589.31
408.673	570.31
408.896	599.31
409.12	610.31
409.344	601.31
409.567	563.31
409.791	582.31
410.014	548.31
410.238	540.31
410.461	522.31
410.685	549.31
410.908	553.31
411.132	586.31
411.355	598.31
411.578	568.31
411.802	554.31
412.025	535.31
412.249	529.31
412.472	573.31
412.695	582.31
412.919	582.31
413.142	557.31
413.365	535.31
413.589	514.31
413.812	507.31
414.035	509.31
414.258	510.31
414.482	508.31
414.705	499.31
414.928	493.31
415.151	533.31
415.374	528.31
415.597	488.31
415.821	485.31
416.044	507.31
416.267	492.31
416.49	503.31
416.713	481.31
416.936	509.31
417.159	501.31
417.382	508.31
417.605	498.31
417.828	520.31
418.051	533.31
418.274	515.31
418.497	511.31
418.72	519.31
418.943	513.31
419.166	553.31
419.389	569.31
419.611	562.31
419.834	535.31
420.057	545.31
420.28	533.31
420.503	533.31
420.726	522.31
420.948	503.31
421.171	535.31
421.394	565.31
421.617	529.31
421.839	534.31
422.062	516.31
422.285	544.31
422.507	587.31
422.73	652.31
422.953	609.31
423.175	563.31
423.398	570.31
423.621	531.31
423.843	552.31
424.066	571.31
424.288	556.31
424.511	576.31
424.733	583.31
424.956	680.31
425.178	633.31
425.401	627.31
425.623	621.31
425.846	565.31
426.068	523.31
426.291	519.31
426.513	531.31
426.735	547.31
426.958	549.31
427.18	597.31
427.402	761.31
427.625	773.31
427.847	670.31
428.069	571.31
428.292	537.31
428.514	515.31
428.736	501.31
428.958	491.31
429.181	487.31
429.403	484.31
429.625	482.31
429.847	494.31
430.069	568.31
430.292	584.31
430.514	488.31
430.736	497.31
430.958	480.31
431.18	482.31
431.402	475.31
431.624	469.31
431.846	465.31
432.068	507.31
432.29	485.31
432.512	473.31
432.734	500.31
432.956	480.31
433.178	493.31
433.4	478.31
433.622	461.31
433.844	484.31
434.066	484.31
434.287	459.31
434.509	500.31
434.731	524.31
434.953	495.31
435.175	553.31
435.397	552.31
435.618	539.31
435.84	577.31
436.062	618.31
436.284	656.31
436.505	560.31
436.727	520.31
436.949	509.31
437.17	493.31
437.392	497.31
437.614	499.31
437.835	496.31
438.057	573.31
438.278	671.31
438.5	675.31
438.721	715.31
438.943	690.31
439.165	576.31
439.386	518.31
439.608	513.31
439.829	500.31
440.05	507.31
440.272	564.31
440.493	536.31
440.715	494.31
440.936	501.31
441.158	487.31
441.379	500.31
441.6	519.31
441.822	547.31
442.043	563.31
442.264	599.31
442.486	659.31
442.707	577.31
442.928	554.31
443.149	565.31
443.371	569.31
443.592	599.31
443.813	661.31
444.034	706.31
444.255	618.31
444.476	592.31
444.698	580.31
444.919	572.31
445.14	647.31
445.361	597.31
445.582	581.31
445.803	619.31
446.024	657.31
446.245	680.31
446.466	602.31
446.687	561.31
446.908	526.31
447.129	501.31
447.35	482.31
447.571	491.31
447.792	482.31
448.013	486.31
448.234	491.31
448.455	511.31
448.675	610.31
448.896	700.31
449.117	608.31
449.338	563.31
449.559	639.31
449.779	737.31
450	568.31
450.221	492.31
450.442	479.31
450.662	464.31
450.883	447.31
451.104	464.31
451.324	443.31
451.545	452.31
451.766	448.31
451.986	432.31
452.207	436.31
452.428	444.31
452.648	445.31
452.869	431.31
453.089	453.31
453.31	461.31
453.53	446.31
453.751	429.31
453.971	433.31
454.192	431.31
454.412	411.31
454.633	413.31
454.853	419.31
455.073	433.31
455.294	443.31
455.514	475.31
455.734	487.31
455.955	425.31
456.175	416.31
456.395	412.31
456.616	428.31
456.836	415.31
457.056	418.31
457.276	403.31
457.497	409.31
457.717	429.31
457.937	448.31
458.157	437.31
458.377	435.31
458.598	436.31
458.818	479.31
459.038	525.31
459.258	556.31
459.478	501.31
459.698	459.31
459.918	481.31
460.138	487.31
460.358	507.31
460.578	510.31
460.798	503.31
461.018	519.31
461.238	487.31
461.458	492.31
461.678	497.31
461.898	522.31
462.118	511.31
462.338	518.31
462.558	541.31
462.777	567.31
462.997	590.31
463.217	596.31
463.437	579.31
463.657	563.31
463.876	564.31
464.096	553.31
464.316	552.31
464.536	557.31
464.755	562.31
464.975	526.31
465.195	565.31
465.414	572.31
465.634	527.31
465.854	495.31
466.073	489.31
466.293	468.31
466.512	446.31
466.732	442.31
466.951	455.31
467.171	460.31
467.391	445.31
467.61	466.31
467.829	446.31
468.049	467.31
468.268	447.31
468.488	441.31
468.707	436.31
468.927	446.31
469.146	417.31
469.365	463.31
469.585	463.31
469.804	440.31
470.023	460.31
470.243	459.31
470.462	466.31
470.681	477.31
470.901	459.31
471.12	450.31
471.339	454.31
471.558	457.31
471.777	451.31
471.997	467.31
472.216	472.31
472.435	452.31
472.654	457.31
472.873	453.31
473.092	457.31
473.311	441.31
473.53	442.31
473.749	444.31
473.968	472.31
474.187	549.31
474.406	588.31
474.625	482.31
474.844	482.31
475.063	454.31
475.282	449.31
475.501	456.31
475.72	455.31
475.939	467.31
476.158	467.31
476.377	466.31
476.596	468.31
476.814	452.31
477.033	479.31
477.252	470.31
477.471	489.31
477.69	503.31
477.908	481.31
478.127	513.31
478.346	505.31
478.564	536.31
478.783	532.31
479.002	528.31
479.22	540.31
479.439	555.31
479.658	549.31
479.876	555.31
480.095	558.31
480.313	555.31
480.532	565.31
480.751	575.31
480.969	563.31
481.188	596.31
481.406	597.31
481.624	535.31
481.843	543.31
482.061	540.31
482.28	525.31
482.498	533.31
482.717	517.31
482.935	530.31
483.153	539.31
483.372	536.31
483.59	523.31
483.808	529.31
484.027	523.31
484.245	523.31
484.463	544.31
484.681	521.31
484.9	554.31
485.118	551.31
485.336	538.31
485.554	572.31
485.772	545.31
485.99	545.31
486.209	570.31
486.427	531.31
486.645	539.31
486.863	544.31
487.081	557.31
487.299	541.31
487.517	533.31
487.735	560.31
487.953	557.31
488.171	553.31
488.389	551.31
488.607	559.31
488.825	536.31
489.043	568.31
489.261	557.31
489.479	565.31
489.696	567.31
489.914	577.31
490.132	563.31
490.35	587.31
490.568	577.31
490.786	597.31
491.003	603.31
491.221	612.31
491.439	595.31
491.657	618.31
491.874	623.31
492.092	622.31
492.31	651.31
492.527	635.31
492.745	619.31
492.963	626.31
493.18	627.31
493.398	599.31
493.615	634.31
493.833	639.31
494.05	640.31
494.268	644.31
494.485	625.31
494.703	653.31
494.92	652.31
495.138	647.31
495.355	657.31
495.573	648.31
495.79	665.31
496.008	654.31
496.225	653.31
496.442	677.31
496.66	646.31
496.877	645.31
497.094	664.31
497.312	673.31
497.529	695.31
497.746	669.31
497.963	691.31
498.181	760.31
498.398	770.31
498.615	772.31
498.832	806.31
499.049	795.31
499.267	822.31
499.484	879.31
499.701	956.31
499.918	984.31
500.135	1064.31
500.352	1127.31
500.569	1177.31
500.786	1179.31
501.003	1137.31
501.22	1072.31
501.437	1029.31
501.654	984.31
501.871	925.31
