Data from 1973.PennyLincolnUp.Lamp.En5.5.200Scan.071719.P1.Changed Mount._HRD10591_15-44-50-852.txt Node
Date: Thu Jul 18 15:44:50 EDT 2019
User: cochatt
Spectrometer: HR+D1059
Trigger mode: 1
Integration Time (sec): 1.000000E-1
Scans to average: 1
Electric dark correction enabled: true
Nonlinearity correction enabled: false
Boxcar width: 0
XAxis mode: Wavelengths
Number of Pixels in Spectrum: 2048
>>>>>Begin Spectral Data<<<<<
223.165	-8.38
223.4	-8.38
223.635	-8.38
223.869	-12.38
224.104	-17.38
224.338	-10.38
224.573	-10.38
224.808	-18.38
225.042	-6.38
225.277	-16.38
225.511	-10.38
225.746	-2.38
225.98	0.62
226.215	3.62
226.449	17.62
226.683	16.62
226.918	32.62
227.152	41.62
227.387	40.62
227.621	37.62
227.856	38.62
228.09	40.62
228.324	36.62
228.559	59.62
228.793	76.62
229.027	89.62
229.262	109.62
229.496	90.62
229.73	118.62
229.964	145.62
230.199	128.62
230.433	111.62
230.667	105.62
230.901	124.62
231.136	115.62
231.37	116.62
231.604	125.62
231.838	110.62
232.072	123.62
232.306	110.62
232.541	119.62
232.775	116.62
233.009	101.62
233.243	122.62
233.477	129.62
233.711	123.62
233.945	113.62
234.179	111.62
234.413	118.62
234.647	120.62
234.881	112.62
235.115	106.62
235.349	112.62
235.583	133.62
235.817	123.62
236.051	114.62
236.285	124.62
236.519	130.62
236.753	125.62
236.987	144.62
237.221	163.62
237.455	195.62
237.689	181.62
237.922	135.62
238.156	129.62
238.39	142.62
238.624	139.62
238.858	130.62
239.091	129.62
239.325	114.62
239.559	135.62
239.793	116.62
240.027	125.62
240.26	132.62
240.494	156.62
240.728	171.62
240.961	140.62
241.195	146.62
241.429	127.62
241.662	156.62
241.896	136.62
242.13	132.62
242.363	135.62
242.597	148.62
242.83	146.62
243.064	134.62
243.298	146.62
243.531	143.62
243.765	143.62
243.998	142.62
244.232	152.62
244.465	149.62
244.699	150.62
244.932	148.62
245.166	143.62
245.399	159.62
245.633	149.62
245.866	142.62
246.099	151.62
246.333	153.62
246.566	175.62
246.8	152.62
247.033	154.62
247.266	170.62
247.5	166.62
247.733	175.62
247.966	177.62
248.2	172.62
248.433	170.62
248.666	184.62
248.899	183.62
249.133	207.62
249.366	192.62
249.599	189.62
249.832	170.62
250.066	177.62
250.299	186.62
250.532	203.62
250.765	219.62
250.998	222.62
251.231	217.62
251.465	211.62
251.698	194.62
251.931	204.62
252.164	188.62
252.397	194.62
252.63	198.62
252.863	212.62
253.096	213.62
253.329	212.62
253.562	219.62
253.795	221.62
254.028	209.62
254.261	231.62
254.494	239.62
254.727	232.62
254.96	274.62
255.193	259.62
255.426	249.62
255.659	232.62
255.892	227.62
256.124	227.62
256.357	217.62
256.59	234.62
256.823	223.62
257.056	211.62
257.289	231.62
257.521	219.62
257.754	216.62
257.987	214.62
258.22	231.62
258.452	218.62
258.685	212.62
258.918	200.62
259.151	216.62
259.383	219.62
259.616	222.62
259.849	227.62
260.081	239.62
260.314	235.62
260.547	257.62
260.779	257.62
261.012	237.62
261.244	234.62
261.477	222.62
261.71	220.62
261.942	234.62
262.175	228.62
262.407	217.62
262.64	225.62
262.872	224.62
263.105	228.62
263.337	232.62
263.57	225.62
263.802	207.62
264.035	229.62
264.267	214.62
264.499	223.62
264.732	228.62
264.964	221.62
265.197	230.62
265.429	228.62
265.661	228.62
265.894	236.62
266.126	228.62
266.358	219.62
266.591	226.62
266.823	246.62
267.055	239.62
267.287	239.62
267.52	233.62
267.752	229.62
267.984	243.62
268.216	231.62
268.448	231.62
268.681	240.62
268.913	248.62
269.145	275.62
269.377	271.62
269.609	281.62
269.841	270.62
270.073	280.62
270.306	286.62
270.538	309.62
270.77	289.62
271.002	291.62
271.234	296.62
271.466	300.62
271.698	297.62
271.93	314.62
272.162	310.62
272.394	297.62
272.626	320.62
272.858	301.62
273.09	273.62
273.322	296.62
273.553	273.62
273.785	276.62
274.017	277.62
274.249	266.62
274.481	269.62
274.713	299.62
274.945	265.62
275.176	289.62
275.408	277.62
275.64	272.62
275.872	268.62
276.104	258.62
276.335	261.62
276.567	304.62
276.799	288.62
277.031	299.62
277.262	315.62
277.494	313.62
277.726	318.62
277.957	290.62
278.189	283.62
278.421	291.62
278.652	294.62
278.884	276.62
279.115	286.62
279.347	286.62
279.579	270.62
279.81	289.62
280.042	276.62
280.273	279.62
280.505	300.62
280.736	298.62
280.968	295.62
281.199	286.62
281.431	286.62
281.662	271.62
281.894	288.62
282.125	310.62
282.356	334.62
282.588	309.62
282.819	327.62
283.051	303.62
283.282	297.62
283.513	289.62
283.745	302.62
283.976	308.62
284.207	294.62
284.439	288.62
284.67	307.62
284.901	321.62
285.132	291.62
285.364	307.62
285.595	300.62
285.826	315.62
286.057	297.62
286.288	312.62
286.52	320.62
286.751	311.62
286.982	311.62
287.213	300.62
287.444	299.62
287.675	308.62
287.906	315.62
288.138	323.62
288.369	346.62
288.6	316.62
288.831	342.62
289.062	325.62
289.293	335.62
289.524	312.62
289.755	326.62
289.986	323.62
290.217	317.62
290.448	326.62
290.679	309.62
290.91	313.62
291.141	333.62
291.371	326.62
291.602	320.62
291.833	316.62
292.064	317.62
292.295	325.62
292.526	348.62
292.757	316.62
292.987	309.62
293.218	311.62
293.449	327.62
293.68	329.62
293.91	319.62
294.141	310.62
294.372	324.62
294.603	327.62
294.833	324.62
295.064	328.62
295.295	327.62
295.525	325.62
295.756	326.62
295.987	332.62
296.217	355.62
296.448	352.62
296.679	318.62
296.909	321.62
297.14	341.62
297.37	320.62
297.601	309.62
297.831	319.62
298.062	332.62
298.292	328.62
298.523	336.62
298.753	348.62
298.984	319.62
299.214	331.62
299.445	318.62
299.675	324.62
299.905	351.62
300.136	353.62
300.366	344.62
300.597	350.62
300.827	363.62
301.057	349.62
301.288	365.62
301.518	353.62
301.748	352.62
301.979	352.62
302.209	367.62
302.439	363.62
302.669	356.62
302.9	347.62
303.13	340.62
303.36	349.62
303.59	358.62
303.82	367.62
304.051	360.62
304.281	363.62
304.511	347.62
304.741	355.62
304.971	351.62
305.201	372.62
305.431	361.62
305.661	371.62
305.891	349.62
306.121	342.62
306.352	362.62
306.582	369.62
306.812	372.62
307.042	370.62
307.272	360.62
307.502	374.62
307.731	353.62
307.961	381.62
308.191	381.62
308.421	353.62
308.651	371.62
308.881	361.62
309.111	361.62
309.341	369.62
309.571	363.62
309.8	363.62
310.03	381.62
310.26	389.62
310.49	413.62
310.72	387.62
310.949	392.62
311.179	398.62
311.409	402.62
311.639	404.62
311.868	378.62
312.098	378.62
312.328	395.62
312.557	404.62
312.787	400.62
313.017	408.62
313.246	390.62
313.476	391.62
313.706	412.62
313.935	403.62
314.165	404.62
314.394	412.62
314.624	407.62
314.853	386.62
315.083	387.62
315.312	412.62
315.542	399.62
315.771	389.62
316.001	408.62
316.23	408.62
316.46	405.62
316.689	397.62
316.919	413.62
317.148	399.62
317.377	414.62
317.607	387.62
317.836	402.62
318.065	381.62
318.295	398.62
318.524	388.62
318.753	400.62
318.983	415.62
319.212	394.62
319.441	398.62
319.67	418.62
319.9	392.62
320.129	410.62
320.358	396.62
320.587	413.62
320.816	412.62
321.046	406.62
321.275	411.62
321.504	404.62
321.733	409.62
321.962	403.62
322.191	420.62
322.42	437.62
322.649	445.62
322.878	431.62
323.108	448.62
323.337	471.62
323.566	468.62
323.795	489.62
324.024	505.62
324.253	588.62
324.482	735.62
324.71	1049.62
324.939	1463.62
325.168	1303.62
325.397	741.62
325.626	535.62
325.855	473.62
326.084	457.62
326.313	464.62
326.542	473.62
326.77	517.62
326.999	539.62
327.228	683.62
327.457	958.62
327.686	1153.62
327.914	837.62
328.143	595.62
328.372	555.62
328.6	511.62
328.829	518.62
329.058	501.62
329.287	493.62
329.515	496.62
329.744	487.62
329.972	491.62
330.201	501.62
330.43	512.62
330.658	546.62
330.887	544.62
331.115	520.62
331.344	516.62
331.572	490.62
331.801	490.62
332.03	500.62
332.258	482.62
332.486	473.62
332.715	469.62
332.943	485.62
333.172	491.62
333.4	512.62
333.629	507.62
333.857	511.62
334.085	550.62
334.314	557.62
334.542	557.62
334.771	575.62
334.999	536.62
335.227	494.62
335.455	508.62
335.684	476.62
335.912	479.62
336.14	474.62
336.369	491.62
336.597	490.62
336.825	476.62
337.053	469.62
337.281	467.62
337.51	483.62
337.738	459.62
337.966	462.62
338.194	461.62
338.422	475.62
338.65	482.62
338.878	473.62
339.106	460.62
339.334	450.62
339.562	457.62
339.79	447.62
340.018	449.62
340.246	446.62
340.474	449.62
340.702	463.62
340.93	444.62
341.158	475.62
341.386	441.62
341.614	452.62
341.842	430.62
342.07	451.62
342.298	432.62
342.526	453.62
342.754	459.62
342.981	454.62
343.209	454.62
343.437	460.62
343.665	455.62
343.893	457.62
344.12	480.62
344.348	471.62
344.576	462.62
344.804	456.62
345.031	474.62
345.259	459.62
345.487	447.62
345.714	456.62
345.942	452.62
346.17	447.62
346.397	439.62
346.625	428.62
346.853	423.62
347.08	429.62
347.308	437.62
347.535	449.62
347.763	465.62
347.99	429.62
348.218	429.62
348.445	446.62
348.673	451.62
348.9	425.62
349.128	429.62
349.355	410.62
349.583	420.62
349.81	428.62
350.037	400.62
350.265	415.62
350.492	422.62
350.72	428.62
350.947	415.62
351.174	432.62
351.402	413.62
351.629	429.62
351.856	412.62
352.083	441.62
352.311	428.62
352.538	438.62
352.765	443.62
352.992	430.62
353.22	428.62
353.447	422.62
353.674	437.62
353.901	407.62
354.128	396.62
354.355	410.62
354.583	410.62
354.81	411.62
355.037	397.62
355.264	396.62
355.491	412.62
355.718	414.62
355.945	395.62
356.172	414.62
356.399	423.62
356.626	423.62
356.853	432.62
357.08	415.62
357.307	423.62
357.534	395.62
357.761	394.62
357.988	421.62
358.215	402.62
358.441	394.62
358.668	413.62
358.895	400.62
359.122	417.62
359.349	409.62
359.576	440.62
359.802	449.62
360.029	444.62
360.256	446.62
360.483	431.62
360.709	438.62
360.936	416.62
361.163	424.62
361.39	428.62
361.616	419.62
361.843	412.62
362.07	412.62
362.296	421.62
362.523	421.62
362.749	433.62
362.976	432.62
363.203	428.62
363.429	407.62
363.656	413.62
363.882	409.62
364.109	417.62
364.335	428.62
364.562	397.62
364.788	409.62
365.015	420.62
365.241	414.62
365.468	415.62
365.694	426.62
365.92	414.62
366.147	413.62
366.373	409.62
366.599	417.62
366.826	423.62
367.052	400.62
367.278	401.62
367.505	411.62
367.731	420.62
367.957	425.62
368.184	429.62
368.41	423.62
368.636	446.62
368.862	423.62
369.089	413.62
369.315	436.62
369.541	413.62
369.767	431.62
369.993	428.62
370.219	420.62
370.445	410.62
370.672	398.62
370.898	410.62
371.124	413.62
371.35	415.62
371.576	410.62
371.802	433.62
372.028	422.62
372.254	423.62
372.48	421.62
372.706	451.62
372.932	444.62
373.158	431.62
373.384	419.62
373.61	407.62
373.835	412.62
374.061	430.62
374.287	433.62
374.513	420.62
374.739	418.62
374.965	437.62
375.191	459.62
375.416	440.62
375.642	438.62
375.868	437.62
376.094	425.62
376.319	431.62
376.545	413.62
376.771	417.62
376.997	432.62
377.222	419.62
377.448	411.62
377.674	412.62
377.899	407.62
378.125	414.62
378.35	424.62
378.576	422.62
378.802	411.62
379.027	424.62
379.253	419.62
379.478	411.62
379.704	438.62
379.929	406.62
380.155	414.62
380.38	425.62
380.606	443.62
380.831	407.62
381.057	421.62
381.282	429.62
381.507	413.62
381.733	431.62
381.958	451.62
382.184	427.62
382.409	430.62
382.634	445.62
382.86	439.62
383.085	454.62
383.31	444.62
383.535	447.62
383.761	455.62
383.986	464.62
384.211	475.62
384.436	430.62
384.662	444.62
384.887	469.62
385.112	474.62
385.337	451.62
385.562	469.62
385.787	475.62
386.013	488.62
386.238	478.62
386.463	478.62
386.688	494.62
386.913	483.62
387.138	476.62
387.363	457.62
387.588	474.62
387.813	463.62
388.038	465.62
388.263	465.62
388.488	499.62
388.713	477.62
388.938	485.62
389.163	466.62
389.387	484.62
389.612	477.62
389.837	459.62
390.062	462.62
390.287	475.62
390.512	476.62
390.736	473.62
390.961	474.62
391.186	502.62
391.411	474.62
391.636	481.62
391.86	483.62
392.085	505.62
392.31	506.62
392.534	511.62
392.759	484.62
392.984	494.62
393.208	480.62
393.433	488.62
393.658	509.62
393.882	487.62
394.107	480.62
394.331	490.62
394.556	483.62
394.78	481.62
395.005	499.62
395.229	472.62
395.454	510.62
395.678	528.62
395.903	515.62
396.127	528.62
396.352	519.62
396.576	492.62
396.801	490.62
397.025	484.62
397.249	503.62
397.474	521.62
397.698	510.62
397.922	551.62
398.147	524.62
398.371	521.62
398.595	552.62
398.82	537.62
399.044	599.62
399.268	609.62
399.492	677.62
399.717	697.62
399.941	734.62
400.165	729.62
400.389	695.62
400.613	632.62
400.837	593.62
401.062	563.62
401.286	568.62
401.51	539.62
401.734	541.62
401.958	547.62
402.182	556.62
402.406	580.62
402.63	590.62
402.854	598.62
403.078	583.62
403.302	611.62
403.526	598.62
403.75	604.62
403.974	604.62
404.198	599.62
404.422	625.62
404.645	615.62
404.869	617.62
405.093	623.62
405.317	639.62
405.541	683.62
405.765	641.62
405.988	607.62
406.212	619.62
406.436	621.62
406.66	645.62
406.883	619.62
407.107	659.62
407.331	685.62
407.555	751.62
407.778	757.62
408.002	710.62
408.226	677.62
408.449	643.62
408.673	632.62
408.896	660.62
409.12	701.62
409.344	653.62
409.567	592.62
409.791	611.62
410.014	591.62
410.238	580.62
410.461	579.62
410.685	572.62
410.908	573.62
411.132	634.62
411.355	645.62
411.578	621.62
411.802	551.62
412.025	565.62
412.249	596.62
412.472	590.62
412.695	626.62
412.919	655.62
413.142	577.62
413.365	565.62
413.589	560.62
413.812	566.62
414.035	572.62
414.258	540.62
414.482	559.62
414.705	558.62
414.928	567.62
415.151	563.62
415.374	549.62
415.597	553.62
415.821	545.62
416.044	526.62
416.267	523.62
416.49	531.62
416.713	560.62
416.936	550.62
417.159	527.62
417.382	507.62
417.605	537.62
417.828	561.62
418.051	553.62
418.274	568.62
418.497	549.62
418.72	548.62
418.943	547.62
419.166	571.62
419.389	611.62
419.611	597.62
419.834	588.62
420.057	582.62
420.28	575.62
420.503	562.62
420.726	592.62
420.948	569.62
421.171	615.62
421.394	637.62
421.617	573.62
421.839	580.62
422.062	576.62
422.285	558.62
422.507	614.62
422.73	676.62
422.953	680.62
423.175	608.62
423.398	605.62
423.621	595.62
423.843	600.62
424.066	630.62
424.288	607.62
424.511	613.62
424.733	643.62
424.956	723.62
425.178	691.62
425.401	692.62
425.623	686.62
425.846	617.62
426.068	594.62
426.291	575.62
426.513	571.62
426.735	599.62
426.958	607.62
427.18	693.62
427.402	799.62
427.625	851.62
427.847	725.62
428.069	668.62
428.292	603.62
428.514	573.62
428.736	563.62
428.958	546.62
429.181	536.62
429.403	539.62
429.625	540.62
429.847	582.62
430.069	636.62
430.292	639.62
430.514	564.62
430.736	539.62
430.958	538.62
431.18	542.62
431.402	516.62
431.624	497.62
431.846	528.62
432.068	535.62
432.29	521.62
432.512	501.62
432.734	509.62
432.956	529.62
433.178	516.62
433.4	537.62
433.622	521.62
433.844	495.62
434.066	533.62
434.287	521.62
434.509	538.62
434.731	553.62
434.953	553.62
435.175	545.62
435.397	599.62
435.618	584.62
435.84	606.62
436.062	667.62
436.284	729.62
436.505	645.62
436.727	594.62
436.949	542.62
437.17	548.62
437.392	518.62
437.614	539.62
437.835	555.62
438.057	637.62
438.278	716.62
438.5	715.62
438.721	804.62
438.943	769.62
439.165	639.62
439.386	574.62
439.608	573.62
439.829	587.62
440.05	591.62
440.272	603.62
440.493	583.62
440.715	572.62
440.936	559.62
441.158	547.62
441.379	533.62
441.6	573.62
441.822	593.62
442.043	597.62
442.264	664.62
442.486	735.62
442.707	643.62
442.928	607.62
443.149	595.62
443.371	627.62
443.592	652.62
443.813	741.62
444.034	786.62
444.255	674.62
444.476	643.62
444.698	617.62
444.919	631.62
445.14	727.62
445.361	663.62
445.582	607.62
445.803	657.62
446.024	748.62
446.245	730.62
446.466	685.62
446.687	593.62
446.908	565.62
447.129	545.62
447.35	531.62
447.571	533.62
447.792	509.62
448.013	533.62
448.234	522.62
448.455	576.62
448.675	662.62
448.896	756.62
449.117	639.62
449.338	627.62
449.559	702.62
449.779	793.62
450	643.62
450.221	566.62
450.442	511.62
450.662	527.62
450.883	533.62
451.104	515.62
451.324	500.62
451.545	503.62
451.766	500.62
451.986	458.62
452.207	463.62
452.428	475.62
452.648	469.62
452.869	485.62
453.089	476.62
453.31	489.62
453.53	485.62
453.751	494.62
453.971	467.62
454.192	487.62
454.412	457.62
454.633	475.62
454.853	448.62
455.073	477.62
455.294	485.62
455.514	542.62
455.734	513.62
455.955	464.62
456.175	454.62
456.395	461.62
456.616	424.62
456.836	440.62
457.056	428.62
457.276	453.62
457.497	473.62
457.717	454.62
457.937	441.62
458.157	476.62
458.377	475.62
458.598	478.62
458.818	518.62
459.038	583.62
459.258	576.62
459.478	530.62
459.698	508.62
459.918	530.62
460.138	538.62
460.358	529.62
460.578	562.62
460.798	564.62
461.018	564.62
461.238	552.62
461.458	556.62
461.678	564.62
461.898	558.62
462.118	555.62
462.338	560.62
462.558	582.62
462.777	576.62
462.997	629.62
463.217	645.62
463.437	643.62
463.657	596.62
463.876	613.62
464.096	593.62
464.316	607.62
464.536	605.62
464.755	606.62
464.975	600.62
465.195	577.62
465.414	607.62
465.634	561.62
465.854	540.62
466.073	517.62
466.293	514.62
466.512	477.62
466.732	461.62
466.951	479.62
467.171	504.62
467.391	505.62
467.61	484.62
467.829	487.62
468.049	508.62
468.268	502.62
468.488	470.62
468.707	494.62
468.927	483.62
469.146	467.62
469.365	490.62
469.585	465.62
469.804	488.62
470.023	495.62
470.243	493.62
470.462	499.62
470.681	527.62
470.901	521.62
471.12	500.62
471.339	487.62
471.558	479.62
471.777	496.62
471.997	489.62
472.216	489.62
472.435	501.62
472.654	512.62
472.873	499.62
473.092	483.62
473.311	486.62
473.53	501.62
473.749	511.62
473.968	527.62
474.187	599.62
474.406	624.62
474.625	537.62
474.844	497.62
475.063	485.62
475.282	492.62
475.501	484.62
475.72	489.62
475.939	508.62
476.158	519.62
476.377	517.62
476.596	515.62
476.814	510.62
477.033	513.62
477.252	525.62
477.471	527.62
477.69	511.62
477.908	567.62
478.127	560.62
478.346	547.62
478.564	576.62
478.783	558.62
479.002	588.62
479.22	577.62
479.439	589.62
479.658	576.62
479.876	581.62
480.095	627.62
480.313	612.62
480.532	629.62
480.751	615.62
480.969	636.62
481.188	643.62
481.406	664.62
481.624	615.62
481.843	603.62
482.061	582.62
482.28	571.62
482.498	576.62
482.717	573.62
482.935	572.62
483.153	566.62
483.372	557.62
483.59	570.62
483.808	555.62
484.027	546.62
484.245	555.62
484.463	605.62
484.681	584.62
484.9	602.62
485.118	595.62
485.336	586.62
485.554	571.62
485.772	587.62
485.99	599.62
486.209	618.62
486.427	611.62
486.645	613.62
486.863	631.62
487.081	621.62
487.299	595.62
487.517	606.62
487.735	615.62
487.953	601.62
488.171	599.62
488.389	603.62
488.607	620.62
488.825	614.62
489.043	633.62
489.261	619.62
489.479	606.62
489.696	620.62
489.914	594.62
490.132	625.62
490.35	641.62
490.568	615.62
490.786	631.62
491.003	652.62
491.221	678.62
491.439	671.62
491.657	682.62
491.874	679.62
492.092	690.62
492.31	704.62
492.527	689.62
492.745	681.62
492.963	689.62
493.18	671.62
493.398	705.62
493.615	705.62
493.833	720.62
494.05	695.62
494.268	717.62
494.485	722.62
494.703	715.62
494.92	721.62
495.138	699.62
495.355	701.62
495.573	699.62
495.79	687.62
496.008	687.62
496.225	716.62
496.442	722.62
496.66	695.62
496.877	704.62
497.094	728.62
497.312	729.62
497.529	748.62
497.746	756.62
497.963	789.62
498.181	787.62
498.398	807.62
498.615	822.62
498.832	845.62
499.049	908.62
499.267	927.62
499.484	986.62
499.701	1030.62
499.918	1072.62
500.135	1154.62
500.352	1227.62
500.569	1248.62
500.786	1262.62
501.003	1217.62
501.22	1161.62
501.437	1099.62
501.654	1035.62
