Data from 1973.PennyLincolnUp.Lamp.En5.5.200Scan.071719.P1.Changed Mount._HRD10591_15-44-08-852.txt Node
Date: Thu Jul 18 15:44:08 EDT 2019
User: cochatt
Spectrometer: HR+D1059
Trigger mode: 1
Integration Time (sec): 1.000000E-1
Scans to average: 1
Electric dark correction enabled: true
Nonlinearity correction enabled: false
Boxcar width: 0
XAxis mode: Wavelengths
Number of Pixels in Spectrum: 2048
>>>>>Begin Spectral Data<<<<<
223.165	-25.19
223.4	-25.19
223.635	-25.19
223.869	-35.19
224.104	-20.19
224.338	-6.19
224.573	-8.19
224.808	-8.19
225.042	-9.19
225.277	12.81
225.511	3.81
225.746	10.81
225.98	-1.19
226.215	0.81
226.449	19.81
226.683	14.81
226.918	23.81
227.152	26.81
227.387	39.81
227.621	46.81
227.856	49.81
228.09	70.81
228.324	48.81
228.559	68.81
228.793	61.81
229.027	88.81
229.262	101.81
229.496	105.81
229.73	122.81
229.964	149.81
230.199	125.81
230.433	123.81
230.667	117.81
230.901	105.81
231.136	113.81
231.37	112.81
231.604	105.81
231.838	115.81
232.072	119.81
232.306	115.81
232.541	126.81
232.775	103.81
233.009	116.81
233.243	105.81
233.477	103.81
233.711	104.81
233.945	109.81
234.179	104.81
234.413	112.81
234.647	132.81
234.881	118.81
235.115	127.81
235.349	119.81
235.583	123.81
235.817	125.81
236.051	127.81
236.285	113.81
236.519	129.81
236.753	138.81
236.987	111.81
237.221	163.81
237.455	199.81
237.689	182.81
237.922	159.81
238.156	145.81
238.39	135.81
238.624	124.81
238.858	129.81
239.091	126.81
239.325	121.81
239.559	122.81
239.793	128.81
240.027	133.81
240.26	147.81
240.494	156.81
240.728	157.81
240.961	141.81
241.195	129.81
241.429	147.81
241.662	144.81
241.896	143.81
242.13	143.81
242.363	129.81
242.597	150.81
242.83	129.81
243.064	136.81
243.298	150.81
243.531	140.81
243.765	144.81
243.998	146.81
244.232	145.81
244.465	146.81
244.699	149.81
244.932	157.81
245.166	158.81
245.399	159.81
245.633	153.81
245.866	159.81
246.099	144.81
246.333	143.81
246.566	151.81
246.8	157.81
247.033	158.81
247.266	163.81
247.5	177.81
247.733	167.81
247.966	164.81
248.2	174.81
248.433	155.81
248.666	179.81
248.899	188.81
249.133	198.81
249.366	203.81
249.599	182.81
249.832	184.81
250.066	174.81
250.299	176.81
250.532	191.81
250.765	185.81
250.998	221.81
251.231	235.81
251.465	208.81
251.698	192.81
251.931	192.81
252.164	184.81
252.397	195.81
252.63	205.81
252.863	212.81
253.096	208.81
253.329	211.81
253.562	214.81
253.795	208.81
254.028	211.81
254.261	204.81
254.494	209.81
254.727	238.81
254.96	265.81
255.193	255.81
255.426	226.81
255.659	220.81
255.892	219.81
256.124	223.81
256.357	223.81
256.59	230.81
256.823	221.81
257.056	204.81
257.289	222.81
257.521	204.81
257.754	215.81
257.987	213.81
258.22	207.81
258.452	204.81
258.685	198.81
258.918	224.81
259.151	207.81
259.383	221.81
259.616	218.81
259.849	218.81
260.081	214.81
260.314	246.81
260.547	238.81
260.779	247.81
261.012	250.81
261.244	226.81
261.477	227.81
261.71	221.81
261.942	237.81
262.175	230.81
262.407	220.81
262.64	227.81
262.872	221.81
263.105	202.81
263.337	215.81
263.57	219.81
263.802	231.81
264.035	228.81
264.267	225.81
264.499	222.81
264.732	215.81
264.964	219.81
265.197	212.81
265.429	212.81
265.661	218.81
265.894	216.81
266.126	224.81
266.358	221.81
266.591	225.81
266.823	235.81
267.055	234.81
267.287	237.81
267.52	233.81
267.752	225.81
267.984	228.81
268.216	234.81
268.448	249.81
268.681	251.81
268.913	249.81
269.145	269.81
269.377	293.81
269.609	263.81
269.841	279.81
270.073	280.81
270.306	287.81
270.538	307.81
270.77	336.81
271.002	306.81
271.234	291.81
271.466	316.81
271.698	284.81
271.93	300.81
272.162	305.81
272.394	326.81
272.626	309.81
272.858	287.81
273.09	267.81
273.322	284.81
273.553	260.81
273.785	261.81
274.017	268.81
274.249	271.81
274.481	262.81
274.713	268.81
274.945	285.81
275.176	259.81
275.408	247.81
275.64	279.81
275.872	262.81
276.104	265.81
276.335	282.81
276.567	277.81
276.799	297.81
277.031	307.81
277.262	317.81
277.494	341.81
277.726	290.81
277.957	282.81
278.189	280.81
278.421	284.81
278.652	268.81
278.884	286.81
279.115	270.81
279.347	278.81
279.579	265.81
279.81	275.81
280.042	293.81
280.273	292.81
280.505	294.81
280.736	296.81
280.968	286.81
281.199	285.81
281.431	272.81
281.662	275.81
281.894	282.81
282.125	288.81
282.356	318.81
282.588	305.81
282.819	333.81
283.051	313.81
283.282	280.81
283.513	296.81
283.745	281.81
283.976	315.81
284.207	291.81
284.439	326.81
284.67	300.81
284.901	299.81
285.132	292.81
285.364	303.81
285.595	299.81
285.826	320.81
286.057	305.81
286.288	303.81
286.52	296.81
286.751	295.81
286.982	309.81
287.213	302.81
287.444	319.81
287.675	304.81
287.906	320.81
288.138	324.81
288.369	328.81
288.6	335.81
288.831	302.81
289.062	332.81
289.293	312.81
289.524	316.81
289.755	304.81
289.986	311.81
290.217	323.81
290.448	321.81
290.679	327.81
290.91	311.81
291.141	323.81
291.371	333.81
291.602	325.81
291.833	310.81
292.064	325.81
292.295	311.81
292.526	303.81
292.757	312.81
292.987	302.81
293.218	313.81
293.449	328.81
293.68	304.81
293.91	320.81
294.141	311.81
294.372	313.81
294.603	324.81
294.833	323.81
295.064	318.81
295.295	315.81
295.525	325.81
295.756	332.81
295.987	322.81
296.217	340.81
296.448	352.81
296.679	349.81
296.909	311.81
297.14	337.81
297.37	332.81
297.601	315.81
297.831	325.81
298.062	336.81
298.292	337.81
298.523	327.81
298.753	335.81
298.984	325.81
299.214	327.81
299.445	320.81
299.675	349.81
299.905	335.81
300.136	345.81
300.366	331.81
300.597	341.81
300.827	328.81
301.057	357.81
301.288	328.81
301.518	351.81
301.748	350.81
301.979	338.81
302.209	337.81
302.439	358.81
302.669	341.81
302.9	375.81
303.13	346.81
303.36	355.81
303.59	353.81
303.82	355.81
304.051	377.81
304.281	372.81
304.511	351.81
304.741	364.81
304.971	351.81
305.201	353.81
305.431	339.81
305.661	366.81
305.891	365.81
306.121	353.81
306.352	355.81
306.582	361.81
306.812	356.81
307.042	362.81
307.272	350.81
307.502	368.81
307.731	372.81
307.961	364.81
308.191	363.81
308.421	334.81
308.651	344.81
308.881	347.81
309.111	363.81
309.341	344.81
309.571	356.81
309.8	361.81
310.03	367.81
310.26	374.81
310.49	382.81
310.72	373.81
310.949	383.81
311.179	389.81
311.409	390.81
311.639	387.81
311.868	372.81
312.098	392.81
312.328	377.81
312.557	389.81
312.787	413.81
313.017	399.81
313.246	398.81
313.476	383.81
313.706	375.81
313.935	390.81
314.165	388.81
314.394	395.81
314.624	393.81
314.853	394.81
315.083	387.81
315.312	387.81
315.542	397.81
315.771	388.81
316.001	394.81
316.23	379.81
316.46	394.81
316.689	375.81
316.919	394.81
317.148	393.81
317.377	387.81
317.607	402.81
317.836	394.81
318.065	391.81
318.295	383.81
318.524	394.81
318.753	399.81
318.983	392.81
319.212	396.81
319.441	377.81
319.67	386.81
319.9	388.81
320.129	375.81
320.358	383.81
320.587	398.81
320.816	397.81
321.046	411.81
321.275	391.81
321.504	401.81
321.733	385.81
321.962	409.81
322.191	431.81
322.42	430.81
322.649	423.81
322.878	400.81
323.108	448.81
323.337	442.81
323.566	475.81
323.795	467.81
324.024	500.81
324.253	563.81
324.482	716.81
324.71	1035.81
324.939	1441.81
325.168	1253.81
325.397	708.81
325.626	516.81
325.855	486.81
326.084	449.81
326.313	439.81
326.542	452.81
326.77	477.81
326.999	555.81
327.228	663.81
327.457	956.81
327.686	1109.81
327.914	810.81
328.143	581.81
328.372	535.81
328.6	505.81
328.829	506.81
329.058	499.81
329.287	529.81
329.515	474.81
329.744	464.81
329.972	476.81
330.201	480.81
330.43	486.81
330.658	512.81
330.887	525.81
331.115	513.81
331.344	499.81
331.572	463.81
331.801	473.81
332.03	471.81
332.258	466.81
332.486	477.81
332.715	460.81
332.943	478.81
333.172	495.81
333.4	493.81
333.629	463.81
333.857	504.81
334.085	525.81
334.314	514.81
334.542	543.81
334.771	535.81
334.999	497.81
335.227	491.81
335.455	496.81
335.684	467.81
335.912	464.81
336.14	479.81
336.369	465.81
336.597	463.81
336.825	480.81
337.053	453.81
337.281	454.81
337.51	451.81
337.738	457.81
337.966	461.81
338.194	447.81
338.422	448.81
338.65	455.81
338.878	449.81
339.106	438.81
339.334	448.81
339.562	448.81
339.79	459.81
340.018	429.81
340.246	441.81
340.474	451.81
340.702	451.81
340.93	423.81
341.158	417.81
341.386	442.81
341.614	458.81
341.842	442.81
342.07	441.81
342.298	435.81
342.526	431.81
342.754	449.81
342.981	414.81
343.209	434.81
343.437	467.81
343.665	457.81
343.893	479.81
344.12	480.81
344.348	480.81
344.576	463.81
344.804	456.81
345.031	449.81
345.259	447.81
345.487	443.81
345.714	449.81
345.942	437.81
346.17	431.81
346.397	442.81
346.625	435.81
346.853	403.81
347.08	412.81
347.308	432.81
347.535	437.81
347.763	421.81
347.99	416.81
348.218	422.81
348.445	451.81
348.673	429.81
348.9	415.81
349.128	415.81
349.355	422.81
349.583	419.81
349.81	427.81
350.037	408.81
350.265	415.81
350.492	408.81
350.72	411.81
350.947	413.81
351.174	407.81
351.402	422.81
351.629	394.81
351.856	421.81
352.083	432.81
352.311	426.81
352.538	434.81
352.765	432.81
352.992	435.81
353.22	411.81
353.447	404.81
353.674	415.81
353.901	411.81
354.128	401.81
354.355	414.81
354.583	401.81
354.81	418.81
355.037	407.81
355.264	391.81
355.491	388.81
355.718	392.81
355.945	392.81
356.172	411.81
356.399	409.81
356.626	408.81
356.853	420.81
357.08	405.81
357.307	395.81
357.534	390.81
357.761	381.81
357.988	401.81
358.215	407.81
358.441	414.81
358.668	385.81
358.895	411.81
359.122	409.81
359.349	415.81
359.576	401.81
359.802	423.81
360.029	411.81
360.256	440.81
360.483	432.81
360.709	415.81
360.936	419.81
361.163	404.81
361.39	422.81
361.616	420.81
361.843	425.81
362.07	410.81
362.296	422.81
362.523	398.81
362.749	410.81
362.976	398.81
363.203	419.81
363.429	397.81
363.656	393.81
363.882	412.81
364.109	382.81
364.335	415.81
364.562	397.81
364.788	420.81
365.015	403.81
365.241	383.81
365.468	414.81
365.694	414.81
365.92	402.81
366.147	409.81
366.373	405.81
366.599	417.81
366.826	419.81
367.052	401.81
367.278	388.81
367.505	388.81
367.731	389.81
367.957	421.81
368.184	385.81
368.41	409.81
368.636	401.81
368.862	420.81
369.089	410.81
369.315	413.81
369.541	402.81
369.767	404.81
369.993	405.81
370.219	396.81
370.445	407.81
370.672	421.81
370.898	401.81
371.124	400.81
371.35	421.81
371.576	407.81
371.802	403.81
372.028	407.81
372.254	420.81
372.48	426.81
372.706	421.81
372.932	423.81
373.158	431.81
373.384	410.81
373.61	432.81
373.835	407.81
374.061	421.81
374.287	422.81
374.513	447.81
374.739	444.81
374.965	442.81
375.191	420.81
375.416	417.81
375.642	428.81
375.868	427.81
376.094	432.81
376.319	419.81
376.545	413.81
376.771	422.81
376.997	424.81
377.222	428.81
377.448	400.81
377.674	416.81
377.899	419.81
378.125	411.81
378.35	403.81
378.576	406.81
378.802	401.81
379.027	426.81
379.253	416.81
379.478	391.81
379.704	416.81
379.929	411.81
380.155	415.81
380.38	428.81
380.606	415.81
380.831	408.81
381.057	445.81
381.282	413.81
381.507	430.81
381.733	409.81
381.958	424.81
382.184	417.81
382.409	424.81
382.634	417.81
382.86	428.81
383.085	439.81
383.31	439.81
383.535	458.81
383.761	448.81
383.986	428.81
384.211	413.81
384.436	452.81
384.662	449.81
384.887	456.81
385.112	443.81
385.337	447.81
385.562	447.81
385.787	460.81
386.013	485.81
386.238	475.81
386.463	456.81
386.688	471.81
386.913	477.81
387.138	449.81
387.363	470.81
387.588	465.81
387.813	484.81
388.038	472.81
388.263	459.81
388.488	476.81
388.713	452.81
388.938	469.81
389.163	480.81
389.387	477.81
389.612	470.81
389.837	456.81
390.062	446.81
390.287	469.81
390.512	443.81
390.736	447.81
390.961	478.81
391.186	461.81
391.411	486.81
391.636	467.81
391.86	496.81
392.085	508.81
392.31	483.81
392.534	506.81
392.759	479.81
392.984	466.81
393.208	476.81
393.433	481.81
393.658	470.81
393.882	462.81
394.107	480.81
394.331	470.81
394.556	461.81
394.78	484.81
395.005	487.81
395.229	481.81
395.454	480.81
395.678	492.81
395.903	514.81
396.127	517.81
396.352	534.81
396.576	520.81
396.801	484.81
397.025	476.81
397.249	491.81
397.474	503.81
397.698	516.81
397.922	517.81
398.147	543.81
398.371	535.81
398.595	534.81
398.82	549.81
399.044	552.81
399.268	594.81
399.492	636.81
399.717	696.81
399.941	719.81
400.165	703.81
400.389	696.81
400.613	612.81
400.837	571.81
401.062	570.81
401.286	549.81
401.51	574.81
401.734	534.81
401.958	553.81
402.182	576.81
402.406	545.81
402.63	549.81
402.854	561.81
403.078	563.81
403.302	572.81
403.526	555.81
403.75	579.81
403.974	574.81
404.198	574.81
404.422	593.81
404.645	589.81
404.869	579.81
405.093	627.81
405.317	662.81
405.541	669.81
405.765	613.81
405.988	593.81
406.212	602.81
406.436	596.81
406.66	612.81
406.883	604.81
407.107	634.81
407.331	671.81
407.555	734.81
407.778	734.81
408.002	656.81
408.226	633.81
408.449	643.81
408.673	614.81
408.896	624.81
409.12	659.81
409.344	633.81
409.567	583.81
409.791	587.81
410.014	579.81
410.238	561.81
410.461	597.81
410.685	596.81
410.908	572.81
411.132	585.81
411.355	622.81
411.578	626.81
411.802	568.81
412.025	567.81
412.249	550.81
412.472	578.81
412.695	624.81
412.919	596.81
413.142	577.81
413.365	557.81
413.589	557.81
413.812	548.81
414.035	576.81
414.258	526.81
414.482	537.81
414.705	549.81
414.928	529.81
415.151	515.81
415.374	543.81
415.597	525.81
415.821	539.81
416.044	533.81
416.267	515.81
416.49	544.81
416.713	536.81
416.936	528.81
417.159	519.81
417.382	529.81
417.605	553.81
417.828	571.81
418.051	529.81
418.274	568.81
418.497	559.81
418.72	549.81
418.943	537.81
419.166	577.81
419.389	579.81
419.611	579.81
419.834	570.81
420.057	570.81
420.28	564.81
420.503	547.81
420.726	560.81
420.948	569.81
421.171	604.81
421.394	616.81
421.617	575.81
421.839	553.81
422.062	545.81
422.285	552.81
422.507	614.81
422.73	643.81
422.953	643.81
423.175	556.81
423.398	574.81
423.621	574.81
423.843	594.81
424.066	599.81
424.288	605.81
424.511	625.81
424.733	638.81
424.956	710.81
425.178	671.81
425.401	661.81
425.623	682.81
425.846	613.81
426.068	565.81
426.291	564.81
426.513	569.81
426.735	566.81
426.958	584.81
427.18	679.81
427.402	802.81
427.625	821.81
427.847	731.81
428.069	615.81
428.292	597.81
428.514	549.81
428.736	547.81
428.958	547.81
429.181	533.81
429.403	524.81
429.625	522.81
429.847	576.81
430.069	615.81
430.292	614.81
430.514	543.81
430.736	516.81
430.958	539.81
431.18	514.81
431.402	502.81
431.624	518.81
431.846	489.81
432.068	495.81
432.29	516.81
432.512	508.81
432.734	510.81
432.956	486.81
433.178	503.81
433.4	510.81
433.622	508.81
433.844	491.81
434.066	492.81
434.287	488.81
434.509	513.81
434.731	538.81
434.953	517.81
435.175	558.81
435.397	574.81
435.618	579.81
435.84	602.81
436.062	663.81
436.284	715.81
436.505	612.81
436.727	575.81
436.949	511.81
437.17	523.81
437.392	535.81
437.614	527.81
437.835	565.81
438.057	619.81
438.278	700.81
438.5	691.81
438.721	764.81
438.943	737.81
439.165	631.81
439.386	582.81
439.608	559.81
439.829	575.81
440.05	558.81
440.272	585.81
440.493	573.81
440.715	548.81
440.936	543.81
441.158	535.81
441.379	540.81
441.6	547.81
441.822	558.81
442.043	597.81
442.264	694.81
442.486	699.81
442.707	614.81
442.928	588.81
443.149	597.81
443.371	600.81
443.592	644.81
443.813	716.81
444.034	756.81
444.255	681.81
444.476	631.81
444.698	600.81
444.919	616.81
445.14	691.81
445.361	633.81
445.582	605.81
445.803	663.81
446.024	719.81
446.245	713.81
446.466	683.81
446.687	588.81
446.908	557.81
447.129	538.81
447.35	509.81
447.571	532.81
447.792	511.81
448.013	507.81
448.234	504.81
448.455	544.81
448.675	648.81
448.896	738.81
449.117	654.81
449.338	605.81
449.559	691.81
449.779	795.81
450	639.81
450.221	559.81
450.442	505.81
450.662	505.81
450.883	492.81
451.104	477.81
451.324	505.81
451.545	476.81
451.766	459.81
451.986	465.81
452.207	467.81
452.428	436.81
452.648	464.81
452.869	472.81
453.089	471.81
453.31	486.81
453.53	475.81
453.751	449.81
453.971	452.81
454.192	478.81
454.412	468.81
454.633	461.81
454.853	462.81
455.073	449.81
455.294	484.81
455.514	528.81
455.734	530.81
455.955	455.81
456.175	453.81
456.395	454.81
456.616	439.81
456.836	461.81
457.056	431.81
457.276	433.81
457.497	435.81
457.717	437.81
457.937	453.81
458.157	442.81
458.377	447.81
458.598	479.81
458.818	499.81
459.038	553.81
459.258	572.81
459.478	529.81
459.698	510.81
459.918	493.81
460.138	526.81
460.358	515.81
460.578	525.81
460.798	549.81
461.018	552.81
461.238	545.81
461.458	518.81
461.678	528.81
461.898	545.81
462.118	518.81
462.338	551.81
462.558	581.81
462.777	580.81
462.997	586.81
463.217	638.81
463.437	648.81
463.657	592.81
463.876	618.81
464.096	603.81
464.316	574.81
464.536	583.81
464.755	572.81
464.975	567.81
465.195	579.81
465.414	592.81
465.634	557.81
465.854	529.81
466.073	511.81
466.293	497.81
466.512	464.81
466.732	494.81
466.951	477.81
467.171	478.81
467.391	479.81
467.61	495.81
467.829	486.81
468.049	495.81
468.268	489.81
468.488	479.81
468.707	456.81
468.927	443.81
469.146	464.81
469.365	467.81
469.585	476.81
469.804	473.81
470.023	498.81
470.243	482.81
470.462	497.81
470.681	501.81
470.901	511.81
471.12	472.81
471.339	481.81
471.558	488.81
471.777	463.81
471.997	478.81
472.216	509.81
472.435	505.81
472.654	489.81
472.873	469.81
473.092	476.81
473.311	480.81
473.53	483.81
473.749	504.81
473.968	517.81
474.187	604.81
474.406	593.81
474.625	519.81
474.844	480.81
475.063	478.81
475.282	484.81
475.501	484.81
475.72	486.81
475.939	501.81
476.158	492.81
476.377	493.81
476.596	479.81
476.814	495.81
477.033	499.81
477.252	527.81
477.471	490.81
477.69	515.81
477.908	549.81
478.127	529.81
478.346	526.81
478.564	548.81
478.783	561.81
479.002	552.81
479.22	575.81
479.439	558.81
479.658	576.81
479.876	586.81
480.095	579.81
480.313	625.81
480.532	628.81
480.751	627.81
480.969	623.81
481.188	621.81
481.406	640.81
481.624	612.81
481.843	599.81
482.061	545.81
482.28	583.81
482.498	540.81
482.717	545.81
482.935	575.81
483.153	528.81
483.372	545.81
483.59	560.81
483.808	552.81
484.027	569.81
484.245	546.81
484.463	547.81
484.681	580.81
484.9	568.81
485.118	571.81
485.336	588.81
485.554	560.81
485.772	568.81
485.99	561.81
486.209	574.81
486.427	569.81
486.645	593.81
486.863	605.81
487.081	587.81
487.299	585.81
487.517	606.81
487.735	559.81
487.953	602.81
488.171	613.81
488.389	580.81
488.607	578.81
488.825	592.81
489.043	579.81
489.261	589.81
489.479	614.81
489.696	602.81
489.914	586.81
490.132	609.81
490.35	625.81
490.568	628.81
490.786	627.81
491.003	639.81
491.221	669.81
491.439	664.81
491.657	661.81
491.874	673.81
492.092	682.81
492.31	667.81
492.527	652.81
492.745	675.81
492.963	696.81
493.18	668.81
493.398	665.81
493.615	677.81
493.833	696.81
494.05	696.81
494.268	713.81
494.485	710.81
494.703	668.81
494.92	679.81
495.138	699.81
495.355	724.81
495.573	714.81
495.79	683.81
496.008	693.81
496.225	695.81
496.442	707.81
496.66	732.81
496.877	695.81
497.094	720.81
497.312	693.81
497.529	711.81
497.746	728.81
497.963	750.81
498.181	770.81
498.398	808.81
498.615	809.81
498.832	853.81
499.049	875.81
499.267	901.81
499.484	935.81
499.701	986.81
499.918	1073.81
500.135	1123.81
500.352	1197.81
500.569	1215.81
500.786	1251.81
501.003	1229.81
501.22	1128.81
501.437	1051.81
501.654	1032.81
