Data from 1973.PennyLincolnUp.Lamp.En5.5.200Scan.071719.P1.Changed Mount._HRD10591_15-43-36-852.txt Node
Date: Thu Jul 18 15:43:36 EDT 2019
User: cochatt
Spectrometer: HR+D1059
Trigger mode: 1
Integration Time (sec): 1.000000E-1
Scans to average: 1
Electric dark correction enabled: true
Nonlinearity correction enabled: false
Boxcar width: 0
XAxis mode: Wavelengths
Number of Pixels in Spectrum: 2048
>>>>>Begin Spectral Data<<<<<
223.165	-10.12
223.4	-10.12
223.635	-10.12
223.869	-12.12
224.104	-25.12
224.338	-17.12
224.573	-11.12
224.808	-11.12
225.042	5.88
225.277	-3.12
225.511	-13.12
225.746	1.88
225.98	7.88
226.215	3.88
226.449	8.88
226.683	20.88
226.918	22.88
227.152	30.88
227.387	45.88
227.621	47.88
227.856	44.88
228.09	43.88
228.324	55.88
228.559	64.88
228.793	53.88
229.027	93.88
229.262	94.88
229.496	105.88
229.73	109.88
229.964	130.88
230.199	111.88
230.433	98.88
230.667	98.88
230.901	105.88
231.136	113.88
231.37	97.88
231.604	107.88
231.838	104.88
232.072	109.88
232.306	120.88
232.541	112.88
232.775	122.88
233.009	115.88
233.243	116.88
233.477	119.88
233.711	109.88
233.945	106.88
234.179	132.88
234.413	118.88
234.647	105.88
234.881	125.88
235.115	114.88
235.349	120.88
235.583	127.88
235.817	133.88
236.051	107.88
236.285	114.88
236.519	119.88
236.753	103.88
236.987	129.88
237.221	164.88
237.455	188.88
237.689	175.88
237.922	129.88
238.156	120.88
238.39	126.88
238.624	109.88
238.858	121.88
239.091	123.88
239.325	130.88
239.559	130.88
239.793	115.88
240.027	127.88
240.26	125.88
240.494	146.88
240.728	157.88
240.961	143.88
241.195	138.88
241.429	147.88
241.662	139.88
241.896	131.88
242.13	138.88
242.363	125.88
242.597	129.88
242.83	124.88
243.064	138.88
243.298	134.88
243.531	141.88
243.765	143.88
243.998	150.88
244.232	140.88
244.465	137.88
244.699	138.88
244.932	142.88
245.166	137.88
245.399	148.88
245.633	132.88
245.866	146.88
246.099	137.88
246.333	149.88
246.566	155.88
246.8	143.88
247.033	145.88
247.266	165.88
247.5	150.88
247.733	151.88
247.966	183.88
248.2	177.88
248.433	172.88
248.666	170.88
248.899	170.88
249.133	180.88
249.366	184.88
249.599	181.88
249.832	169.88
250.066	171.88
250.299	161.88
250.532	169.88
250.765	177.88
250.998	200.88
251.231	205.88
251.465	202.88
251.698	187.88
251.931	200.88
252.164	179.88
252.397	186.88
252.63	183.88
252.863	199.88
253.096	204.88
253.329	207.88
253.562	214.88
253.795	217.88
254.028	194.88
254.261	198.88
254.494	212.88
254.727	215.88
254.96	242.88
255.193	219.88
255.426	236.88
255.659	209.88
255.892	221.88
256.124	210.88
256.357	202.88
256.59	197.88
256.823	202.88
257.056	200.88
257.289	210.88
257.521	207.88
257.754	214.88
257.987	200.88
258.22	195.88
258.452	198.88
258.685	198.88
258.918	195.88
259.151	223.88
259.383	211.88
259.616	213.88
259.849	215.88
260.081	218.88
260.314	238.88
260.547	245.88
260.779	221.88
261.012	207.88
261.244	213.88
261.477	204.88
261.71	209.88
261.942	217.88
262.175	228.88
262.407	210.88
262.64	218.88
262.872	205.88
263.105	202.88
263.337	205.88
263.57	181.88
263.802	213.88
264.035	211.88
264.267	208.88
264.499	220.88
264.732	216.88
264.964	215.88
265.197	210.88
265.429	203.88
265.661	218.88
265.894	207.88
266.126	212.88
266.358	211.88
266.591	228.88
266.823	237.88
267.055	217.88
267.287	206.88
267.52	220.88
267.752	228.88
267.984	221.88
268.216	219.88
268.448	229.88
268.681	229.88
268.913	244.88
269.145	247.88
269.377	268.88
269.609	252.88
269.841	260.88
270.073	246.88
270.306	275.88
270.538	289.88
270.77	293.88
271.002	281.88
271.234	280.88
271.466	276.88
271.698	286.88
271.93	288.88
272.162	269.88
272.394	276.88
272.626	277.88
272.858	271.88
273.09	266.88
273.322	253.88
273.553	251.88
273.785	261.88
274.017	249.88
274.249	265.88
274.481	242.88
274.713	238.88
274.945	259.88
275.176	262.88
275.408	262.88
275.64	271.88
275.872	256.88
276.104	263.88
276.335	276.88
276.567	268.88
276.799	251.88
277.031	284.88
277.262	295.88
277.494	277.88
277.726	282.88
277.957	266.88
278.189	279.88
278.421	269.88
278.652	279.88
278.884	270.88
279.115	266.88
279.347	253.88
279.579	269.88
279.81	279.88
280.042	285.88
280.273	290.88
280.505	283.88
280.736	284.88
280.968	280.88
281.199	265.88
281.431	288.88
281.662	275.88
281.894	290.88
282.125	296.88
282.356	306.88
282.588	302.88
282.819	302.88
283.051	285.88
283.282	299.88
283.513	288.88
283.745	285.88
283.976	275.88
284.207	284.88
284.439	301.88
284.67	279.88
284.901	268.88
285.132	291.88
285.364	280.88
285.595	277.88
285.826	287.88
286.057	288.88
286.288	286.88
286.52	293.88
286.751	308.88
286.982	300.88
287.213	285.88
287.444	297.88
287.675	291.88
287.906	299.88
288.138	297.88
288.369	315.88
288.6	294.88
288.831	310.88
289.062	287.88
289.293	300.88
289.524	298.88
289.755	302.88
289.986	297.88
290.217	298.88
290.448	307.88
290.679	295.88
290.91	311.88
291.141	313.88
291.371	294.88
291.602	315.88
291.833	298.88
292.064	313.88
292.295	313.88
292.526	295.88
292.757	301.88
292.987	298.88
293.218	307.88
293.449	297.88
293.68	309.88
293.91	314.88
294.141	298.88
294.372	286.88
294.603	307.88
294.833	291.88
295.064	298.88
295.295	293.88
295.525	313.88
295.756	302.88
295.987	302.88
296.217	316.88
296.448	323.88
296.679	294.88
296.909	307.88
297.14	305.88
297.37	312.88
297.601	315.88
297.831	310.88
298.062	307.88
298.292	314.88
298.523	341.88
298.753	327.88
298.984	324.88
299.214	321.88
299.445	318.88
299.675	339.88
299.905	318.88
300.136	332.88
300.366	322.88
300.597	323.88
300.827	327.88
301.057	322.88
301.288	326.88
301.518	342.88
301.748	338.88
301.979	348.88
302.209	347.88
302.439	347.88
302.669	338.88
302.9	327.88
303.13	339.88
303.36	334.88
303.59	337.88
303.82	326.88
304.051	333.88
304.281	316.88
304.511	338.88
304.741	329.88
304.971	329.88
305.201	311.88
305.431	356.88
305.661	338.88
305.891	338.88
306.121	331.88
306.352	330.88
306.582	347.88
306.812	328.88
307.042	330.88
307.272	343.88
307.502	355.88
307.731	325.88
307.961	338.88
308.191	331.88
308.421	332.88
308.651	358.88
308.881	343.88
309.111	348.88
309.341	332.88
309.571	359.88
309.8	347.88
310.03	374.88
310.26	371.88
310.49	344.88
310.72	347.88
310.949	351.88
311.179	377.88
311.409	345.88
311.639	365.88
311.868	349.88
312.098	366.88
312.328	367.88
312.557	370.88
312.787	375.88
313.017	382.88
313.246	382.88
313.476	366.88
313.706	359.88
313.935	365.88
314.165	378.88
314.394	372.88
314.624	361.88
314.853	359.88
315.083	356.88
315.312	371.88
315.542	366.88
315.771	371.88
316.001	383.88
316.23	375.88
316.46	375.88
316.689	366.88
316.919	378.88
317.148	399.88
317.377	380.88
317.607	371.88
317.836	381.88
318.065	390.88
318.295	386.88
318.524	369.88
318.753	358.88
318.983	371.88
319.212	381.88
319.441	353.88
319.67	387.88
319.9	362.88
320.129	351.88
320.358	367.88
320.587	380.88
320.816	371.88
321.046	351.88
321.275	377.88
321.504	382.88
321.733	370.88
321.962	398.88
322.191	365.88
322.42	373.88
322.649	412.88
322.878	390.88
323.108	389.88
323.337	398.88
323.566	395.88
323.795	451.88
324.024	446.88
324.253	510.88
324.482	652.88
324.71	869.88
324.939	1226.88
325.168	1096.88
325.397	618.88
325.626	476.88
325.855	454.88
326.084	429.88
326.313	413.88
326.542	414.88
326.77	449.88
326.999	491.88
327.228	606.88
327.457	805.88
327.686	971.88
327.914	692.88
328.143	488.88
328.372	448.88
328.6	453.88
328.829	457.88
329.058	446.88
329.287	444.88
329.515	452.88
329.744	451.88
329.972	429.88
330.201	442.88
330.43	451.88
330.658	465.88
330.887	489.88
331.115	469.88
331.344	459.88
331.572	447.88
331.801	447.88
332.03	447.88
332.258	440.88
332.486	453.88
332.715	463.88
332.943	448.88
333.172	451.88
333.4	450.88
333.629	494.88
333.857	481.88
334.085	465.88
334.314	473.88
334.542	475.88
334.771	486.88
334.999	455.88
335.227	455.88
335.455	460.88
335.684	458.88
335.912	469.88
336.14	459.88
336.369	444.88
336.597	459.88
336.825	437.88
337.053	443.88
337.281	443.88
337.51	458.88
337.738	436.88
337.966	435.88
338.194	436.88
338.422	442.88
338.65	445.88
338.878	442.88
339.106	423.88
339.334	421.88
339.562	414.88
339.79	409.88
340.018	431.88
340.246	425.88
340.474	431.88
340.702	414.88
340.93	424.88
341.158	420.88
341.386	420.88
341.614	410.88
341.842	407.88
342.07	407.88
342.298	403.88
342.526	414.88
342.754	416.88
342.981	410.88
343.209	403.88
343.437	425.88
343.665	435.88
343.893	431.88
344.12	453.88
344.348	455.88
344.576	451.88
344.804	431.88
345.031	431.88
345.259	423.88
345.487	432.88
345.714	393.88
345.942	433.88
346.17	410.88
346.397	396.88
346.625	400.88
346.853	411.88
347.08	405.88
347.308	391.88
347.535	422.88
347.763	408.88
347.99	403.88
348.218	406.88
348.445	387.88
348.673	391.88
348.9	385.88
349.128	399.88
349.355	393.88
349.583	398.88
349.81	389.88
350.037	379.88
350.265	387.88
350.492	383.88
350.72	379.88
350.947	398.88
351.174	406.88
351.402	411.88
351.629	403.88
351.856	389.88
352.083	381.88
352.311	412.88
352.538	426.88
352.765	396.88
352.992	385.88
353.22	380.88
353.447	374.88
353.674	372.88
353.901	389.88
354.128	383.88
354.355	372.88
354.583	381.88
354.81	395.88
355.037	382.88
355.264	390.88
355.491	393.88
355.718	393.88
355.945	383.88
356.172	385.88
356.399	406.88
356.626	395.88
356.853	379.88
357.08	390.88
357.307	358.88
357.534	376.88
357.761	393.88
357.988	392.88
358.215	393.88
358.441	377.88
358.668	381.88
358.895	395.88
359.122	370.88
359.349	401.88
359.576	395.88
359.802	393.88
360.029	431.88
360.256	407.88
360.483	378.88
360.709	397.88
360.936	404.88
361.163	394.88
361.39	403.88
361.616	383.88
361.843	384.88
362.07	386.88
362.296	394.88
362.523	405.88
362.749	404.88
362.976	384.88
363.203	387.88
363.429	381.88
363.656	386.88
363.882	382.88
364.109	405.88
364.335	382.88
364.562	406.88
364.788	379.88
365.015	397.88
365.241	380.88
365.468	391.88
365.694	381.88
365.92	394.88
366.147	369.88
366.373	390.88
366.599	370.88
366.826	387.88
367.052	378.88
367.278	395.88
367.505	378.88
367.731	386.88
367.957	406.88
368.184	387.88
368.41	403.88
368.636	387.88
368.862	394.88
369.089	385.88
369.315	393.88
369.541	385.88
369.767	403.88
369.993	404.88
370.219	395.88
370.445	375.88
370.672	391.88
370.898	379.88
371.124	400.88
371.35	422.88
371.576	400.88
371.802	405.88
372.028	393.88
372.254	398.88
372.48	405.88
372.706	414.88
372.932	399.88
373.158	411.88
373.384	387.88
373.61	409.88
373.835	408.88
374.061	409.88
374.287	393.88
374.513	410.88
374.739	413.88
374.965	399.88
375.191	403.88
375.416	437.88
375.642	427.88
375.868	400.88
376.094	403.88
376.319	399.88
376.545	410.88
376.771	402.88
376.997	396.88
377.222	417.88
377.448	405.88
377.674	407.88
377.899	387.88
378.125	417.88
378.35	377.88
378.576	386.88
378.802	400.88
379.027	395.88
379.253	423.88
379.478	394.88
379.704	387.88
379.929	408.88
380.155	389.88
380.38	403.88
380.606	399.88
380.831	399.88
381.057	425.88
381.282	407.88
381.507	402.88
381.733	413.88
381.958	411.88
382.184	403.88
382.409	406.88
382.634	423.88
382.86	418.88
383.085	398.88
383.31	409.88
383.535	428.88
383.761	421.88
383.986	425.88
384.211	433.88
384.436	429.88
384.662	455.88
384.887	438.88
385.112	439.88
385.337	459.88
385.562	458.88
385.787	447.88
386.013	475.88
386.238	463.88
386.463	453.88
386.688	458.88
386.913	457.88
387.138	452.88
387.363	444.88
387.588	461.88
387.813	453.88
388.038	429.88
388.263	466.88
388.488	454.88
388.713	447.88
388.938	456.88
389.163	455.88
389.387	473.88
389.612	466.88
389.837	446.88
390.062	435.88
390.287	430.88
390.512	445.88
390.736	443.88
390.961	461.88
391.186	468.88
391.411	443.88
391.636	475.88
391.86	470.88
392.085	474.88
392.31	478.88
392.534	474.88
392.759	468.88
392.984	462.88
393.208	465.88
393.433	474.88
393.658	456.88
393.882	471.88
394.107	455.88
394.331	470.88
394.556	444.88
394.78	478.88
395.005	444.88
395.229	453.88
395.454	468.88
395.678	485.88
395.903	489.88
396.127	483.88
396.352	476.88
396.576	481.88
396.801	469.88
397.025	458.88
397.249	473.88
397.474	485.88
397.698	491.88
397.922	502.88
398.147	509.88
398.371	521.88
398.595	499.88
398.82	522.88
399.044	549.88
399.268	576.88
399.492	614.88
399.717	660.88
399.941	693.88
400.165	673.88
400.389	660.88
400.613	622.88
400.837	565.88
401.062	517.88
401.286	530.88
401.51	511.88
401.734	539.88
401.958	534.88
402.182	543.88
402.406	539.88
402.63	543.88
402.854	556.88
403.078	556.88
403.302	559.88
403.526	559.88
403.75	547.88
403.974	549.88
404.198	556.88
404.422	554.88
404.645	585.88
404.869	559.88
405.093	579.88
405.317	612.88
405.541	633.88
405.765	571.88
405.988	559.88
406.212	589.88
406.436	598.88
406.66	599.88
406.883	607.88
407.107	618.88
407.331	636.88
407.555	712.88
407.778	715.88
408.002	645.88
408.226	606.88
408.449	631.88
408.673	576.88
408.896	621.88
409.12	622.88
409.344	615.88
409.567	565.88
409.791	581.88
410.014	564.88
410.238	562.88
410.461	549.88
410.685	550.88
410.908	545.88
411.132	584.88
411.355	591.88
411.578	577.88
411.802	562.88
412.025	551.88
412.249	558.88
412.472	567.88
412.695	578.88
412.919	579.88
413.142	559.88
413.365	542.88
413.589	553.88
413.812	518.88
414.035	504.88
414.258	486.88
414.482	511.88
414.705	526.88
414.928	536.88
415.151	527.88
415.374	525.88
415.597	495.88
415.821	489.88
416.044	517.88
416.267	531.88
416.49	545.88
416.713	500.88
416.936	494.88
417.159	499.88
417.382	534.88
417.605	527.88
417.828	513.88
418.051	538.88
418.274	524.88
418.497	523.88
418.72	504.88
418.943	514.88
419.166	556.88
419.389	547.88
419.611	552.88
419.834	565.88
420.057	571.88
420.28	530.88
420.503	554.88
420.726	556.88
420.948	550.88
421.171	570.88
421.394	590.88
421.617	536.88
421.839	498.88
422.062	519.88
422.285	543.88
422.507	587.88
422.73	629.88
422.953	625.88
423.175	572.88
423.398	553.88
423.621	545.88
423.843	577.88
424.066	563.88
424.288	557.88
424.511	577.88
424.733	635.88
424.956	674.88
425.178	633.88
425.401	630.88
425.623	669.88
425.846	600.88
426.068	540.88
426.291	550.88
426.513	531.88
426.735	546.88
426.958	582.88
427.18	621.88
427.402	746.88
427.625	790.88
427.847	660.88
428.069	591.88
428.292	578.88
428.514	549.88
428.736	506.88
428.958	513.88
429.181	500.88
429.403	500.88
429.625	499.88
429.847	519.88
430.069	573.88
430.292	565.88
430.514	508.88
430.736	522.88
430.958	488.88
431.18	498.88
431.402	477.88
431.624	475.88
431.846	474.88
432.068	486.88
432.29	477.88
432.512	479.88
432.734	502.88
432.956	491.88
433.178	499.88
433.4	501.88
433.622	491.88
433.844	507.88
434.066	489.88
434.287	470.88
434.509	492.88
434.731	516.88
434.953	510.88
435.175	535.88
435.397	542.88
435.618	547.88
435.84	555.88
436.062	633.88
436.284	667.88
436.505	589.88
436.727	537.88
436.949	521.88
437.17	501.88
437.392	499.88
437.614	523.88
437.835	511.88
438.057	600.88
438.278	662.88
438.5	654.88
438.721	722.88
438.943	715.88
439.165	557.88
439.386	536.88
439.608	532.88
439.829	533.88
440.05	543.88
440.272	567.88
440.493	547.88
440.715	519.88
440.936	501.88
441.158	513.88
441.379	503.88
441.6	541.88
441.822	558.88
442.043	572.88
442.264	626.88
442.486	661.88
442.707	585.88
442.928	542.88
443.149	514.88
443.371	558.88
443.592	602.88
443.813	666.88
444.034	717.88
444.255	635.88
444.476	592.88
444.698	587.88
444.919	600.88
445.14	649.88
445.361	615.88
445.582	618.88
445.803	608.88
446.024	678.88
446.245	689.88
446.466	652.88
446.687	558.88
446.908	537.88
447.129	499.88
447.35	495.88
447.571	489.88
447.792	473.88
448.013	507.88
448.234	511.88
448.455	528.88
448.675	612.88
448.896	736.88
449.117	601.88
449.338	568.88
449.559	655.88
449.779	742.88
450	601.88
450.221	505.88
450.442	494.88
450.662	491.88
450.883	484.88
451.104	473.88
451.324	482.88
451.545	463.88
451.766	450.88
451.986	451.88
452.207	469.88
452.428	424.88
452.648	444.88
452.869	460.88
453.089	440.88
453.31	473.88
453.53	442.88
453.751	429.88
453.971	433.88
454.192	430.88
454.412	433.88
454.633	447.88
454.853	427.88
455.073	426.88
455.294	458.88
455.514	524.88
455.734	487.88
455.955	445.88
456.175	437.88
456.395	429.88
456.616	406.88
456.836	424.88
457.056	395.88
457.276	422.88
457.497	424.88
457.717	434.88
457.937	414.88
458.157	448.88
458.377	441.88
458.598	444.88
458.818	475.88
459.038	507.88
459.258	553.88
459.478	516.88
459.698	496.88
459.918	476.88
460.138	487.88
460.358	504.88
460.578	522.88
460.798	509.88
461.018	526.88
461.238	510.88
461.458	515.88
461.678	514.88
461.898	548.88
462.118	518.88
462.338	554.88
462.558	558.88
462.777	573.88
462.997	590.88
463.217	610.88
463.437	616.88
463.657	578.88
463.876	583.88
464.096	572.88
464.316	576.88
464.536	574.88
464.755	567.88
464.975	564.88
465.195	555.88
465.414	577.88
465.634	525.88
465.854	507.88
466.073	483.88
466.293	485.88
466.512	464.88
466.732	479.88
466.951	459.88
467.171	466.88
467.391	473.88
467.61	466.88
467.829	458.88
468.049	461.88
468.268	466.88
468.488	452.88
468.707	459.88
468.927	456.88
469.146	469.88
469.365	472.88
469.585	459.88
469.804	478.88
470.023	484.88
470.243	473.88
470.462	483.88
470.681	485.88
470.901	466.88
471.12	484.88
471.339	484.88
471.558	468.88
471.777	461.88
471.997	470.88
472.216	478.88
472.435	479.88
472.654	467.88
472.873	446.88
473.092	446.88
473.311	462.88
473.53	454.88
473.749	481.88
473.968	521.88
474.187	564.88
474.406	589.88
474.625	506.88
474.844	463.88
475.063	471.88
475.282	473.88
475.501	475.88
475.72	472.88
475.939	474.88
476.158	458.88
476.377	460.88
476.596	473.88
476.814	501.88
477.033	490.88
477.252	494.88
477.471	485.88
477.69	509.88
477.908	503.88
478.127	512.88
478.346	541.88
478.564	546.88
478.783	557.88
479.002	550.88
479.22	548.88
479.439	553.88
479.658	558.88
479.876	557.88
480.095	568.88
480.313	606.88
480.532	605.88
480.751	576.88
480.969	576.88
481.188	597.88
481.406	595.88
481.624	568.88
481.843	542.88
482.061	540.88
482.28	528.88
482.498	534.88
482.717	530.88
482.935	534.88
483.153	552.88
483.372	528.88
483.59	565.88
483.808	570.88
484.027	545.88
484.245	539.88
484.463	531.88
484.681	557.88
484.9	536.88
485.118	562.88
485.336	548.88
485.554	549.88
485.772	573.88
485.99	555.88
486.209	561.88
486.427	570.88
486.645	558.88
486.863	570.88
487.081	577.88
487.299	581.88
487.517	580.88
487.735	563.88
487.953	584.88
488.171	572.88
488.389	554.88
488.607	576.88
488.825	555.88
489.043	578.88
489.261	569.88
489.479	568.88
489.696	559.88
489.914	569.88
490.132	584.88
490.35	602.88
490.568	599.88
490.786	591.88
491.003	575.88
491.221	606.88
491.439	627.88
491.657	615.88
491.874	633.88
492.092	622.88
492.31	648.88
492.527	637.88
492.745	641.88
492.963	637.88
493.18	666.88
493.398	682.88
493.615	645.88
493.833	653.88
494.05	669.88
494.268	647.88
494.485	673.88
494.703	664.88
494.92	689.88
495.138	654.88
495.355	659.88
495.573	661.88
495.79	649.88
496.008	679.88
496.225	665.88
496.442	671.88
496.66	667.88
496.877	668.88
497.094	678.88
497.312	684.88
497.529	681.88
497.746	732.88
497.963	719.88
498.181	738.88
498.398	795.88
498.615	783.88
498.832	817.88
499.049	838.88
499.267	876.88
499.484	936.88
499.701	951.88
499.918	1023.88
500.135	1117.88
500.352	1142.88
500.569	1212.88
500.786	1207.88
501.003	1167.88
501.22	1113.88
501.437	1022.88
501.654	980.88
