Data from 1973.PennyLincolnUp.Lamp.En5.5.200Scan.071719.P1.Changed Mount._HRD10591_15-44-38-852.txt Node
Date: Thu Jul 18 15:44:38 EDT 2019
User: cochatt
Spectrometer: HR+D1059
Trigger mode: 1
Integration Time (sec): 1.000000E-1
Scans to average: 1
Electric dark correction enabled: true
Nonlinearity correction enabled: false
Boxcar width: 0
XAxis mode: Wavelengths
Number of Pixels in Spectrum: 2048
>>>>>Begin Spectral Data<<<<<
223.165	-7.88
223.4	-7.88
223.635	-7.88
223.869	-24.88
224.104	-13.88
224.338	-11.88
224.573	-12.88
224.808	4.12
225.042	-13.88
225.277	-14.88
225.511	-8.88
225.746	2.12
225.98	10.12
226.215	4.12
226.449	14.12
226.683	23.12
226.918	24.12
227.152	27.12
227.387	32.12
227.621	39.12
227.856	34.12
228.09	39.12
228.324	50.12
228.559	65.12
228.793	72.12
229.027	85.12
229.262	98.12
229.496	106.12
229.73	120.12
229.964	130.12
230.199	123.12
230.433	108.12
230.667	107.12
230.901	123.12
231.136	101.12
231.37	117.12
231.604	111.12
231.838	115.12
232.072	108.12
232.306	123.12
232.541	102.12
232.775	98.12
233.009	122.12
233.243	105.12
233.477	94.12
233.711	113.12
233.945	115.12
234.179	122.12
234.413	125.12
234.647	126.12
234.881	106.12
235.115	116.12
235.349	109.12
235.583	122.12
235.817	125.12
236.051	116.12
236.285	124.12
236.519	130.12
236.753	134.12
236.987	148.12
237.221	166.12
237.455	202.12
237.689	170.12
237.922	131.12
238.156	137.12
238.39	129.12
238.624	130.12
238.858	127.12
239.091	126.12
239.325	127.12
239.559	126.12
239.793	135.12
240.027	129.12
240.26	156.12
240.494	156.12
240.728	128.12
240.961	153.12
241.195	156.12
241.429	136.12
241.662	141.12
241.896	135.12
242.13	133.12
242.363	149.12
242.597	138.12
242.83	132.12
243.064	138.12
243.298	118.12
243.531	130.12
243.765	143.12
243.998	150.12
244.232	149.12
244.465	150.12
244.699	167.12
244.932	155.12
245.166	171.12
245.399	148.12
245.633	164.12
245.866	165.12
246.099	136.12
246.333	178.12
246.566	157.12
246.8	152.12
247.033	162.12
247.266	152.12
247.5	165.12
247.733	181.12
247.966	170.12
248.2	167.12
248.433	188.12
248.666	181.12
248.899	189.12
249.133	180.12
249.366	200.12
249.599	190.12
249.832	183.12
250.066	182.12
250.299	201.12
250.532	192.12
250.765	208.12
250.998	219.12
251.231	218.12
251.465	204.12
251.698	207.12
251.931	200.12
252.164	194.12
252.397	194.12
252.63	208.12
252.863	210.12
253.096	230.12
253.329	219.12
253.562	215.12
253.795	222.12
254.028	212.12
254.261	210.12
254.494	223.12
254.727	238.12
254.96	269.12
255.193	238.12
255.426	242.12
255.659	214.12
255.892	228.12
256.124	226.12
256.357	215.12
256.59	206.12
256.823	200.12
257.056	200.12
257.289	209.12
257.521	214.12
257.754	220.12
257.987	213.12
258.22	219.12
258.452	212.12
258.685	212.12
258.918	214.12
259.151	208.12
259.383	237.12
259.616	222.12
259.849	224.12
260.081	250.12
260.314	262.12
260.547	248.12
260.779	232.12
261.012	230.12
261.244	214.12
261.477	221.12
261.71	223.12
261.942	234.12
262.175	246.12
262.407	224.12
262.64	218.12
262.872	222.12
263.105	226.12
263.337	229.12
263.57	206.12
263.802	213.12
264.035	228.12
264.267	234.12
264.499	209.12
264.732	220.12
264.964	228.12
265.197	231.12
265.429	239.12
265.661	220.12
265.894	231.12
266.126	222.12
266.358	210.12
266.591	227.12
266.823	234.12
267.055	250.12
267.287	233.12
267.52	261.12
267.752	222.12
267.984	235.12
268.216	218.12
268.448	238.12
268.681	254.12
268.913	260.12
269.145	284.12
269.377	290.12
269.609	264.12
269.841	291.12
270.073	272.12
270.306	283.12
270.538	298.12
270.77	309.12
271.002	312.12
271.234	308.12
271.466	311.12
271.698	320.12
271.93	303.12
272.162	324.12
272.394	318.12
272.626	314.12
272.858	290.12
273.09	288.12
273.322	295.12
273.553	284.12
273.785	269.12
274.017	280.12
274.249	280.12
274.481	279.12
274.713	260.12
274.945	292.12
275.176	276.12
275.408	286.12
275.64	282.12
275.872	269.12
276.104	265.12
276.335	291.12
276.567	277.12
276.799	282.12
277.031	307.12
277.262	312.12
277.494	301.12
277.726	304.12
277.957	303.12
278.189	290.12
278.421	296.12
278.652	302.12
278.884	291.12
279.115	287.12
279.347	294.12
279.579	282.12
279.81	277.12
280.042	282.12
280.273	257.12
280.505	301.12
280.736	288.12
280.968	301.12
281.199	289.12
281.431	278.12
281.662	300.12
281.894	288.12
282.125	292.12
282.356	323.12
282.588	295.12
282.819	297.12
283.051	299.12
283.282	286.12
283.513	307.12
283.745	293.12
283.976	299.12
284.207	324.12
284.439	294.12
284.67	303.12
284.901	324.12
285.132	302.12
285.364	308.12
285.595	307.12
285.826	302.12
286.057	318.12
286.288	296.12
286.52	309.12
286.751	314.12
286.982	310.12
287.213	315.12
287.444	313.12
287.675	303.12
287.906	318.12
288.138	320.12
288.369	340.12
288.6	336.12
288.831	320.12
289.062	316.12
289.293	317.12
289.524	335.12
289.755	303.12
289.986	316.12
290.217	306.12
290.448	315.12
290.679	311.12
290.91	326.12
291.141	326.12
291.371	314.12
291.602	312.12
291.833	331.12
292.064	318.12
292.295	314.12
292.526	311.12
292.757	324.12
292.987	304.12
293.218	322.12
293.449	314.12
293.68	315.12
293.91	317.12
294.141	322.12
294.372	332.12
294.603	318.12
294.833	331.12
295.064	318.12
295.295	327.12
295.525	300.12
295.756	329.12
295.987	323.12
296.217	343.12
296.448	360.12
296.679	344.12
296.909	330.12
297.14	326.12
297.37	328.12
297.601	344.12
297.831	315.12
298.062	338.12
298.292	329.12
298.523	338.12
298.753	326.12
298.984	326.12
299.214	327.12
299.445	322.12
299.675	353.12
299.905	330.12
300.136	329.12
300.366	345.12
300.597	353.12
300.827	370.12
301.057	358.12
301.288	363.12
301.518	360.12
301.748	350.12
301.979	346.12
302.209	360.12
302.439	363.12
302.669	362.12
302.9	355.12
303.13	369.12
303.36	372.12
303.59	361.12
303.82	367.12
304.051	366.12
304.281	357.12
304.511	355.12
304.741	343.12
304.971	356.12
305.201	346.12
305.431	382.12
305.661	372.12
305.891	368.12
306.121	373.12
306.352	357.12
306.582	374.12
306.812	350.12
307.042	357.12
307.272	352.12
307.502	344.12
307.731	354.12
307.961	357.12
308.191	358.12
308.421	342.12
308.651	363.12
308.881	375.12
309.111	352.12
309.341	383.12
309.571	365.12
309.8	364.12
310.03	357.12
310.26	382.12
310.49	388.12
310.72	393.12
310.949	384.12
311.179	409.12
311.409	402.12
311.639	384.12
311.868	389.12
312.098	393.12
312.328	392.12
312.557	375.12
312.787	399.12
313.017	415.12
313.246	391.12
313.476	383.12
313.706	395.12
313.935	382.12
314.165	385.12
314.394	408.12
314.624	407.12
314.853	396.12
315.083	402.12
315.312	402.12
315.542	404.12
315.771	393.12
316.001	390.12
316.23	397.12
316.46	398.12
316.689	396.12
316.919	404.12
317.148	381.12
317.377	407.12
317.607	396.12
317.836	397.12
318.065	404.12
318.295	407.12
318.524	397.12
318.753	387.12
318.983	393.12
319.212	397.12
319.441	398.12
319.67	396.12
319.9	387.12
320.129	381.12
320.358	392.12
320.587	410.12
320.816	402.12
321.046	408.12
321.275	406.12
321.504	427.12
321.733	422.12
321.962	405.12
322.191	430.12
322.42	407.12
322.649	423.12
322.878	428.12
323.108	430.12
323.337	445.12
323.566	441.12
323.795	480.12
324.024	499.12
324.253	557.12
324.482	756.12
324.71	1052.12
324.939	1473.12
325.168	1304.12
325.397	740.12
325.626	527.12
325.855	504.12
326.084	483.12
326.313	467.12
326.542	467.12
326.77	499.12
326.999	568.12
327.228	683.12
327.457	992.12
327.686	1164.12
327.914	830.12
328.143	591.12
328.372	532.12
328.6	538.12
328.829	540.12
329.058	512.12
329.287	538.12
329.515	518.12
329.744	479.12
329.972	481.12
330.201	494.12
330.43	524.12
330.658	548.12
330.887	549.12
331.115	547.12
331.344	488.12
331.572	476.12
331.801	502.12
332.03	485.12
332.258	489.12
332.486	495.12
332.715	479.12
332.943	489.12
333.172	496.12
333.4	477.12
333.629	490.12
333.857	531.12
334.085	515.12
334.314	522.12
334.542	538.12
334.771	536.12
334.999	529.12
335.227	516.12
335.455	510.12
335.684	488.12
335.912	486.12
336.14	476.12
336.369	482.12
336.597	487.12
336.825	478.12
337.053	471.12
337.281	478.12
337.51	504.12
337.738	475.12
337.966	464.12
338.194	474.12
338.422	465.12
338.65	471.12
338.878	477.12
339.106	454.12
339.334	455.12
339.562	439.12
339.79	438.12
340.018	469.12
340.246	445.12
340.474	467.12
340.702	448.12
340.93	453.12
341.158	444.12
341.386	450.12
341.614	451.12
341.842	444.12
342.07	446.12
342.298	452.12
342.526	435.12
342.754	430.12
342.981	424.12
343.209	420.12
343.437	452.12
343.665	463.12
343.893	481.12
344.12	503.12
344.348	468.12
344.576	475.12
344.804	437.12
345.031	462.12
345.259	468.12
345.487	434.12
345.714	439.12
345.942	421.12
346.17	440.12
346.397	437.12
346.625	419.12
346.853	427.12
347.08	446.12
347.308	434.12
347.535	422.12
347.763	450.12
347.99	442.12
348.218	439.12
348.445	423.12
348.673	422.12
348.9	404.12
349.128	424.12
349.355	419.12
349.583	423.12
349.81	422.12
350.037	424.12
350.265	404.12
350.492	409.12
350.72	427.12
350.947	433.12
351.174	434.12
351.402	426.12
351.629	420.12
351.856	428.12
352.083	438.12
352.311	435.12
352.538	429.12
352.765	438.12
352.992	432.12
353.22	419.12
353.447	396.12
353.674	414.12
353.901	394.12
354.128	389.12
354.355	404.12
354.583	414.12
354.81	400.12
355.037	400.12
355.264	418.12
355.491	395.12
355.718	415.12
355.945	401.12
356.172	392.12
356.399	413.12
356.626	398.12
356.853	410.12
357.08	402.12
357.307	395.12
357.534	391.12
357.761	409.12
357.988	419.12
358.215	421.12
358.441	423.12
358.668	418.12
358.895	417.12
359.122	412.12
359.349	400.12
359.576	423.12
359.802	448.12
360.029	446.12
360.256	463.12
360.483	430.12
360.709	417.12
360.936	425.12
361.163	410.12
361.39	430.12
361.616	442.12
361.843	440.12
362.07	443.12
362.296	410.12
362.523	412.12
362.749	412.12
362.976	407.12
363.203	412.12
363.429	426.12
363.656	406.12
363.882	414.12
364.109	412.12
364.335	418.12
364.562	423.12
364.788	424.12
365.015	428.12
365.241	432.12
365.468	399.12
365.694	408.12
365.92	421.12
366.147	428.12
366.373	414.12
366.599	404.12
366.826	394.12
367.052	422.12
367.278	436.12
367.505	415.12
367.731	435.12
367.957	416.12
368.184	397.12
368.41	399.12
368.636	427.12
368.862	429.12
369.089	430.12
369.315	414.12
369.541	410.12
369.767	406.12
369.993	411.12
370.219	418.12
370.445	414.12
370.672	399.12
370.898	403.12
371.124	409.12
371.35	415.12
371.576	427.12
371.802	432.12
372.028	417.12
372.254	421.12
372.48	416.12
372.706	430.12
372.932	439.12
373.158	413.12
373.384	418.12
373.61	442.12
373.835	426.12
374.061	414.12
374.287	430.12
374.513	426.12
374.739	437.12
374.965	417.12
375.191	435.12
375.416	458.12
375.642	442.12
375.868	443.12
376.094	425.12
376.319	430.12
376.545	414.12
376.771	419.12
376.997	421.12
377.222	405.12
377.448	416.12
377.674	418.12
377.899	432.12
378.125	429.12
378.35	425.12
378.576	436.12
378.802	418.12
379.027	416.12
379.253	416.12
379.478	417.12
379.704	398.12
379.929	431.12
380.155	425.12
380.38	427.12
380.606	414.12
380.831	429.12
381.057	404.12
381.282	411.12
381.507	416.12
381.733	426.12
381.958	413.12
382.184	427.12
382.409	448.12
382.634	434.12
382.86	426.12
383.085	424.12
383.31	443.12
383.535	439.12
383.761	434.12
383.986	452.12
384.211	444.12
384.436	464.12
384.662	470.12
384.887	469.12
385.112	476.12
385.337	462.12
385.562	482.12
385.787	475.12
386.013	495.12
386.238	470.12
386.463	483.12
386.688	483.12
386.913	472.12
387.138	472.12
387.363	479.12
387.588	478.12
387.813	472.12
388.038	487.12
388.263	482.12
388.488	476.12
388.713	469.12
388.938	486.12
389.163	479.12
389.387	471.12
389.612	479.12
389.837	475.12
390.062	465.12
390.287	470.12
390.512	465.12
390.736	470.12
390.961	456.12
391.186	482.12
391.411	482.12
391.636	487.12
391.86	479.12
392.085	501.12
392.31	474.12
392.534	488.12
392.759	495.12
392.984	485.12
393.208	484.12
393.433	487.12
393.658	498.12
393.882	490.12
394.107	490.12
394.331	480.12
394.556	486.12
394.78	512.12
395.005	496.12
395.229	485.12
395.454	510.12
395.678	510.12
395.903	535.12
396.127	534.12
396.352	517.12
396.576	492.12
396.801	470.12
397.025	475.12
397.249	515.12
397.474	512.12
397.698	522.12
397.922	515.12
398.147	525.12
398.371	540.12
398.595	532.12
398.82	555.12
399.044	570.12
399.268	616.12
399.492	622.12
399.717	727.12
399.941	700.12
400.165	696.12
400.389	711.12
400.613	645.12
400.837	601.12
401.062	564.12
401.286	577.12
401.51	557.12
401.734	556.12
401.958	574.12
402.182	566.12
402.406	566.12
402.63	566.12
402.854	559.12
403.078	579.12
403.302	574.12
403.526	606.12
403.75	604.12
403.974	585.12
404.198	599.12
404.422	591.12
404.645	603.12
404.869	614.12
405.093	624.12
405.317	644.12
405.541	660.12
405.765	640.12
405.988	602.12
406.212	630.12
406.436	630.12
406.66	623.12
406.883	620.12
407.107	661.12
407.331	675.12
407.555	773.12
407.778	756.12
408.002	661.12
408.226	664.12
408.449	661.12
408.673	637.12
408.896	654.12
409.12	675.12
409.344	652.12
409.567	588.12
409.791	604.12
410.014	619.12
410.238	601.12
410.461	619.12
410.685	587.12
410.908	610.12
411.132	636.12
411.355	651.12
411.578	619.12
411.802	583.12
412.025	559.12
412.249	586.12
412.472	604.12
412.695	620.12
412.919	621.12
413.142	586.12
413.365	554.12
413.589	556.12
413.812	553.12
414.035	542.12
414.258	553.12
414.482	543.12
414.705	561.12
414.928	548.12
415.151	562.12
415.374	555.12
415.597	536.12
415.821	535.12
416.044	543.12
416.267	545.12
416.49	554.12
416.713	520.12
416.936	529.12
417.159	546.12
417.382	554.12
417.605	548.12
417.828	534.12
418.051	574.12
418.274	551.12
418.497	534.12
418.72	548.12
418.943	551.12
419.166	568.12
419.389	587.12
419.611	609.12
419.834	588.12
420.057	601.12
420.28	567.12
420.503	582.12
420.726	576.12
420.948	579.12
421.171	587.12
421.394	619.12
421.617	575.12
421.839	566.12
422.062	568.12
422.285	581.12
422.507	636.12
422.73	660.12
422.953	669.12
423.175	605.12
423.398	592.12
423.621	572.12
423.843	607.12
424.066	610.12
424.288	605.12
424.511	602.12
424.733	638.12
424.956	713.12
425.178	716.12
425.401	671.12
425.623	712.12
425.846	605.12
426.068	594.12
426.291	553.12
426.513	563.12
426.735	604.12
426.958	615.12
427.18	665.12
427.402	802.12
427.625	836.12
427.847	726.12
428.069	635.12
428.292	586.12
428.514	560.12
428.736	554.12
428.958	540.12
429.181	529.12
429.403	535.12
429.625	527.12
429.847	566.12
430.069	640.12
430.292	600.12
430.514	549.12
430.736	536.12
430.958	526.12
431.18	529.12
431.402	540.12
431.624	510.12
431.846	524.12
432.068	519.12
432.29	523.12
432.512	522.12
432.734	534.12
432.956	522.12
433.178	523.12
433.4	533.12
433.622	518.12
433.844	528.12
434.066	526.12
434.287	524.12
434.509	523.12
434.731	514.12
434.953	578.12
435.175	543.12
435.397	585.12
435.618	580.12
435.84	605.12
436.062	669.12
436.284	727.12
436.505	601.12
436.727	560.12
436.949	551.12
437.17	544.12
437.392	538.12
437.614	554.12
437.835	571.12
438.057	634.12
438.278	731.12
438.5	719.12
438.721	774.12
438.943	749.12
439.165	605.12
439.386	582.12
439.608	563.12
439.829	586.12
440.05	562.12
440.272	621.12
440.493	606.12
440.715	540.12
440.936	549.12
441.158	554.12
441.379	539.12
441.6	582.12
441.822	589.12
442.043	617.12
442.264	695.12
442.486	725.12
442.707	606.12
442.928	596.12
443.149	586.12
443.371	606.12
443.592	640.12
443.813	707.12
444.034	767.12
444.255	680.12
444.476	636.12
444.698	615.12
444.919	638.12
445.14	736.12
445.361	646.12
445.582	654.12
445.803	662.12
446.024	731.12
446.245	738.12
446.466	680.12
446.687	597.12
446.908	560.12
447.129	538.12
447.35	511.12
447.571	533.12
447.792	513.12
448.013	520.12
448.234	544.12
448.455	602.12
448.675	667.12
448.896	764.12
449.117	663.12
449.338	607.12
449.559	723.12
449.779	789.12
450	628.12
450.221	550.12
450.442	505.12
450.662	502.12
450.883	511.12
451.104	520.12
451.324	494.12
451.545	484.12
451.766	494.12
451.986	474.12
452.207	479.12
452.428	454.12
452.648	478.12
452.869	460.12
453.089	470.12
453.31	490.12
453.53	466.12
453.751	467.12
453.971	481.12
454.192	478.12
454.412	466.12
454.633	487.12
454.853	457.12
455.073	484.12
455.294	469.12
455.514	547.12
455.734	518.12
455.955	478.12
456.175	458.12
456.395	467.12
456.616	434.12
456.836	455.12
457.056	452.12
457.276	436.12
457.497	455.12
457.717	456.12
457.937	447.12
458.157	461.12
458.377	464.12
458.598	482.12
458.818	527.12
459.038	568.12
459.258	606.12
459.478	558.12
459.698	514.12
459.918	510.12
460.138	522.12
460.358	517.12
460.578	546.12
460.798	549.12
461.018	564.12
461.238	562.12
461.458	574.12
461.678	542.12
461.898	552.12
462.118	541.12
462.338	578.12
462.558	580.12
462.777	590.12
462.997	627.12
463.217	634.12
463.437	654.12
463.657	615.12
463.876	607.12
464.096	599.12
464.316	612.12
464.536	586.12
464.755	580.12
464.975	569.12
465.195	595.12
465.414	622.12
465.634	551.12
465.854	547.12
466.073	543.12
466.293	530.12
466.512	504.12
466.732	501.12
466.951	495.12
467.171	498.12
467.391	510.12
467.61	485.12
467.829	478.12
468.049	506.12
468.268	495.12
468.488	498.12
468.707	482.12
468.927	463.12
469.146	470.12
469.365	490.12
469.585	496.12
469.804	515.12
470.023	487.12
470.243	512.12
470.462	499.12
470.681	522.12
470.901	511.12
471.12	498.12
471.339	502.12
471.558	492.12
471.777	488.12
471.997	476.12
472.216	483.12
472.435	482.12
472.654	496.12
472.873	476.12
473.092	518.12
473.311	478.12
473.53	485.12
473.749	500.12
473.968	516.12
474.187	599.12
474.406	617.12
474.625	561.12
474.844	495.12
475.063	500.12
475.282	486.12
475.501	508.12
475.72	490.12
475.939	511.12
476.158	498.12
476.377	488.12
476.596	494.12
476.814	495.12
477.033	537.12
477.252	518.12
477.471	527.12
477.69	539.12
477.908	527.12
478.127	554.12
478.346	530.12
478.564	551.12
478.783	574.12
479.002	570.12
479.22	563.12
479.439	570.12
479.658	571.12
479.876	586.12
480.095	605.12
480.313	626.12
480.532	624.12
480.751	633.12
480.969	623.12
481.188	660.12
481.406	644.12
481.624	595.12
481.843	586.12
482.061	564.12
482.28	581.12
482.498	566.12
482.717	572.12
482.935	559.12
483.153	556.12
483.372	563.12
483.59	586.12
483.808	578.12
484.027	557.12
484.245	558.12
484.463	580.12
484.681	583.12
484.9	581.12
485.118	586.12
485.336	587.12
485.554	582.12
485.772	581.12
485.99	585.12
486.209	608.12
486.427	608.12
486.645	605.12
486.863	620.12
487.081	611.12
487.299	579.12
487.517	604.12
487.735	598.12
487.953	613.12
488.171	596.12
488.389	612.12
488.607	598.12
488.825	615.12
489.043	612.12
489.261	611.12
489.479	623.12
489.696	611.12
489.914	604.12
490.132	656.12
490.35	639.12
490.568	627.12
490.786	640.12
491.003	640.12
491.221	684.12
491.439	686.12
491.657	658.12
491.874	678.12
492.092	704.12
492.31	674.12
492.527	670.12
492.745	682.12
492.963	668.12
493.18	691.12
493.398	709.12
493.615	715.12
493.833	682.12
494.05	686.12
494.268	699.12
494.485	698.12
494.703	702.12
494.92	706.12
495.138	682.12
495.355	703.12
495.573	676.12
495.79	705.12
496.008	717.12
496.225	677.12
496.442	702.12
496.66	702.12
496.877	700.12
497.094	754.12
497.312	736.12
497.529	742.12
497.746	746.12
497.963	765.12
498.181	765.12
498.398	798.12
498.615	823.12
498.832	857.12
499.049	903.12
499.267	930.12
499.484	954.12
499.701	1034.12
499.918	1068.12
500.135	1146.12
500.352	1239.12
500.569	1288.12
500.786	1261.12
501.003	1247.12
501.22	1133.12
501.437	1075.12
501.654	1050.12
