Data from 1973.PennyLincolnUp.Lamp.En5.5.200Scan.071719.P1.Changed Mount._HRD10591_15-44-09-853.txt Node
Date: Thu Jul 18 15:44:09 EDT 2019
User: cochatt
Spectrometer: HR+D1059
Trigger mode: 1
Integration Time (sec): 1.000000E-1
Scans to average: 1
Electric dark correction enabled: true
Nonlinearity correction enabled: false
Boxcar width: 0
XAxis mode: Wavelengths
Number of Pixels in Spectrum: 2048
>>>>>Begin Spectral Data<<<<<
223.165	-15.56
223.4	-15.56
223.635	-15.56
223.869	-11.56
224.104	-10.56
224.338	-16.56
224.573	-18.56
224.808	-12.56
225.042	-10.56
225.277	-3.56
225.511	6.44
225.746	-3.56
225.98	-0.56
226.215	12.44
226.449	16.44
226.683	24.44
226.918	18.44
227.152	25.44
227.387	24.44
227.621	18.44
227.856	23.44
228.09	41.44
228.324	55.44
228.559	57.44
228.793	76.44
229.027	94.44
229.262	107.44
229.496	110.44
229.73	124.44
229.964	129.44
230.199	125.44
230.433	106.44
230.667	119.44
230.901	117.44
231.136	114.44
231.37	107.44
231.604	121.44
231.838	114.44
232.072	105.44
232.306	101.44
232.541	111.44
232.775	111.44
233.009	116.44
233.243	131.44
233.477	124.44
233.711	112.44
233.945	119.44
234.179	113.44
234.413	111.44
234.647	108.44
234.881	121.44
235.115	115.44
235.349	101.44
235.583	121.44
235.817	116.44
236.051	125.44
236.285	125.44
236.519	131.44
236.753	113.44
236.987	147.44
237.221	167.44
237.455	196.44
237.689	171.44
237.922	147.44
238.156	118.44
238.39	125.44
238.624	131.44
238.858	134.44
239.091	123.44
239.325	127.44
239.559	130.44
239.793	135.44
240.027	127.44
240.26	137.44
240.494	158.44
240.728	148.44
240.961	149.44
241.195	140.44
241.429	129.44
241.662	133.44
241.896	144.44
242.13	127.44
242.363	137.44
242.597	141.44
242.83	135.44
243.064	143.44
243.298	131.44
243.531	156.44
243.765	129.44
243.998	130.44
244.232	139.44
244.465	142.44
244.699	155.44
244.932	139.44
245.166	143.44
245.399	146.44
245.633	164.44
245.866	140.44
246.099	141.44
246.333	160.44
246.566	153.44
246.8	144.44
247.033	164.44
247.266	161.44
247.5	169.44
247.733	171.44
247.966	165.44
248.2	169.44
248.433	162.44
248.666	177.44
248.899	183.44
249.133	179.44
249.366	195.44
249.599	197.44
249.832	159.44
250.066	187.44
250.299	189.44
250.532	180.44
250.765	189.44
250.998	207.44
251.231	216.44
251.465	188.44
251.698	193.44
251.931	191.44
252.164	201.44
252.397	174.44
252.63	198.44
252.863	204.44
253.096	209.44
253.329	213.44
253.562	215.44
253.795	196.44
254.028	217.44
254.261	227.44
254.494	234.44
254.727	240.44
254.96	245.44
255.193	256.44
255.426	238.44
255.659	227.44
255.892	228.44
256.124	223.44
256.357	233.44
256.59	220.44
256.823	214.44
257.056	202.44
257.289	186.44
257.521	223.44
257.754	201.44
257.987	195.44
258.22	204.44
258.452	195.44
258.685	197.44
258.918	222.44
259.151	219.44
259.383	205.44
259.616	208.44
259.849	221.44
260.081	219.44
260.314	251.44
260.547	262.44
260.779	252.44
261.012	229.44
261.244	233.44
261.477	247.44
261.71	223.44
261.942	228.44
262.175	239.44
262.407	235.44
262.64	215.44
262.872	215.44
263.105	215.44
263.337	219.44
263.57	205.44
263.802	222.44
264.035	214.44
264.267	228.44
264.499	216.44
264.732	219.44
264.964	222.44
265.197	228.44
265.429	215.44
265.661	221.44
265.894	207.44
266.126	239.44
266.358	236.44
266.591	233.44
266.823	222.44
267.055	238.44
267.287	239.44
267.52	229.44
267.752	243.44
267.984	244.44
268.216	238.44
268.448	230.44
268.681	238.44
268.913	248.44
269.145	276.44
269.377	287.44
269.609	268.44
269.841	273.44
270.073	272.44
270.306	280.44
270.538	294.44
270.77	320.44
271.002	295.44
271.234	279.44
271.466	297.44
271.698	315.44
271.93	319.44
272.162	312.44
272.394	305.44
272.626	317.44
272.858	281.44
273.09	281.44
273.322	286.44
273.553	275.44
273.785	271.44
274.017	288.44
274.249	264.44
274.481	271.44
274.713	287.44
274.945	283.44
275.176	272.44
275.408	271.44
275.64	276.44
275.872	284.44
276.104	280.44
276.335	286.44
276.567	288.44
276.799	295.44
277.031	307.44
277.262	336.44
277.494	317.44
277.726	304.44
277.957	282.44
278.189	291.44
278.421	287.44
278.652	271.44
278.884	265.44
279.115	287.44
279.347	263.44
279.579	280.44
279.81	273.44
280.042	287.44
280.273	286.44
280.505	293.44
280.736	279.44
280.968	267.44
281.199	301.44
281.431	296.44
281.662	298.44
281.894	282.44
282.125	280.44
282.356	304.44
282.588	321.44
282.819	302.44
283.051	300.44
283.282	294.44
283.513	317.44
283.745	288.44
283.976	288.44
284.207	304.44
284.439	308.44
284.67	303.44
284.901	301.44
285.132	307.44
285.364	293.44
285.595	297.44
285.826	302.44
286.057	305.44
286.288	313.44
286.52	305.44
286.751	320.44
286.982	294.44
287.213	304.44
287.444	311.44
287.675	298.44
287.906	318.44
288.138	320.44
288.369	326.44
288.6	332.44
288.831	320.44
289.062	319.44
289.293	325.44
289.524	311.44
289.755	313.44
289.986	298.44
290.217	302.44
290.448	308.44
290.679	327.44
290.91	325.44
291.141	310.44
291.371	315.44
291.602	324.44
291.833	311.44
292.064	315.44
292.295	323.44
292.526	316.44
292.757	338.44
292.987	296.44
293.218	311.44
293.449	309.44
293.68	340.44
293.91	316.44
294.141	320.44
294.372	312.44
294.603	328.44
294.833	329.44
295.064	326.44
295.295	331.44
295.525	321.44
295.756	329.44
295.987	319.44
296.217	324.44
296.448	342.44
296.679	337.44
296.909	321.44
297.14	335.44
297.37	341.44
297.601	331.44
297.831	333.44
298.062	310.44
298.292	336.44
298.523	326.44
298.753	344.44
298.984	334.44
299.214	337.44
299.445	347.44
299.675	334.44
299.905	327.44
300.136	332.44
300.366	347.44
300.597	322.44
300.827	335.44
301.057	363.44
301.288	359.44
301.518	369.44
301.748	356.44
301.979	348.44
302.209	350.44
302.439	355.44
302.669	346.44
302.9	358.44
303.13	355.44
303.36	373.44
303.59	347.44
303.82	369.44
304.051	362.44
304.281	348.44
304.511	352.44
304.741	355.44
304.971	353.44
305.201	342.44
305.431	353.44
305.661	359.44
305.891	337.44
306.121	361.44
306.352	360.44
306.582	348.44
306.812	360.44
307.042	358.44
307.272	362.44
307.502	374.44
307.731	344.44
307.961	342.44
308.191	332.44
308.421	342.44
308.651	375.44
308.881	364.44
309.111	369.44
309.341	384.44
309.571	377.44
309.8	381.44
310.03	384.44
310.26	377.44
310.49	402.44
310.72	388.44
310.949	379.44
311.179	381.44
311.409	367.44
311.639	380.44
311.868	361.44
312.098	381.44
312.328	395.44
312.557	385.44
312.787	392.44
313.017	424.44
313.246	388.44
313.476	388.44
313.706	380.44
313.935	376.44
314.165	396.44
314.394	392.44
314.624	412.44
314.853	382.44
315.083	387.44
315.312	385.44
315.542	365.44
315.771	387.44
316.001	368.44
316.23	375.44
316.46	387.44
316.689	383.44
316.919	390.44
317.148	397.44
317.377	396.44
317.607	380.44
317.836	399.44
318.065	385.44
318.295	407.44
318.524	405.44
318.753	409.44
318.983	374.44
319.212	405.44
319.441	408.44
319.67	409.44
319.9	391.44
320.129	397.44
320.358	387.44
320.587	399.44
320.816	400.44
321.046	399.44
321.275	384.44
321.504	387.44
321.733	419.44
321.962	415.44
322.191	440.44
322.42	409.44
322.649	430.44
322.878	437.44
323.108	426.44
323.337	450.44
323.566	451.44
323.795	456.44
324.024	481.44
324.253	573.44
324.482	712.44
324.71	1060.44
324.939	1476.44
325.168	1269.44
325.397	731.44
325.626	532.44
325.855	475.44
326.084	477.44
326.313	460.44
326.542	456.44
326.77	485.44
326.999	538.44
327.228	685.44
327.457	958.44
327.686	1137.44
327.914	784.44
328.143	587.44
328.372	540.44
328.6	506.44
328.829	488.44
329.058	503.44
329.287	523.44
329.515	499.44
329.744	468.44
329.972	481.44
330.201	499.44
330.43	496.44
330.658	509.44
330.887	537.44
331.115	534.44
331.344	491.44
331.572	489.44
331.801	491.44
332.03	485.44
332.258	467.44
332.486	478.44
332.715	481.44
332.943	479.44
333.172	485.44
333.4	494.44
333.629	521.44
333.857	510.44
334.085	534.44
334.314	546.44
334.542	531.44
334.771	541.44
334.999	484.44
335.227	486.44
335.455	497.44
335.684	509.44
335.912	479.44
336.14	462.44
336.369	466.44
336.597	471.44
336.825	482.44
337.053	457.44
337.281	471.44
337.51	435.44
337.738	459.44
337.966	465.44
338.194	465.44
338.422	459.44
338.65	460.44
338.878	459.44
339.106	447.44
339.334	473.44
339.562	440.44
339.79	448.44
340.018	459.44
340.246	444.44
340.474	430.44
340.702	438.44
340.93	455.44
341.158	436.44
341.386	433.44
341.614	435.44
341.842	445.44
342.07	416.44
342.298	428.44
342.526	417.44
342.754	408.44
342.981	416.44
343.209	447.44
343.437	454.44
343.665	447.44
343.893	470.44
344.12	464.44
344.348	478.44
344.576	479.44
344.804	476.44
345.031	450.44
345.259	451.44
345.487	452.44
345.714	429.44
345.942	435.44
346.17	441.44
346.397	436.44
346.625	438.44
346.853	425.44
347.08	412.44
347.308	407.44
347.535	431.44
347.763	444.44
347.99	411.44
348.218	431.44
348.445	415.44
348.673	450.44
348.9	417.44
349.128	429.44
349.355	410.44
349.583	428.44
349.81	414.44
350.037	419.44
350.265	419.44
350.492	409.44
350.72	415.44
350.947	410.44
351.174	416.44
351.402	405.44
351.629	417.44
351.856	427.44
352.083	418.44
352.311	439.44
352.538	427.44
352.765	429.44
352.992	414.44
353.22	431.44
353.447	408.44
353.674	426.44
353.901	407.44
354.128	413.44
354.355	425.44
354.583	400.44
354.81	399.44
355.037	403.44
355.264	413.44
355.491	418.44
355.718	402.44
355.945	398.44
356.172	412.44
356.399	412.44
356.626	399.44
356.853	416.44
357.08	401.44
357.307	406.44
357.534	399.44
357.761	389.44
357.988	414.44
358.215	385.44
358.441	401.44
358.668	401.44
358.895	425.44
359.122	419.44
359.349	421.44
359.576	420.44
359.802	436.44
360.029	447.44
360.256	449.44
360.483	434.44
360.709	420.44
360.936	432.44
361.163	424.44
361.39	435.44
361.616	419.44
361.843	412.44
362.07	417.44
362.296	431.44
362.523	396.44
362.749	400.44
362.976	412.44
363.203	410.44
363.429	400.44
363.656	426.44
363.882	409.44
364.109	403.44
364.335	401.44
364.562	415.44
364.788	392.44
365.015	409.44
365.241	406.44
365.468	416.44
365.694	409.44
365.92	407.44
366.147	417.44
366.373	394.44
366.599	402.44
366.826	408.44
367.052	404.44
367.278	412.44
367.505	415.44
367.731	401.44
367.957	402.44
368.184	401.44
368.41	423.44
368.636	430.44
368.862	435.44
369.089	401.44
369.315	431.44
369.541	427.44
369.767	420.44
369.993	413.44
370.219	397.44
370.445	411.44
370.672	399.44
370.898	421.44
371.124	415.44
371.35	427.44
371.576	423.44
371.802	422.44
372.028	422.44
372.254	412.44
372.48	437.44
372.706	433.44
372.932	433.44
373.158	426.44
373.384	439.44
373.61	411.44
373.835	415.44
374.061	421.44
374.287	411.44
374.513	456.44
374.739	427.44
374.965	412.44
375.191	430.44
375.416	421.44
375.642	428.44
375.868	446.44
376.094	421.44
376.319	437.44
376.545	427.44
376.771	407.44
376.997	407.44
377.222	430.44
377.448	433.44
377.674	412.44
377.899	429.44
378.125	410.44
378.35	428.44
378.576	416.44
378.802	415.44
379.027	415.44
379.253	429.44
379.478	406.44
379.704	402.44
379.929	416.44
380.155	416.44
380.38	420.44
380.606	416.44
380.831	405.44
381.057	438.44
381.282	418.44
381.507	438.44
381.733	425.44
381.958	412.44
382.184	427.44
382.409	438.44
382.634	435.44
382.86	429.44
383.085	431.44
383.31	428.44
383.535	445.44
383.761	448.44
383.986	445.44
384.211	464.44
384.436	453.44
384.662	456.44
384.887	454.44
385.112	443.44
385.337	475.44
385.562	450.44
385.787	475.44
386.013	476.44
386.238	472.44
386.463	471.44
386.688	488.44
386.913	461.44
387.138	470.44
387.363	485.44
387.588	487.44
387.813	449.44
388.038	493.44
388.263	480.44
388.488	486.44
388.713	452.44
388.938	475.44
389.163	481.44
389.387	486.44
389.612	461.44
389.837	462.44
390.062	487.44
390.287	448.44
390.512	457.44
390.736	450.44
390.961	458.44
391.186	477.44
391.411	463.44
391.636	505.44
391.86	525.44
392.085	499.44
392.31	505.44
392.534	503.44
392.759	491.44
392.984	476.44
393.208	488.44
393.433	485.44
393.658	477.44
393.882	483.44
394.107	461.44
394.331	492.44
394.556	484.44
394.78	477.44
395.005	489.44
395.229	491.44
395.454	483.44
395.678	518.44
395.903	507.44
396.127	513.44
396.352	549.44
396.576	499.44
396.801	494.44
397.025	509.44
397.249	502.44
397.474	503.44
397.698	515.44
397.922	524.44
398.147	532.44
398.371	545.44
398.595	557.44
398.82	589.44
399.044	587.44
399.268	594.44
399.492	645.44
399.717	683.44
399.941	735.44
400.165	721.44
400.389	689.44
400.613	621.44
400.837	604.44
401.062	570.44
401.286	561.44
401.51	551.44
401.734	548.44
401.958	547.44
402.182	572.44
402.406	555.44
402.63	542.44
402.854	554.44
403.078	560.44
403.302	589.44
403.526	603.44
403.75	575.44
403.974	582.44
404.198	576.44
404.422	599.44
404.645	601.44
404.869	593.44
405.093	597.44
405.317	671.44
405.541	675.44
405.765	615.44
405.988	609.44
406.212	591.44
406.436	621.44
406.66	627.44
406.883	628.44
407.107	669.44
407.331	702.44
407.555	775.44
407.778	741.44
408.002	683.44
408.226	643.44
408.449	635.44
408.673	600.44
408.896	629.44
409.12	671.44
409.344	637.44
409.567	618.44
409.791	593.44
410.014	606.44
410.238	588.44
410.461	584.44
410.685	586.44
410.908	580.44
411.132	626.44
411.355	620.44
411.578	621.44
411.802	603.44
412.025	570.44
412.249	599.44
412.472	595.44
412.695	615.44
412.919	623.44
413.142	575.44
413.365	582.44
413.589	547.44
413.812	571.44
414.035	537.44
414.258	533.44
414.482	560.44
414.705	551.44
414.928	544.44
415.151	530.44
415.374	522.44
415.597	538.44
415.821	544.44
416.044	541.44
416.267	535.44
416.49	533.44
416.713	547.44
416.936	544.44
417.159	535.44
417.382	537.44
417.605	551.44
417.828	530.44
418.051	561.44
418.274	548.44
418.497	541.44
418.72	570.44
418.943	539.44
419.166	575.44
419.389	604.44
419.611	592.44
419.834	579.44
420.057	555.44
420.28	574.44
420.503	557.44
420.726	559.44
420.948	567.44
421.171	613.44
421.394	629.44
421.617	589.44
421.839	563.44
422.062	545.44
422.285	570.44
422.507	605.44
422.73	679.44
422.953	665.44
423.175	622.44
423.398	566.44
423.621	587.44
423.843	582.44
424.066	598.44
424.288	575.44
424.511	614.44
424.733	637.44
424.956	698.44
425.178	687.44
425.401	681.44
425.623	710.44
425.846	610.44
426.068	593.44
426.291	583.44
426.513	551.44
426.735	578.44
426.958	603.44
427.18	655.44
427.402	801.44
427.625	827.44
427.847	737.44
428.069	647.44
428.292	591.44
428.514	553.44
428.736	535.44
428.958	527.44
429.181	523.44
429.403	526.44
429.625	550.44
429.847	542.44
430.069	595.44
430.292	598.44
430.514	550.44
430.736	528.44
430.958	516.44
431.18	511.44
431.402	529.44
431.624	473.44
431.846	535.44
432.068	513.44
432.29	523.44
432.512	499.44
432.734	511.44
432.956	526.44
433.178	520.44
433.4	528.44
433.622	499.44
433.844	515.44
434.066	513.44
434.287	538.44
434.509	507.44
434.731	533.44
434.953	544.44
435.175	558.44
435.397	593.44
435.618	569.44
435.84	605.44
436.062	678.44
436.284	716.44
436.505	614.44
436.727	565.44
436.949	555.44
437.17	523.44
437.392	533.44
437.614	560.44
437.835	560.44
438.057	622.44
438.278	703.44
438.5	691.44
438.721	789.44
438.943	753.44
439.165	598.44
439.386	552.44
439.608	549.44
439.829	553.44
440.05	577.44
440.272	624.44
440.493	565.44
440.715	539.44
440.936	552.44
441.158	539.44
441.379	557.44
441.6	571.44
441.822	560.44
442.043	595.44
442.264	678.44
442.486	699.44
442.707	627.44
442.928	583.44
443.149	593.44
443.371	623.44
443.592	635.44
443.813	714.44
444.034	777.44
444.255	667.44
444.476	609.44
444.698	614.44
444.919	629.44
445.14	699.44
445.361	635.44
445.582	629.44
445.803	639.44
446.024	707.44
446.245	729.44
446.466	669.44
446.687	575.44
446.908	559.44
447.129	529.44
447.35	526.44
447.571	528.44
447.792	529.44
448.013	496.44
448.234	494.44
448.455	540.44
448.675	649.44
448.896	752.44
449.117	654.44
449.338	608.44
449.559	687.44
449.779	791.44
450	629.44
450.221	572.44
450.442	513.44
450.662	508.44
450.883	495.44
451.104	515.44
451.324	487.44
451.545	488.44
451.766	456.44
451.986	462.44
452.207	445.44
452.428	460.44
452.648	465.44
452.869	466.44
453.089	507.44
453.31	486.44
453.53	465.44
453.751	469.44
453.971	449.44
454.192	465.44
454.412	463.44
454.633	441.44
454.853	453.44
455.073	446.44
455.294	483.44
455.514	515.44
455.734	539.44
455.955	468.44
456.175	449.44
456.395	456.44
456.616	447.44
456.836	446.44
457.056	425.44
457.276	426.44
457.497	451.44
457.717	454.44
457.937	438.44
458.157	445.44
458.377	458.44
458.598	489.44
458.818	507.44
459.038	571.44
459.258	585.44
459.478	543.44
459.698	512.44
459.918	506.44
460.138	537.44
460.358	551.44
460.578	524.44
460.798	549.44
461.018	561.44
461.238	533.44
461.458	521.44
461.678	524.44
461.898	553.44
462.118	545.44
462.338	557.44
462.558	607.44
462.777	567.44
462.997	615.44
463.217	619.44
463.437	633.44
463.657	607.44
463.876	581.44
464.096	582.44
464.316	581.44
464.536	596.44
464.755	593.44
464.975	569.44
465.195	586.44
465.414	607.44
465.634	560.44
465.854	533.44
466.073	519.44
466.293	515.44
466.512	499.44
466.732	470.44
466.951	496.44
467.171	481.44
467.391	489.44
467.61	503.44
467.829	512.44
468.049	468.44
468.268	474.44
468.488	484.44
468.707	477.44
468.927	472.44
469.146	467.44
469.365	484.44
469.585	487.44
469.804	508.44
470.023	487.44
470.243	487.44
470.462	497.44
470.681	525.44
470.901	517.44
471.12	499.44
471.339	479.44
471.558	520.44
471.777	515.44
471.997	489.44
472.216	499.44
472.435	483.44
472.654	497.44
472.873	499.44
473.092	482.44
473.311	487.44
473.53	488.44
473.749	487.44
473.968	496.44
474.187	613.44
474.406	623.44
474.625	519.44
474.844	500.44
475.063	489.44
475.282	488.44
475.501	486.44
475.72	484.44
475.939	498.44
476.158	505.44
476.377	504.44
476.596	489.44
476.814	507.44
477.033	511.44
477.252	540.44
477.471	507.44
477.69	495.44
477.908	550.44
478.127	540.44
478.346	529.44
478.564	575.44
478.783	560.44
479.002	567.44
479.22	564.44
479.439	607.44
479.658	586.44
479.876	583.44
480.095	586.44
480.313	613.44
480.532	606.44
480.751	641.44
480.969	627.44
481.188	629.44
481.406	660.44
481.624	575.44
481.843	583.44
482.061	559.44
482.28	585.44
482.498	568.44
482.717	587.44
482.935	567.44
483.153	557.44
483.372	566.44
483.59	561.44
483.808	555.44
484.027	581.44
484.245	576.44
484.463	545.44
484.681	585.44
484.9	583.44
485.118	563.44
485.336	560.44
485.554	580.44
485.772	607.44
485.99	599.44
486.209	577.44
486.427	600.44
486.645	622.44
486.863	605.44
487.081	571.44
487.299	593.44
487.517	565.44
487.735	607.44
487.953	600.44
488.171	616.44
488.389	614.44
488.607	575.44
488.825	575.44
489.043	617.44
489.261	633.44
489.479	595.44
489.696	629.44
489.914	615.44
490.132	617.44
490.35	640.44
490.568	613.44
490.786	631.44
491.003	658.44
491.221	659.44
491.439	673.44
491.657	684.44
491.874	700.44
492.092	644.44
492.31	679.44
492.527	677.44
492.745	680.44
492.963	677.44
493.18	722.44
493.398	707.44
493.615	704.44
493.833	686.44
494.05	704.44
494.268	708.44
494.485	708.44
494.703	694.44
494.92	709.44
495.138	709.44
495.355	702.44
495.573	723.44
495.79	708.44
496.008	716.44
496.225	712.44
496.442	677.44
496.66	698.44
496.877	721.44
497.094	726.44
497.312	711.44
497.529	744.44
497.746	757.44
497.963	756.44
498.181	772.44
498.398	801.44
498.615	812.44
498.832	862.44
499.049	885.44
499.267	915.44
499.484	955.44
499.701	1036.44
499.918	1060.44
500.135	1129.44
500.352	1239.44
500.569	1216.44
500.786	1271.44
501.003	1199.44
501.22	1159.44
501.437	1114.44
501.654	1027.44
