Data from 1973.PennyLincolnUp.Lamp.En5.5.200Scan.071719.P1.Changed Mount._HRD10591_15-45-21-852.txt Node
Date: Thu Jul 18 15:45:21 EDT 2019
User: cochatt
Spectrometer: HR+D1059
Trigger mode: 1
Integration Time (sec): 1.000000E-1
Scans to average: 1
Electric dark correction enabled: true
Nonlinearity correction enabled: false
Boxcar width: 0
XAxis mode: Wavelengths
Number of Pixels in Spectrum: 2048
>>>>>Begin Spectral Data<<<<<
223.165	-10.75
223.4	-10.75
223.635	-10.75
223.869	-27.75
224.104	-14.75
224.338	-1.75
224.573	-12.75
224.808	-16.75
225.042	-15.75
225.277	-0.75
225.511	-9.75
225.746	10.25
225.98	1.25
226.215	3.25
226.449	28.25
226.683	29.25
226.918	23.25
227.152	15.25
227.387	22.25
227.621	41.25
227.856	41.25
228.09	43.25
228.324	57.25
228.559	57.25
228.793	57.25
229.027	78.25
229.262	111.25
229.496	116.25
229.73	117.25
229.964	136.25
230.199	117.25
230.433	123.25
230.667	134.25
230.901	110.25
231.136	107.25
231.37	121.25
231.604	118.25
231.838	99.25
232.072	113.25
232.306	114.25
232.541	131.25
232.775	120.25
233.009	126.25
233.243	129.25
233.477	110.25
233.711	121.25
233.945	106.25
234.179	120.25
234.413	128.25
234.647	106.25
234.881	125.25
235.115	115.25
235.349	135.25
235.583	125.25
235.817	135.25
236.051	122.25
236.285	137.25
236.519	106.25
236.753	133.25
236.987	152.25
237.221	167.25
237.455	213.25
237.689	187.25
237.922	135.25
238.156	149.25
238.39	127.25
238.624	137.25
238.858	133.25
239.091	120.25
239.325	127.25
239.559	129.25
239.793	123.25
240.027	142.25
240.26	146.25
240.494	145.25
240.728	154.25
240.961	150.25
241.195	151.25
241.429	148.25
241.662	143.25
241.896	131.25
242.13	133.25
242.363	149.25
242.597	142.25
242.83	146.25
243.064	149.25
243.298	141.25
243.531	141.25
243.765	147.25
243.998	148.25
244.232	150.25
244.465	146.25
244.699	151.25
244.932	172.25
245.166	157.25
245.399	155.25
245.633	149.25
245.866	162.25
246.099	151.25
246.333	171.25
246.566	166.25
246.8	161.25
247.033	153.25
247.266	153.25
247.5	166.25
247.733	172.25
247.966	179.25
248.2	181.25
248.433	166.25
248.666	178.25
248.899	191.25
249.133	182.25
249.366	216.25
249.599	185.25
249.832	175.25
250.066	185.25
250.299	192.25
250.532	183.25
250.765	199.25
250.998	214.25
251.231	225.25
251.465	207.25
251.698	218.25
251.931	203.25
252.164	181.25
252.397	212.25
252.63	216.25
252.863	201.25
253.096	215.25
253.329	235.25
253.562	236.25
253.795	221.25
254.028	234.25
254.261	223.25
254.494	216.25
254.727	259.25
254.96	261.25
255.193	267.25
255.426	244.25
255.659	227.25
255.892	214.25
256.124	226.25
256.357	251.25
256.59	235.25
256.823	224.25
257.056	227.25
257.289	219.25
257.521	208.25
257.754	220.25
257.987	212.25
258.22	211.25
258.452	216.25
258.685	227.25
258.918	209.25
259.151	226.25
259.383	236.25
259.616	220.25
259.849	215.25
260.081	238.25
260.314	264.25
260.547	260.25
260.779	254.25
261.012	230.25
261.244	234.25
261.477	242.25
261.71	226.25
261.942	232.25
262.175	234.25
262.407	243.25
262.64	210.25
262.872	221.25
263.105	238.25
263.337	222.25
263.57	234.25
263.802	234.25
264.035	227.25
264.267	235.25
264.499	227.25
264.732	221.25
264.964	240.25
265.197	243.25
265.429	220.25
265.661	236.25
265.894	233.25
266.126	243.25
266.358	238.25
266.591	249.25
266.823	265.25
267.055	244.25
267.287	234.25
267.52	241.25
267.752	255.25
267.984	249.25
268.216	241.25
268.448	245.25
268.681	270.25
268.913	256.25
269.145	262.25
269.377	292.25
269.609	292.25
269.841	293.25
270.073	277.25
270.306	302.25
270.538	311.25
270.77	325.25
271.002	312.25
271.234	322.25
271.466	299.25
271.698	316.25
271.93	326.25
272.162	327.25
272.394	339.25
272.626	322.25
272.858	285.25
273.09	300.25
273.322	295.25
273.553	274.25
273.785	297.25
274.017	281.25
274.249	276.25
274.481	270.25
274.713	272.25
274.945	284.25
275.176	312.25
275.408	274.25
275.64	298.25
275.872	293.25
276.104	294.25
276.335	276.25
276.567	300.25
276.799	294.25
277.031	314.25
277.262	343.25
277.494	315.25
277.726	328.25
277.957	315.25
278.189	306.25
278.421	299.25
278.652	293.25
278.884	298.25
279.115	291.25
279.347	296.25
279.579	306.25
279.81	305.25
280.042	291.25
280.273	299.25
280.505	302.25
280.736	292.25
280.968	309.25
281.199	305.25
281.431	303.25
281.662	310.25
281.894	302.25
282.125	281.25
282.356	315.25
282.588	324.25
282.819	326.25
283.051	283.25
283.282	311.25
283.513	308.25
283.745	319.25
283.976	314.25
284.207	330.25
284.439	321.25
284.67	319.25
284.901	314.25
285.132	319.25
285.364	317.25
285.595	320.25
285.826	315.25
286.057	303.25
286.288	305.25
286.52	317.25
286.751	322.25
286.982	333.25
287.213	302.25
287.444	317.25
287.675	323.25
287.906	331.25
288.138	338.25
288.369	322.25
288.6	348.25
288.831	335.25
289.062	342.25
289.293	347.25
289.524	317.25
289.755	345.25
289.986	349.25
290.217	332.25
290.448	325.25
290.679	328.25
290.91	363.25
291.141	334.25
291.371	345.25
291.602	335.25
291.833	330.25
292.064	348.25
292.295	332.25
292.526	323.25
292.757	332.25
292.987	337.25
293.218	331.25
293.449	327.25
293.68	335.25
293.91	332.25
294.141	325.25
294.372	337.25
294.603	333.25
294.833	335.25
295.064	337.25
295.295	341.25
295.525	349.25
295.756	341.25
295.987	343.25
296.217	348.25
296.448	361.25
296.679	335.25
296.909	333.25
297.14	342.25
297.37	350.25
297.601	356.25
297.831	349.25
298.062	351.25
298.292	335.25
298.523	367.25
298.753	342.25
298.984	347.25
299.214	346.25
299.445	361.25
299.675	363.25
299.905	355.25
300.136	359.25
300.366	339.25
300.597	348.25
300.827	351.25
301.057	373.25
301.288	375.25
301.518	380.25
301.748	367.25
301.979	377.25
302.209	366.25
302.439	357.25
302.669	367.25
302.9	370.25
303.13	358.25
303.36	375.25
303.59	376.25
303.82	382.25
304.051	383.25
304.281	380.25
304.511	343.25
304.741	359.25
304.971	379.25
305.201	373.25
305.431	363.25
305.661	371.25
305.891	347.25
306.121	370.25
306.352	390.25
306.582	372.25
306.812	378.25
307.042	389.25
307.272	372.25
307.502	369.25
307.731	358.25
307.961	369.25
308.191	377.25
308.421	358.25
308.651	395.25
308.881	385.25
309.111	386.25
309.341	371.25
309.571	392.25
309.8	392.25
310.03	387.25
310.26	377.25
310.49	408.25
310.72	387.25
310.949	414.25
311.179	438.25
311.409	417.25
311.639	417.25
311.868	410.25
312.098	389.25
312.328	417.25
312.557	432.25
312.787	441.25
313.017	439.25
313.246	429.25
313.476	420.25
313.706	417.25
313.935	413.25
314.165	436.25
314.394	416.25
314.624	410.25
314.853	415.25
315.083	397.25
315.312	391.25
315.542	407.25
315.771	411.25
316.001	405.25
316.23	407.25
316.46	420.25
316.689	430.25
316.919	410.25
317.148	411.25
317.377	438.25
317.607	421.25
317.836	416.25
318.065	420.25
318.295	415.25
318.524	418.25
318.753	407.25
318.983	408.25
319.212	412.25
319.441	406.25
319.67	421.25
319.9	430.25
320.129	407.25
320.358	421.25
320.587	427.25
320.816	417.25
321.046	425.25
321.275	442.25
321.504	429.25
321.733	430.25
321.962	450.25
322.191	433.25
322.42	447.25
322.649	457.25
322.878	469.25
323.108	445.25
323.337	501.25
323.566	502.25
323.795	490.25
324.024	535.25
324.253	599.25
324.482	784.25
324.71	1122.25
324.939	1557.25
325.168	1425.25
325.397	789.25
325.626	591.25
325.855	529.25
326.084	501.25
326.313	491.25
326.542	505.25
326.77	530.25
326.999	568.25
327.228	725.25
327.457	1029.25
327.686	1221.25
327.914	862.25
328.143	627.25
328.372	574.25
328.6	550.25
328.829	548.25
329.058	544.25
329.287	554.25
329.515	525.25
329.744	513.25
329.972	498.25
330.201	498.25
330.43	538.25
330.658	564.25
330.887	550.25
331.115	543.25
331.344	497.25
331.572	515.25
331.801	513.25
332.03	498.25
332.258	517.25
332.486	525.25
332.715	526.25
332.943	518.25
333.172	507.25
333.4	563.25
333.629	540.25
333.857	561.25
334.085	565.25
334.314	573.25
334.542	585.25
334.771	583.25
334.999	541.25
335.227	539.25
335.455	525.25
335.684	532.25
335.912	489.25
336.14	479.25
336.369	490.25
336.597	493.25
336.825	501.25
337.053	480.25
337.281	487.25
337.51	479.25
337.738	478.25
337.966	488.25
338.194	484.25
338.422	492.25
338.65	481.25
338.878	479.25
339.106	489.25
339.334	470.25
339.562	486.25
339.79	471.25
340.018	477.25
340.246	466.25
340.474	454.25
340.702	445.25
340.93	466.25
341.158	456.25
341.386	442.25
341.614	462.25
341.842	475.25
342.07	456.25
342.298	461.25
342.526	471.25
342.754	441.25
342.981	447.25
343.209	458.25
343.437	484.25
343.665	494.25
343.893	503.25
344.12	489.25
344.348	500.25
344.576	481.25
344.804	510.25
345.031	481.25
345.259	474.25
345.487	477.25
345.714	464.25
345.942	477.25
346.17	474.25
346.397	462.25
346.625	433.25
346.853	459.25
347.08	436.25
347.308	457.25
347.535	464.25
347.763	464.25
347.99	455.25
348.218	466.25
348.445	451.25
348.673	449.25
348.9	472.25
349.128	457.25
349.355	433.25
349.583	444.25
349.81	412.25
350.037	445.25
350.265	435.25
350.492	433.25
350.72	423.25
350.947	443.25
351.174	461.25
351.402	449.25
351.629	430.25
351.856	437.25
352.083	463.25
352.311	437.25
352.538	437.25
352.765	455.25
352.992	447.25
353.22	420.25
353.447	450.25
353.674	428.25
353.901	423.25
354.128	443.25
354.355	411.25
354.583	419.25
354.81	430.25
355.037	431.25
355.264	436.25
355.491	423.25
355.718	426.25
355.945	423.25
356.172	422.25
356.399	417.25
356.626	430.25
356.853	426.25
357.08	406.25
357.307	426.25
357.534	437.25
357.761	430.25
357.988	429.25
358.215	418.25
358.441	418.25
358.668	428.25
358.895	428.25
359.122	425.25
359.349	436.25
359.576	433.25
359.802	442.25
360.029	453.25
360.256	474.25
360.483	455.25
360.709	435.25
360.936	450.25
361.163	427.25
361.39	454.25
361.616	434.25
361.843	456.25
362.07	466.25
362.296	449.25
362.523	435.25
362.749	436.25
362.976	430.25
363.203	433.25
363.429	421.25
363.656	434.25
363.882	405.25
364.109	430.25
364.335	430.25
364.562	420.25
364.788	410.25
365.015	421.25
365.241	434.25
365.468	448.25
365.694	456.25
365.92	449.25
366.147	427.25
366.373	425.25
366.599	409.25
366.826	422.25
367.052	441.25
367.278	413.25
367.505	410.25
367.731	442.25
367.957	420.25
368.184	409.25
368.41	425.25
368.636	434.25
368.862	449.25
369.089	456.25
369.315	431.25
369.541	446.25
369.767	428.25
369.993	440.25
370.219	429.25
370.445	441.25
370.672	459.25
370.898	436.25
371.124	457.25
371.35	437.25
371.576	460.25
371.802	460.25
372.028	399.25
372.254	421.25
372.48	439.25
372.706	436.25
372.932	445.25
373.158	455.25
373.384	460.25
373.61	461.25
373.835	454.25
374.061	417.25
374.287	440.25
374.513	443.25
374.739	457.25
374.965	471.25
375.191	455.25
375.416	463.25
375.642	460.25
375.868	457.25
376.094	455.25
376.319	438.25
376.545	423.25
376.771	439.25
376.997	438.25
377.222	441.25
377.448	454.25
377.674	426.25
377.899	439.25
378.125	435.25
378.35	425.25
378.576	434.25
378.802	443.25
379.027	452.25
379.253	438.25
379.478	443.25
379.704	410.25
379.929	422.25
380.155	428.25
380.38	423.25
380.606	434.25
380.831	430.25
381.057	446.25
381.282	430.25
381.507	453.25
381.733	441.25
381.958	459.25
382.184	439.25
382.409	439.25
382.634	473.25
382.86	435.25
383.085	463.25
383.31	457.25
383.535	456.25
383.761	475.25
383.986	464.25
384.211	476.25
384.436	478.25
384.662	490.25
384.887	505.25
385.112	495.25
385.337	475.25
385.562	475.25
385.787	490.25
386.013	499.25
386.238	507.25
386.463	524.25
386.688	481.25
386.913	489.25
387.138	485.25
387.363	487.25
387.588	475.25
387.813	487.25
388.038	499.25
388.263	491.25
388.488	469.25
388.713	490.25
388.938	515.25
389.163	486.25
389.387	519.25
389.612	485.25
389.837	501.25
390.062	487.25
390.287	482.25
390.512	503.25
390.736	476.25
390.961	491.25
391.186	508.25
391.411	519.25
391.636	513.25
391.86	522.25
392.085	534.25
392.31	541.25
392.534	532.25
392.759	500.25
392.984	496.25
393.208	516.25
393.433	513.25
393.658	505.25
393.882	509.25
394.107	503.25
394.331	505.25
394.556	486.25
394.78	537.25
395.005	513.25
395.229	499.25
395.454	521.25
395.678	519.25
395.903	516.25
396.127	545.25
396.352	533.25
396.576	530.25
396.801	534.25
397.025	521.25
397.249	520.25
397.474	545.25
397.698	551.25
397.922	539.25
398.147	565.25
398.371	561.25
398.595	572.25
398.82	574.25
399.044	600.25
399.268	639.25
399.492	685.25
399.717	719.25
399.941	735.25
400.165	723.25
400.389	722.25
400.613	675.25
400.837	635.25
401.062	598.25
401.286	588.25
401.51	605.25
401.734	598.25
401.958	594.25
402.182	617.25
402.406	615.25
402.63	596.25
402.854	602.25
403.078	577.25
403.302	635.25
403.526	607.25
403.75	632.25
403.974	638.25
404.198	621.25
404.422	635.25
404.645	635.25
404.869	625.25
405.093	651.25
405.317	689.25
405.541	684.25
405.765	657.25
405.988	633.25
406.212	638.25
406.436	660.25
406.66	643.25
406.883	655.25
407.107	684.25
407.331	705.25
407.555	779.25
407.778	820.25
408.002	749.25
408.226	691.25
408.449	709.25
408.673	665.25
408.896	677.25
409.12	708.25
409.344	682.25
409.567	618.25
409.791	610.25
410.014	608.25
410.238	620.25
410.461	614.25
410.685	611.25
410.908	634.25
411.132	643.25
411.355	663.25
411.578	647.25
411.802	626.25
412.025	603.25
412.249	622.25
412.472	652.25
412.695	664.25
412.919	629.25
413.142	602.25
413.365	588.25
413.589	606.25
413.812	579.25
414.035	561.25
414.258	582.25
414.482	569.25
414.705	597.25
414.928	582.25
415.151	573.25
415.374	598.25
415.597	563.25
415.821	547.25
416.044	558.25
416.267	581.25
416.49	563.25
416.713	570.25
416.936	574.25
417.159	579.25
417.382	563.25
417.605	576.25
417.828	570.25
418.051	597.25
418.274	593.25
418.497	570.25
418.72	597.25
418.943	563.25
419.166	595.25
419.389	608.25
419.611	614.25
419.834	596.25
420.057	602.25
420.28	599.25
420.503	599.25
420.726	603.25
420.948	615.25
421.171	629.25
421.394	662.25
421.617	590.25
421.839	596.25
422.062	570.25
422.285	595.25
422.507	648.25
422.73	714.25
422.953	706.25
423.175	650.25
423.398	621.25
423.621	595.25
423.843	635.25
424.066	653.25
424.288	644.25
424.511	630.25
424.733	693.25
424.956	737.25
425.178	715.25
425.401	680.25
425.623	739.25
425.846	668.25
426.068	629.25
426.291	582.25
426.513	595.25
426.735	618.25
426.958	615.25
427.18	694.25
427.402	807.25
427.625	870.25
427.847	745.25
428.069	695.25
428.292	630.25
428.514	610.25
428.736	585.25
428.958	565.25
429.181	514.25
429.403	550.25
429.625	555.25
429.847	584.25
430.069	655.25
430.292	651.25
430.514	574.25
430.736	562.25
430.958	549.25
431.18	556.25
431.402	549.25
431.624	542.25
431.846	541.25
432.068	523.25
432.29	543.25
432.512	541.25
432.734	552.25
432.956	534.25
433.178	533.25
433.4	563.25
433.622	551.25
433.844	557.25
434.066	520.25
434.287	540.25
434.509	565.25
434.731	565.25
434.953	547.25
435.175	609.25
435.397	625.25
435.618	625.25
435.84	644.25
436.062	708.25
436.284	773.25
436.505	651.25
436.727	574.25
436.949	576.25
437.17	561.25
437.392	580.25
437.614	558.25
437.835	579.25
438.057	671.25
438.278	734.25
438.5	736.25
438.721	820.25
438.943	801.25
439.165	665.25
439.386	605.25
439.608	586.25
439.829	602.25
440.05	610.25
440.272	635.25
440.493	603.25
440.715	588.25
440.936	590.25
441.158	583.25
441.379	588.25
441.6	570.25
441.822	612.25
442.043	633.25
442.264	715.25
442.486	738.25
442.707	644.25
442.928	622.25
443.149	609.25
443.371	649.25
443.592	683.25
443.813	747.25
444.034	788.25
444.255	735.25
444.476	645.25
444.698	653.25
444.919	676.25
445.14	751.25
445.361	705.25
445.582	671.25
445.803	669.25
446.024	776.25
446.245	793.25
446.466	709.25
446.687	625.25
446.908	613.25
447.129	575.25
447.35	553.25
447.571	579.25
447.792	554.25
448.013	538.25
448.234	539.25
448.455	602.25
448.675	661.25
448.896	775.25
449.117	661.25
449.338	643.25
449.559	737.25
449.779	850.25
450	685.25
450.221	599.25
450.442	544.25
450.662	528.25
450.883	537.25
451.104	539.25
451.324	538.25
451.545	525.25
451.766	531.25
451.986	490.25
452.207	491.25
452.428	489.25
452.648	494.25
452.869	474.25
453.089	492.25
453.31	505.25
453.53	505.25
453.751	500.25
453.971	506.25
454.192	511.25
454.412	509.25
454.633	470.25
454.853	482.25
455.073	487.25
455.294	509.25
455.514	537.25
455.734	539.25
455.955	486.25
456.175	474.25
456.395	475.25
456.616	478.25
456.836	454.25
457.056	457.25
457.276	463.25
457.497	485.25
457.717	480.25
457.937	481.25
458.157	480.25
458.377	501.25
458.598	504.25
458.818	531.25
459.038	600.25
459.258	621.25
459.478	557.25
459.698	545.25
459.918	549.25
460.138	546.25
460.358	542.25
460.578	557.25
460.798	581.25
461.018	563.25
461.238	554.25
461.458	566.25
461.678	570.25
461.898	571.25
462.118	592.25
462.338	585.25
462.558	612.25
462.777	633.25
462.997	661.25
463.217	684.25
463.437	694.25
463.657	652.25
463.876	645.25
464.096	656.25
464.316	617.25
464.536	635.25
464.755	633.25
464.975	612.25
465.195	623.25
465.414	640.25
465.634	590.25
465.854	572.25
466.073	549.25
466.293	532.25
466.512	529.25
466.732	531.25
466.951	511.25
467.171	524.25
467.391	519.25
467.61	521.25
467.829	531.25
468.049	510.25
468.268	505.25
468.488	510.25
468.707	501.25
468.927	503.25
469.146	506.25
469.365	506.25
469.585	511.25
469.804	516.25
470.023	523.25
470.243	515.25
470.462	537.25
470.681	540.25
470.901	552.25
471.12	527.25
471.339	525.25
471.558	506.25
471.777	522.25
471.997	527.25
472.216	498.25
472.435	522.25
472.654	509.25
472.873	494.25
473.092	508.25
473.311	514.25
473.53	515.25
473.749	535.25
473.968	569.25
474.187	613.25
474.406	648.25
474.625	551.25
474.844	499.25
475.063	501.25
475.282	521.25
475.501	514.25
475.72	515.25
475.939	525.25
476.158	516.25
476.377	530.25
476.596	526.25
476.814	559.25
477.033	551.25
477.252	505.25
477.471	555.25
477.69	556.25
477.908	559.25
478.127	574.25
478.346	574.25
478.564	589.25
478.783	600.25
479.002	589.25
479.22	605.25
479.439	610.25
479.658	611.25
479.876	631.25
480.095	659.25
480.313	645.25
480.532	676.25
480.751	649.25
480.969	634.25
481.188	670.25
481.406	683.25
481.624	652.25
481.843	620.25
482.061	622.25
482.28	594.25
482.498	602.25
482.717	601.25
482.935	591.25
483.153	587.25
483.372	597.25
483.59	577.25
483.808	597.25
484.027	592.25
484.245	602.25
484.463	592.25
484.681	607.25
484.9	619.25
485.118	610.25
485.336	630.25
485.554	631.25
485.772	616.25
485.99	608.25
486.209	633.25
486.427	627.25
486.645	622.25
486.863	634.25
487.081	651.25
487.299	627.25
487.517	619.25
487.735	621.25
487.953	627.25
488.171	623.25
488.389	622.25
488.607	649.25
488.825	630.25
489.043	631.25
489.261	625.25
489.479	625.25
489.696	638.25
489.914	655.25
490.132	643.25
490.35	675.25
490.568	670.25
490.786	671.25
491.003	649.25
491.221	704.25
491.439	690.25
491.657	731.25
491.874	723.25
492.092	728.25
492.31	716.25
492.527	733.25
492.745	740.25
492.963	711.25
493.18	730.25
493.398	718.25
493.615	756.25
493.833	736.25
494.05	751.25
494.268	728.25
494.485	746.25
494.703	743.25
494.92	763.25
495.138	745.25
495.355	755.25
495.573	760.25
495.79	723.25
496.008	753.25
496.225	736.25
496.442	752.25
496.66	786.25
496.877	781.25
497.094	761.25
497.312	782.25
497.529	779.25
497.746	811.25
497.963	826.25
498.181	843.25
498.398	852.25
498.615	853.25
498.832	907.25
499.049	953.25
499.267	985.25
499.484	1021.25
499.701	1091.25
499.918	1117.25
500.135	1225.25
500.352	1285.25
500.569	1358.25
500.786	1335.25
501.003	1333.25
501.22	1252.25
501.437	1165.25
501.654	1077.25
