Data from 1974.PennyLincolnUp.Lamp.En5.5.200Scan.071719.P1.Changed Mount._HRD10591_15-54-26-857.txt Node
Date: Thu Jul 18 15:54:26 EDT 2019
User: cochatt
Spectrometer: HR+D1059
Trigger mode: 1
Integration Time (sec): 1.000000E-1
Scans to average: 1
Electric dark correction enabled: true
Nonlinearity correction enabled: false
Boxcar width: 0
XAxis mode: Wavelengths
Number of Pixels in Spectrum: 2048
>>>>>Begin Spectral Data<<<<<
223.165	-14.5
223.4	-14.5
223.635	-14.5
223.869	-19.5
224.104	-25.5
224.338	-21.5
224.573	-1.5
224.808	-0.5
225.042	-0.5
225.277	11.5
225.511	-10.5
225.746	3.5
225.98	2.5
226.215	5.5
226.449	5.5
226.683	19.5
226.918	28.5
227.152	17.5
227.387	35.5
227.621	31.5
227.856	49.5
228.09	54.5
228.324	55.5
228.559	41.5
228.793	67.5
229.027	99.5
229.262	113.5
229.496	120.5
229.73	147.5
229.964	164.5
230.199	126.5
230.433	119.5
230.667	123.5
230.901	120.5
231.136	111.5
231.37	105.5
231.604	124.5
231.838	99.5
232.072	119.5
232.306	117.5
232.541	118.5
232.775	120.5
233.009	119.5
233.243	107.5
233.477	119.5
233.711	111.5
233.945	131.5
234.179	133.5
234.413	137.5
234.647	121.5
234.881	118.5
235.115	132.5
235.349	118.5
235.583	136.5
235.817	122.5
236.051	139.5
236.285	133.5
236.519	145.5
236.753	134.5
236.987	153.5
237.221	179.5
237.455	230.5
237.689	182.5
237.922	143.5
238.156	132.5
238.39	131.5
238.624	140.5
238.858	140.5
239.091	121.5
239.325	135.5
239.559	131.5
239.793	118.5
240.027	154.5
240.26	144.5
240.494	153.5
240.728	158.5
240.961	156.5
241.195	146.5
241.429	148.5
241.662	140.5
241.896	142.5
242.13	136.5
242.363	131.5
242.597	128.5
242.83	145.5
243.064	156.5
243.298	152.5
243.531	152.5
243.765	153.5
243.998	136.5
244.232	162.5
244.465	165.5
244.699	159.5
244.932	165.5
245.166	147.5
245.399	143.5
245.633	153.5
245.866	169.5
246.099	163.5
246.333	176.5
246.566	167.5
246.8	162.5
247.033	183.5
247.266	175.5
247.5	182.5
247.733	186.5
247.966	190.5
248.2	181.5
248.433	173.5
248.666	194.5
248.899	215.5
249.133	213.5
249.366	224.5
249.599	200.5
249.832	202.5
250.066	192.5
250.299	196.5
250.532	211.5
250.765	232.5
250.998	236.5
251.231	247.5
251.465	251.5
251.698	226.5
251.931	216.5
252.164	199.5
252.397	225.5
252.63	224.5
252.863	241.5
253.096	245.5
253.329	241.5
253.562	250.5
253.795	235.5
254.028	231.5
254.261	217.5
254.494	245.5
254.727	275.5
254.96	303.5
255.193	300.5
255.426	268.5
255.659	269.5
255.892	260.5
256.124	244.5
256.357	261.5
256.59	234.5
256.823	240.5
257.056	231.5
257.289	230.5
257.521	243.5
257.754	215.5
257.987	220.5
258.22	227.5
258.452	227.5
258.685	211.5
258.918	226.5
259.151	225.5
259.383	232.5
259.616	233.5
259.849	240.5
260.081	239.5
260.314	292.5
260.547	283.5
260.779	250.5
261.012	256.5
261.244	243.5
261.477	241.5
261.71	234.5
261.942	247.5
262.175	257.5
262.407	263.5
262.64	231.5
262.872	230.5
263.105	232.5
263.337	220.5
263.57	226.5
263.802	233.5
264.035	233.5
264.267	249.5
264.499	216.5
264.732	255.5
264.964	247.5
265.197	240.5
265.429	234.5
265.661	232.5
265.894	217.5
266.126	238.5
266.358	244.5
266.591	235.5
266.823	245.5
267.055	261.5
267.287	258.5
267.52	254.5
267.752	256.5
267.984	229.5
268.216	252.5
268.448	269.5
268.681	249.5
268.913	260.5
269.145	293.5
269.377	306.5
269.609	289.5
269.841	296.5
270.073	291.5
270.306	315.5
270.538	342.5
270.77	345.5
271.002	322.5
271.234	323.5
271.466	338.5
271.698	333.5
271.93	351.5
272.162	347.5
272.394	348.5
272.626	329.5
272.858	320.5
273.09	311.5
273.322	300.5
273.553	289.5
273.785	296.5
274.017	290.5
274.249	311.5
274.481	290.5
274.713	293.5
274.945	310.5
275.176	294.5
275.408	297.5
275.64	305.5
275.872	298.5
276.104	305.5
276.335	283.5
276.567	275.5
276.799	311.5
277.031	328.5
277.262	333.5
277.494	351.5
277.726	331.5
277.957	327.5
278.189	315.5
278.421	310.5
278.652	297.5
278.884	308.5
279.115	288.5
279.347	300.5
279.579	300.5
279.81	311.5
280.042	282.5
280.273	296.5
280.505	301.5
280.736	308.5
280.968	299.5
281.199	311.5
281.431	299.5
281.662	309.5
281.894	307.5
282.125	298.5
282.356	307.5
282.588	321.5
282.819	338.5
283.051	335.5
283.282	308.5
283.513	316.5
283.745	325.5
283.976	294.5
284.207	327.5
284.439	300.5
284.67	316.5
284.901	320.5
285.132	321.5
285.364	314.5
285.595	323.5
285.826	319.5
286.057	319.5
286.288	318.5
286.52	298.5
286.751	322.5
286.982	321.5
287.213	314.5
287.444	305.5
287.675	329.5
287.906	328.5
288.138	337.5
288.369	368.5
288.6	329.5
288.831	327.5
289.062	328.5
289.293	334.5
289.524	325.5
289.755	333.5
289.986	319.5
290.217	322.5
290.448	312.5
290.679	338.5
290.91	322.5
291.141	333.5
291.371	336.5
291.602	332.5
291.833	332.5
292.064	315.5
292.295	325.5
292.526	334.5
292.757	316.5
292.987	320.5
293.218	322.5
293.449	339.5
293.68	322.5
293.91	316.5
294.141	329.5
294.372	315.5
294.603	330.5
294.833	337.5
295.064	329.5
295.295	325.5
295.525	321.5
295.756	340.5
295.987	341.5
296.217	363.5
296.448	373.5
296.679	345.5
296.909	328.5
297.14	348.5
297.37	347.5
297.601	327.5
297.831	325.5
298.062	336.5
298.292	348.5
298.523	352.5
298.753	352.5
298.984	348.5
299.214	350.5
299.445	346.5
299.675	372.5
299.905	347.5
300.136	358.5
300.366	346.5
300.597	369.5
300.827	353.5
301.057	361.5
301.288	364.5
301.518	370.5
301.748	343.5
301.979	366.5
302.209	383.5
302.439	380.5
302.669	377.5
302.9	375.5
303.13	377.5
303.36	365.5
303.59	364.5
303.82	375.5
304.051	385.5
304.281	383.5
304.511	372.5
304.741	365.5
304.971	372.5
305.201	365.5
305.431	379.5
305.661	362.5
305.891	372.5
306.121	361.5
306.352	362.5
306.582	368.5
306.812	362.5
307.042	385.5
307.272	375.5
307.502	375.5
307.731	376.5
307.961	375.5
308.191	379.5
308.421	383.5
308.651	380.5
308.881	371.5
309.111	361.5
309.341	377.5
309.571	403.5
309.8	388.5
310.03	421.5
310.26	406.5
310.49	415.5
310.72	417.5
310.949	438.5
311.179	423.5
311.409	411.5
311.639	420.5
311.868	420.5
312.098	421.5
312.328	436.5
312.557	423.5
312.787	436.5
313.017	424.5
313.246	441.5
313.476	410.5
313.706	413.5
313.935	435.5
314.165	440.5
314.394	451.5
314.624	436.5
314.853	431.5
315.083	413.5
315.312	402.5
315.542	404.5
315.771	422.5
316.001	418.5
316.23	412.5
316.46	420.5
316.689	427.5
316.919	426.5
317.148	438.5
317.377	444.5
317.607	428.5
317.836	407.5
318.065	415.5
318.295	402.5
318.524	410.5
318.753	403.5
318.983	420.5
319.212	412.5
319.441	423.5
319.67	434.5
319.9	429.5
320.129	432.5
320.358	407.5
320.587	407.5
320.816	444.5
321.046	436.5
321.275	431.5
321.504	431.5
321.733	443.5
321.962	447.5
322.191	461.5
322.42	473.5
322.649	481.5
322.878	472.5
323.108	487.5
323.337	499.5
323.566	508.5
323.795	532.5
324.024	576.5
324.253	637.5
324.482	897.5
324.71	1376.5
324.939	2055.5
325.168	1804.5
325.397	933.5
325.626	633.5
325.855	547.5
326.084	524.5
326.313	525.5
326.542	537.5
326.77	577.5
326.999	634.5
327.228	853.5
327.457	1259.5
327.686	1591.5
327.914	1050.5
328.143	735.5
328.372	651.5
328.6	606.5
328.829	561.5
329.058	584.5
329.287	593.5
329.515	550.5
329.744	545.5
329.972	542.5
330.201	553.5
330.43	592.5
330.658	609.5
330.887	636.5
331.115	610.5
331.344	551.5
331.572	519.5
331.801	521.5
332.03	505.5
332.258	531.5
332.486	532.5
332.715	516.5
332.943	490.5
333.172	516.5
333.4	524.5
333.629	552.5
333.857	533.5
334.085	569.5
334.314	563.5
334.542	593.5
334.771	591.5
334.999	554.5
335.227	535.5
335.455	522.5
335.684	546.5
335.912	531.5
336.14	526.5
336.369	498.5
336.597	513.5
336.825	504.5
337.053	490.5
337.281	497.5
337.51	504.5
337.738	509.5
337.966	479.5
338.194	489.5
338.422	501.5
338.65	484.5
338.878	487.5
339.106	493.5
339.334	476.5
339.562	487.5
339.79	472.5
340.018	471.5
340.246	492.5
340.474	484.5
340.702	475.5
340.93	487.5
341.158	470.5
341.386	497.5
341.614	502.5
341.842	497.5
342.07	471.5
342.298	463.5
342.526	478.5
342.754	467.5
342.981	455.5
343.209	481.5
343.437	503.5
343.665	497.5
343.893	513.5
344.12	504.5
344.348	514.5
344.576	495.5
344.804	499.5
345.031	509.5
345.259	499.5
345.487	503.5
345.714	486.5
345.942	479.5
346.17	473.5
346.397	476.5
346.625	482.5
346.853	465.5
347.08	451.5
347.308	457.5
347.535	467.5
347.763	479.5
347.99	456.5
348.218	478.5
348.445	474.5
348.673	480.5
348.9	472.5
349.128	479.5
349.355	447.5
349.583	444.5
349.81	465.5
350.037	467.5
350.265	484.5
350.492	461.5
350.72	475.5
350.947	460.5
351.174	463.5
351.402	487.5
351.629	479.5
351.856	476.5
352.083	471.5
352.311	486.5
352.538	462.5
352.765	468.5
352.992	460.5
353.22	461.5
353.447	482.5
353.674	448.5
353.901	450.5
354.128	459.5
354.355	440.5
354.583	463.5
354.81	461.5
355.037	438.5
355.264	423.5
355.491	445.5
355.718	426.5
355.945	465.5
356.172	435.5
356.399	433.5
356.626	431.5
356.853	427.5
357.08	439.5
357.307	453.5
357.534	451.5
357.761	447.5
357.988	462.5
358.215	449.5
358.441	452.5
358.668	463.5
358.895	458.5
359.122	433.5
359.349	450.5
359.576	457.5
359.802	499.5
360.029	516.5
360.256	529.5
360.483	510.5
360.709	470.5
360.936	471.5
361.163	485.5
361.39	460.5
361.616	474.5
361.843	471.5
362.07	482.5
362.296	481.5
362.523	501.5
362.749	475.5
362.976	482.5
363.203	450.5
363.429	477.5
363.656	474.5
363.882	485.5
364.109	451.5
364.335	471.5
364.562	450.5
364.788	462.5
365.015	467.5
365.241	451.5
365.468	447.5
365.694	465.5
365.92	459.5
366.147	447.5
366.373	460.5
366.599	486.5
366.826	455.5
367.052	450.5
367.278	455.5
367.505	454.5
367.731	472.5
367.957	460.5
368.184	458.5
368.41	465.5
368.636	470.5
368.862	473.5
369.089	476.5
369.315	437.5
369.541	460.5
369.767	475.5
369.993	455.5
370.219	477.5
370.445	452.5
370.672	458.5
370.898	449.5
371.124	464.5
371.35	457.5
371.576	486.5
371.802	477.5
372.028	468.5
372.254	452.5
372.48	467.5
372.706	478.5
372.932	488.5
373.158	464.5
373.384	470.5
373.61	472.5
373.835	469.5
374.061	457.5
374.287	484.5
374.513	489.5
374.739	459.5
374.965	498.5
375.191	499.5
375.416	504.5
375.642	489.5
375.868	475.5
376.094	463.5
376.319	467.5
376.545	456.5
376.771	492.5
376.997	493.5
377.222	444.5
377.448	465.5
377.674	469.5
377.899	474.5
378.125	459.5
378.35	461.5
378.576	470.5
378.802	467.5
379.027	465.5
379.253	478.5
379.478	446.5
379.704	469.5
379.929	464.5
380.155	471.5
380.38	465.5
380.606	458.5
380.831	463.5
381.057	493.5
381.282	480.5
381.507	453.5
381.733	465.5
381.958	481.5
382.184	475.5
382.409	492.5
382.634	509.5
382.86	501.5
383.085	476.5
383.31	503.5
383.535	498.5
383.761	497.5
383.986	491.5
384.211	515.5
384.436	521.5
384.662	511.5
384.887	515.5
385.112	519.5
385.337	531.5
385.562	535.5
385.787	534.5
386.013	534.5
386.238	541.5
386.463	538.5
386.688	543.5
386.913	540.5
387.138	524.5
387.363	516.5
387.588	537.5
387.813	527.5
388.038	538.5
388.263	533.5
388.488	523.5
388.713	528.5
388.938	534.5
389.163	518.5
389.387	514.5
389.612	519.5
389.837	517.5
390.062	532.5
390.287	532.5
390.512	548.5
390.736	541.5
390.961	544.5
391.186	538.5
391.411	561.5
391.636	556.5
391.86	569.5
392.085	535.5
392.31	547.5
392.534	552.5
392.759	567.5
392.984	541.5
393.208	525.5
393.433	539.5
393.658	546.5
393.882	552.5
394.107	532.5
394.331	531.5
394.556	555.5
394.78	519.5
395.005	537.5
395.229	563.5
395.454	559.5
395.678	563.5
395.903	576.5
396.127	583.5
396.352	567.5
396.576	547.5
396.801	535.5
397.025	543.5
397.249	550.5
397.474	555.5
397.698	582.5
397.922	586.5
398.147	612.5
398.371	605.5
398.595	608.5
398.82	617.5
399.044	617.5
399.268	642.5
399.492	709.5
399.717	718.5
399.941	786.5
400.165	763.5
400.389	771.5
400.613	701.5
400.837	652.5
401.062	629.5
401.286	639.5
401.51	624.5
401.734	619.5
401.958	643.5
402.182	631.5
402.406	635.5
402.63	648.5
402.854	631.5
403.078	642.5
403.302	639.5
403.526	634.5
403.75	645.5
403.974	657.5
404.198	641.5
404.422	670.5
404.645	659.5
404.869	670.5
405.093	699.5
405.317	727.5
405.541	759.5
405.765	717.5
405.988	668.5
406.212	677.5
406.436	703.5
406.66	730.5
406.883	688.5
407.107	715.5
407.331	771.5
407.555	837.5
407.778	839.5
408.002	787.5
408.226	733.5
408.449	721.5
408.673	723.5
408.896	759.5
409.12	740.5
409.344	748.5
409.567	688.5
409.791	680.5
410.014	649.5
410.238	646.5
410.461	666.5
410.685	651.5
410.908	664.5
411.132	694.5
411.355	729.5
411.578	694.5
411.802	653.5
412.025	645.5
412.249	620.5
412.472	671.5
412.695	713.5
412.919	691.5
413.142	659.5
413.365	635.5
413.589	629.5
413.812	623.5
414.035	621.5
414.258	612.5
414.482	623.5
414.705	590.5
414.928	625.5
415.151	601.5
415.374	603.5
415.597	606.5
415.821	604.5
416.044	603.5
416.267	604.5
416.49	616.5
416.713	592.5
416.936	582.5
417.159	589.5
417.382	602.5
417.605	618.5
417.828	613.5
418.051	650.5
418.274	645.5
418.497	612.5
418.72	619.5
418.943	590.5
419.166	649.5
419.389	656.5
419.611	668.5
419.834	670.5
420.057	645.5
420.28	640.5
420.503	628.5
420.726	604.5
420.948	647.5
421.171	669.5
421.394	738.5
421.617	655.5
421.839	639.5
422.062	632.5
422.285	650.5
422.507	706.5
422.73	789.5
422.953	759.5
423.175	701.5
423.398	661.5
423.621	646.5
423.843	665.5
424.066	677.5
424.288	679.5
424.511	695.5
424.733	754.5
424.956	832.5
425.178	807.5
425.401	795.5
425.623	838.5
425.846	709.5
426.068	670.5
426.291	667.5
426.513	636.5
426.735	666.5
426.958	709.5
427.18	822.5
427.402	955.5
427.625	1055.5
427.847	865.5
428.069	771.5
428.292	698.5
428.514	647.5
428.736	644.5
428.958	635.5
429.181	629.5
429.403	602.5
429.625	629.5
429.847	661.5
430.069	712.5
430.292	697.5
430.514	631.5
430.736	636.5
430.958	588.5
431.18	612.5
431.402	583.5
431.624	586.5
431.846	592.5
432.068	603.5
432.29	592.5
432.512	575.5
432.734	620.5
432.956	614.5
433.178	613.5
433.4	616.5
433.622	580.5
433.844	588.5
434.066	605.5
434.287	592.5
434.509	608.5
434.731	635.5
434.953	616.5
435.175	627.5
435.397	673.5
435.618	664.5
435.84	738.5
436.062	805.5
436.284	886.5
436.505	749.5
436.727	675.5
436.949	653.5
437.17	605.5
437.392	613.5
437.614	616.5
437.835	658.5
438.057	728.5
438.278	882.5
438.5	876.5
438.721	975.5
438.943	941.5
439.165	735.5
439.386	678.5
439.608	677.5
439.829	664.5
440.05	680.5
440.272	730.5
440.493	708.5
440.715	629.5
440.936	632.5
441.158	615.5
441.379	627.5
441.6	661.5
441.822	678.5
442.043	710.5
442.264	818.5
442.486	858.5
442.707	757.5
442.928	711.5
443.149	698.5
443.371	709.5
443.592	755.5
443.813	863.5
444.034	943.5
444.255	793.5
444.476	708.5
444.698	712.5
444.919	686.5
445.14	793.5
445.361	748.5
445.582	720.5
445.803	759.5
446.024	872.5
446.245	890.5
446.466	839.5
446.687	710.5
446.908	670.5
447.129	627.5
447.35	631.5
447.571	633.5
447.792	596.5
448.013	595.5
448.234	605.5
448.455	679.5
448.675	787.5
448.896	909.5
449.117	793.5
449.338	746.5
449.559	870.5
449.779	995.5
450	811.5
450.221	659.5
450.442	641.5
450.662	619.5
450.883	611.5
451.104	604.5
451.324	587.5
451.545	587.5
451.766	559.5
451.986	549.5
452.207	548.5
452.428	535.5
452.648	552.5
452.869	535.5
453.089	567.5
453.31	565.5
453.53	559.5
453.751	545.5
453.971	552.5
454.192	566.5
454.412	561.5
454.633	550.5
454.853	534.5
455.073	525.5
455.294	560.5
455.514	633.5
455.734	621.5
455.955	557.5
456.175	520.5
456.395	525.5
456.616	529.5
456.836	509.5
457.056	524.5
457.276	519.5
457.497	535.5
457.717	511.5
457.937	520.5
458.157	533.5
458.377	531.5
458.598	545.5
458.818	616.5
459.038	656.5
459.258	695.5
459.478	636.5
459.698	602.5
459.918	589.5
460.138	592.5
460.358	577.5
460.578	596.5
460.798	589.5
461.018	626.5
461.238	617.5
461.458	603.5
461.678	594.5
461.898	628.5
462.118	612.5
462.338	635.5
462.558	617.5
462.777	655.5
462.997	671.5
463.217	673.5
463.437	705.5
463.657	679.5
463.876	663.5
464.096	641.5
464.316	667.5
464.536	673.5
464.755	663.5
464.975	665.5
465.195	678.5
465.414	724.5
465.634	698.5
465.854	628.5
466.073	603.5
466.293	580.5
466.512	555.5
466.732	569.5
466.951	571.5
467.171	561.5
467.391	566.5
467.61	571.5
467.829	593.5
468.049	570.5
468.268	582.5
468.488	568.5
468.707	543.5
468.927	543.5
469.146	530.5
469.365	554.5
469.585	556.5
469.804	565.5
470.023	559.5
470.243	588.5
470.462	599.5
470.681	611.5
470.901	603.5
471.12	593.5
471.339	572.5
471.558	570.5
471.777	589.5
471.997	568.5
472.216	584.5
472.435	599.5
472.654	579.5
472.873	572.5
473.092	573.5
473.311	579.5
473.53	582.5
473.749	580.5
473.968	583.5
474.187	716.5
474.406	766.5
474.625	646.5
474.844	548.5
475.063	545.5
475.282	552.5
475.501	562.5
475.72	608.5
475.939	579.5
476.158	577.5
476.377	578.5
476.596	586.5
476.814	620.5
477.033	615.5
477.252	591.5
477.471	608.5
477.69	620.5
477.908	625.5
478.127	631.5
478.346	642.5
478.564	676.5
478.783	649.5
479.002	653.5
479.22	673.5
479.439	674.5
479.658	673.5
479.876	677.5
480.095	673.5
480.313	724.5
480.532	713.5
480.751	738.5
480.969	716.5
481.188	756.5
481.406	778.5
481.624	714.5
481.843	693.5
482.061	669.5
482.28	674.5
482.498	692.5
482.717	668.5
482.935	684.5
483.153	661.5
483.372	694.5
483.59	682.5
483.808	689.5
484.027	676.5
484.245	671.5
484.463	659.5
484.681	688.5
484.9	687.5
485.118	707.5
485.336	708.5
485.554	717.5
485.772	698.5
485.99	691.5
486.209	682.5
486.427	696.5
486.645	692.5
486.863	710.5
487.081	707.5
487.299	685.5
487.517	716.5
487.735	719.5
487.953	729.5
488.171	735.5
488.389	714.5
488.607	699.5
488.825	734.5
489.043	714.5
489.261	731.5
489.479	732.5
489.696	746.5
489.914	751.5
490.132	725.5
490.35	777.5
490.568	757.5
490.786	757.5
491.003	795.5
491.221	808.5
491.439	811.5
491.657	818.5
491.874	835.5
492.092	829.5
492.31	819.5
492.527	841.5
492.745	850.5
492.963	832.5
493.18	872.5
493.398	855.5
493.615	855.5
493.833	866.5
494.05	857.5
494.268	860.5
494.485	855.5
494.703	829.5
494.92	839.5
495.138	864.5
495.355	844.5
495.573	880.5
495.79	869.5
496.008	878.5
496.225	856.5
496.442	852.5
496.66	877.5
496.877	891.5
497.094	874.5
497.312	889.5
497.529	895.5
497.746	910.5
497.963	915.5
498.181	976.5
498.398	947.5
498.615	953.5
498.832	999.5
499.049	1015.5
499.267	1071.5
499.484	1094.5
499.701	1156.5
499.918	1234.5
500.135	1304.5
500.352	1377.5
500.569	1391.5
500.786	1373.5
501.003	1343.5
501.22	1287.5
501.437	1233.5
501.654	1186.5
501.871	1154.5
502.088	1111.5
502.305	1047.5
502.522	989.5
502.739	980.5
502.956	971.5
503.172	940.5
503.389	883.5
503.606	900.5
503.823	890.5
504.04	907.5
504.256	882.5
504.473	872.5
504.69	876.5
504.907	848.5
505.123	865.5
505.34	815.5
505.557	841.5
505.773	820.5
505.99	824.5
506.207	833.5
506.423	831.5
506.64	797.5
506.856	810.5
507.073	809.5
507.289	786.5
507.506	772.5
507.722	807.5
507.939	794.5
508.155	756.5
508.372	785.5
508.588	769.5
508.805	753.5
509.021	748.5
509.238	759.5
509.454	771.5
509.67	781.5
509.887	770.5
510.103	730.5
510.319	757.5
510.536	816.5
510.752	1206.5
510.968	1010.5
511.184	768.5
511.401	736.5
511.617	723.5
511.833	712.5
512.049	710.5
512.265	712.5
512.481	702.5
512.698	685.5
512.914	705.5
513.13	687.5
513.346	695.5
513.562	714.5
513.778	692.5
513.994	674.5
514.21	715.5
514.426	735.5
514.642	764.5
514.858	753.5
515.074	807.5
515.29	928.5
515.506	1210.5
515.721	1038.5
515.937	789.5
516.153	757.5
516.369	758.5
516.585	733.5
516.801	751.5
517.016	772.5
517.232	759.5
517.448	776.5
517.664	792.5
517.879	756.5
518.095	763.5
518.311	755.5
518.527	757.5
518.742	772.5
518.958	748.5
519.173	744.5
519.389	743.5
